Data from Fe(NO3)3@0.0125M.TitratingCurve.Agarose3%dH2O.NegLispCup.LampEnergy10.LIBS07252019_HRD10591_17-01-33-337.txt Node
Date: Thu Jul 25 17:01:33 EDT 2019
User: cochatt
Spectrometer: HR+D1059
Trigger mode: 1
Integration Time (sec): 1.000000E-1
Scans to average: 1
Electric dark correction enabled: true
Nonlinearity correction enabled: false
Boxcar width: 0
XAxis mode: Wavelengths
Number of Pixels in Spectrum: 2048
>>>>>Begin Spectral Data<<<<<
223.165	-10
223.4	-10
223.635	-10
223.869	-5
224.104	-20
224.338	-23
224.573	-15
224.808	-20
225.042	-20
225.277	-12
225.511	-7
225.746	20
225.98	0
226.215	3
226.449	12
226.683	21
226.918	38
227.152	38
227.387	32
227.621	41
227.856	31
228.09	48
228.324	24
228.559	44
228.793	62
229.027	66
229.262	91
229.496	75
229.73	70
229.964	83
230.199	89
230.433	76
230.667	95
230.901	97
231.136	85
231.37	88
231.604	98
231.838	100
232.072	86
232.306	87
232.541	84
232.775	92
233.009	100
233.243	91
233.477	104
233.711	104
233.945	96
234.179	91
234.413	101
234.647	97
234.881	103
235.115	95
235.349	90
235.583	98
235.817	96
236.051	98
236.285	88
236.519	103
236.753	105
236.987	94
237.221	87
237.455	101
237.689	97
237.922	98
238.156	114
238.39	82
238.624	101
238.858	98
239.091	99
239.325	100
239.559	103
239.793	119
240.027	100
240.26	87
240.494	108
240.728	103
240.961	91
241.195	111
241.429	112
241.662	104
241.896	102
242.13	103
242.363	94
242.597	101
242.83	90
243.064	97
243.298	120
243.531	120
243.765	111
243.998	120
244.232	128
244.465	106
244.699	112
244.932	114
245.166	111
245.399	110
245.633	101
245.866	103
246.099	106
246.333	121
246.566	106
246.8	102
247.033	124
247.266	112
247.5	114
247.733	108
247.966	110
248.2	130
248.433	124
248.666	111
248.899	107
249.133	120
249.366	124
249.599	130
249.832	123
250.066	114
250.299	106
250.532	126
250.765	119
250.998	121
251.231	114
251.465	123
251.698	139
251.931	139
252.164	136
252.397	131
252.63	127
252.863	128
253.096	118
253.329	128
253.562	131
253.795	127
254.028	130
254.261	143
254.494	148
254.727	116
254.96	140
255.193	127
255.426	130
255.659	152
255.892	147
256.124	138
256.357	138
256.59	130
256.823	142
257.056	142
257.289	138
257.521	138
257.754	131
257.987	135
258.22	130
258.452	139
258.685	132
258.918	136
259.151	145
259.383	132
259.616	146
259.849	146
260.081	138
260.314	147
260.547	145
260.779	140
261.012	129
261.244	140
261.477	145
261.71	150
261.942	148
262.175	170
262.407	158
262.64	148
262.872	146
263.105	169
263.337	149
263.57	154
263.802	157
264.035	152
264.267	150
264.499	148
264.732	164
264.964	156
265.197	141
265.429	166
265.661	140
265.894	147
266.126	160
266.358	143
266.591	152
266.823	153
267.055	158
267.287	146
267.52	147
267.752	160
267.984	160
268.216	164
268.448	159
268.681	153
268.913	166
269.145	171
269.377	152
269.609	174
269.841	156
270.073	148
270.306	161
270.538	150
270.77	170
271.002	172
271.234	184
271.466	159
271.698	174
271.93	158
272.162	177
272.394	174
272.626	162
272.858	157
273.09	181
273.322	172
273.553	164
273.785	175
274.017	186
274.249	186
274.481	190
274.713	195
274.945	185
275.176	201
275.408	186
275.64	177
275.872	186
276.104	177
276.335	173
276.567	187
276.799	187
277.031	192
277.262	192
277.494	188
277.726	187
277.957	194
278.189	195
278.421	191
278.652	180
278.884	179
279.115	182
279.347	213
279.579	187
279.81	188
280.042	179
280.273	194
280.505	180
280.736	200
280.968	184
281.199	184
281.431	192
281.662	193
281.894	191
282.125	188
282.356	194
282.588	188
282.819	195
283.051	208
283.282	201
283.513	187
283.745	200
283.976	202
284.207	221
284.439	201
284.67	190
284.901	190
285.132	196
285.364	202
285.595	192
285.826	190
286.057	195
286.288	207
286.52	209
286.751	200
286.982	204
287.213	206
287.444	211
287.675	206
287.906	204
288.138	220
288.369	204
288.6	221
288.831	219
289.062	224
289.293	232
289.524	223
289.755	220
289.986	209
290.217	214
290.448	206
290.679	220
290.91	212
291.141	219
291.371	206
291.602	217
291.833	212
292.064	214
292.295	214
292.526	222
292.757	210
292.987	228
293.218	218
293.449	224
293.68	224
293.91	232
294.141	210
294.372	204
294.603	204
294.833	211
295.064	204
295.295	204
295.525	229
295.756	213
295.987	222
296.217	222
296.448	226
296.679	227
296.909	238
297.14	215
297.37	224
297.601	229
297.831	235
298.062	243
298.292	235
298.523	226
298.753	240
298.984	243
299.214	249
299.445	228
299.675	236
299.905	227
300.136	260
300.366	238
300.597	256
300.827	242
301.057	242
301.288	243
301.518	220
301.748	234
301.979	243
302.209	248
302.439	250
302.669	249
302.9	244
303.13	246
303.36	230
303.59	256
303.82	244
304.051	257
304.281	257
304.511	250
304.741	241
304.971	248
305.201	239
305.431	248
305.661	256
305.891	247
306.121	262
306.352	265
306.582	259
306.812	259
307.042	244
307.272	266
307.502	250
307.731	272
307.961	244
308.191	239
308.421	250
308.651	254
308.881	261
309.111	260
309.341	238
309.571	260
309.8	240
310.03	252
310.26	267
310.49	261
310.72	259
310.949	269
311.179	272
311.409	265
311.639	272
311.868	276
312.098	254
312.328	278
312.557	268
312.787	262
313.017	264
313.246	268
313.476	280
313.706	276
313.935	261
314.165	282
314.394	270
314.624	280
314.853	268
315.083	269
315.312	266
315.542	270
315.771	267
316.001	267
316.23	289
316.46	296
316.689	282
316.919	263
317.148	276
317.377	292
317.607	275
317.836	269
318.065	268
318.295	276
318.524	293
318.753	294
318.983	293
319.212	280
319.441	271
319.67	311
319.9	275
320.129	269
320.358	275
320.587	273
320.816	288
321.046	299
321.275	300
321.504	294
321.733	284
321.962	296
322.191	294
322.42	281
322.649	280
322.878	283
323.108	288
323.337	307
323.566	298
323.795	310
324.024	291
324.253	291
324.482	302
324.71	278
324.939	312
325.168	315
325.397	299
325.626	293
325.855	292
326.084	298
326.313	311
326.542	284
326.77	313
326.999	304
327.228	329
327.457	306
327.686	297
327.914	312
328.143	318
328.372	315
328.6	299
328.829	286
329.058	304
329.287	304
329.515	311
329.744	327
329.972	318
330.201	323
330.43	310
330.658	307
330.887	325
331.115	320
331.344	319
331.572	306
331.801	322
332.03	316
332.258	328
332.486	324
332.715	338
332.943	353
333.172	326
333.4	328
333.629	341
333.857	320
334.085	351
334.314	358
334.542	333
334.771	341
334.999	343
335.227	375
335.455	344
335.684	372
335.912	363
336.14	352
336.369	363
336.597	355
336.825	333
337.053	350
337.281	329
337.51	337
337.738	340
337.966	332
338.194	334
338.422	325
338.65	331
338.878	328
339.106	329
339.334	323
339.562	326
339.79	335
340.018	340
340.246	333
340.474	348
340.702	338
340.93	337
341.158	339
341.386	313
341.614	318
341.842	329
342.07	319
342.298	338
342.526	326
342.754	339
342.981	342
343.209	339
343.437	328
343.665	346
343.893	369
344.12	347
344.348	343
344.576	329
344.804	348
345.031	335
345.259	341
345.487	328
345.714	344
345.942	323
346.17	337
346.397	321
346.625	336
346.853	326
347.08	328
347.308	322
347.535	336
347.763	316
347.99	328
348.218	311
348.445	316
348.673	324
348.9	343
349.128	317
349.355	315
349.583	319
349.81	318
350.037	327
350.265	308
350.492	332
350.72	324
350.947	328
351.174	316
351.402	310
351.629	307
351.856	313
352.083	317
352.311	314
352.538	320
352.765	303
352.992	306
353.22	322
353.447	332
353.674	318
353.901	324
354.128	308
354.355	321
354.583	323
354.81	310
355.037	312
355.264	335
355.491	312
355.718	318
355.945	331
356.172	333
356.399	322
356.626	335
356.853	318
357.08	327
357.307	356
357.534	332
357.761	306
357.988	337
358.215	323
358.441	326
358.668	327
358.895	319
359.122	327
359.349	322
359.576	315
359.802	323
360.029	334
360.256	352
360.483	340
360.709	336
360.936	332
361.163	327
361.39	308
361.616	333
361.843	319
362.07	339
362.296	301
362.523	334
362.749	345
362.976	340
363.203	336
363.429	317
363.656	334
363.882	338
364.109	328
364.335	332
364.562	318
364.788	345
365.015	324
365.241	308
365.468	335
365.694	355
365.92	318
366.147	314
366.373	318
366.599	340
366.826	324
367.052	343
367.278	329
367.505	343
367.731	339
367.957	332
368.184	350
368.41	326
368.636	340
368.862	357
369.089	327
369.315	354
369.541	351
369.767	338
369.993	352
370.219	349
370.445	351
370.672	347
370.898	347
371.124	362
371.35	349
371.576	352
371.802	337
372.028	356
372.254	382
372.48	350
372.706	357
372.932	362
373.158	357
373.384	361
373.61	355
373.835	367
374.061	350
374.287	361
374.513	350
374.739	348
374.965	345
375.191	360
375.416	375
375.642	349
375.868	359
376.094	362
376.319	366
376.545	362
376.771	337
376.997	362
377.222	363
377.448	357
377.674	376
377.899	377
378.125	366
378.35	348
378.576	351
378.802	366
379.027	363
379.253	346
379.478	353
379.704	332
379.929	361
380.155	368
380.38	357
380.606	362
380.831	358
381.057	358
381.282	341
381.507	358
381.733	375
381.958	360
382.184	366
382.409	362
382.634	383
382.86	385
383.085	371
383.31	363
383.535	385
383.761	358
383.986	368
384.211	369
384.436	372
384.662	391
384.887	382
385.112	371
385.337	373
385.562	386
385.787	395
386.013	407
386.238	412
386.463	397
386.688	384
386.913	397
387.138	390
387.363	383
387.588	408
387.813	376
388.038	400
388.263	392
388.488	392
388.713	383
388.938	416
389.163	399
389.387	404
389.612	377
389.837	391
390.062	412
390.287	389
390.512	414
390.736	389
390.961	402
391.186	391
391.411	414
391.636	427
391.86	416
392.085	424
392.31	403
392.534	409
392.759	423
392.984	425
393.208	434
393.433	453
393.658	406
393.882	411
394.107	394
394.331	404
394.556	415
394.78	427
395.005	440
395.229	419
395.454	412
395.678	423
395.903	424
396.127	464
396.352	444
396.576	396
396.801	429
397.025	445
397.249	439
397.474	434
397.698	420
397.922	467
398.147	437
398.371	459
398.595	468
398.82	473
399.044	480
399.268	500
399.492	531
399.717	533
399.941	540
400.165	539
400.389	519
400.613	496
400.837	492
401.062	480
401.286	480
401.51	483
401.734	474
401.958	466
402.182	470
402.406	473
402.63	465
402.854	468
403.078	506
403.302	479
403.526	470
403.75	486
403.974	465
404.198	470
404.422	479
404.645	470
404.869	479
405.093	475
405.317	466
405.541	459
405.765	474
405.988	468
406.212	491
406.436	498
406.66	495
406.883	498
407.107	515
407.331	524
407.555	530
407.778	530
408.002	533
408.226	525
408.449	499
408.673	521
408.896	496
409.12	494
409.344	502
409.567	499
409.791	499
410.014	484
410.238	497
410.461	495
410.685	495
410.908	455
411.132	475
411.355	466
411.578	482
411.802	495
412.025	488
412.249	483
412.472	472
412.695	483
412.919	480
413.142	476
413.365	488
413.589	473
413.812	487
414.035	466
414.258	463
414.482	482
414.705	450
414.928	486
415.151	460
415.374	490
415.597	454
415.821	472
416.044	444
416.267	460
416.49	454
416.713	456
416.936	464
417.159	441
417.382	456
417.605	435
417.828	440
418.051	463
418.274	464
418.497	443
418.72	436
418.943	451
419.166	460
419.389	488
419.611	480
419.834	457
420.057	479
420.28	449
420.503	446
420.726	442
420.948	444
421.171	450
421.394	439
421.617	431
421.839	448
422.062	440
422.285	433
422.507	459
422.73	436
422.953	435
423.175	443
423.398	434
423.621	446
423.843	445
424.066	443
424.288	446
424.511	418
424.733	445
424.956	427
425.178	431
425.401	463
425.623	430
425.846	434
426.068	436
426.291	431
426.513	442
426.735	452
426.958	422
427.18	430
427.402	436
427.625	437
427.847	420
428.069	430
428.292	433
428.514	444
428.736	435
428.958	416
429.181	416
429.403	416
429.625	412
429.847	418
430.069	433
430.292	429
430.514	431
430.736	417
430.958	428
431.18	437
431.402	419
431.624	419
431.846	443
432.068	431
432.29	417
432.512	419
432.734	427
432.956	424
433.178	435
433.4	450
433.622	449
433.844	438
434.066	414
434.287	444
434.509	438
434.731	450
434.953	442
435.175	444
435.397	454
435.618	442
435.84	441
436.062	415
436.284	426
436.505	432
436.727	432
436.949	431
437.17	420
437.392	423
437.614	415
437.835	401
438.057	410
438.278	407
438.5	401
438.721	416
438.943	427
439.165	407
439.386	430
439.608	394
439.829	416
440.05	421
440.272	421
440.493	426
440.715	443
440.936	418
441.158	436
441.379	422
441.6	453
441.822	453
442.043	418
442.264	434
442.486	417
442.707	436
442.928	452
443.149	433
443.371	431
443.592	442
443.813	415
444.034	426
444.255	445
444.476	458
444.698	445
444.919	463
445.14	516
445.361	470
445.582	434
445.803	444
446.024	399
446.245	426
446.466	426
446.687	434
446.908	416
447.129	414
447.35	423
447.571	406
447.792	384
448.013	403
448.234	399
448.455	383
448.675	384
448.896	386
449.117	404
449.338	384
449.559	397
449.779	366
450	410
450.221	381
450.442	390
450.662	372
450.883	382
451.104	376
451.324	390
451.545	399
451.766	397
451.986	396
452.207	380
452.428	384
452.648	392
452.869	385
453.089	361
453.31	377
453.53	376
453.751	384
453.971	404
454.192	405
454.412	379
454.633	382
454.853	380
455.073	371
455.294	371
455.514	391
455.734	376
455.955	354
456.175	374
456.395	381
456.616	384
456.836	381
457.056	371
457.276	359
457.497	388
457.717	386
457.937	396
458.157	383
458.377	399
458.598	385
458.818	404
459.038	417
459.258	423
459.478	425
459.698	416
459.918	434
460.138	415
460.358	449
460.578	438
460.798	451
461.018	430
461.238	450
461.458	471
461.678	451
461.898	476
462.118	467
462.338	465
462.558	473
462.777	475
462.997	491
463.217	488
463.437	499
463.657	508
463.876	485
464.096	505
464.316	488
464.536	491
464.755	464
464.975	465
465.195	437
465.414	465
465.634	451
465.854	459
466.073	441
466.293	434
466.512	426
466.732	422
466.951	415
467.171	396
467.391	418
467.61	428
467.829	417
468.049	410
468.268	424
468.488	414
468.707	421
468.927	407
469.146	391
469.365	395
469.585	414
469.804	411
470.023	413
470.243	415
470.462	406
470.681	438
470.901	415
471.12	414
471.339	439
471.558	430
471.777	407
471.997	416
472.216	422
472.435	396
472.654	421
472.873	410
473.092	405
473.311	431
473.53	400
473.749	417
473.968	438
474.187	415
474.406	413
474.625	402
474.844	420
475.063	414
475.282	408
475.501	433
475.72	446
475.939	432
476.158	463
476.377	459
476.596	430
476.814	437
477.033	430
477.252	465
477.471	451
477.69	454
477.908	444
478.127	467
478.346	452
478.564	480
478.783	473
479.002	476
479.22	473
479.439	488
479.658	486
479.876	471
480.095	476
480.313	503
480.532	500
480.751	507
480.969	496
481.188	485
481.406	500
481.624	492
481.843	475
482.061	502
482.28	470
482.498	489
482.717	492
482.935	491
483.153	499
483.372	496
483.59	509
483.808	499
484.027	495
484.245	494
484.463	494
484.681	518
484.9	526
485.118	519
485.336	509
485.554	513
485.772	531
485.99	525
486.209	505
486.427	506
486.645	518
486.863	516
487.081	527
487.299	517
487.517	510
487.735	522
487.953	527
488.171	516
488.389	509
488.607	501
488.825	496
489.043	518
489.261	516
489.479	499
489.696	499
489.914	519
490.132	523
490.35	485
490.568	487
490.786	495
491.003	537
491.221	529
491.439	515
491.657	494
491.874	546
492.092	535
492.31	532
492.527	521
492.745	517
492.963	511
493.18	504
493.398	529
493.615	539
493.833	536
494.05	526
494.268	532
494.485	535
494.703	543
494.92	535
495.138	532
495.355	542
495.573	550
495.79	546
496.008	542
496.225	561
496.442	558
496.66	551
496.877	574
497.094	594
497.312	610
497.529	585
497.746	612
497.963	604
498.181	622
498.398	628
498.615	640
498.832	664
499.049	690
499.267	737
499.484	746
499.701	775
499.918	792
500.135	830
500.352	837
500.569	897
500.786	854
501.003	843
501.22	821
501.437	801
501.654	743
501.871	730
502.088	697
502.305	709
502.522	647
502.739	637
502.956	608
503.172	611
503.389	617
503.606	565
503.823	576
504.04	592
504.256	572
504.473	547
504.69	542
504.907	568
505.123	553
505.34	545
505.557	527
505.773	518
505.99	514
506.207	499
506.423	516
506.64	510
506.856	491
507.073	489
507.289	475
507.506	488
507.722	481
507.939	459
508.155	476
508.372	465
508.588	436
508.805	434
509.021	452
509.238	463
509.454	450
509.67	464
509.887	447
510.103	431
510.319	455
510.536	454
510.752	451
510.968	428
511.184	426
511.401	431
511.617	450
511.833	435
512.049	431
512.265	434
512.481	427
512.698	425
512.914	448
513.13	465
513.346	428
513.562	446
513.778	433
513.994	426
514.21	448
514.426	433
514.642	438
514.858	436
515.074	449
515.29	440
515.506	442
515.721	452
515.937	444
516.153	443
516.369	471
516.585	448
516.801	468
517.016	488
517.232	479
517.448	484
517.664	472
517.879	492
518.095	491
518.311	482
518.527	479
518.742	471
518.958	456
519.173	461
519.389	461
519.605	469
519.82	437
520.036	450
520.251	457
520.467	405
520.682	424
520.898	440
521.113	434
521.329	422
521.544	434
521.76	421
521.975	397
522.19	411
522.406	427
522.621	411
522.836	399
523.052	405
523.267	413
523.482	418
523.698	410
523.913	414
524.128	398
524.343	407
524.559	405
524.774	398
524.989	412
525.204	414
525.419	401
525.634	403
525.849	401
526.064	394
526.28	389
526.495	391
526.71	375
526.925	385
527.14	401
527.355	387
527.57	401
527.785	376
527.999	395
528.214	395
528.429	394
528.644	386
528.859	409
529.074	374
529.289	408
529.503	404
529.718	404
529.933	401
530.148	404
530.363	400
530.577	379
530.792	398
531.007	366
531.221	393
531.436	399
531.651	397
531.865	407
532.08	387
532.295	389
532.509	395
532.724	387
532.938	390
533.153	395
533.367	386
533.582	394
533.796	389
534.011	385
534.225	373
534.44	382
534.654	390
534.868	379
535.083	370
535.297	391
535.511	404
535.726	398
535.94	387
536.154	388
536.369	364
536.583	376
536.797	375
537.011	361
537.225	370
537.44	363
537.654	384
537.868	357
538.082	367
538.296	368
538.51	379
538.724	367
538.938	356
539.153	356
539.367	362
539.581	373
539.795	356
540.009	369
540.222	362
540.436	352
540.65	364
540.864	376
541.078	384
541.292	338
541.506	343
541.72	354
541.934	349
542.147	360
542.361	360
542.575	363
542.789	359
543.002	368
543.216	374
543.43	355
543.644	350
543.857	358
544.071	347
544.285	369
544.498	374
544.712	373
544.925	377
545.139	369
545.352	363
545.566	376
545.779	354
545.993	370
546.206	371
546.42	370
546.633	378
546.847	370
547.06	361
547.274	367
547.487	358
547.7	370
547.914	344
548.127	372
548.34	359
548.554	384
548.767	363
548.98	370
549.193	361
549.407	366
549.62	353
549.833	371
550.046	366
550.259	337
550.473	366
550.686	363
550.899	362
551.112	378
551.325	376
551.538	361
551.751	368
551.964	366
552.177	375
552.39	360
552.603	362
552.816	379
553.029	364
553.242	371
553.455	368
553.667	366
553.88	370
554.093	374
554.306	378
554.519	356
554.732	349
554.944	347
555.157	325
555.37	360
555.583	334
555.795	339
556.008	345
556.221	353
556.433	340
556.646	324
556.859	328
557.071	343
557.284	330
557.496	326
557.709	328
557.921	337
558.134	321
558.346	328
558.559	319
558.771	323
558.984	326
559.196	331
559.409	320
559.621	321
559.833	325
560.046	322
560.258	327
560.47	315
560.683	304
560.895	324
561.107	341
561.32	315
561.532	322
561.744	328
561.956	320
562.168	322
562.381	318
562.593	322
562.805	338
563.017	320
563.229	304
563.441	318
563.653	325
