Data from Fe(NO3)3@0.025M.TitratingCurve.Agarose3%dH2O.NegLispCup.LampEnergy10.LIBS07252019_HRD10591_16-55-18-335.txt Node
Date: Thu Jul 25 16:55:18 EDT 2019
User: cochatt
Spectrometer: HR+D1059
Trigger mode: 1
Integration Time (sec): 1.000000E-1
Scans to average: 1
Electric dark correction enabled: true
Nonlinearity correction enabled: false
Boxcar width: 0
XAxis mode: Wavelengths
Number of Pixels in Spectrum: 2048
>>>>>Begin Spectral Data<<<<<
223.165	-18.69
223.4	-18.69
223.635	-18.69
223.869	-17.69
224.104	-20.69
224.338	-8.69
224.573	-14.69
224.808	-9.69
225.042	-11.69
225.277	-6.69
225.511	-7.69
225.746	3.31
225.98	10.31
226.215	13.31
226.449	19.31
226.683	24.31
226.918	26.31
227.152	19.31
227.387	29.31
227.621	27.31
227.856	40.31
228.09	46.31
228.324	41.31
228.559	51.31
228.793	67.31
229.027	77.31
229.262	65.31
229.496	70.31
229.73	85.31
229.964	84.31
230.199	84.31
230.433	82.31
230.667	82.31
230.901	78.31
231.136	78.31
231.37	91.31
231.604	83.31
231.838	90.31
232.072	98.31
232.306	101.31
232.541	88.31
232.775	86.31
233.009	95.31
233.243	97.31
233.477	78.31
233.711	98.31
233.945	85.31
234.179	82.31
234.413	99.31
234.647	96.31
234.881	104.31
235.115	96.31
235.349	85.31
235.583	85.31
235.817	94.31
236.051	99.31
236.285	92.31
236.519	91.31
236.753	90.31
236.987	86.31
237.221	87.31
237.455	87.31
237.689	99.31
237.922	109.31
238.156	93.31
238.39	87.31
238.624	101.31
238.858	103.31
239.091	106.31
239.325	92.31
239.559	78.31
239.793	100.31
240.027	100.31
240.26	82.31
240.494	101.31
240.728	84.31
240.961	101.31
241.195	106.31
241.429	93.31
241.662	106.31
241.896	96.31
242.13	90.31
242.363	101.31
242.597	96.31
242.83	109.31
243.064	95.31
243.298	113.31
243.531	109.31
243.765	109.31
243.998	109.31
244.232	97.31
244.465	104.31
244.699	103.31
244.932	113.31
245.166	109.31
245.399	97.31
245.633	110.31
245.866	103.31
246.099	113.31
246.333	98.31
246.566	101.31
246.8	111.31
247.033	107.31
247.266	112.31
247.5	101.31
247.733	113.31
247.966	121.31
248.2	118.31
248.433	115.31
248.666	122.31
248.899	110.31
249.133	125.31
249.366	118.31
249.599	115.31
249.832	104.31
250.066	119.31
250.299	123.31
250.532	104.31
250.765	111.31
250.998	119.31
251.231	122.31
251.465	116.31
251.698	122.31
251.931	106.31
252.164	114.31
252.397	116.31
252.63	101.31
252.863	113.31
253.096	111.31
253.329	124.31
253.562	131.31
253.795	118.31
254.028	125.31
254.261	130.31
254.494	121.31
254.727	113.31
254.96	121.31
255.193	122.31
255.426	116.31
255.659	131.31
255.892	124.31
256.124	125.31
256.357	136.31
256.59	123.31
256.823	123.31
257.056	137.31
257.289	136.31
257.521	133.31
257.754	125.31
257.987	127.31
258.22	116.31
258.452	112.31
258.685	133.31
258.918	143.31
259.151	131.31
259.383	134.31
259.616	142.31
259.849	142.31
260.081	125.31
260.314	133.31
260.547	128.31
260.779	131.31
261.012	123.31
261.244	126.31
261.477	142.31
261.71	127.31
261.942	129.31
262.175	144.31
262.407	137.31
262.64	132.31
262.872	140.31
263.105	141.31
263.337	132.31
263.57	147.31
263.802	128.31
264.035	143.31
264.267	141.31
264.499	139.31
264.732	147.31
264.964	149.31
265.197	130.31
265.429	131.31
265.661	136.31
265.894	136.31
266.126	137.31
266.358	143.31
266.591	146.31
266.823	141.31
267.055	147.31
267.287	144.31
267.52	139.31
267.752	148.31
267.984	151.31
268.216	133.31
268.448	166.31
268.681	133.31
268.913	136.31
269.145	152.31
269.377	134.31
269.609	154.31
269.841	151.31
270.073	140.31
270.306	140.31
270.538	146.31
270.77	153.31
271.002	141.31
271.234	141.31
271.466	139.31
271.698	155.31
271.93	134.31
272.162	154.31
272.394	151.31
272.626	148.31
272.858	154.31
273.09	143.31
273.322	156.31
273.553	159.31
273.785	158.31
274.017	165.31
274.249	153.31
274.481	153.31
274.713	151.31
274.945	164.31
275.176	169.31
275.408	163.31
275.64	170.31
275.872	151.31
276.104	178.31
276.335	163.31
276.567	159.31
276.799	148.31
277.031	170.31
277.262	161.31
277.494	169.31
277.726	165.31
277.957	165.31
278.189	169.31
278.421	155.31
278.652	157.31
278.884	167.31
279.115	158.31
279.347	175.31
279.579	182.31
279.81	163.31
280.042	150.31
280.273	175.31
280.505	171.31
280.736	164.31
280.968	170.31
281.199	166.31
281.431	174.31
281.662	171.31
281.894	168.31
282.125	169.31
282.356	181.31
282.588	161.31
282.819	163.31
283.051	186.31
283.282	179.31
283.513	176.31
283.745	161.31
283.976	186.31
284.207	161.31
284.439	179.31
284.67	170.31
284.901	188.31
285.132	190.31
285.364	196.31
285.595	179.31
285.826	180.31
286.057	179.31
286.288	177.31
286.52	193.31
286.751	185.31
286.982	182.31
287.213	192.31
287.444	182.31
287.675	171.31
287.906	193.31
288.138	191.31
288.369	196.31
288.6	178.31
288.831	199.31
289.062	201.31
289.293	181.31
289.524	185.31
289.755	194.31
289.986	189.31
290.217	183.31
290.448	194.31
290.679	188.31
290.91	205.31
291.141	209.31
291.371	196.31
291.602	191.31
291.833	203.31
292.064	177.31
292.295	185.31
292.526	198.31
292.757	194.31
292.987	211.31
293.218	200.31
293.449	200.31
293.68	193.31
293.91	192.31
294.141	210.31
294.372	190.31
294.603	199.31
294.833	190.31
295.064	201.31
295.295	224.31
295.525	208.31
295.756	207.31
295.987	200.31
296.217	205.31
296.448	197.31
296.679	201.31
296.909	206.31
297.14	215.31
297.37	214.31
297.601	217.31
297.831	203.31
298.062	207.31
298.292	205.31
298.523	223.31
298.753	222.31
298.984	202.31
299.214	217.31
299.445	206.31
299.675	199.31
299.905	216.31
300.136	234.31
300.366	212.31
300.597	207.31
300.827	216.31
301.057	204.31
301.288	230.31
301.518	225.31
301.748	205.31
301.979	220.31
302.209	216.31
302.439	227.31
302.669	221.31
302.9	229.31
303.13	230.31
303.36	230.31
303.59	226.31
303.82	241.31
304.051	209.31
304.281	213.31
304.511	219.31
304.741	226.31
304.971	219.31
305.201	226.31
305.431	218.31
305.661	218.31
305.891	195.31
306.121	214.31
306.352	205.31
306.582	227.31
306.812	230.31
307.042	216.31
307.272	222.31
307.502	202.31
307.731	209.31
307.961	210.31
308.191	239.31
308.421	220.31
308.651	227.31
308.881	230.31
309.111	240.31
309.341	220.31
309.571	217.31
309.8	222.31
310.03	215.31
310.26	227.31
310.49	219.31
310.72	230.31
310.949	216.31
311.179	234.31
311.409	221.31
311.639	235.31
311.868	244.31
312.098	227.31
312.328	234.31
312.557	225.31
312.787	228.31
313.017	235.31
313.246	232.31
313.476	240.31
313.706	234.31
313.935	241.31
314.165	249.31
314.394	263.31
314.624	240.31
314.853	241.31
315.083	244.31
315.312	252.31
315.542	231.31
315.771	255.31
316.001	241.31
316.23	238.31
316.46	246.31
316.689	241.31
316.919	238.31
317.148	227.31
317.377	229.31
317.607	255.31
317.836	257.31
318.065	244.31
318.295	250.31
318.524	245.31
318.753	243.31
318.983	250.31
319.212	238.31
319.441	230.31
319.67	247.31
319.9	255.31
320.129	253.31
320.358	218.31
320.587	236.31
320.816	243.31
321.046	255.31
321.275	233.31
321.504	231.31
321.733	238.31
321.962	257.31
322.191	241.31
322.42	241.31
322.649	257.31
322.878	263.31
323.108	250.31
323.337	243.31
323.566	244.31
323.795	254.31
324.024	256.31
324.253	255.31
324.482	266.31
324.71	259.31
324.939	294.31
325.168	260.31
325.397	258.31
325.626	264.31
325.855	257.31
326.084	256.31
326.313	240.31
326.542	273.31
326.77	264.31
326.999	271.31
327.228	251.31
327.457	260.31
327.686	278.31
327.914	257.31
328.143	264.31
328.372	291.31
328.6	261.31
328.829	275.31
329.058	273.31
329.287	273.31
329.515	273.31
329.744	282.31
329.972	259.31
330.201	283.31
330.43	287.31
330.658	263.31
330.887	281.31
331.115	289.31
331.344	289.31
331.572	272.31
331.801	277.31
332.03	310.31
332.258	267.31
332.486	293.31
332.715	287.31
332.943	307.31
333.172	306.31
333.4	308.31
333.629	335.31
333.857	321.31
334.085	337.31
334.314	325.31
334.542	307.31
334.771	341.31
334.999	316.31
335.227	328.31
335.455	313.31
335.684	327.31
335.912	317.31
336.14	313.31
336.369	303.31
336.597	327.31
336.825	315.31
337.053	312.31
337.281	299.31
337.51	295.31
337.738	305.31
337.966	294.31
338.194	287.31
338.422	300.31
338.65	298.31
338.878	287.31
339.106	289.31
339.334	305.31
339.562	305.31
339.79	290.31
340.018	287.31
340.246	298.31
340.474	278.31
340.702	301.31
340.93	287.31
341.158	301.31
341.386	283.31
341.614	295.31
341.842	292.31
342.07	280.31
342.298	281.31
342.526	280.31
342.754	304.31
342.981	290.31
343.209	289.31
343.437	313.31
343.665	304.31
343.893	308.31
344.12	320.31
344.348	319.31
344.576	305.31
344.804	290.31
345.031	298.31
345.259	304.31
345.487	285.31
345.714	279.31
345.942	295.31
346.17	278.31
346.397	284.31
346.625	298.31
346.853	285.31
347.08	273.31
347.308	279.31
347.535	271.31
347.763	300.31
347.99	280.31
348.218	262.31
348.445	285.31
348.673	286.31
348.9	271.31
349.128	264.31
349.355	273.31
349.583	267.31
349.81	288.31
350.037	279.31
350.265	276.31
350.492	275.31
350.72	270.31
350.947	283.31
351.174	286.31
351.402	279.31
351.629	271.31
351.856	269.31
352.083	290.31
352.311	271.31
352.538	278.31
352.765	266.31
352.992	279.31
353.22	273.31
353.447	262.31
353.674	280.31
353.901	271.31
354.128	286.31
354.355	270.31
354.583	274.31
354.81	289.31
355.037	276.31
355.264	265.31
355.491	278.31
355.718	299.31
355.945	286.31
356.172	277.31
356.399	270.31
356.626	273.31
356.853	257.31
357.08	279.31
357.307	280.31
357.534	270.31
357.761	297.31
357.988	303.31
358.215	280.31
358.441	297.31
358.668	285.31
358.895	298.31
359.122	282.31
359.349	301.31
359.576	290.31
359.802	281.31
360.029	277.31
360.256	282.31
360.483	277.31
360.709	292.31
360.936	301.31
361.163	295.31
361.39	286.31
361.616	305.31
361.843	282.31
362.07	288.31
362.296	286.31
362.523	284.31
362.749	280.31
362.976	292.31
363.203	295.31
363.429	290.31
363.656	286.31
363.882	293.31
364.109	296.31
364.335	288.31
364.562	267.31
364.788	281.31
365.015	299.31
365.241	288.31
365.468	287.31
365.694	285.31
365.92	296.31
366.147	290.31
366.373	287.31
366.599	281.31
366.826	281.31
367.052	283.31
367.278	290.31
367.505	295.31
367.731	288.31
367.957	272.31
368.184	281.31
368.41	285.31
368.636	303.31
368.862	297.31
369.089	306.31
369.315	281.31
369.541	280.31
369.767	301.31
369.993	298.31
370.219	305.31
370.445	309.31
370.672	302.31
370.898	287.31
371.124	293.31
371.35	297.31
371.576	294.31
371.802	272.31
372.028	319.31
372.254	294.31
372.48	310.31
372.706	295.31
372.932	319.31
373.158	335.31
373.384	314.31
373.61	318.31
373.835	313.31
374.061	326.31
374.287	314.31
374.513	309.31
374.739	326.31
374.965	321.31
375.191	326.31
375.416	335.31
375.642	303.31
375.868	308.31
376.094	305.31
376.319	301.31
376.545	311.31
376.771	312.31
376.997	315.31
377.222	312.31
377.448	321.31
377.674	298.31
377.899	296.31
378.125	300.31
378.35	295.31
378.576	303.31
378.802	293.31
379.027	308.31
379.253	298.31
379.478	326.31
379.704	311.31
379.929	315.31
380.155	323.31
380.38	325.31
380.606	319.31
380.831	309.31
381.057	319.31
381.282	316.31
381.507	290.31
381.733	318.31
381.958	306.31
382.184	330.31
382.409	319.31
382.634	326.31
382.86	327.31
383.085	344.31
383.31	330.31
383.535	327.31
383.761	349.31
383.986	337.31
384.211	348.31
384.436	329.31
384.662	367.31
384.887	357.31
385.112	357.31
385.337	344.31
385.562	368.31
385.787	339.31
386.013	358.31
386.238	357.31
386.463	367.31
386.688	343.31
386.913	338.31
387.138	378.31
387.363	369.31
387.588	355.31
387.813	360.31
388.038	356.31
388.263	354.31
388.488	359.31
388.713	351.31
388.938	344.31
389.163	353.31
389.387	361.31
389.612	342.31
389.837	348.31
390.062	368.31
390.287	363.31
390.512	360.31
390.736	361.31
390.961	380.31
391.186	366.31
391.411	377.31
391.636	382.31
391.86	378.31
392.085	374.31
392.31	374.31
392.534	368.31
392.759	369.31
392.984	354.31
393.208	377.31
393.433	391.31
393.658	395.31
393.882	366.31
394.107	373.31
394.331	367.31
394.556	366.31
394.78	376.31
395.005	378.31
395.229	383.31
395.454	395.31
395.678	394.31
395.903	394.31
396.127	395.31
396.352	375.31
396.576	377.31
396.801	394.31
397.025	387.31
397.249	388.31
397.474	397.31
397.698	418.31
397.922	422.31
398.147	437.31
398.371	410.31
398.595	423.31
398.82	436.31
399.044	477.31
399.268	479.31
399.492	519.31
399.717	538.31
399.941	506.31
400.165	503.31
400.389	477.31
400.613	461.31
400.837	465.31
401.062	422.31
401.286	435.31
401.51	446.31
401.734	431.31
401.958	433.31
402.182	439.31
402.406	440.31
402.63	412.31
402.854	440.31
403.078	436.31
403.302	447.31
403.526	456.31
403.75	437.31
403.974	447.31
404.198	426.31
404.422	444.31
404.645	445.31
404.869	450.31
405.093	430.31
405.317	445.31
405.541	452.31
405.765	439.31
405.988	453.31
406.212	462.31
406.436	450.31
406.66	467.31
406.883	460.31
407.107	481.31
407.331	493.31
407.555	507.31
407.778	499.31
408.002	481.31
408.226	482.31
408.449	479.31
408.673	490.31
408.896	464.31
409.12	456.31
409.344	474.31
409.567	458.31
409.791	462.31
410.014	463.31
410.238	441.31
410.461	455.31
410.685	452.31
410.908	445.31
411.132	443.31
411.355	430.31
411.578	448.31
411.802	423.31
412.025	446.31
412.249	441.31
412.472	447.31
412.695	460.31
412.919	407.31
413.142	424.31
413.365	438.31
413.589	439.31
413.812	436.31
414.035	436.31
414.258	427.31
414.482	440.31
414.705	446.31
414.928	422.31
415.151	417.31
415.374	412.31
415.597	413.31
415.821	411.31
416.044	405.31
416.267	404.31
416.49	407.31
416.713	409.31
416.936	425.31
417.159	404.31
417.382	424.31
417.605	410.31
417.828	403.31
418.051	412.31
418.274	430.31
418.497	408.31
418.72	409.31
418.943	427.31
419.166	434.31
419.389	447.31
419.611	443.31
419.834	435.31
420.057	429.31
420.28	435.31
420.503	417.31
420.726	423.31
420.948	417.31
421.171	405.31
421.394	425.31
421.617	405.31
421.839	400.31
422.062	427.31
422.285	391.31
422.507	427.31
422.73	394.31
422.953	410.31
423.175	398.31
423.398	417.31
423.621	418.31
423.843	426.31
424.066	430.31
424.288	427.31
424.511	408.31
424.733	409.31
424.956	391.31
425.178	417.31
425.401	407.31
425.623	416.31
425.846	395.31
426.068	386.31
426.291	389.31
426.513	403.31
426.735	396.31
426.958	394.31
427.18	394.31
427.402	389.31
427.625	385.31
427.847	390.31
428.069	396.31
428.292	372.31
428.514	377.31
428.736	386.31
428.958	377.31
429.181	400.31
429.403	375.31
429.625	383.31
429.847	382.31
430.069	377.31
430.292	372.31
430.514	373.31
430.736	389.31
430.958	396.31
431.18	375.31
431.402	373.31
431.624	381.31
431.846	385.31
432.068	382.31
432.29	401.31
432.512	388.31
432.734	383.31
432.956	399.31
433.178	399.31
433.4	374.31
433.622	379.31
433.844	393.31
434.066	392.31
434.287	390.31
434.509	397.31
434.731	401.31
434.953	423.31
435.175	407.31
435.397	402.31
435.618	383.31
435.84	401.31
436.062	396.31
436.284	407.31
436.505	381.31
436.727	379.31
436.949	381.31
437.17	373.31
437.392	363.31
437.614	383.31
437.835	373.31
438.057	365.31
438.278	367.31
438.5	382.31
438.721	361.31
438.943	375.31
439.165	390.31
439.386	375.31
439.608	378.31
439.829	353.31
440.05	387.31
440.272	373.31
440.493	369.31
440.715	380.31
440.936	399.31
441.158	403.31
441.379	392.31
441.6	397.31
441.822	399.31
442.043	408.31
442.264	405.31
442.486	414.31
442.707	411.31
442.928	405.31
443.149	424.31
443.371	389.31
443.592	388.31
443.813	385.31
444.034	417.31
444.255	409.31
444.476	418.31
444.698	435.31
444.919	455.31
445.14	535.31
445.361	456.31
445.582	424.31
445.803	385.31
446.024	396.31
446.245	397.31
446.466	396.31
446.687	374.31
446.908	381.31
447.129	364.31
447.35	370.31
447.571	358.31
447.792	381.31
448.013	353.31
448.234	371.31
448.455	352.31
448.675	357.31
448.896	375.31
449.117	335.31
449.338	343.31
449.559	357.31
449.779	348.31
450	345.31
450.221	357.31
450.442	357.31
450.662	356.31
450.883	356.31
451.104	365.31
451.324	325.31
451.545	352.31
451.766	356.31
451.986	353.31
452.207	342.31
452.428	339.31
452.648	365.31
452.869	346.31
453.089	347.31
453.31	338.31
453.53	342.31
453.751	357.31
453.971	344.31
454.192	340.31
454.412	331.31
454.633	332.31
454.853	330.31
455.073	331.31
455.294	329.31
455.514	344.31
455.734	328.31
455.955	332.31
456.175	333.31
456.395	341.31
456.616	336.31
456.836	343.31
457.056	340.31
457.276	325.31
457.497	354.31
457.717	336.31
457.937	356.31
458.157	360.31
458.377	347.31
458.598	342.31
458.818	354.31
459.038	376.31
459.258	358.31
459.478	386.31
459.698	368.31
459.918	399.31
460.138	409.31
460.358	426.31
460.578	413.31
460.798	425.31
461.018	409.31
461.238	429.31
461.458	409.31
461.678	433.31
461.898	418.31
462.118	424.31
462.338	462.31
462.558	463.31
462.777	458.31
462.997	462.31
463.217	491.31
463.437	518.31
463.657	487.31
463.876	478.31
464.096	488.31
464.316	479.31
464.536	469.31
464.755	467.31
464.975	433.31
465.195	433.31
465.414	420.31
465.634	390.31
465.854	404.31
466.073	389.31
466.293	379.31
466.512	374.31
466.732	385.31
466.951	368.31
467.171	365.31
467.391	374.31
467.61	372.31
467.829	375.31
468.049	354.31
468.268	364.31
468.488	375.31
468.707	344.31
468.927	374.31
469.146	359.31
469.365	367.31
469.585	360.31
469.804	371.31
470.023	383.31
470.243	367.31
470.462	360.31
470.681	387.31
470.901	377.31
471.12	379.31
471.339	374.31
471.558	389.31
471.777	371.31
471.997	361.31
472.216	357.31
472.435	378.31
472.654	381.31
472.873	360.31
473.092	368.31
473.311	383.31
473.53	367.31
473.749	367.31
473.968	371.31
474.187	380.31
474.406	359.31
474.625	371.31
474.844	359.31
475.063	369.31
475.282	361.31
475.501	377.31
475.72	381.31
475.939	389.31
476.158	379.31
476.377	385.31
476.596	369.31
476.814	412.31
477.033	390.31
477.252	390.31
477.471	390.31
477.69	424.31
477.908	404.31
478.127	436.31
478.346	424.31
478.564	431.31
478.783	417.31
479.002	448.31
479.22	432.31
479.439	445.31
479.658	431.31
479.876	433.31
480.095	437.31
480.313	426.31
480.532	441.31
480.751	444.31
480.969	433.31
481.188	420.31
481.406	431.31
481.624	451.31
481.843	411.31
482.061	432.31
482.28	417.31
482.498	425.31
482.717	401.31
482.935	431.31
483.153	419.31
483.372	421.31
483.59	436.31
483.808	433.31
484.027	419.31
484.245	439.31
484.463	437.31
484.681	441.31
484.9	440.31
485.118	452.31
485.336	436.31
485.554	432.31
485.772	442.31
485.99	413.31
486.209	415.31
486.427	416.31
486.645	437.31
486.863	422.31
487.081	447.31
487.299	454.31
487.517	439.31
487.735	440.31
487.953	449.31
488.171	450.31
488.389	424.31
488.607	423.31
488.825	449.31
489.043	419.31
489.261	451.31
489.479	437.31
489.696	437.31
489.914	441.31
490.132	415.31
490.35	434.31
490.568	451.31
490.786	433.31
491.003	442.31
491.221	448.31
491.439	431.31
491.657	447.31
491.874	445.31
492.092	430.31
492.31	441.31
492.527	436.31
492.745	435.31
492.963	445.31
493.18	442.31
493.398	443.31
493.615	439.31
493.833	441.31
494.05	457.31
494.268	461.31
494.485	441.31
494.703	448.31
494.92	482.31
495.138	455.31
495.355	455.31
495.573	474.31
495.79	474.31
496.008	481.31
496.225	474.31
496.442	478.31
496.66	488.31
496.877	497.31
497.094	497.31
497.312	506.31
497.529	510.31
497.746	528.31
497.963	529.31
498.181	536.31
498.398	579.31
498.615	635.31
498.832	617.31
499.049	619.31
499.267	662.31
499.484	692.31
499.701	772.31
499.918	797.31
500.135	851.31
500.352	905.31
500.569	913.31
500.786	887.31
501.003	862.31
501.22	806.31
501.437	775.31
501.654	726.31
501.871	691.31
502.088	652.31
502.305	630.31
