Data from Fe(NO3)3@0.05M.TitratingCurve.Agarose3%dH2O.NegLispCup.LampEnergy10.LIBS07252019_HRD10591_16-47-22-334.txt Node
Date: Thu Jul 25 16:47:22 EDT 2019
User: cochatt
Spectrometer: HR+D1059
Trigger mode: 1
Integration Time (sec): 1.000000E-1
Scans to average: 1
Electric dark correction enabled: true
Nonlinearity correction enabled: false
Boxcar width: 0
XAxis mode: Wavelengths
Number of Pixels in Spectrum: 2048
>>>>>Begin Spectral Data<<<<<
223.165	-9.75
223.4	-9.75
223.635	-9.75
223.869	-22.75
224.104	-20.75
224.338	-20.75
224.573	-20.75
224.808	-18.75
225.042	6.25
225.277	-17.75
225.511	2.25
225.746	6.25
225.98	-2.75
226.215	6.25
226.449	25.25
226.683	19.25
226.918	31.25
227.152	37.25
227.387	30.25
227.621	34.25
227.856	48.25
228.09	33.25
228.324	43.25
228.559	51.25
228.793	59.25
229.027	77.25
229.262	76.25
229.496	82.25
229.73	73.25
229.964	85.25
230.199	107.25
230.433	102.25
230.667	98.25
230.901	96.25
231.136	85.25
231.37	97.25
231.604	89.25
231.838	102.25
232.072	98.25
232.306	97.25
232.541	87.25
232.775	109.25
233.009	102.25
233.243	101.25
233.477	95.25
233.711	95.25
233.945	96.25
234.179	104.25
234.413	105.25
234.647	98.25
234.881	96.25
235.115	104.25
235.349	107.25
235.583	103.25
235.817	114.25
236.051	99.25
236.285	111.25
236.519	103.25
236.753	99.25
236.987	101.25
237.221	97.25
237.455	104.25
237.689	111.25
237.922	113.25
238.156	88.25
238.39	117.25
238.624	119.25
238.858	105.25
239.091	102.25
239.325	108.25
239.559	117.25
239.793	122.25
240.027	112.25
240.26	127.25
240.494	115.25
240.728	116.25
240.961	111.25
241.195	113.25
241.429	118.25
241.662	115.25
241.896	115.25
242.13	119.25
242.363	101.25
242.597	93.25
242.83	113.25
243.064	98.25
243.298	115.25
243.531	109.25
243.765	122.25
243.998	113.25
244.232	127.25
244.465	122.25
244.699	123.25
244.932	120.25
245.166	118.25
245.399	122.25
245.633	130.25
245.866	118.25
246.099	130.25
246.333	137.25
246.566	137.25
246.8	124.25
247.033	119.25
247.266	123.25
247.5	129.25
247.733	127.25
247.966	131.25
248.2	139.25
248.433	133.25
248.666	133.25
248.899	133.25
249.133	132.25
249.366	127.25
249.599	139.25
249.832	131.25
250.066	119.25
250.299	129.25
250.532	144.25
250.765	131.25
250.998	121.25
251.231	136.25
251.465	130.25
251.698	129.25
251.931	134.25
252.164	128.25
252.397	130.25
252.63	144.25
252.863	153.25
253.096	139.25
253.329	157.25
253.562	150.25
253.795	151.25
254.028	146.25
254.261	150.25
254.494	161.25
254.727	164.25
254.96	156.25
255.193	136.25
255.426	161.25
255.659	136.25
255.892	159.25
256.124	169.25
256.357	154.25
256.59	162.25
256.823	143.25
257.056	155.25
257.289	151.25
257.521	157.25
257.754	152.25
257.987	140.25
258.22	156.25
258.452	158.25
258.685	163.25
258.918	159.25
259.151	151.25
259.383	163.25
259.616	151.25
259.849	175.25
260.081	157.25
260.314	193.25
260.547	164.25
260.779	165.25
261.012	169.25
261.244	170.25
261.477	175.25
261.71	176.25
261.942	156.25
262.175	172.25
262.407	178.25
262.64	147.25
262.872	166.25
263.105	178.25
263.337	181.25
263.57	164.25
263.802	181.25
264.035	161.25
264.267	161.25
264.499	149.25
264.732	163.25
264.964	167.25
265.197	178.25
265.429	160.25
265.661	168.25
265.894	170.25
266.126	165.25
266.358	166.25
266.591	150.25
266.823	179.25
267.055	161.25
267.287	168.25
267.52	162.25
267.752	153.25
267.984	180.25
268.216	176.25
268.448	185.25
268.681	188.25
268.913	185.25
269.145	189.25
269.377	173.25
269.609	171.25
269.841	171.25
270.073	163.25
270.306	186.25
270.538	176.25
270.77	173.25
271.002	195.25
271.234	178.25
271.466	175.25
271.698	186.25
271.93	162.25
272.162	171.25
272.394	185.25
272.626	196.25
272.858	195.25
273.09	196.25
273.322	192.25
273.553	194.25
273.785	202.25
274.017	195.25
274.249	214.25
274.481	204.25
274.713	197.25
274.945	230.25
275.176	224.25
275.408	235.25
275.64	204.25
275.872	214.25
276.104	200.25
276.335	215.25
276.567	183.25
276.799	202.25
277.031	193.25
277.262	200.25
277.494	191.25
277.726	195.25
277.957	212.25
278.189	218.25
278.421	206.25
278.652	200.25
278.884	226.25
279.115	207.25
279.347	210.25
279.579	203.25
279.81	198.25
280.042	204.25
280.273	188.25
280.505	195.25
280.736	196.25
280.968	197.25
281.199	200.25
281.431	204.25
281.662	206.25
281.894	203.25
282.125	203.25
282.356	197.25
282.588	201.25
282.819	192.25
283.051	208.25
283.282	198.25
283.513	221.25
283.745	201.25
283.976	223.25
284.207	203.25
284.439	202.25
284.67	221.25
284.901	220.25
285.132	225.25
285.364	221.25
285.595	229.25
285.826	200.25
286.057	218.25
286.288	213.25
286.52	225.25
286.751	200.25
286.982	217.25
287.213	220.25
287.444	216.25
287.675	225.25
287.906	231.25
288.138	215.25
288.369	233.25
288.6	232.25
288.831	224.25
289.062	221.25
289.293	221.25
289.524	226.25
289.755	224.25
289.986	241.25
290.217	219.25
290.448	237.25
290.679	215.25
290.91	223.25
291.141	228.25
291.371	223.25
291.602	232.25
291.833	238.25
292.064	201.25
292.295	232.25
292.526	234.25
292.757	224.25
292.987	228.25
293.218	242.25
293.449	225.25
293.68	231.25
293.91	244.25
294.141	241.25
294.372	226.25
294.603	247.25
294.833	224.25
295.064	243.25
295.295	224.25
295.525	224.25
295.756	223.25
295.987	231.25
296.217	239.25
296.448	220.25
296.679	243.25
296.909	249.25
297.14	247.25
297.37	253.25
297.601	253.25
297.831	251.25
298.062	255.25
298.292	229.25
298.523	226.25
298.753	246.25
298.984	226.25
299.214	246.25
299.445	260.25
299.675	257.25
299.905	248.25
300.136	239.25
300.366	255.25
300.597	246.25
300.827	242.25
301.057	253.25
301.288	243.25
301.518	250.25
301.748	260.25
301.979	261.25
302.209	273.25
302.439	261.25
302.669	243.25
302.9	277.25
303.13	252.25
303.36	255.25
303.59	261.25
303.82	264.25
304.051	266.25
304.281	268.25
304.511	255.25
304.741	265.25
304.971	274.25
305.201	249.25
305.431	265.25
305.661	243.25
305.891	257.25
306.121	255.25
306.352	264.25
306.582	255.25
306.812	242.25
307.042	256.25
307.272	242.25
307.502	248.25
307.731	260.25
307.961	256.25
308.191	236.25
308.421	263.25
308.651	249.25
308.881	258.25
309.111	265.25
309.341	245.25
309.571	244.25
309.8	239.25
310.03	242.25
310.26	272.25
310.49	256.25
310.72	255.25
310.949	250.25
311.179	278.25
311.409	250.25
311.639	246.25
311.868	254.25
312.098	268.25
312.328	257.25
312.557	271.25
312.787	263.25
313.017	268.25
313.246	277.25
313.476	277.25
313.706	263.25
313.935	273.25
314.165	291.25
314.394	270.25
314.624	259.25
314.853	289.25
315.083	265.25
315.312	290.25
315.542	283.25
315.771	275.25
316.001	260.25
316.23	276.25
316.46	271.25
316.689	271.25
316.919	270.25
317.148	281.25
317.377	269.25
317.607	264.25
317.836	276.25
318.065	259.25
318.295	287.25
318.524	277.25
318.753	283.25
318.983	269.25
319.212	296.25
319.441	268.25
319.67	278.25
319.9	286.25
320.129	275.25
320.358	263.25
320.587	275.25
320.816	256.25
321.046	271.25
321.275	264.25
321.504	287.25
321.733	280.25
321.962	272.25
322.191	287.25
322.42	275.25
322.649	275.25
322.878	268.25
323.108	282.25
323.337	295.25
323.566	266.25
323.795	275.25
324.024	273.25
324.253	283.25
324.482	301.25
324.71	274.25
324.939	277.25
325.168	294.25
325.397	293.25
325.626	280.25
325.855	290.25
326.084	303.25
326.313	313.25
326.542	280.25
326.77	305.25
326.999	301.25
327.228	309.25
327.457	287.25
327.686	299.25
327.914	313.25
328.143	293.25
328.372	287.25
328.6	297.25
328.829	294.25
329.058	304.25
329.287	270.25
329.515	300.25
329.744	293.25
329.972	293.25
330.201	303.25
330.43	307.25
330.658	295.25
330.887	292.25
331.115	318.25
331.344	323.25
331.572	313.25
331.801	314.25
332.03	323.25
332.258	337.25
332.486	329.25
332.715	322.25
332.943	345.25
333.172	345.25
333.4	343.25
333.629	364.25
333.857	345.25
334.085	348.25
334.314	346.25
334.542	367.25
334.771	350.25
334.999	349.25
335.227	368.25
335.455	357.25
335.684	359.25
335.912	352.25
336.14	357.25
336.369	349.25
336.597	352.25
336.825	356.25
337.053	341.25
337.281	339.25
337.51	333.25
337.738	330.25
337.966	330.25
338.194	326.25
338.422	347.25
338.65	320.25
338.878	329.25
339.106	331.25
339.334	314.25
339.562	329.25
339.79	318.25
340.018	305.25
340.246	314.25
340.474	324.25
340.702	327.25
340.93	310.25
341.158	304.25
341.386	315.25
341.614	335.25
341.842	322.25
342.07	300.25
342.298	318.25
342.526	329.25
342.754	327.25
342.981	321.25
343.209	317.25
343.437	327.25
343.665	337.25
343.893	347.25
344.12	368.25
344.348	346.25
344.576	316.25
344.804	331.25
345.031	322.25
345.259	321.25
345.487	315.25
345.714	321.25
345.942	312.25
346.17	313.25
346.397	320.25
346.625	321.25
346.853	279.25
347.08	292.25
347.308	294.25
347.535	281.25
347.763	307.25
347.99	309.25
348.218	297.25
348.445	290.25
348.673	312.25
348.9	300.25
349.128	297.25
349.355	286.25
349.583	283.25
349.81	309.25
350.037	307.25
350.265	284.25
350.492	305.25
350.72	297.25
350.947	283.25
351.174	303.25
351.402	300.25
351.629	296.25
351.856	299.25
352.083	308.25
352.311	287.25
352.538	325.25
352.765	295.25
352.992	287.25
353.22	291.25
353.447	305.25
353.674	294.25
353.901	305.25
354.128	292.25
354.355	313.25
354.583	295.25
354.81	274.25
355.037	308.25
355.264	285.25
355.491	317.25
355.718	300.25
355.945	304.25
356.172	305.25
356.399	301.25
356.626	313.25
356.853	313.25
357.08	300.25
357.307	303.25
357.534	312.25
357.761	307.25
357.988	319.25
358.215	303.25
358.441	314.25
358.668	298.25
358.895	308.25
359.122	299.25
359.349	307.25
359.576	313.25
359.802	304.25
360.029	298.25
360.256	307.25
360.483	298.25
360.709	302.25
360.936	322.25
361.163	301.25
361.39	287.25
361.616	300.25
361.843	295.25
362.07	291.25
362.296	320.25
362.523	307.25
362.749	301.25
362.976	320.25
363.203	317.25
363.429	305.25
363.656	300.25
363.882	296.25
364.109	292.25
364.335	309.25
364.562	284.25
364.788	297.25
365.015	318.25
365.241	312.25
365.468	312.25
365.694	317.25
365.92	294.25
366.147	301.25
366.373	316.25
366.599	295.25
366.826	311.25
367.052	325.25
367.278	326.25
367.505	303.25
367.731	312.25
367.957	306.25
368.184	303.25
368.41	293.25
368.636	335.25
368.862	323.25
369.089	321.25
369.315	315.25
369.541	323.25
369.767	329.25
369.993	319.25
370.219	316.25
370.445	314.25
370.672	328.25
370.898	330.25
371.124	328.25
371.35	327.25
371.576	329.25
371.802	338.25
372.028	340.25
372.254	339.25
372.48	340.25
372.706	355.25
372.932	341.25
373.158	355.25
373.384	362.25
373.61	373.25
373.835	353.25
374.061	353.25
374.287	376.25
374.513	351.25
374.739	367.25
374.965	359.25
375.191	371.25
375.416	358.25
375.642	341.25
375.868	367.25
376.094	357.25
376.319	356.25
376.545	363.25
376.771	347.25
376.997	354.25
377.222	340.25
377.448	344.25
377.674	347.25
377.899	334.25
378.125	349.25
378.35	346.25
378.576	334.25
378.802	352.25
379.027	336.25
379.253	357.25
379.478	345.25
379.704	325.25
379.929	337.25
380.155	346.25
380.38	343.25
380.606	343.25
380.831	340.25
381.057	324.25
381.282	363.25
381.507	360.25
381.733	345.25
381.958	350.25
382.184	377.25
382.409	371.25
382.634	357.25
382.86	350.25
383.085	375.25
383.31	373.25
383.535	368.25
383.761	379.25
383.986	367.25
384.211	385.25
384.436	380.25
384.662	397.25
384.887	406.25
385.112	407.25
385.337	400.25
385.562	393.25
385.787	395.25
386.013	428.25
386.238	427.25
386.463	420.25
386.688	417.25
386.913	420.25
387.138	419.25
387.363	427.25
387.588	424.25
387.813	427.25
388.038	412.25
388.263	415.25
388.488	425.25
388.713	409.25
388.938	415.25
389.163	419.25
389.387	410.25
389.612	419.25
389.837	393.25
390.062	405.25
390.287	410.25
390.512	432.25
390.736	398.25
390.961	429.25
391.186	435.25
391.411	443.25
391.636	449.25
391.86	433.25
392.085	448.25
392.31	444.25
392.534	453.25
392.759	451.25
392.984	445.25
393.208	431.25
393.433	462.25
393.658	450.25
393.882	449.25
394.107	437.25
394.331	442.25
394.556	441.25
394.78	441.25
395.005	450.25
395.229	437.25
395.454	444.25
395.678	451.25
395.903	460.25
396.127	467.25
396.352	442.25
396.576	454.25
396.801	488.25
397.025	468.25
397.249	485.25
397.474	476.25
397.698	450.25
397.922	490.25
398.147	481.25
398.371	476.25
398.595	489.25
398.82	536.25
399.044	543.25
399.268	556.25
399.492	607.25
399.717	651.25
399.941	671.25
400.165	616.25
400.389	610.25
400.613	579.25
400.837	563.25
401.062	532.25
401.286	531.25
401.51	518.25
401.734	509.25
401.958	532.25
402.182	522.25
402.406	526.25
402.63	513.25
402.854	531.25
403.078	531.25
403.302	534.25
403.526	528.25
403.75	518.25
403.974	541.25
404.198	565.25
404.422	555.25
404.645	551.25
404.869	545.25
405.093	576.25
405.317	525.25
405.541	547.25
405.765	521.25
405.988	537.25
406.212	544.25
406.436	550.25
406.66	576.25
406.883	566.25
407.107	603.25
407.331	596.25
407.555	626.25
407.778	623.25
408.002	616.25
408.226	587.25
408.449	562.25
408.673	554.25
408.896	568.25
409.12	552.25
409.344	557.25
409.567	573.25
409.791	566.25
410.014	556.25
410.238	562.25
410.461	574.25
410.685	543.25
410.908	544.25
411.132	549.25
411.355	536.25
411.578	545.25
411.802	534.25
412.025	551.25
412.249	547.25
412.472	540.25
412.695	545.25
412.919	521.25
413.142	514.25
413.365	511.25
413.589	526.25
413.812	526.25
414.035	514.25
414.258	494.25
414.482	528.25
414.705	537.25
414.928	530.25
415.151	515.25
415.374	529.25
415.597	498.25
415.821	523.25
416.044	519.25
416.267	507.25
416.49	501.25
416.713	493.25
416.936	499.25
417.159	504.25
417.382	510.25
417.605	521.25
417.828	499.25
418.051	518.25
418.274	496.25
418.497	527.25
418.72	524.25
418.943	518.25
419.166	532.25
419.389	580.25
419.611	561.25
419.834	542.25
420.057	532.25
420.28	517.25
420.503	503.25
420.726	486.25
420.948	504.25
421.171	513.25
421.394	511.25
421.617	502.25
421.839	514.25
422.062	524.25
422.285	493.25
422.507	513.25
422.73	508.25
422.953	503.25
423.175	513.25
423.398	522.25
423.621	529.25
423.843	551.25
424.066	518.25
424.288	520.25
424.511	511.25
424.733	507.25
424.956	534.25
425.178	505.25
425.401	517.25
425.623	498.25
425.846	498.25
426.068	503.25
426.291	487.25
426.513	504.25
426.735	497.25
426.958	492.25
427.18	498.25
427.402	481.25
427.625	490.25
427.847	482.25
428.069	481.25
428.292	484.25
428.514	479.25
428.736	460.25
428.958	471.25
429.181	474.25
429.403	496.25
429.625	465.25
429.847	471.25
430.069	458.25
430.292	475.25
430.514	469.25
430.736	478.25
430.958	479.25
431.18	475.25
431.402	467.25
431.624	491.25
431.846	447.25
432.068	467.25
432.29	485.25
432.512	476.25
432.734	492.25
432.956	495.25
433.178	491.25
433.4	476.25
433.622	466.25
433.844	497.25
434.066	497.25
434.287	485.25
434.509	480.25
434.731	492.25
434.953	513.25
435.175	529.25
435.397	494.25
435.618	484.25
435.84	508.25
436.062	460.25
436.284	482.25
436.505	492.25
436.727	483.25
436.949	501.25
437.17	504.25
437.392	466.25
437.614	456.25
437.835	460.25
438.057	488.25
438.278	451.25
438.5	459.25
438.721	490.25
438.943	478.25
439.165	469.25
439.386	479.25
439.608	468.25
439.829	473.25
440.05	495.25
440.272	510.25
440.493	485.25
440.715	508.25
440.936	490.25
441.158	510.25
441.379	486.25
441.6	518.25
441.822	520.25
442.043	533.25
442.264	529.25
442.486	520.25
442.707	523.25
442.928	531.25
443.149	513.25
443.371	519.25
443.592	500.25
443.813	514.25
444.034	519.25
444.255	531.25
444.476	559.25
444.698	580.25
444.919	587.25
445.14	640.25
445.361	604.25
445.582	533.25
445.803	523.25
446.024	535.25
446.245	526.25
446.466	507.25
446.687	483.25
446.908	489.25
447.129	483.25
447.35	498.25
447.571	479.25
447.792	467.25
448.013	469.25
448.234	474.25
448.455	465.25
448.675	462.25
448.896	468.25
449.117	447.25
449.338	456.25
449.559	472.25
449.779	439.25
450	441.25
450.221	458.25
450.442	463.25
450.662	461.25
450.883	460.25
451.104	460.25
451.324	457.25
451.545	459.25
451.766	446.25
451.986	446.25
452.207	433.25
452.428	449.25
452.648	439.25
452.869	435.25
453.089	425.25
453.31	433.25
453.53	428.25
453.751	428.25
453.971	422.25
454.192	446.25
454.412	415.25
454.633	419.25
454.853	429.25
455.073	425.25
455.294	427.25
455.514	427.25
455.734	424.25
455.955	417.25
456.175	433.25
456.395	419.25
456.616	423.25
456.836	420.25
457.056	432.25
457.276	420.25
457.497	456.25
457.717	421.25
457.937	447.25
458.157	450.25
458.377	433.25
458.598	449.25
458.818	476.25
459.038	471.25
459.258	446.25
459.478	476.25
459.698	466.25
459.918	489.25
460.138	503.25
460.358	528.25
460.578	533.25
460.798	549.25
461.018	535.25
461.238	556.25
461.458	543.25
461.678	527.25
461.898	547.25
462.118	563.25
462.338	581.25
462.558	566.25
462.777	612.25
462.997	631.25
463.217	653.25
463.437	663.25
463.657	645.25
463.876	647.25
464.096	613.25
464.316	614.25
464.536	588.25
464.755	608.25
464.975	585.25
465.195	549.25
465.414	555.25
465.634	521.25
465.854	517.25
466.073	500.25
466.293	512.25
466.512	498.25
466.732	465.25
466.951	476.25
467.171	490.25
467.391	471.25
467.61	470.25
467.829	483.25
468.049	477.25
468.268	458.25
468.488	449.25
468.707	460.25
468.927	464.25
469.146	473.25
469.365	465.25
469.585	463.25
469.804	476.25
470.023	490.25
470.243	475.25
470.462	490.25
470.681	492.25
470.901	501.25
471.12	481.25
471.339	490.25
471.558	459.25
471.777	461.25
471.997	475.25
472.216	488.25
472.435	459.25
472.654	438.25
472.873	461.25
473.092	462.25
473.311	460.25
473.53	449.25
473.749	454.25
473.968	464.25
474.187	454.25
474.406	475.25
474.625	458.25
474.844	473.25
475.063	466.25
475.282	459.25
475.501	474.25
475.72	477.25
475.939	468.25
476.158	478.25
476.377	471.25
476.596	470.25
476.814	502.25
477.033	495.25
477.252	507.25
477.471	513.25
477.69	487.25
477.908	520.25
478.127	523.25
478.346	545.25
478.564	548.25
478.783	553.25
479.002	574.25
479.22	575.25
479.439	564.25
479.658	552.25
479.876	574.25
480.095	572.25
480.313	552.25
480.532	579.25
480.751	548.25
480.969	544.25
481.188	566.25
481.406	549.25
481.624	512.25
481.843	528.25
482.061	528.25
482.28	538.25
482.498	521.25
482.717	553.25
482.935	548.25
483.153	502.25
483.372	539.25
483.59	550.25
483.808	526.25
484.027	534.25
484.245	517.25
484.463	523.25
484.681	544.25
484.9	542.25
485.118	518.25
485.336	534.25
485.554	533.25
485.772	560.25
485.99	532.25
486.209	553.25
486.427	547.25
486.645	546.25
486.863	552.25
487.081	541.25
487.299	545.25
487.517	566.25
487.735	535.25
487.953	561.25
488.171	565.25
488.389	564.25
488.607	536.25
488.825	548.25
489.043	530.25
489.261	548.25
489.479	542.25
489.696	550.25
489.914	549.25
490.132	548.25
490.35	568.25
490.568	531.25
490.786	553.25
491.003	544.25
491.221	578.25
491.439	570.25
491.657	555.25
491.874	576.25
492.092	572.25
492.31	591.25
492.527	584.25
492.745	590.25
492.963	569.25
493.18	585.25
493.398	559.25
493.615	597.25
493.833	580.25
494.05	596.25
494.268	594.25
494.485	589.25
494.703	581.25
494.92	583.25
495.138	599.25
495.355	601.25
495.573	584.25
495.79	581.25
496.008	612.25
496.225	611.25
496.442	612.25
496.66	626.25
496.877	621.25
497.094	661.25
497.312	648.25
497.529	643.25
497.746	660.25
497.963	668.25
498.181	669.25
498.398	710.25
498.615	745.25
498.832	799.25
499.049	804.25
499.267	842.25
499.484	906.25
499.701	956.25
499.918	1017.25
500.135	1101.25
500.352	1175.25
500.569	1208.25
500.786	1207.25
501.003	1200.25
501.22	1083.25
501.437	1016.25
501.654	915.25
501.871	875.25
