Data from Fe(NO3)3@0.1M.TitratingCurve.Agarose3%dH2O.NegLispCup.LampEnergy10.LIBS07252019_HRD10591_16-39-11-332.txt Node
Date: Thu Jul 25 16:39:11 EDT 2019
User: cochatt
Spectrometer: HR+D1059
Trigger mode: 1
Integration Time (sec): 1.000000E-1
Scans to average: 1
Electric dark correction enabled: true
Nonlinearity correction enabled: false
Boxcar width: 0
XAxis mode: Wavelengths
Number of Pixels in Spectrum: 2048
>>>>>Begin Spectral Data<<<<<
223.165	-14.5
223.4	-14.5
223.635	-14.5
223.869	-7.5
224.104	-14.5
224.338	-5.5
224.573	-11.5
224.808	-20.5
225.042	-12.5
225.277	-0.5
225.511	-5.5
225.746	1.5
225.98	-8.5
226.215	11.5
226.449	10.5
226.683	20.5
226.918	35.5
227.152	21.5
227.387	30.5
227.621	35.5
227.856	43.5
228.09	45.5
228.324	52.5
228.559	59.5
228.793	65.5
229.027	77.5
229.262	80.5
229.496	70.5
229.73	85.5
229.964	89.5
230.199	91.5
230.433	87.5
230.667	105.5
230.901	87.5
231.136	97.5
231.37	110.5
231.604	98.5
231.838	96.5
232.072	99.5
232.306	98.5
232.541	105.5
232.775	101.5
233.009	96.5
233.243	101.5
233.477	93.5
233.711	98.5
233.945	117.5
234.179	97.5
234.413	116.5
234.647	109.5
234.881	101.5
235.115	112.5
235.349	114.5
235.583	118.5
235.817	101.5
236.051	108.5
236.285	117.5
236.519	101.5
236.753	100.5
236.987	100.5
237.221	108.5
237.455	108.5
237.689	100.5
237.922	115.5
238.156	115.5
238.39	101.5
238.624	112.5
238.858	117.5
239.091	108.5
239.325	92.5
239.559	103.5
239.793	118.5
240.027	100.5
240.26	115.5
240.494	116.5
240.728	120.5
240.961	104.5
241.195	107.5
241.429	104.5
241.662	120.5
241.896	117.5
242.13	108.5
242.363	132.5
242.597	112.5
242.83	131.5
243.064	122.5
243.298	109.5
243.531	115.5
243.765	109.5
243.998	107.5
244.232	113.5
244.465	124.5
244.699	118.5
244.932	129.5
245.166	123.5
245.399	130.5
245.633	133.5
245.866	129.5
246.099	139.5
246.333	145.5
246.566	124.5
246.8	134.5
247.033	126.5
247.266	148.5
247.5	128.5
247.733	128.5
247.966	140.5
248.2	140.5
248.433	138.5
248.666	134.5
248.899	143.5
249.133	127.5
249.366	141.5
249.599	142.5
249.832	142.5
250.066	142.5
250.299	131.5
250.532	139.5
250.765	145.5
250.998	138.5
251.231	136.5
251.465	136.5
251.698	122.5
251.931	151.5
252.164	142.5
252.397	146.5
252.63	146.5
252.863	150.5
253.096	153.5
253.329	146.5
253.562	150.5
253.795	155.5
254.028	137.5
254.261	135.5
254.494	155.5
254.727	140.5
254.96	145.5
255.193	137.5
255.426	150.5
255.659	153.5
255.892	151.5
256.124	142.5
256.357	151.5
256.59	171.5
256.823	157.5
257.056	158.5
257.289	150.5
257.521	143.5
257.754	145.5
257.987	153.5
258.22	169.5
258.452	153.5
258.685	161.5
258.918	157.5
259.151	152.5
259.383	162.5
259.616	168.5
259.849	165.5
260.081	160.5
260.314	159.5
260.547	160.5
260.779	155.5
261.012	160.5
261.244	147.5
261.477	181.5
261.71	163.5
261.942	160.5
262.175	182.5
262.407	171.5
262.64	156.5
262.872	171.5
263.105	179.5
263.337	186.5
263.57	179.5
263.802	178.5
264.035	155.5
264.267	174.5
264.499	181.5
264.732	141.5
264.964	164.5
265.197	165.5
265.429	157.5
265.661	181.5
265.894	181.5
266.126	177.5
266.358	173.5
266.591	164.5
266.823	175.5
267.055	182.5
267.287	188.5
267.52	167.5
267.752	166.5
267.984	193.5
268.216	179.5
268.448	177.5
268.681	183.5
268.913	186.5
269.145	194.5
269.377	178.5
269.609	188.5
269.841	188.5
270.073	193.5
270.306	191.5
270.538	184.5
270.77	201.5
271.002	201.5
271.234	183.5
271.466	201.5
271.698	191.5
271.93	191.5
272.162	195.5
272.394	196.5
272.626	190.5
272.858	198.5
273.09	181.5
273.322	193.5
273.553	198.5
273.785	213.5
274.017	195.5
274.249	201.5
274.481	199.5
274.713	201.5
274.945	212.5
275.176	193.5
275.408	207.5
275.64	189.5
275.872	180.5
276.104	199.5
276.335	194.5
276.567	206.5
276.799	205.5
277.031	198.5
277.262	206.5
277.494	209.5
277.726	211.5
277.957	225.5
278.189	194.5
278.421	194.5
278.652	228.5
278.884	211.5
279.115	204.5
279.347	214.5
279.579	220.5
279.81	203.5
280.042	221.5
280.273	212.5
280.505	203.5
280.736	208.5
280.968	205.5
281.199	223.5
281.431	227.5
281.662	209.5
281.894	212.5
282.125	227.5
282.356	213.5
282.588	205.5
282.819	211.5
283.051	219.5
283.282	209.5
283.513	228.5
283.745	222.5
283.976	244.5
284.207	217.5
284.439	213.5
284.67	224.5
284.901	232.5
285.132	226.5
285.364	233.5
285.595	237.5
285.826	218.5
286.057	232.5
286.288	220.5
286.52	237.5
286.751	234.5
286.982	244.5
287.213	220.5
287.444	225.5
287.675	234.5
287.906	237.5
288.138	261.5
288.369	233.5
288.6	228.5
288.831	227.5
289.062	229.5
289.293	241.5
289.524	226.5
289.755	230.5
289.986	250.5
290.217	232.5
290.448	240.5
290.679	244.5
290.91	241.5
291.141	229.5
291.371	235.5
291.602	241.5
291.833	257.5
292.064	240.5
292.295	228.5
292.526	234.5
292.757	233.5
292.987	239.5
293.218	235.5
293.449	245.5
293.68	248.5
293.91	229.5
294.141	245.5
294.372	251.5
294.603	221.5
294.833	229.5
295.064	233.5
295.295	251.5
295.525	240.5
295.756	251.5
295.987	250.5
296.217	267.5
296.448	258.5
296.679	253.5
296.909	262.5
297.14	242.5
297.37	241.5
297.601	255.5
297.831	263.5
298.062	263.5
298.292	258.5
298.523	244.5
298.753	267.5
298.984	260.5
299.214	262.5
299.445	259.5
299.675	265.5
299.905	260.5
300.136	260.5
300.366	266.5
300.597	250.5
300.827	244.5
301.057	275.5
301.288	258.5
301.518	256.5
301.748	252.5
301.979	278.5
302.209	274.5
302.439	267.5
302.669	282.5
302.9	274.5
303.13	277.5
303.36	274.5
303.59	278.5
303.82	257.5
304.051	256.5
304.281	289.5
304.511	249.5
304.741	293.5
304.971	284.5
305.201	274.5
305.431	285.5
305.661	270.5
305.891	264.5
306.121	274.5
306.352	266.5
306.582	271.5
306.812	260.5
307.042	269.5
307.272	275.5
307.502	284.5
307.731	282.5
307.961	276.5
308.191	274.5
308.421	269.5
308.651	260.5
308.881	265.5
309.111	280.5
309.341	279.5
309.571	276.5
309.8	260.5
310.03	278.5
310.26	273.5
310.49	258.5
310.72	280.5
310.949	277.5
311.179	285.5
311.409	269.5
311.639	277.5
311.868	282.5
312.098	279.5
312.328	288.5
312.557	284.5
312.787	292.5
313.017	282.5
313.246	276.5
313.476	295.5
313.706	284.5
313.935	288.5
314.165	289.5
314.394	279.5
314.624	281.5
314.853	298.5
315.083	286.5
315.312	290.5
315.542	288.5
315.771	276.5
316.001	287.5
316.23	299.5
316.46	298.5
316.689	295.5
316.919	280.5
317.148	302.5
317.377	295.5
317.607	308.5
317.836	282.5
318.065	280.5
318.295	291.5
318.524	288.5
318.753	289.5
318.983	305.5
319.212	292.5
319.441	270.5
319.67	278.5
319.9	276.5
320.129	276.5
320.358	292.5
320.587	289.5
320.816	289.5
321.046	292.5
321.275	295.5
321.504	300.5
321.733	296.5
321.962	284.5
322.191	277.5
322.42	298.5
322.649	302.5
322.878	311.5
323.108	297.5
323.337	286.5
323.566	264.5
323.795	286.5
324.024	292.5
324.253	300.5
324.482	298.5
324.71	305.5
324.939	300.5
325.168	311.5
325.397	313.5
325.626	292.5
325.855	306.5
326.084	299.5
326.313	304.5
326.542	306.5
326.77	332.5
326.999	301.5
327.228	300.5
327.457	310.5
327.686	321.5
327.914	330.5
328.143	322.5
328.372	316.5
328.6	323.5
328.829	324.5
329.058	320.5
329.287	314.5
329.515	333.5
329.744	313.5
329.972	326.5
330.201	323.5
330.43	326.5
330.658	328.5
330.887	334.5
331.115	328.5
331.344	322.5
331.572	322.5
331.801	335.5
332.03	335.5
332.258	368.5
332.486	324.5
332.715	373.5
332.943	362.5
333.172	380.5
333.4	363.5
333.629	362.5
333.857	368.5
334.085	408.5
334.314	379.5
334.542	409.5
334.771	383.5
334.999	369.5
335.227	368.5
335.455	368.5
335.684	398.5
335.912	384.5
336.14	361.5
336.369	375.5
336.597	378.5
336.825	379.5
337.053	370.5
337.281	386.5
337.51	365.5
337.738	362.5
337.966	342.5
338.194	343.5
338.422	340.5
338.65	347.5
338.878	329.5
339.106	346.5
339.334	357.5
339.562	337.5
339.79	337.5
340.018	343.5
340.246	312.5
340.474	331.5
340.702	322.5
340.93	308.5
341.158	333.5
341.386	333.5
341.614	338.5
341.842	341.5
342.07	337.5
342.298	333.5
342.526	348.5
342.754	321.5
342.981	341.5
343.209	350.5
343.437	338.5
343.665	354.5
343.893	370.5
344.12	393.5
344.348	376.5
344.576	370.5
344.804	351.5
345.031	347.5
345.259	336.5
345.487	332.5
345.714	331.5
345.942	328.5
346.17	321.5
346.397	325.5
346.625	339.5
346.853	344.5
347.08	321.5
347.308	320.5
347.535	334.5
347.763	323.5
347.99	345.5
348.218	324.5
348.445	322.5
348.673	316.5
348.9	320.5
349.128	322.5
349.355	310.5
349.583	329.5
349.81	298.5
350.037	338.5
350.265	314.5
350.492	322.5
350.72	318.5
350.947	320.5
351.174	321.5
351.402	323.5
351.629	318.5
351.856	318.5
352.083	321.5
352.311	325.5
352.538	311.5
352.765	317.5
352.992	301.5
353.22	344.5
353.447	300.5
353.674	344.5
353.901	328.5
354.128	325.5
354.355	307.5
354.583	333.5
354.81	294.5
355.037	314.5
355.264	320.5
355.491	326.5
355.718	317.5
355.945	316.5
356.172	314.5
356.399	323.5
356.626	312.5
356.853	312.5
357.08	306.5
357.307	323.5
357.534	319.5
357.761	323.5
357.988	312.5
358.215	310.5
358.441	318.5
358.668	329.5
358.895	310.5
359.122	311.5
359.349	314.5
359.576	314.5
359.802	313.5
360.029	325.5
360.256	312.5
360.483	311.5
360.709	294.5
360.936	312.5
361.163	343.5
361.39	324.5
361.616	308.5
361.843	304.5
362.07	324.5
362.296	330.5
362.523	331.5
362.749	333.5
362.976	324.5
363.203	328.5
363.429	335.5
363.656	326.5
363.882	326.5
364.109	331.5
364.335	304.5
364.562	339.5
364.788	317.5
365.015	332.5
365.241	312.5
365.468	327.5
365.694	313.5
365.92	339.5
366.147	324.5
366.373	333.5
366.599	334.5
366.826	317.5
367.052	321.5
367.278	335.5
367.505	322.5
367.731	328.5
367.957	311.5
368.184	332.5
368.41	328.5
368.636	332.5
368.862	328.5
369.089	336.5
369.315	341.5
369.541	322.5
369.767	359.5
369.993	337.5
370.219	339.5
370.445	340.5
370.672	348.5
370.898	353.5
371.124	354.5
371.35	331.5
371.576	354.5
371.802	346.5
372.028	342.5
372.254	345.5
372.48	353.5
372.706	353.5
372.932	361.5
373.158	341.5
373.384	369.5
373.61	372.5
373.835	366.5
374.061	359.5
374.287	368.5
374.513	364.5
374.739	366.5
374.965	391.5
375.191	365.5
375.416	365.5
375.642	361.5
375.868	377.5
376.094	369.5
376.319	370.5
376.545	361.5
376.771	365.5
376.997	369.5
377.222	349.5
377.448	348.5
377.674	354.5
377.899	349.5
378.125	345.5
378.35	356.5
378.576	329.5
378.802	329.5
379.027	371.5
379.253	354.5
379.478	362.5
379.704	352.5
379.929	346.5
380.155	351.5
380.38	358.5
380.606	354.5
380.831	370.5
381.057	371.5
381.282	373.5
381.507	337.5
381.733	382.5
381.958	368.5
382.184	380.5
382.409	357.5
382.634	378.5
382.86	386.5
383.085	382.5
383.31	379.5
383.535	389.5
383.761	383.5
383.986	388.5
384.211	390.5
384.436	390.5
384.662	397.5
384.887	415.5
385.112	416.5
385.337	412.5
385.562	414.5
385.787	420.5
386.013	443.5
386.238	417.5
386.463	410.5
386.688	441.5
386.913	405.5
387.138	418.5
387.363	418.5
387.588	426.5
387.813	453.5
388.038	436.5
388.263	424.5
388.488	420.5
388.713	416.5
388.938	411.5
389.163	420.5
389.387	415.5
389.612	401.5
389.837	424.5
390.062	423.5
390.287	443.5
390.512	428.5
390.736	419.5
390.961	444.5
391.186	426.5
391.411	436.5
391.636	444.5
391.86	475.5
392.085	459.5
392.31	480.5
392.534	485.5
392.759	453.5
392.984	440.5
393.208	422.5
393.433	444.5
393.658	452.5
393.882	465.5
394.107	438.5
394.331	445.5
394.556	444.5
394.78	445.5
395.005	445.5
395.229	462.5
395.454	471.5
395.678	491.5
395.903	464.5
396.127	469.5
396.352	475.5
396.576	462.5
396.801	469.5
397.025	467.5
397.249	471.5
397.474	491.5
397.698	471.5
397.922	493.5
398.147	476.5
398.371	478.5
398.595	502.5
398.82	521.5
399.044	545.5
399.268	586.5
399.492	633.5
399.717	675.5
399.941	653.5
400.165	630.5
400.389	603.5
400.613	564.5
400.837	542.5
401.062	538.5
401.286	535.5
401.51	525.5
401.734	533.5
401.958	541.5
402.182	519.5
402.406	527.5
402.63	550.5
402.854	525.5
403.078	528.5
403.302	568.5
403.526	549.5
403.75	566.5
403.974	569.5
404.198	565.5
404.422	565.5
404.645	554.5
404.869	565.5
405.093	574.5
405.317	571.5
405.541	564.5
405.765	548.5
405.988	551.5
406.212	572.5
406.436	581.5
406.66	580.5
406.883	595.5
407.107	595.5
407.331	622.5
407.555	636.5
407.778	638.5
408.002	614.5
408.226	621.5
408.449	608.5
408.673	596.5
408.896	590.5
409.12	575.5
409.344	578.5
409.567	557.5
409.791	584.5
410.014	584.5
410.238	585.5
410.461	586.5
410.685	581.5
410.908	567.5
411.132	552.5
411.355	554.5
411.578	550.5
411.802	539.5
412.025	534.5
412.249	566.5
412.472	575.5
412.695	552.5
412.919	544.5
413.142	526.5
413.365	527.5
413.589	560.5
413.812	521.5
414.035	538.5
414.258	535.5
414.482	539.5
414.705	548.5
414.928	547.5
415.151	530.5
415.374	512.5
415.597	524.5
415.821	525.5
416.044	519.5
416.267	520.5
416.49	543.5
416.713	525.5
416.936	536.5
417.159	524.5
417.382	530.5
417.605	524.5
417.828	536.5
418.051	529.5
418.274	531.5
418.497	549.5
418.72	516.5
418.943	538.5
419.166	538.5
419.389	577.5
419.611	571.5
419.834	556.5
420.057	541.5
420.28	554.5
420.503	534.5
420.726	519.5
420.948	521.5
421.171	506.5
421.394	506.5
421.617	523.5
421.839	531.5
422.062	515.5
422.285	497.5
422.507	519.5
422.73	516.5
422.953	506.5
423.175	529.5
423.398	521.5
423.621	533.5
423.843	532.5
424.066	526.5
424.288	529.5
424.511	538.5
424.733	524.5
424.956	532.5
425.178	530.5
425.401	517.5
425.623	501.5
425.846	499.5
426.068	508.5
426.291	499.5
426.513	522.5
426.735	502.5
426.958	501.5
427.18	498.5
427.402	462.5
427.625	487.5
427.847	460.5
428.069	476.5
428.292	478.5
428.514	473.5
428.736	479.5
428.958	499.5
429.181	489.5
429.403	447.5
429.625	482.5
429.847	491.5
430.069	485.5
430.292	472.5
430.514	487.5
430.736	468.5
430.958	493.5
431.18	480.5
431.402	475.5
431.624	502.5
431.846	475.5
432.068	476.5
432.29	473.5
432.512	500.5
432.734	464.5
432.956	463.5
433.178	491.5
433.4	485.5
433.622	490.5
433.844	480.5
434.066	480.5
434.287	490.5
434.509	529.5
434.731	508.5
434.953	510.5
435.175	529.5
435.397	518.5
435.618	515.5
435.84	496.5
436.062	510.5
436.284	489.5
436.505	494.5
436.727	484.5
436.949	492.5
437.17	512.5
437.392	480.5
437.614	472.5
437.835	450.5
438.057	448.5
438.278	445.5
438.5	485.5
438.721	484.5
438.943	465.5
439.165	467.5
439.386	471.5
439.608	482.5
439.829	490.5
440.05	478.5
440.272	502.5
440.493	482.5
440.715	490.5
440.936	505.5
441.158	508.5
441.379	491.5
441.6	525.5
441.822	533.5
442.043	531.5
442.264	505.5
442.486	542.5
442.707	537.5
442.928	536.5
443.149	533.5
443.371	536.5
443.592	530.5
443.813	531.5
444.034	562.5
444.255	541.5
444.476	564.5
444.698	596.5
444.919	594.5
445.14	700.5
445.361	620.5
445.582	570.5
445.803	529.5
446.024	519.5
446.245	497.5
446.466	507.5
446.687	505.5
446.908	501.5
447.129	490.5
447.35	496.5
447.571	488.5
447.792	480.5
448.013	459.5
448.234	468.5
448.455	488.5
448.675	470.5
448.896	444.5
449.117	457.5
449.338	473.5
449.559	473.5
449.779	436.5
450	456.5
450.221	466.5
450.442	462.5
450.662	442.5
450.883	441.5
451.104	441.5
451.324	453.5
451.545	473.5
451.766	457.5
451.986	450.5
452.207	460.5
452.428	423.5
452.648	461.5
452.869	445.5
453.089	419.5
453.31	434.5
453.53	426.5
453.751	437.5
453.971	421.5
454.192	428.5
454.412	430.5
454.633	421.5
454.853	440.5
455.073	418.5
455.294	429.5
455.514	436.5
455.734	418.5
455.955	408.5
456.175	435.5
456.395	443.5
456.616	424.5
456.836	429.5
457.056	435.5
457.276	421.5
457.497	431.5
457.717	440.5
457.937	439.5
458.157	431.5
458.377	443.5
458.598	426.5
458.818	460.5
459.038	466.5
459.258	436.5
459.478	474.5
459.698	493.5
459.918	518.5
460.138	536.5
460.358	547.5
460.578	536.5
460.798	562.5
461.018	566.5
461.238	554.5
461.458	532.5
461.678	550.5
461.898	564.5
462.118	572.5
462.338	597.5
462.558	602.5
462.777	593.5
462.997	633.5
463.217	653.5
463.437	676.5
463.657	638.5
463.876	630.5
464.096	634.5
464.316	590.5
464.536	590.5
464.755	616.5
464.975	574.5
465.195	570.5
465.414	545.5
465.634	520.5
465.854	486.5
466.073	489.5
466.293	460.5
466.512	464.5
466.732	468.5
466.951	473.5
467.171	481.5
467.391	475.5
467.61	449.5
467.829	489.5
468.049	468.5
468.268	457.5
468.488	458.5
468.707	484.5
468.927	465.5
469.146	450.5
469.365	484.5
469.585	452.5
469.804	468.5
470.023	481.5
470.243	452.5
470.462	475.5
470.681	476.5
470.901	486.5
471.12	497.5
471.339	480.5
471.558	480.5
471.777	466.5
471.997	451.5
472.216	452.5
472.435	454.5
472.654	459.5
472.873	436.5
473.092	450.5
473.311	467.5
473.53	457.5
473.749	437.5
473.968	444.5
474.187	439.5
474.406	436.5
474.625	446.5
474.844	461.5
475.063	442.5
475.282	441.5
475.501	441.5
475.72	472.5
475.939	456.5
476.158	449.5
476.377	461.5
476.596	480.5
476.814	472.5
477.033	466.5
477.252	478.5
477.471	482.5
477.69	506.5
477.908	514.5
478.127	514.5
478.346	498.5
478.564	512.5
478.783	518.5
479.002	526.5
479.22	529.5
479.439	547.5
479.658	531.5
479.876	536.5
480.095	544.5
480.313	530.5
480.532	561.5
480.751	538.5
480.969	513.5
481.188	508.5
481.406	523.5
481.624	525.5
481.843	514.5
482.061	486.5
482.28	512.5
482.498	478.5
482.717	488.5
482.935	474.5
483.153	486.5
483.372	490.5
483.59	478.5
483.808	511.5
484.027	518.5
484.245	486.5
484.463	497.5
484.681	513.5
484.9	520.5
485.118	507.5
485.336	502.5
485.554	521.5
485.772	498.5
485.99	515.5
486.209	508.5
486.427	519.5
486.645	515.5
486.863	522.5
487.081	505.5
487.299	510.5
487.517	492.5
487.735	520.5
487.953	525.5
488.171	537.5
488.389	498.5
488.607	513.5
488.825	503.5
489.043	512.5
489.261	514.5
489.479	501.5
489.696	513.5
489.914	520.5
490.132	520.5
490.35	531.5
490.568	510.5
490.786	529.5
491.003	512.5
491.221	521.5
491.439	520.5
491.657	527.5
491.874	557.5
492.092	525.5
492.31	532.5
492.527	528.5
492.745	540.5
492.963	547.5
493.18	542.5
493.398	563.5
493.615	548.5
493.833	545.5
494.05	542.5
494.268	534.5
494.485	553.5
494.703	528.5
494.92	544.5
495.138	534.5
495.355	538.5
495.573	549.5
495.79	541.5
496.008	562.5
496.225	578.5
496.442	579.5
496.66	565.5
496.877	561.5
497.094	586.5
497.312	581.5
497.529	608.5
497.746	601.5
497.963	634.5
498.181	665.5
498.398	669.5
498.615	704.5
498.832	748.5
499.049	777.5
499.267	854.5
499.484	882.5
499.701	969.5
499.918	1049.5
500.135	1134.5
500.352	1215.5
500.569	1248.5
500.786	1208.5
501.003	1196.5
501.22	1114.5
501.437	988.5
501.654	916.5
501.871	857.5
502.088	815.5
502.305	780.5
502.522	726.5
502.739	701.5
502.956	693.5
503.172	659.5
503.389	650.5
503.606	622.5
503.823	621.5
504.04	612.5
504.256	596.5
504.473	629.5
504.69	627.5
504.907	622.5
505.123	579.5
505.34	547.5
505.557	542.5
505.773	556.5
505.99	526.5
506.207	527.5
506.423	510.5
506.64	486.5
506.856	492.5
507.073	484.5
507.289	485.5
507.506	482.5
507.722	484.5
507.939	490.5
508.155	476.5
508.372	482.5
508.588	432.5
508.805	473.5
509.021	456.5
509.238	472.5
509.454	460.5
509.67	449.5
509.887	451.5
510.103	436.5
510.319	448.5
510.536	450.5
510.752	443.5
510.968	456.5
511.184	453.5
511.401	466.5
511.617	437.5
511.833	456.5
512.049	420.5
512.265	428.5
512.481	447.5
512.698	423.5
512.914	473.5
513.13	453.5
513.346	437.5
513.562	466.5
513.778	437.5
513.994	444.5
514.21	452.5
514.426	436.5
514.642	450.5
514.858	465.5
515.074	458.5
515.29	463.5
515.506	460.5
515.721	449.5
515.937	450.5
516.153	468.5
516.369	499.5
516.585	508.5
516.801	501.5
517.016	533.5
517.232	533.5
517.448	542.5
517.664	554.5
517.879	558.5
518.095	556.5
518.311	542.5
518.527	529.5
518.742	520.5
518.958	501.5
519.173	512.5
519.389	500.5
519.605	491.5
