Data from Fe(NO3)3@0.025M.TitratingCurve.Agarose3%dH2O.NegLispCup.LampEnergy10.LIBS07252019_HRD10591_16-54-52-335.txt Node
Date: Thu Jul 25 16:54:52 EDT 2019
User: cochatt
Spectrometer: HR+D1059
Trigger mode: 1
Integration Time (sec): 1.000000E-1
Scans to average: 1
Electric dark correction enabled: true
Nonlinearity correction enabled: false
Boxcar width: 0
XAxis mode: Wavelengths
Number of Pixels in Spectrum: 2048
>>>>>Begin Spectral Data<<<<<
223.165	-12.69
223.4	-12.69
223.635	-12.69
223.869	-5.69
224.104	-26.69
224.338	-21.69
224.573	-11.69
224.808	-11.69
225.042	-5.69
225.277	2.31
225.511	-9.69
225.746	1.31
225.98	4.31
226.215	27.31
226.449	4.31
226.683	15.31
226.918	16.31
227.152	34.31
227.387	46.31
227.621	43.31
227.856	39.31
228.09	43.31
228.324	61.31
228.559	51.31
228.793	68.31
229.027	73.31
229.262	76.31
229.496	87.31
229.73	70.31
229.964	68.31
230.199	93.31
230.433	100.31
230.667	84.31
230.901	98.31
231.136	97.31
231.37	103.31
231.604	88.31
231.838	84.31
232.072	92.31
232.306	85.31
232.541	105.31
232.775	112.31
233.009	83.31
233.243	110.31
233.477	106.31
233.711	94.31
233.945	79.31
234.179	104.31
234.413	99.31
234.647	107.31
234.881	99.31
235.115	90.31
235.349	97.31
235.583	100.31
235.817	98.31
236.051	102.31
236.285	89.31
236.519	99.31
236.753	118.31
236.987	91.31
237.221	96.31
237.455	102.31
237.689	93.31
237.922	76.31
238.156	90.31
238.39	98.31
238.624	101.31
238.858	95.31
239.091	107.31
239.325	85.31
239.559	86.31
239.793	95.31
240.027	110.31
240.26	98.31
240.494	97.31
240.728	101.31
240.961	109.31
241.195	110.31
241.429	108.31
241.662	111.31
241.896	96.31
242.13	99.31
242.363	102.31
242.597	91.31
242.83	108.31
243.064	114.31
243.298	114.31
243.531	105.31
243.765	105.31
243.998	110.31
244.232	90.31
244.465	110.31
244.699	117.31
244.932	114.31
245.166	124.31
245.399	105.31
245.633	108.31
245.866	118.31
246.099	110.31
246.333	109.31
246.566	98.31
246.8	117.31
247.033	110.31
247.266	113.31
247.5	100.31
247.733	114.31
247.966	107.31
248.2	115.31
248.433	112.31
248.666	104.31
248.899	122.31
249.133	117.31
249.366	124.31
249.599	123.31
249.832	103.31
250.066	99.31
250.299	118.31
250.532	115.31
250.765	128.31
250.998	103.31
251.231	112.31
251.465	120.31
251.698	116.31
251.931	119.31
252.164	108.31
252.397	120.31
252.63	110.31
252.863	115.31
253.096	129.31
253.329	120.31
253.562	115.31
253.795	130.31
254.028	134.31
254.261	126.31
254.494	114.31
254.727	124.31
254.96	126.31
255.193	126.31
255.426	117.31
255.659	122.31
255.892	133.31
256.124	118.31
256.357	124.31
256.59	131.31
256.823	139.31
257.056	118.31
257.289	119.31
257.521	134.31
257.754	122.31
257.987	115.31
258.22	142.31
258.452	121.31
258.685	145.31
258.918	132.31
259.151	132.31
259.383	146.31
259.616	129.31
259.849	137.31
260.081	149.31
260.314	127.31
260.547	120.31
260.779	146.31
261.012	133.31
261.244	140.31
261.477	144.31
261.71	113.31
261.942	144.31
262.175	136.31
262.407	123.31
262.64	140.31
262.872	150.31
263.105	142.31
263.337	120.31
263.57	143.31
263.802	152.31
264.035	136.31
264.267	126.31
264.499	138.31
264.732	128.31
264.964	128.31
265.197	149.31
265.429	140.31
265.661	152.31
265.894	134.31
266.126	157.31
266.358	151.31
266.591	132.31
266.823	145.31
267.055	146.31
267.287	161.31
267.52	159.31
267.752	149.31
267.984	149.31
268.216	147.31
268.448	153.31
268.681	161.31
268.913	155.31
269.145	164.31
269.377	158.31
269.609	150.31
269.841	150.31
270.073	132.31
270.306	141.31
270.538	126.31
270.77	143.31
271.002	152.31
271.234	144.31
271.466	148.31
271.698	154.31
271.93	161.31
272.162	163.31
272.394	174.31
272.626	169.31
272.858	158.31
273.09	161.31
273.322	171.31
273.553	163.31
273.785	165.31
274.017	152.31
274.249	162.31
274.481	186.31
274.713	163.31
274.945	166.31
275.176	169.31
275.408	175.31
275.64	184.31
275.872	163.31
276.104	178.31
276.335	167.31
276.567	151.31
276.799	159.31
277.031	182.31
277.262	166.31
277.494	167.31
277.726	177.31
277.957	174.31
278.189	177.31
278.421	182.31
278.652	172.31
278.884	167.31
279.115	160.31
279.347	180.31
279.579	188.31
279.81	185.31
280.042	175.31
280.273	179.31
280.505	167.31
280.736	177.31
280.968	170.31
281.199	178.31
281.431	166.31
281.662	189.31
281.894	190.31
282.125	190.31
282.356	184.31
282.588	178.31
282.819	172.31
283.051	176.31
283.282	195.31
283.513	193.31
283.745	202.31
283.976	186.31
284.207	194.31
284.439	187.31
284.67	187.31
284.901	194.31
285.132	186.31
285.364	180.31
285.595	180.31
285.826	171.31
286.057	202.31
286.288	192.31
286.52	192.31
286.751	191.31
286.982	196.31
287.213	178.31
287.444	180.31
287.675	198.31
287.906	204.31
288.138	202.31
288.369	206.31
288.6	180.31
288.831	197.31
289.062	200.31
289.293	200.31
289.524	185.31
289.755	186.31
289.986	193.31
290.217	202.31
290.448	179.31
290.679	208.31
290.91	201.31
291.141	202.31
291.371	200.31
291.602	200.31
291.833	192.31
292.064	203.31
292.295	198.31
292.526	200.31
292.757	192.31
292.987	201.31
293.218	197.31
293.449	190.31
293.68	203.31
293.91	204.31
294.141	206.31
294.372	207.31
294.603	216.31
294.833	204.31
295.064	192.31
295.295	217.31
295.525	223.31
295.756	200.31
295.987	211.31
296.217	201.31
296.448	202.31
296.679	211.31
296.909	216.31
297.14	207.31
297.37	217.31
297.601	205.31
297.831	222.31
298.062	217.31
298.292	213.31
298.523	217.31
298.753	205.31
298.984	209.31
299.214	210.31
299.445	221.31
299.675	224.31
299.905	212.31
300.136	227.31
300.366	215.31
300.597	212.31
300.827	230.31
301.057	225.31
301.288	220.31
301.518	233.31
301.748	226.31
301.979	220.31
302.209	231.31
302.439	232.31
302.669	211.31
302.9	230.31
303.13	219.31
303.36	240.31
303.59	246.31
303.82	229.31
304.051	242.31
304.281	234.31
304.511	243.31
304.741	244.31
304.971	236.31
305.201	220.31
305.431	235.31
305.661	219.31
305.891	222.31
306.121	240.31
306.352	243.31
306.582	242.31
306.812	228.31
307.042	254.31
307.272	230.31
307.502	235.31
307.731	255.31
307.961	229.31
308.191	242.31
308.421	234.31
308.651	239.31
308.881	243.31
309.111	241.31
309.341	239.31
309.571	235.31
309.8	241.31
310.03	227.31
310.26	249.31
310.49	255.31
310.72	238.31
310.949	244.31
311.179	245.31
311.409	226.31
311.639	249.31
311.868	241.31
312.098	251.31
312.328	265.31
312.557	263.31
312.787	261.31
313.017	241.31
313.246	264.31
313.476	249.31
313.706	251.31
313.935	254.31
314.165	248.31
314.394	264.31
314.624	248.31
314.853	234.31
315.083	256.31
315.312	280.31
315.542	254.31
315.771	260.31
316.001	279.31
316.23	282.31
316.46	263.31
316.689	257.31
316.919	267.31
317.148	264.31
317.377	262.31
317.607	267.31
317.836	254.31
318.065	259.31
318.295	267.31
318.524	273.31
318.753	266.31
318.983	250.31
319.212	256.31
319.441	246.31
319.67	254.31
319.9	254.31
320.129	265.31
320.358	271.31
320.587	270.31
320.816	273.31
321.046	281.31
321.275	269.31
321.504	244.31
321.733	248.31
321.962	265.31
322.191	265.31
322.42	254.31
322.649	271.31
322.878	282.31
323.108	270.31
323.337	276.31
323.566	264.31
323.795	265.31
324.024	283.31
324.253	283.31
324.482	274.31
324.71	280.31
324.939	289.31
325.168	266.31
325.397	276.31
325.626	276.31
325.855	281.31
326.084	277.31
326.313	275.31
326.542	277.31
326.77	282.31
326.999	272.31
327.228	282.31
327.457	280.31
327.686	278.31
327.914	289.31
328.143	263.31
328.372	279.31
328.6	278.31
328.829	287.31
329.058	302.31
329.287	282.31
329.515	286.31
329.744	299.31
329.972	281.31
330.201	267.31
330.43	288.31
330.658	308.31
330.887	293.31
331.115	289.31
331.344	318.31
331.572	290.31
331.801	295.31
332.03	316.31
332.258	304.31
332.486	332.31
332.715	326.31
332.943	325.31
333.172	322.31
333.4	336.31
333.629	319.31
333.857	323.31
334.085	322.31
334.314	324.31
334.542	338.31
334.771	324.31
334.999	352.31
335.227	351.31
335.455	355.31
335.684	336.31
335.912	319.31
336.14	343.31
336.369	306.31
336.597	332.31
336.825	322.31
337.053	306.31
337.281	351.31
337.51	327.31
337.738	307.31
337.966	315.31
338.194	308.31
338.422	319.31
338.65	318.31
338.878	308.31
339.106	319.31
339.334	341.31
339.562	325.31
339.79	314.31
340.018	305.31
340.246	312.31
340.474	320.31
340.702	314.31
340.93	295.31
341.158	315.31
341.386	302.31
341.614	292.31
341.842	324.31
342.07	296.31
342.298	315.31
342.526	328.31
342.754	290.31
342.981	311.31
343.209	304.31
343.437	342.31
343.665	316.31
343.893	316.31
344.12	323.31
344.348	324.31
344.576	331.31
344.804	318.31
345.031	329.31
345.259	328.31
345.487	329.31
345.714	308.31
345.942	318.31
346.17	318.31
346.397	311.31
346.625	319.31
346.853	299.31
347.08	290.31
347.308	283.31
347.535	317.31
347.763	296.31
347.99	309.31
348.218	280.31
348.445	314.31
348.673	310.31
348.9	306.31
349.128	306.31
349.355	290.31
349.583	305.31
349.81	278.31
350.037	292.31
350.265	320.31
350.492	300.31
350.72	307.31
350.947	289.31
351.174	310.31
351.402	297.31
351.629	304.31
351.856	309.31
352.083	302.31
352.311	312.31
352.538	306.31
352.765	302.31
352.992	322.31
353.22	313.31
353.447	287.31
353.674	289.31
353.901	294.31
354.128	292.31
354.355	304.31
354.583	311.31
354.81	299.31
355.037	297.31
355.264	282.31
355.491	314.31
355.718	309.31
355.945	291.31
356.172	286.31
356.399	312.31
356.626	283.31
356.853	281.31
357.08	307.31
357.307	319.31
357.534	313.31
357.761	297.31
357.988	297.31
358.215	304.31
358.441	308.31
358.668	294.31
358.895	308.31
359.122	286.31
359.349	294.31
359.576	288.31
359.802	306.31
360.029	307.31
360.256	299.31
360.483	319.31
360.709	321.31
360.936	321.31
361.163	313.31
361.39	318.31
361.616	294.31
361.843	290.31
362.07	292.31
362.296	326.31
362.523	297.31
362.749	299.31
362.976	315.31
363.203	313.31
363.429	308.31
363.656	321.31
363.882	313.31
364.109	319.31
364.335	315.31
364.562	317.31
364.788	304.31
365.015	302.31
365.241	315.31
365.468	314.31
365.694	291.31
365.92	302.31
366.147	294.31
366.373	320.31
366.599	299.31
366.826	310.31
367.052	315.31
367.278	321.31
367.505	310.31
367.731	313.31
367.957	318.31
368.184	290.31
368.41	328.31
368.636	304.31
368.862	304.31
369.089	319.31
369.315	328.31
369.541	315.31
369.767	318.31
369.993	316.31
370.219	318.31
370.445	321.31
370.672	329.31
370.898	350.31
371.124	336.31
371.35	327.31
371.576	317.31
371.802	331.31
372.028	328.31
372.254	329.31
372.48	346.31
372.706	334.31
372.932	351.31
373.158	346.31
373.384	350.31
373.61	312.31
373.835	331.31
374.061	334.31
374.287	347.31
374.513	336.31
374.739	336.31
374.965	344.31
375.191	362.31
375.416	352.31
375.642	343.31
375.868	338.31
376.094	335.31
376.319	330.31
376.545	322.31
376.771	341.31
376.997	342.31
377.222	335.31
377.448	336.31
377.674	341.31
377.899	355.31
378.125	334.31
378.35	340.31
378.576	333.31
378.802	318.31
379.027	331.31
379.253	346.31
379.478	338.31
379.704	342.31
379.929	349.31
380.155	344.31
380.38	339.31
380.606	328.31
380.831	329.31
381.057	332.31
381.282	320.31
381.507	340.31
381.733	347.31
381.958	337.31
382.184	339.31
382.409	352.31
382.634	334.31
382.86	357.31
383.085	342.31
383.31	375.31
383.535	359.31
383.761	332.31
383.986	339.31
384.211	350.31
384.436	366.31
384.662	357.31
384.887	346.31
385.112	348.31
385.337	375.31
385.562	363.31
385.787	382.31
386.013	368.31
386.238	385.31
386.463	364.31
386.688	374.31
386.913	399.31
387.138	390.31
387.363	379.31
387.588	383.31
387.813	384.31
388.038	382.31
388.263	369.31
388.488	385.31
388.713	369.31
388.938	400.31
389.163	384.31
389.387	387.31
389.612	373.31
389.837	386.31
390.062	383.31
390.287	398.31
390.512	394.31
390.736	394.31
390.961	397.31
391.186	389.31
391.411	406.31
391.636	408.31
391.86	422.31
392.085	395.31
392.31	398.31
392.534	410.31
392.759	419.31
392.984	391.31
393.208	402.31
393.433	406.31
393.658	386.31
393.882	403.31
394.107	385.31
394.331	392.31
394.556	405.31
394.78	415.31
395.005	403.31
395.229	401.31
395.454	406.31
395.678	405.31
395.903	419.31
396.127	413.31
396.352	423.31
396.576	421.31
396.801	415.31
397.025	415.31
397.249	440.31
397.474	452.31
397.698	453.31
397.922	423.31
398.147	421.31
398.371	426.31
398.595	457.31
398.82	480.31
399.044	474.31
399.268	526.31
399.492	554.31
399.717	532.31
399.941	544.31
400.165	528.31
400.389	512.31
400.613	501.31
400.837	473.31
401.062	491.31
401.286	460.31
401.51	453.31
401.734	459.31
401.958	462.31
402.182	453.31
402.406	460.31
402.63	460.31
402.854	476.31
403.078	471.31
403.302	467.31
403.526	478.31
403.75	473.31
403.974	470.31
404.198	473.31
404.422	458.31
404.645	471.31
404.869	470.31
405.093	462.31
405.317	483.31
405.541	458.31
405.765	465.31
405.988	455.31
406.212	469.31
406.436	478.31
406.66	496.31
406.883	509.31
407.107	508.31
407.331	502.31
407.555	507.31
407.778	521.31
408.002	510.31
408.226	482.31
408.449	531.31
408.673	519.31
408.896	491.31
409.12	506.31
409.344	508.31
409.567	467.31
409.791	491.31
410.014	475.31
410.238	467.31
410.461	495.31
410.685	481.31
410.908	474.31
411.132	456.31
411.355	475.31
411.578	476.31
411.802	467.31
412.025	454.31
412.249	463.31
412.472	458.31
412.695	472.31
412.919	473.31
413.142	454.31
413.365	462.31
413.589	454.31
413.812	440.31
414.035	451.31
414.258	452.31
414.482	465.31
414.705	455.31
414.928	458.31
415.151	471.31
415.374	459.31
415.597	430.31
415.821	435.31
416.044	438.31
416.267	427.31
416.49	427.31
416.713	454.31
416.936	445.31
417.159	433.31
417.382	433.31
417.605	413.31
417.828	430.31
418.051	427.31
418.274	430.31
418.497	448.31
418.72	460.31
418.943	438.31
419.166	437.31
419.389	467.31
419.611	451.31
419.834	440.31
420.057	450.31
420.28	443.31
420.503	430.31
420.726	439.31
420.948	423.31
421.171	437.31
421.394	442.31
421.617	411.31
421.839	422.31
422.062	434.31
422.285	430.31
422.507	431.31
422.73	426.31
422.953	434.31
423.175	430.31
423.398	447.31
423.621	433.31
423.843	432.31
424.066	449.31
424.288	427.31
424.511	434.31
424.733	442.31
424.956	435.31
425.178	438.31
425.401	423.31
425.623	434.31
425.846	438.31
426.068	426.31
426.291	420.31
426.513	423.31
426.735	430.31
426.958	384.31
427.18	372.31
427.402	414.31
427.625	411.31
427.847	406.31
428.069	399.31
428.292	395.31
428.514	408.31
428.736	412.31
428.958	411.31
429.181	411.31
429.403	387.31
429.625	413.31
429.847	408.31
430.069	390.31
430.292	397.31
430.514	379.31
430.736	409.31
430.958	420.31
431.18	405.31
431.402	393.31
431.624	403.31
431.846	403.31
432.068	410.31
432.29	407.31
432.512	393.31
432.734	414.31
432.956	411.31
433.178	431.31
433.4	415.31
433.622	392.31
433.844	406.31
434.066	401.31
434.287	415.31
434.509	423.31
434.731	423.31
434.953	440.31
435.175	424.31
435.397	414.31
435.618	408.31
435.84	407.31
436.062	426.31
436.284	408.31
436.505	415.31
436.727	402.31
436.949	399.31
437.17	407.31
437.392	386.31
437.614	408.31
437.835	411.31
438.057	408.31
438.278	390.31
438.5	400.31
438.721	409.31
438.943	425.31
439.165	376.31
439.386	398.31
439.608	398.31
439.829	385.31
440.05	385.31
440.272	422.31
440.493	388.31
440.715	393.31
440.936	417.31
441.158	412.31
441.379	442.31
441.6	421.31
441.822	428.31
442.043	419.31
442.264	438.31
442.486	409.31
442.707	411.31
442.928	434.31
443.149	417.31
443.371	422.31
443.592	421.31
443.813	422.31
444.034	427.31
444.255	439.31
444.476	442.31
444.698	432.31
444.919	445.31
445.14	556.31
445.361	471.31
445.582	436.31
445.803	412.31
446.024	424.31
446.245	413.31
446.466	410.31
446.687	414.31
446.908	388.31
447.129	407.31
447.35	391.31
447.571	388.31
447.792	397.31
448.013	390.31
448.234	380.31
448.455	378.31
448.675	374.31
448.896	371.31
449.117	376.31
449.338	373.31
449.559	393.31
449.779	376.31
450	369.31
450.221	362.31
450.442	376.31
450.662	368.31
450.883	372.31
451.104	366.31
451.324	361.31
451.545	361.31
451.766	361.31
451.986	362.31
452.207	361.31
452.428	376.31
452.648	364.31
452.869	369.31
453.089	363.31
453.31	373.31
453.53	342.31
453.751	368.31
453.971	371.31
454.192	367.31
454.412	348.31
454.633	338.31
454.853	360.31
455.073	368.31
455.294	342.31
455.514	370.31
455.734	356.31
455.955	350.31
456.175	361.31
456.395	354.31
456.616	358.31
456.836	347.31
457.056	356.31
457.276	350.31
457.497	377.31
457.717	380.31
457.937	353.31
458.157	376.31
458.377	368.31
458.598	399.31
458.818	388.31
459.038	402.31
459.258	400.31
459.478	402.31
459.698	402.31
459.918	428.31
460.138	420.31
460.358	450.31
460.578	433.31
460.798	437.31
461.018	449.31
461.238	457.31
461.458	468.31
461.678	444.31
461.898	461.31
462.118	447.31
462.338	465.31
462.558	483.31
462.777	483.31
462.997	477.31
463.217	508.31
463.437	518.31
463.657	524.31
463.876	504.31
464.096	499.31
464.316	476.31
464.536	486.31
464.755	469.31
464.975	469.31
465.195	452.31
465.414	431.31
465.634	433.31
465.854	420.31
466.073	410.31
466.293	408.31
466.512	398.31
466.732	396.31
466.951	392.31
467.171	393.31
467.391	391.31
467.61	388.31
467.829	397.31
468.049	368.31
468.268	397.31
468.488	380.31
468.707	376.31
468.927	379.31
469.146	395.31
469.365	391.31
469.585	389.31
469.804	409.31
470.023	393.31
470.243	399.31
470.462	386.31
470.681	410.31
470.901	394.31
471.12	387.31
471.339	373.31
471.558	396.31
471.777	394.31
471.997	390.31
472.216	393.31
472.435	399.31
472.654	391.31
472.873	401.31
473.092	387.31
473.311	383.31
473.53	396.31
473.749	400.31
473.968	388.31
474.187	384.31
474.406	401.31
474.625	406.31
474.844	405.31
475.063	397.31
475.282	409.31
475.501	395.31
475.72	424.31
475.939	396.31
476.158	403.31
476.377	429.31
476.596	414.31
476.814	432.31
477.033	427.31
477.252	443.31
477.471	425.31
477.69	426.31
477.908	439.31
478.127	450.31
478.346	435.31
478.564	452.31
478.783	458.31
479.002	461.31
479.22	457.31
479.439	463.31
479.658	456.31
479.876	484.31
480.095	456.31
480.313	451.31
480.532	481.31
480.751	479.31
480.969	465.31
481.188	480.31
481.406	462.31
481.624	477.31
481.843	453.31
482.061	451.31
482.28	451.31
482.498	425.31
482.717	442.31
482.935	433.31
483.153	438.31
483.372	447.31
483.59	451.31
483.808	450.31
484.027	447.31
484.245	469.31
484.463	427.31
484.681	454.31
484.9	454.31
485.118	467.31
485.336	454.31
485.554	462.31
485.772	456.31
485.99	429.31
486.209	456.31
486.427	461.31
486.645	450.31
486.863	451.31
487.081	447.31
487.299	456.31
487.517	468.31
487.735	446.31
487.953	457.31
488.171	461.31
488.389	479.31
488.607	476.31
488.825	469.31
489.043	454.31
489.261	451.31
489.479	468.31
489.696	446.31
489.914	449.31
490.132	488.31
490.35	474.31
490.568	473.31
490.786	458.31
491.003	467.31
491.221	455.31
491.439	459.31
491.657	473.31
491.874	464.31
492.092	455.31
492.31	475.31
492.527	480.31
492.745	480.31
492.963	474.31
493.18	496.31
493.398	465.31
493.615	491.31
493.833	470.31
494.05	488.31
494.268	495.31
494.485	482.31
494.703	486.31
494.92	502.31
495.138	492.31
495.355	470.31
495.573	522.31
495.79	512.31
496.008	523.31
496.225	525.31
496.442	509.31
496.66	511.31
496.877	534.31
497.094	543.31
497.312	536.31
497.529	562.31
497.746	570.31
497.963	574.31
498.181	592.31
498.398	624.31
498.615	639.31
498.832	651.31
499.049	670.31
499.267	728.31
499.484	763.31
499.701	772.31
499.918	815.31
500.135	863.31
500.352	871.31
500.569	903.31
500.786	873.31
501.003	864.31
501.22	840.31
501.437	792.31
501.654	775.31
501.871	723.31
502.088	704.31
