Data from Fe(NO3)3@0.0125M.TitratingCurve.Agarose3%dH2O.NegLispCup.LampEnergy10.LIBS07252019_HRD10591_16-59-16-341.txt Node
Date: Thu Jul 25 16:59:16 EDT 2019
User: cochatt
Spectrometer: HR+D1059
Trigger mode: 1
Integration Time (sec): 1.000000E-1
Scans to average: 1
Electric dark correction enabled: true
Nonlinearity correction enabled: false
Boxcar width: 0
XAxis mode: Wavelengths
Number of Pixels in Spectrum: 2048
>>>>>Begin Spectral Data<<<<<
223.165	-17.06
223.4	-17.06
223.635	-17.06
223.869	-16.06
224.104	-30.06
224.338	-21.06
224.573	-20.06
224.808	-1.06
225.042	-4.06
225.277	1.94
225.511	-0.06
225.746	10.94
225.98	1.94
226.215	3.94
226.449	12.94
226.683	28.94
226.918	22.94
227.152	25.94
227.387	39.94
227.621	39.94
227.856	58.94
228.09	42.94
228.324	53.94
228.559	54.94
228.793	54.94
229.027	81.94
229.262	78.94
229.496	80.94
229.73	88.94
229.964	105.94
230.199	98.94
230.433	108.94
230.667	98.94
230.901	120.94
231.136	110.94
231.37	91.94
231.604	112.94
231.838	113.94
232.072	113.94
232.306	123.94
232.541	117.94
232.775	126.94
233.009	129.94
233.243	106.94
233.477	122.94
233.711	133.94
233.945	121.94
234.179	118.94
234.413	117.94
234.647	123.94
234.881	120.94
235.115	137.94
235.349	120.94
235.583	117.94
235.817	125.94
236.051	129.94
236.285	105.94
236.519	129.94
236.753	121.94
236.987	129.94
237.221	121.94
237.455	128.94
237.689	124.94
237.922	125.94
238.156	132.94
238.39	122.94
238.624	131.94
238.858	137.94
239.091	141.94
239.325	146.94
239.559	141.94
239.793	135.94
240.027	148.94
240.26	149.94
240.494	137.94
240.728	142.94
240.961	135.94
241.195	143.94
241.429	146.94
241.662	139.94
241.896	134.94
242.13	145.94
242.363	143.94
242.597	134.94
242.83	144.94
243.064	149.94
243.298	158.94
243.531	149.94
243.765	131.94
243.998	147.94
244.232	151.94
244.465	164.94
244.699	157.94
244.932	155.94
245.166	169.94
245.399	157.94
245.633	144.94
245.866	160.94
246.099	167.94
246.333	150.94
246.566	171.94
246.8	157.94
247.033	161.94
247.266	163.94
247.5	165.94
247.733	166.94
247.966	173.94
248.2	183.94
248.433	168.94
248.666	166.94
248.899	170.94
249.133	172.94
249.366	194.94
249.599	185.94
249.832	182.94
250.066	170.94
250.299	180.94
250.532	181.94
250.765	180.94
250.998	163.94
251.231	181.94
251.465	190.94
251.698	190.94
251.931	187.94
252.164	188.94
252.397	183.94
252.63	195.94
252.863	208.94
253.096	181.94
253.329	208.94
253.562	203.94
253.795	193.94
254.028	189.94
254.261	204.94
254.494	206.94
254.727	203.94
254.96	204.94
255.193	205.94
255.426	202.94
255.659	191.94
255.892	209.94
256.124	216.94
256.357	211.94
256.59	206.94
256.823	206.94
257.056	204.94
257.289	210.94
257.521	198.94
257.754	225.94
257.987	217.94
258.22	226.94
258.452	216.94
258.685	231.94
258.918	233.94
259.151	216.94
259.383	221.94
259.616	216.94
259.849	227.94
260.081	227.94
260.314	254.94
260.547	245.94
260.779	225.94
261.012	231.94
261.244	251.94
261.477	248.94
261.71	241.94
261.942	242.94
262.175	233.94
262.407	231.94
262.64	250.94
262.872	233.94
263.105	243.94
263.337	255.94
263.57	247.94
263.802	237.94
264.035	242.94
264.267	244.94
264.499	241.94
264.732	233.94
264.964	245.94
265.197	258.94
265.429	259.94
265.661	237.94
265.894	246.94
266.126	263.94
266.358	245.94
266.591	263.94
266.823	266.94
267.055	252.94
267.287	260.94
267.52	253.94
267.752	260.94
267.984	273.94
268.216	254.94
268.448	267.94
268.681	260.94
268.913	272.94
269.145	265.94
269.377	277.94
269.609	253.94
269.841	251.94
270.073	259.94
270.306	279.94
270.538	286.94
270.77	294.94
271.002	280.94
271.234	281.94
271.466	277.94
271.698	285.94
271.93	286.94
272.162	295.94
272.394	286.94
272.626	289.94
272.858	300.94
273.09	297.94
273.322	303.94
273.553	295.94
273.785	299.94
274.017	305.94
274.249	315.94
274.481	312.94
274.713	303.94
274.945	322.94
275.176	341.94
275.408	331.94
275.64	326.94
275.872	329.94
276.104	325.94
276.335	318.94
276.567	315.94
276.799	323.94
277.031	321.94
277.262	323.94
277.494	313.94
277.726	330.94
277.957	326.94
278.189	306.94
278.421	331.94
278.652	337.94
278.884	324.94
279.115	338.94
279.347	322.94
279.579	346.94
279.81	351.94
280.042	330.94
280.273	322.94
280.505	337.94
280.736	336.94
280.968	359.94
281.199	337.94
281.431	338.94
281.662	344.94
281.894	336.94
282.125	334.94
282.356	343.94
282.588	335.94
282.819	336.94
283.051	377.94
283.282	364.94
283.513	369.94
283.745	348.94
283.976	349.94
284.207	364.94
284.439	351.94
284.67	361.94
284.901	354.94
285.132	373.94
285.364	357.94
285.595	371.94
285.826	367.94
286.057	362.94
286.288	358.94
286.52	379.94
286.751	375.94
286.982	397.94
287.213	388.94
287.444	381.94
287.675	365.94
287.906	399.94
288.138	387.94
288.369	385.94
288.6	398.94
288.831	381.94
289.062	395.94
289.293	391.94
289.524	403.94
289.755	386.94
289.986	381.94
290.217	399.94
290.448	400.94
290.679	412.94
290.91	383.94
291.141	409.94
291.371	385.94
291.602	385.94
291.833	392.94
292.064	385.94
292.295	389.94
292.526	399.94
292.757	397.94
292.987	410.94
293.218	397.94
293.449	407.94
293.68	398.94
293.91	384.94
294.141	399.94
294.372	417.94
294.603	429.94
294.833	411.94
295.064	411.94
295.295	405.94
295.525	412.94
295.756	414.94
295.987	396.94
296.217	415.94
296.448	418.94
296.679	422.94
296.909	414.94
297.14	420.94
297.37	440.94
297.601	427.94
297.831	429.94
298.062	418.94
298.292	441.94
298.523	427.94
298.753	417.94
298.984	429.94
299.214	446.94
299.445	460.94
299.675	445.94
299.905	450.94
300.136	423.94
300.366	424.94
300.597	438.94
300.827	429.94
301.057	423.94
301.288	442.94
301.518	443.94
301.748	446.94
301.979	448.94
302.209	443.94
302.439	462.94
302.669	449.94
302.9	470.94
303.13	445.94
303.36	446.94
303.59	477.94
303.82	480.94
304.051	484.94
304.281	453.94
304.511	451.94
304.741	480.94
304.971	484.94
305.201	455.94
305.431	456.94
305.661	470.94
305.891	486.94
306.121	460.94
306.352	463.94
306.582	481.94
306.812	487.94
307.042	493.94
307.272	482.94
307.502	483.94
307.731	499.94
307.961	509.94
308.191	486.94
308.421	472.94
308.651	505.94
308.881	476.94
309.111	516.94
309.341	491.94
309.571	492.94
309.8	498.94
310.03	501.94
310.26	489.94
310.49	490.94
310.72	494.94
310.949	498.94
311.179	511.94
311.409	491.94
311.639	512.94
311.868	505.94
312.098	507.94
312.328	503.94
312.557	521.94
312.787	508.94
313.017	536.94
313.246	527.94
313.476	533.94
313.706	520.94
313.935	542.94
314.165	533.94
314.394	523.94
314.624	538.94
314.853	532.94
315.083	523.94
315.312	537.94
315.542	535.94
315.771	537.94
316.001	513.94
316.23	537.94
316.46	540.94
316.689	533.94
316.919	547.94
317.148	554.94
317.377	543.94
317.607	569.94
317.836	551.94
318.065	541.94
318.295	549.94
318.524	547.94
318.753	544.94
318.983	554.94
319.212	517.94
319.441	551.94
319.67	535.94
319.9	541.94
320.129	565.94
320.358	555.94
320.587	558.94
320.816	552.94
321.046	545.94
321.275	584.94
321.504	575.94
321.733	559.94
321.962	579.94
322.191	595.94
322.42	587.94
322.649	584.94
322.878	567.94
323.108	574.94
323.337	564.94
323.566	574.94
323.795	586.94
324.024	575.94
324.253	590.94
324.482	602.94
324.71	583.94
324.939	586.94
325.168	595.94
325.397	593.94
325.626	576.94
325.855	577.94
326.084	590.94
326.313	573.94
326.542	571.94
326.77	615.94
326.999	581.94
327.228	597.94
327.457	613.94
327.686	599.94
327.914	612.94
328.143	594.94
328.372	622.94
328.6	611.94
328.829	615.94
329.058	612.94
329.287	606.94
329.515	603.94
329.744	630.94
329.972	620.94
330.201	607.94
330.43	606.94
330.658	607.94
330.887	621.94
331.115	617.94
331.344	614.94
331.572	624.94
331.801	623.94
332.03	621.94
332.258	614.94
332.486	622.94
332.715	630.94
332.943	607.94
333.172	643.94
333.4	627.94
333.629	639.94
333.857	630.94
334.085	657.94
334.314	633.94
334.542	685.94
334.771	662.94
334.999	645.94
335.227	655.94
335.455	671.94
335.684	655.94
335.912	674.94
336.14	649.94
336.369	659.94
336.597	677.94
336.825	652.94
337.053	663.94
337.281	656.94
337.51	667.94
337.738	647.94
337.966	635.94
338.194	639.94
338.422	667.94
338.65	663.94
338.878	668.94
339.106	653.94
339.334	648.94
339.562	643.94
339.79	658.94
340.018	639.94
340.246	654.94
340.474	643.94
340.702	638.94
340.93	638.94
341.158	639.94
341.386	663.94
341.614	658.94
341.842	648.94
342.07	641.94
342.298	648.94
342.526	646.94
342.754	665.94
342.981	642.94
343.209	651.94
343.437	666.94
343.665	674.94
343.893	642.94
344.12	680.94
344.348	645.94
344.576	657.94
344.804	681.94
345.031	658.94
345.259	659.94
345.487	641.94
345.714	665.94
345.942	621.94
346.17	649.94
346.397	652.94
346.625	665.94
346.853	657.94
347.08	665.94
347.308	641.94
347.535	643.94
347.763	642.94
347.99	622.94
348.218	659.94
348.445	639.94
348.673	645.94
348.9	652.94
349.128	630.94
349.355	634.94
349.583	643.94
349.81	634.94
350.037	634.94
350.265	671.94
350.492	638.94
350.72	646.94
350.947	633.94
351.174	649.94
351.402	636.94
351.629	618.94
351.856	630.94
352.083	627.94
352.311	628.94
352.538	623.94
352.765	625.94
352.992	657.94
353.22	637.94
353.447	646.94
353.674	638.94
353.901	662.94
354.128	649.94
354.355	631.94
354.583	661.94
354.81	613.94
355.037	651.94
355.264	656.94
355.491	656.94
355.718	639.94
355.945	649.94
356.172	630.94
356.399	657.94
356.626	637.94
356.853	652.94
357.08	637.94
357.307	651.94
357.534	639.94
357.761	650.94
357.988	660.94
358.215	653.94
358.441	659.94
358.668	665.94
358.895	649.94
359.122	663.94
359.349	631.94
359.576	633.94
359.802	634.94
360.029	644.94
360.256	630.94
360.483	641.94
360.709	655.94
360.936	640.94
361.163	673.94
361.39	638.94
361.616	651.94
361.843	662.94
362.07	655.94
362.296	654.94
362.523	646.94
362.749	651.94
362.976	658.94
363.203	682.94
363.429	652.94
363.656	656.94
363.882	675.94
364.109	672.94
364.335	649.94
364.562	637.94
364.788	653.94
365.015	672.94
365.241	654.94
365.468	679.94
365.694	675.94
365.92	681.94
366.147	676.94
366.373	675.94
366.599	659.94
366.826	663.94
367.052	660.94
367.278	683.94
367.505	686.94
367.731	686.94
367.957	679.94
368.184	693.94
368.41	670.94
368.636	676.94
368.862	677.94
369.089	714.94
369.315	674.94
369.541	693.94
369.767	697.94
369.993	693.94
370.219	690.94
370.445	687.94
370.672	703.94
370.898	700.94
371.124	716.94
371.35	683.94
371.576	714.94
371.802	696.94
372.028	695.94
372.254	716.94
372.48	712.94
372.706	692.94
372.932	703.94
373.158	698.94
373.384	700.94
373.61	706.94
373.835	738.94
374.061	710.94
374.287	709.94
374.513	694.94
374.739	710.94
374.965	730.94
375.191	707.94
375.416	719.94
375.642	724.94
375.868	720.94
376.094	688.94
376.319	704.94
376.545	717.94
376.771	692.94
376.997	697.94
377.222	702.94
377.448	682.94
377.674	707.94
377.899	689.94
378.125	711.94
378.35	702.94
378.576	710.94
378.802	675.94
379.027	687.94
379.253	691.94
379.478	698.94
379.704	710.94
379.929	714.94
380.155	694.94
380.38	740.94
380.606	715.94
380.831	693.94
381.057	716.94
381.282	699.94
381.507	703.94
381.733	754.94
381.958	711.94
382.184	697.94
382.409	703.94
382.634	739.94
382.86	718.94
383.085	714.94
383.31	732.94
383.535	720.94
383.761	717.94
383.986	747.94
384.211	737.94
384.436	713.94
384.662	757.94
384.887	731.94
385.112	759.94
385.337	728.94
385.562	761.94
385.787	758.94
386.013	749.94
386.238	753.94
386.463	757.94
386.688	749.94
386.913	739.94
387.138	804.94
387.363	760.94
387.588	755.94
387.813	766.94
388.038	779.94
388.263	768.94
388.488	756.94
388.713	785.94
388.938	748.94
389.163	750.94
389.387	775.94
389.612	779.94
389.837	769.94
390.062	766.94
390.287	785.94
390.512	778.94
390.736	772.94
390.961	765.94
391.186	770.94
391.411	784.94
391.636	763.94
391.86	783.94
392.085	773.94
392.31	785.94
392.534	798.94
392.759	807.94
392.984	778.94
393.208	785.94
393.433	791.94
393.658	788.94
393.882	793.94
394.107	792.94
394.331	769.94
394.556	759.94
394.78	778.94
395.005	803.94
395.229	781.94
395.454	809.94
395.678	821.94
395.903	771.94
396.127	797.94
396.352	787.94
396.576	765.94
396.801	817.94
397.025	794.94
397.249	804.94
397.474	802.94
397.698	809.94
397.922	793.94
398.147	829.94
398.371	819.94
398.595	821.94
398.82	828.94
399.044	837.94
399.268	837.94
399.492	868.94
399.717	880.94
399.941	862.94
400.165	850.94
400.389	882.94
400.613	861.94
400.837	840.94
401.062	847.94
401.286	829.94
401.51	851.94
401.734	836.94
401.958	819.94
402.182	819.94
402.406	825.94
402.63	811.94
402.854	827.94
403.078	843.94
403.302	851.94
403.526	880.94
403.75	840.94
403.974	843.94
404.198	847.94
404.422	842.94
404.645	861.94
404.869	833.94
405.093	841.94
405.317	836.94
405.541	829.94
405.765	843.94
405.988	852.94
406.212	884.94
406.436	894.94
406.66	917.94
406.883	862.94
407.107	885.94
407.331	896.94
407.555	874.94
407.778	895.94
408.002	893.94
408.226	894.94
408.449	905.94
408.673	891.94
408.896	878.94
409.12	869.94
409.344	908.94
409.567	884.94
409.791	912.94
410.014	857.94
410.238	877.94
410.461	876.94
410.685	871.94
410.908	873.94
411.132	850.94
411.355	852.94
411.578	859.94
411.802	869.94
412.025	855.94
412.249	837.94
412.472	886.94
412.695	853.94
412.919	841.94
413.142	862.94
413.365	864.94
413.589	845.94
413.812	842.94
414.035	844.94
414.258	858.94
414.482	843.94
414.705	829.94
414.928	832.94
415.151	860.94
415.374	844.94
415.597	840.94
415.821	855.94
416.044	820.94
416.267	820.94
416.49	815.94
416.713	821.94
416.936	833.94
417.159	810.94
417.382	803.94
417.605	791.94
417.828	793.94
418.051	806.94
418.274	813.94
418.497	813.94
418.72	843.94
418.943	778.94
419.166	798.94
419.389	858.94
419.611	857.94
419.834	832.94
420.057	827.94
420.28	805.94
420.503	785.94
420.726	808.94
420.948	802.94
421.171	804.94
421.394	808.94
421.617	802.94
421.839	810.94
422.062	806.94
422.285	769.94
422.507	803.94
422.73	812.94
422.953	821.94
423.175	797.94
423.398	798.94
423.621	788.94
423.843	805.94
424.066	789.94
424.288	805.94
424.511	777.94
424.733	776.94
424.956	784.94
425.178	803.94
425.401	804.94
425.623	799.94
425.846	799.94
426.068	815.94
426.291	795.94
426.513	800.94
426.735	813.94
426.958	802.94
427.18	792.94
427.402	789.94
427.625	776.94
427.847	775.94
428.069	793.94
428.292	793.94
428.514	798.94
428.736	780.94
428.958	797.94
429.181	789.94
429.403	780.94
429.625	800.94
429.847	766.94
430.069	787.94
430.292	782.94
430.514	802.94
430.736	776.94
430.958	781.94
431.18	823.94
431.402	802.94
431.624	776.94
431.846	792.94
432.068	788.94
432.29	782.94
432.512	768.94
432.734	794.94
432.956	809.94
433.178	792.94
433.4	803.94
433.622	800.94
433.844	794.94
434.066	779.94
434.287	789.94
434.509	801.94
434.731	789.94
434.953	804.94
435.175	788.94
435.397	802.94
435.618	805.94
435.84	798.94
436.062	785.94
436.284	782.94
436.505	750.94
436.727	797.94
436.949	781.94
437.17	789.94
437.392	771.94
437.614	775.94
437.835	749.94
438.057	788.94
438.278	770.94
438.5	766.94
438.721	757.94
438.943	791.94
439.165	774.94
439.386	767.94
439.608	807.94
439.829	774.94
440.05	780.94
440.272	750.94
440.493	770.94
440.715	767.94
440.936	774.94
441.158	789.94
441.379	783.94
441.6	795.94
441.822	783.94
442.043	789.94
442.264	773.94
442.486	762.94
442.707	747.94
442.928	778.94
443.149	791.94
443.371	789.94
443.592	786.94
443.813	794.94
444.034	796.94
444.255	773.94
444.476	784.94
444.698	785.94
444.919	799.94
445.14	917.94
445.361	809.94
445.582	801.94
445.803	778.94
446.024	770.94
446.245	802.94
446.466	775.94
446.687	781.94
446.908	760.94
447.129	746.94
447.35	771.94
447.571	725.94
447.792	716.94
448.013	751.94
448.234	767.94
448.455	723.94
448.675	761.94
448.896	733.94
449.117	734.94
449.338	732.94
449.559	732.94
449.779	718.94
450	734.94
450.221	718.94
450.442	715.94
450.662	722.94
450.883	727.94
451.104	743.94
451.324	713.94
451.545	693.94
451.766	715.94
451.986	768.94
452.207	712.94
452.428	738.94
452.648	746.94
452.869	702.94
453.089	717.94
453.31	719.94
453.53	745.94
453.751	721.94
453.971	717.94
454.192	699.94
454.412	696.94
454.633	705.94
454.853	691.94
455.073	731.94
455.294	714.94
455.514	714.94
455.734	715.94
455.955	711.94
456.175	717.94
456.395	723.94
456.616	702.94
456.836	723.94
457.056	722.94
457.276	702.94
457.497	731.94
457.717	713.94
457.937	707.94
458.157	706.94
458.377	718.94
458.598	726.94
458.818	723.94
459.038	716.94
459.258	748.94
459.478	760.94
459.698	732.94
459.918	746.94
460.138	754.94
460.358	773.94
460.578	749.94
460.798	774.94
461.018	797.94
461.238	765.94
461.458	762.94
461.678	780.94
461.898	763.94
462.118	793.94
462.338	802.94
462.558	787.94
462.777	789.94
462.997	817.94
463.217	822.94
463.437	821.94
463.657	829.94
463.876	810.94
464.096	812.94
464.316	824.94
464.536	824.94
464.755	804.94
464.975	783.94
465.195	795.94
465.414	818.94
465.634	780.94
465.854	790.94
466.073	780.94
466.293	768.94
466.512	759.94
466.732	773.94
466.951	760.94
467.171	757.94
467.391	764.94
467.61	762.94
467.829	762.94
468.049	766.94
468.268	763.94
468.488	770.94
468.707	745.94
468.927	767.94
469.146	755.94
469.365	777.94
469.585	734.94
469.804	769.94
470.023	765.94
470.243	755.94
470.462	768.94
470.681	784.94
470.901	777.94
471.12	763.94
471.339	801.94
471.558	788.94
471.777	773.94
471.997	789.94
472.216	802.94
472.435	778.94
472.654	790.94
472.873	791.94
473.092	769.94
473.311	817.94
473.53	783.94
473.749	798.94
473.968	813.94
474.187	803.94
474.406	791.94
474.625	811.94
474.844	801.94
475.063	805.94
475.282	818.94
475.501	827.94
475.72	828.94
475.939	807.94
476.158	817.94
476.377	837.94
476.596	853.94
476.814	880.94
477.033	833.94
477.252	869.94
477.471	865.94
477.69	855.94
477.908	867.94
478.127	888.94
478.346	863.94
478.564	879.94
478.783	913.94
479.002	909.94
479.22	906.94
479.439	923.94
479.658	908.94
479.876	921.94
480.095	932.94
480.313	956.94
480.532	934.94
480.751	931.94
480.969	924.94
481.188	923.94
481.406	946.94
481.624	935.94
481.843	921.94
482.061	930.94
482.28	940.94
482.498	935.94
482.717	959.94
482.935	951.94
483.153	921.94
483.372	941.94
483.59	971.94
483.808	976.94
484.027	939.94
484.245	965.94
484.463	953.94
484.681	972.94
484.9	978.94
485.118	983.94
485.336	959.94
485.554	963.94
485.772	975.94
485.99	964.94
486.209	974.94
486.427	968.94
486.645	982.94
486.863	971.94
487.081	989.94
487.299	961.94
487.517	967.94
487.735	954.94
487.953	989.94
488.171	973.94
488.389	963.94
488.607	938.94
488.825	975.94
489.043	968.94
489.261	1009.94
489.479	986.94
489.696	989.94
489.914	1009.94
490.132	984.94
490.35	969.94
490.568	1011.94
490.786	988.94
491.003	1004.94
491.221	986.94
491.439	983.94
491.657	1004.94
491.874	1007.94
492.092	985.94
492.31	993.94
492.527	1006.94
492.745	1029.94
492.963	1019.94
493.18	1022.94
493.398	1028.94
493.615	1035.94
493.833	996.94
494.05	1021.94
494.268	1013.94
494.485	1021.94
494.703	990.94
494.92	1017.94
495.138	1041.94
495.355	1011.94
495.573	1009.94
495.79	1020.94
496.008	1039.94
496.225	1037.94
496.442	1034.94
496.66	1029.94
496.877	1049.94
497.094	1082.94
497.312	1077.94
497.529	1061.94
497.746	1082.94
497.963	1066.94
498.181	1071.94
498.398	1114.94
498.615	1157.94
498.832	1119.94
499.049	1151.94
499.267	1140.94
499.484	1182.94
499.701	1193.94
499.918	1188.94
500.135	1206.94
500.352	1218.94
500.569	1217.94
500.786	1231.94
501.003	1185.94
