Data from Fe(NO3)3@0.05M.TitratingCurve.Agarose3%dH2O.NegLispCup.LampEnergy10.LIBS07252019_HRD10591_16-47-07-333.txt Node
Date: Thu Jul 25 16:47:07 EDT 2019
User: cochatt
Spectrometer: HR+D1059
Trigger mode: 1
Integration Time (sec): 1.000000E-1
Scans to average: 1
Electric dark correction enabled: true
Nonlinearity correction enabled: false
Boxcar width: 0
XAxis mode: Wavelengths
Number of Pixels in Spectrum: 2048
>>>>>Begin Spectral Data<<<<<
223.165	-18.5
223.4	-18.5
223.635	-18.5
223.869	-30.5
224.104	-14.5
224.338	-18.5
224.573	-20.5
224.808	-10.5
225.042	-14.5
225.277	-12.5
225.511	-12.5
225.746	11.5
225.98	11.5
226.215	21.5
226.449	29.5
226.683	22.5
226.918	21.5
227.152	34.5
227.387	49.5
227.621	26.5
227.856	37.5
228.09	53.5
228.324	42.5
228.559	61.5
228.793	63.5
229.027	76.5
229.262	89.5
229.496	89.5
229.73	97.5
229.964	100.5
230.199	109.5
230.433	99.5
230.667	120.5
230.901	118.5
231.136	115.5
231.37	113.5
231.604	117.5
231.838	116.5
232.072	112.5
232.306	117.5
232.541	119.5
232.775	113.5
233.009	132.5
233.243	106.5
233.477	129.5
233.711	117.5
233.945	114.5
234.179	123.5
234.413	139.5
234.647	124.5
234.881	123.5
235.115	131.5
235.349	131.5
235.583	129.5
235.817	116.5
236.051	131.5
236.285	129.5
236.519	135.5
236.753	139.5
236.987	138.5
237.221	127.5
237.455	126.5
237.689	137.5
237.922	138.5
238.156	123.5
238.39	129.5
238.624	157.5
238.858	141.5
239.091	130.5
239.325	146.5
239.559	134.5
239.793	139.5
240.027	149.5
240.26	140.5
240.494	131.5
240.728	141.5
240.961	151.5
241.195	166.5
241.429	169.5
241.662	157.5
241.896	157.5
242.13	156.5
242.363	148.5
242.597	148.5
242.83	166.5
243.064	137.5
243.298	146.5
243.531	168.5
243.765	154.5
243.998	158.5
244.232	166.5
244.465	170.5
244.699	167.5
244.932	171.5
245.166	176.5
245.399	179.5
245.633	188.5
245.866	168.5
246.099	174.5
246.333	175.5
246.566	174.5
246.8	180.5
247.033	168.5
247.266	171.5
247.5	174.5
247.733	188.5
247.966	191.5
248.2	175.5
248.433	195.5
248.666	190.5
248.899	178.5
249.133	180.5
249.366	197.5
249.599	190.5
249.832	187.5
250.066	201.5
250.299	190.5
250.532	196.5
250.765	203.5
250.998	194.5
251.231	194.5
251.465	208.5
251.698	204.5
251.931	195.5
252.164	194.5
252.397	202.5
252.63	202.5
252.863	215.5
253.096	221.5
253.329	209.5
253.562	223.5
253.795	209.5
254.028	218.5
254.261	215.5
254.494	211.5
254.727	227.5
254.96	198.5
255.193	223.5
255.426	221.5
255.659	203.5
255.892	216.5
256.124	205.5
256.357	215.5
256.59	224.5
256.823	223.5
257.056	205.5
257.289	228.5
257.521	211.5
257.754	234.5
257.987	219.5
258.22	226.5
258.452	221.5
258.685	216.5
258.918	239.5
259.151	231.5
259.383	238.5
259.616	241.5
259.849	217.5
260.081	269.5
260.314	295.5
260.547	264.5
260.779	257.5
261.012	250.5
261.244	254.5
261.477	253.5
261.71	253.5
261.942	251.5
262.175	256.5
262.407	271.5
262.64	265.5
262.872	247.5
263.105	267.5
263.337	266.5
263.57	291.5
263.802	262.5
264.035	238.5
264.267	261.5
264.499	248.5
264.732	253.5
264.964	238.5
265.197	252.5
265.429	255.5
265.661	267.5
265.894	242.5
266.126	253.5
266.358	266.5
266.591	266.5
266.823	259.5
267.055	258.5
267.287	264.5
267.52	267.5
267.752	259.5
267.984	267.5
268.216	270.5
268.448	255.5
268.681	262.5
268.913	275.5
269.145	253.5
269.377	268.5
269.609	249.5
269.841	269.5
270.073	291.5
270.306	264.5
270.538	296.5
270.77	260.5
271.002	258.5
271.234	281.5
271.466	264.5
271.698	270.5
271.93	280.5
272.162	288.5
272.394	309.5
272.626	278.5
272.858	271.5
273.09	289.5
273.322	288.5
273.553	302.5
273.785	319.5
274.017	332.5
274.249	329.5
274.481	331.5
274.713	342.5
274.945	334.5
275.176	371.5
275.408	349.5
275.64	335.5
275.872	335.5
276.104	310.5
276.335	303.5
276.567	323.5
276.799	302.5
277.031	292.5
277.262	321.5
277.494	322.5
277.726	321.5
277.957	297.5
278.189	305.5
278.421	321.5
278.652	322.5
278.884	310.5
279.115	323.5
279.347	321.5
279.579	320.5
279.81	325.5
280.042	315.5
280.273	346.5
280.505	344.5
280.736	327.5
280.968	291.5
281.199	335.5
281.431	342.5
281.662	331.5
281.894	329.5
282.125	349.5
282.356	353.5
282.588	327.5
282.819	349.5
283.051	342.5
283.282	323.5
283.513	341.5
283.745	347.5
283.976	340.5
284.207	341.5
284.439	338.5
284.67	365.5
284.901	343.5
285.132	342.5
285.364	340.5
285.595	347.5
285.826	342.5
286.057	329.5
286.288	351.5
286.52	358.5
286.751	336.5
286.982	357.5
287.213	373.5
287.444	369.5
287.675	365.5
287.906	383.5
288.138	373.5
288.369	367.5
288.6	362.5
288.831	357.5
289.062	357.5
289.293	366.5
289.524	365.5
289.755	374.5
289.986	362.5
290.217	362.5
290.448	370.5
290.679	386.5
290.91	375.5
291.141	363.5
291.371	367.5
291.602	361.5
291.833	367.5
292.064	379.5
292.295	374.5
292.526	379.5
292.757	386.5
292.987	366.5
293.218	349.5
293.449	375.5
293.68	355.5
293.91	365.5
294.141	369.5
294.372	382.5
294.603	367.5
294.833	403.5
295.064	385.5
295.295	396.5
295.525	381.5
295.756	378.5
295.987	377.5
296.217	361.5
296.448	373.5
296.679	385.5
296.909	399.5
297.14	391.5
297.37	383.5
297.601	391.5
297.831	374.5
298.062	385.5
298.292	385.5
298.523	414.5
298.753	404.5
298.984	415.5
299.214	409.5
299.445	414.5
299.675	403.5
299.905	418.5
300.136	388.5
300.366	413.5
300.597	431.5
300.827	420.5
301.057	407.5
301.288	408.5
301.518	423.5
301.748	409.5
301.979	401.5
302.209	425.5
302.439	429.5
302.669	403.5
302.9	423.5
303.13	403.5
303.36	414.5
303.59	413.5
303.82	399.5
304.051	413.5
304.281	446.5
304.511	401.5
304.741	416.5
304.971	427.5
305.201	415.5
305.431	435.5
305.661	413.5
305.891	423.5
306.121	424.5
306.352	406.5
306.582	417.5
306.812	439.5
307.042	426.5
307.272	428.5
307.502	417.5
307.731	415.5
307.961	419.5
308.191	411.5
308.421	425.5
308.651	416.5
308.881	420.5
309.111	410.5
309.341	421.5
309.571	414.5
309.8	415.5
310.03	434.5
310.26	429.5
310.49	434.5
310.72	431.5
310.949	434.5
311.179	435.5
311.409	442.5
311.639	445.5
311.868	432.5
312.098	428.5
312.328	446.5
312.557	454.5
312.787	429.5
313.017	441.5
313.246	452.5
313.476	421.5
313.706	442.5
313.935	452.5
314.165	458.5
314.394	486.5
314.624	467.5
314.853	470.5
315.083	449.5
315.312	460.5
315.542	455.5
315.771	437.5
316.001	434.5
316.23	439.5
316.46	443.5
316.689	475.5
316.919	459.5
317.148	458.5
317.377	456.5
317.607	460.5
317.836	442.5
318.065	464.5
318.295	443.5
318.524	446.5
318.753	446.5
318.983	466.5
319.212	461.5
319.441	471.5
319.67	458.5
319.9	469.5
320.129	449.5
320.358	464.5
320.587	430.5
320.816	442.5
321.046	450.5
321.275	449.5
321.504	467.5
321.733	456.5
321.962	451.5
322.191	483.5
322.42	457.5
322.649	472.5
322.878	475.5
323.108	459.5
323.337	467.5
323.566	452.5
323.795	482.5
324.024	467.5
324.253	457.5
324.482	459.5
324.71	472.5
324.939	474.5
325.168	475.5
325.397	472.5
325.626	485.5
325.855	482.5
326.084	512.5
326.313	499.5
326.542	478.5
326.77	499.5
326.999	495.5
327.228	514.5
327.457	489.5
327.686	491.5
327.914	516.5
328.143	496.5
328.372	474.5
328.6	494.5
328.829	494.5
329.058	487.5
329.287	507.5
329.515	517.5
329.744	478.5
329.972	497.5
330.201	493.5
330.43	526.5
330.658	522.5
330.887	520.5
331.115	515.5
331.344	542.5
331.572	531.5
331.801	530.5
332.03	537.5
332.258	532.5
332.486	530.5
332.715	541.5
332.943	546.5
333.172	551.5
333.4	560.5
333.629	594.5
333.857	633.5
334.085	612.5
334.314	596.5
334.542	596.5
334.771	588.5
334.999	605.5
335.227	580.5
335.455	595.5
335.684	621.5
335.912	566.5
336.14	579.5
336.369	579.5
336.597	610.5
336.825	590.5
337.053	577.5
337.281	567.5
337.51	549.5
337.738	558.5
337.966	549.5
338.194	551.5
338.422	542.5
338.65	541.5
338.878	568.5
339.106	563.5
339.334	554.5
339.562	538.5
339.79	543.5
340.018	551.5
340.246	534.5
340.474	535.5
340.702	530.5
340.93	520.5
341.158	516.5
341.386	527.5
341.614	519.5
341.842	537.5
342.07	524.5
342.298	520.5
342.526	510.5
342.754	525.5
342.981	536.5
343.209	541.5
343.437	566.5
343.665	580.5
343.893	594.5
344.12	609.5
344.348	607.5
344.576	587.5
344.804	592.5
345.031	564.5
345.259	553.5
345.487	557.5
345.714	539.5
345.942	542.5
346.17	520.5
346.397	534.5
346.625	521.5
346.853	499.5
347.08	510.5
347.308	518.5
347.535	524.5
347.763	527.5
347.99	525.5
348.218	499.5
348.445	536.5
348.673	520.5
348.9	498.5
349.128	515.5
349.355	519.5
349.583	517.5
349.81	489.5
350.037	493.5
350.265	507.5
350.492	478.5
350.72	507.5
350.947	513.5
351.174	497.5
351.402	484.5
351.629	507.5
351.856	489.5
352.083	505.5
352.311	516.5
352.538	509.5
352.765	515.5
352.992	510.5
353.22	526.5
353.447	505.5
353.674	520.5
353.901	524.5
354.128	497.5
354.355	501.5
354.583	502.5
354.81	500.5
355.037	495.5
355.264	518.5
355.491	504.5
355.718	489.5
355.945	498.5
356.172	493.5
356.399	498.5
356.626	512.5
356.853	511.5
357.08	515.5
357.307	515.5
357.534	519.5
357.761	501.5
357.988	527.5
358.215	513.5
358.441	535.5
358.668	516.5
358.895	501.5
359.122	535.5
359.349	520.5
359.576	519.5
359.802	512.5
360.029	521.5
360.256	515.5
360.483	503.5
360.709	511.5
360.936	519.5
361.163	519.5
361.39	528.5
361.616	501.5
361.843	511.5
362.07	515.5
362.296	520.5
362.523	517.5
362.749	495.5
362.976	500.5
363.203	498.5
363.429	520.5
363.656	526.5
363.882	497.5
364.109	525.5
364.335	531.5
364.562	495.5
364.788	521.5
365.015	522.5
365.241	497.5
365.468	509.5
365.694	522.5
365.92	523.5
366.147	529.5
366.373	503.5
366.599	517.5
366.826	490.5
367.052	530.5
367.278	531.5
367.505	511.5
367.731	514.5
367.957	521.5
368.184	535.5
368.41	525.5
368.636	543.5
368.862	541.5
369.089	534.5
369.315	541.5
369.541	542.5
369.767	551.5
369.993	553.5
370.219	549.5
370.445	557.5
370.672	560.5
370.898	546.5
371.124	564.5
371.35	561.5
371.576	579.5
371.802	591.5
372.028	582.5
372.254	588.5
372.48	553.5
372.706	591.5
372.932	564.5
373.158	584.5
373.384	590.5
373.61	584.5
373.835	598.5
374.061	603.5
374.287	591.5
374.513	568.5
374.739	594.5
374.965	642.5
375.191	635.5
375.416	605.5
375.642	564.5
375.868	575.5
376.094	604.5
376.319	590.5
376.545	598.5
376.771	594.5
376.997	581.5
377.222	591.5
377.448	581.5
377.674	569.5
377.899	583.5
378.125	581.5
378.35	576.5
378.576	574.5
378.802	562.5
379.027	575.5
379.253	568.5
379.478	573.5
379.704	592.5
379.929	583.5
380.155	587.5
380.38	560.5
380.606	566.5
380.831	567.5
381.057	591.5
381.282	587.5
381.507	568.5
381.733	604.5
381.958	590.5
382.184	609.5
382.409	616.5
382.634	610.5
382.86	597.5
383.085	586.5
383.31	611.5
383.535	628.5
383.761	622.5
383.986	625.5
384.211	648.5
384.436	639.5
384.662	629.5
384.887	633.5
385.112	631.5
385.337	665.5
385.562	643.5
385.787	695.5
386.013	678.5
386.238	687.5
386.463	669.5
386.688	689.5
386.913	655.5
387.138	671.5
387.363	673.5
387.588	657.5
387.813	681.5
388.038	652.5
388.263	665.5
388.488	652.5
388.713	649.5
388.938	690.5
389.163	707.5
389.387	693.5
389.612	646.5
389.837	671.5
390.062	682.5
390.287	660.5
390.512	680.5
390.736	702.5
390.961	682.5
391.186	698.5
391.411	709.5
391.636	711.5
391.86	731.5
392.085	747.5
392.31	738.5
392.534	739.5
392.759	705.5
392.984	721.5
393.208	715.5
393.433	734.5
393.658	719.5
393.882	689.5
394.107	730.5
394.331	709.5
394.556	682.5
394.78	701.5
395.005	716.5
395.229	722.5
395.454	746.5
395.678	734.5
395.903	752.5
396.127	746.5
396.352	719.5
396.576	728.5
396.801	730.5
397.025	738.5
397.249	758.5
397.474	733.5
397.698	767.5
397.922	781.5
398.147	787.5
398.371	774.5
398.595	793.5
398.82	839.5
399.044	853.5
399.268	881.5
399.492	999.5
399.717	1057.5
399.941	1063.5
400.165	991.5
400.389	974.5
400.613	925.5
400.837	891.5
401.062	875.5
401.286	852.5
401.51	864.5
401.734	824.5
401.958	846.5
402.182	826.5
402.406	844.5
402.63	852.5
402.854	847.5
403.078	836.5
403.302	845.5
403.526	861.5
403.75	874.5
403.974	873.5
404.198	851.5
404.422	854.5
404.645	893.5
404.869	881.5
405.093	894.5
405.317	870.5
405.541	908.5
405.765	872.5
405.988	862.5
406.212	898.5
406.436	885.5
406.66	934.5
406.883	919.5
407.107	972.5
407.331	978.5
407.555	954.5
407.778	984.5
408.002	974.5
408.226	959.5
408.449	946.5
408.673	960.5
408.896	909.5
409.12	914.5
409.344	906.5
409.567	880.5
409.791	906.5
410.014	895.5
410.238	884.5
410.461	877.5
410.685	899.5
410.908	875.5
411.132	856.5
411.355	838.5
411.578	880.5
411.802	865.5
412.025	844.5
412.249	880.5
412.472	879.5
412.695	849.5
412.919	853.5
413.142	847.5
413.365	834.5
413.589	842.5
413.812	823.5
414.035	839.5
414.258	816.5
414.482	840.5
414.705	836.5
414.928	822.5
415.151	853.5
415.374	853.5
415.597	819.5
415.821	799.5
416.044	820.5
416.267	802.5
416.49	801.5
416.713	801.5
416.936	813.5
417.159	825.5
417.382	791.5
417.605	794.5
417.828	800.5
418.051	827.5
418.274	813.5
418.497	791.5
418.72	813.5
418.943	818.5
419.166	850.5
419.389	918.5
419.611	889.5
419.834	873.5
420.057	862.5
420.28	814.5
420.503	795.5
420.726	797.5
420.948	796.5
421.171	829.5
421.394	807.5
421.617	791.5
421.839	811.5
422.062	806.5
422.285	828.5
422.507	794.5
422.73	834.5
422.953	835.5
423.175	788.5
423.398	815.5
423.621	806.5
423.843	815.5
424.066	815.5
424.288	832.5
424.511	793.5
424.733	825.5
424.956	816.5
425.178	808.5
425.401	826.5
425.623	827.5
425.846	787.5
426.068	791.5
426.291	777.5
426.513	797.5
426.735	761.5
426.958	777.5
427.18	785.5
427.402	817.5
427.625	785.5
427.847	761.5
428.069	745.5
428.292	766.5
428.514	767.5
428.736	729.5
428.958	783.5
429.181	735.5
429.403	745.5
429.625	732.5
429.847	737.5
430.069	713.5
430.292	765.5
430.514	730.5
430.736	773.5
430.958	769.5
431.18	725.5
431.402	749.5
431.624	762.5
431.846	776.5
432.068	730.5
432.29	760.5
432.512	760.5
432.734	797.5
432.956	735.5
433.178	767.5
433.4	775.5
433.622	797.5
433.844	765.5
434.066	791.5
434.287	765.5
434.509	773.5
434.731	797.5
434.953	797.5
435.175	797.5
435.397	794.5
435.618	793.5
435.84	772.5
436.062	785.5
436.284	769.5
436.505	777.5
436.727	774.5
436.949	745.5
437.17	772.5
437.392	743.5
437.614	745.5
437.835	738.5
438.057	717.5
438.278	706.5
438.5	755.5
438.721	763.5
438.943	734.5
439.165	714.5
439.386	737.5
439.608	766.5
439.829	750.5
440.05	770.5
440.272	768.5
440.493	775.5
440.715	785.5
440.936	770.5
441.158	789.5
441.379	779.5
441.6	827.5
441.822	804.5
442.043	811.5
442.264	801.5
442.486	786.5
442.707	824.5
442.928	769.5
443.149	816.5
443.371	805.5
443.592	794.5
443.813	815.5
444.034	827.5
444.255	838.5
444.476	868.5
444.698	868.5
444.919	885.5
445.14	927.5
445.361	864.5
445.582	851.5
445.803	807.5
446.024	813.5
446.245	815.5
446.466	795.5
446.687	753.5
446.908	770.5
447.129	749.5
447.35	759.5
447.571	752.5
447.792	742.5
448.013	714.5
448.234	713.5
448.455	724.5
448.675	715.5
448.896	687.5
449.117	698.5
449.338	728.5
449.559	709.5
449.779	711.5
450	700.5
450.221	706.5
450.442	713.5
450.662	712.5
450.883	697.5
451.104	698.5
451.324	704.5
451.545	713.5
451.766	726.5
451.986	696.5
452.207	669.5
452.428	679.5
452.648	685.5
452.869	687.5
453.089	702.5
453.31	679.5
453.53	689.5
453.751	685.5
453.971	656.5
454.192	668.5
454.412	666.5
454.633	633.5
454.853	670.5
455.073	654.5
455.294	670.5
455.514	663.5
455.734	653.5
455.955	653.5
456.175	640.5
456.395	650.5
456.616	661.5
456.836	683.5
457.056	679.5
457.276	654.5
457.497	701.5
457.717	679.5
457.937	673.5
458.157	668.5
458.377	678.5
458.598	698.5
458.818	710.5
459.038	727.5
459.258	712.5
459.478	742.5
459.698	763.5
459.918	765.5
460.138	803.5
460.358	827.5
460.578	852.5
460.798	840.5
461.018	816.5
461.238	854.5
461.458	838.5
461.678	866.5
461.898	874.5
462.118	873.5
462.338	923.5
462.558	925.5
462.777	924.5
462.997	992.5
463.217	1000.5
463.437	1004.5
463.657	975.5
463.876	939.5
464.096	958.5
464.316	953.5
464.536	893.5
464.755	889.5
464.975	894.5
465.195	860.5
465.414	857.5
465.634	828.5
465.854	815.5
466.073	770.5
466.293	773.5
466.512	776.5
466.732	772.5
466.951	770.5
467.171	729.5
467.391	736.5
467.61	737.5
467.829	751.5
468.049	742.5
468.268	715.5
468.488	730.5
468.707	714.5
468.927	736.5
469.146	734.5
469.365	730.5
469.585	716.5
469.804	734.5
470.023	752.5
470.243	746.5
470.462	753.5
470.681	765.5
470.901	759.5
471.12	728.5
471.339	766.5
471.558	743.5
471.777	755.5
471.997	736.5
472.216	737.5
472.435	739.5
472.654	723.5
472.873	738.5
473.092	709.5
473.311	719.5
473.53	733.5
473.749	697.5
473.968	718.5
474.187	705.5
474.406	716.5
474.625	725.5
474.844	707.5
475.063	722.5
475.282	726.5
475.501	725.5
475.72	722.5
475.939	739.5
476.158	730.5
476.377	760.5
476.596	786.5
476.814	793.5
477.033	795.5
477.252	769.5
477.471	757.5
477.69	792.5
477.908	844.5
478.127	827.5
478.346	815.5
478.564	826.5
478.783	832.5
479.002	868.5
479.22	867.5
479.439	868.5
479.658	865.5
479.876	854.5
480.095	883.5
480.313	889.5
480.532	897.5
480.751	915.5
480.969	864.5
481.188	872.5
481.406	867.5
481.624	841.5
481.843	830.5
482.061	834.5
482.28	833.5
482.498	827.5
482.717	825.5
482.935	831.5
483.153	837.5
483.372	815.5
483.59	839.5
483.808	801.5
484.027	835.5
484.245	847.5
484.463	843.5
484.681	835.5
484.9	834.5
485.118	841.5
485.336	818.5
485.554	841.5
485.772	849.5
485.99	837.5
486.209	850.5
486.427	849.5
486.645	866.5
486.863	856.5
487.081	825.5
487.299	805.5
487.517	843.5
487.735	849.5
487.953	870.5
488.171	889.5
488.389	853.5
488.607	842.5
488.825	838.5
489.043	807.5
489.261	847.5
489.479	834.5
489.696	835.5
489.914	849.5
490.132	845.5
490.35	873.5
490.568	855.5
490.786	870.5
491.003	849.5
491.221	873.5
491.439	841.5
491.657	887.5
491.874	890.5
492.092	899.5
492.31	872.5
492.527	894.5
492.745	881.5
492.963	858.5
493.18	894.5
493.398	891.5
493.615	909.5
493.833	890.5
494.05	878.5
494.268	886.5
494.485	917.5
494.703	902.5
494.92	932.5
495.138	910.5
495.355	911.5
495.573	919.5
495.79	920.5
496.008	952.5
496.225	943.5
496.442	968.5
496.66	966.5
496.877	970.5
497.094	1007.5
497.312	1031.5
497.529	989.5
497.746	1034.5
497.963	1060.5
498.181	1083.5
498.398	1117.5
498.615	1147.5
498.832	1214.5
499.049	1281.5
499.267	1339.5
499.484	1394.5
499.701	1473.5
499.918	1598.5
500.135	1690.5
500.352	1817.5
500.569	1847.5
500.786	1821.5
501.003	1803.5
501.22	1653.5
501.437	1591.5
501.654	1470.5
501.871	1405.5
502.088	1302.5
502.305	1267.5
502.522	1209.5
502.739	1157.5
502.956	1114.5
503.172	1089.5
503.389	1073.5
503.606	1043.5
503.823	1028.5
504.04	978.5
504.256	1021.5
504.473	1033.5
504.69	991.5
504.907	983.5
505.123	960.5
505.34	954.5
505.557	930.5
505.773	898.5
505.99	883.5
506.207	857.5
506.423	853.5
506.64	850.5
506.856	823.5
507.073	827.5
507.289	821.5
507.506	831.5
507.722	792.5
507.939	822.5
508.155	801.5
508.372	783.5
508.588	790.5
508.805	771.5
509.021	754.5
509.238	765.5
509.454	731.5
509.67	745.5
509.887	762.5
510.103	765.5
510.319	735.5
510.536	718.5
510.752	720.5
510.968	757.5
511.184	757.5
511.401	743.5
511.617	733.5
511.833	721.5
512.049	719.5
512.265	734.5
512.481	748.5
512.698	724.5
512.914	733.5
513.13	728.5
513.346	736.5
513.562	753.5
513.778	713.5
513.994	733.5
514.21	752.5
514.426	729.5
514.642	722.5
514.858	751.5
515.074	746.5
515.29	750.5
515.506	783.5
515.721	759.5
515.937	751.5
516.153	798.5
516.369	776.5
516.585	807.5
516.801	785.5
517.016	832.5
517.232	852.5
517.448	882.5
517.664	884.5
517.879	850.5
518.095	858.5
518.311	878.5
518.527	841.5
518.742	809.5
518.958	824.5
