Data from Fe(NO3)3@0.025M.TitratingCurve.Agarose3%dH2O.NegLispCup.LampEnergy10.LIBS07252019_HRD10591_16-56-26-337.txt Node
Date: Thu Jul 25 16:56:26 EDT 2019
User: cochatt
Spectrometer: HR+D1059
Trigger mode: 1
Integration Time (sec): 1.000000E-1
Scans to average: 1
Electric dark correction enabled: true
Nonlinearity correction enabled: false
Boxcar width: 0
XAxis mode: Wavelengths
Number of Pixels in Spectrum: 2048
>>>>>Begin Spectral Data<<<<<
223.165	-16.69
223.4	-16.69
223.635	-16.69
223.869	-15.69
224.104	-12.69
224.338	-14.69
224.573	-10.69
224.808	-19.69
225.042	-7.69
225.277	-6.69
225.511	-8.69
225.746	9.31
225.98	12.31
226.215	7.31
226.449	17.31
226.683	14.31
226.918	18.31
227.152	34.31
227.387	35.31
227.621	27.31
227.856	39.31
228.09	42.31
228.324	44.31
228.559	42.31
228.793	56.31
229.027	84.31
229.262	82.31
229.496	87.31
229.73	94.31
229.964	87.31
230.199	100.31
230.433	100.31
230.667	104.31
230.901	103.31
231.136	100.31
231.37	106.31
231.604	105.31
231.838	92.31
232.072	95.31
232.306	110.31
232.541	105.31
232.775	115.31
233.009	108.31
233.243	105.31
233.477	91.31
233.711	111.31
233.945	115.31
234.179	100.31
234.413	94.31
234.647	87.31
234.881	130.31
235.115	104.31
235.349	93.31
235.583	113.31
235.817	113.31
236.051	107.31
236.285	98.31
236.519	109.31
236.753	109.31
236.987	104.31
237.221	105.31
237.455	105.31
237.689	121.31
237.922	101.31
238.156	119.31
238.39	114.31
238.624	107.31
238.858	105.31
239.091	126.31
239.325	114.31
239.559	110.31
239.793	109.31
240.027	122.31
240.26	129.31
240.494	122.31
240.728	121.31
240.961	121.31
241.195	117.31
241.429	117.31
241.662	123.31
241.896	118.31
242.13	126.31
242.363	129.31
242.597	130.31
242.83	115.31
243.064	117.31
243.298	128.31
243.531	131.31
243.765	134.31
243.998	128.31
244.232	136.31
244.465	132.31
244.699	132.31
244.932	122.31
245.166	137.31
245.399	134.31
245.633	120.31
245.866	123.31
246.099	119.31
246.333	129.31
246.566	143.31
246.8	135.31
247.033	137.31
247.266	135.31
247.5	143.31
247.733	148.31
247.966	147.31
248.2	162.31
248.433	148.31
248.666	151.31
248.899	144.31
249.133	149.31
249.366	138.31
249.599	130.31
249.832	138.31
250.066	164.31
250.299	150.31
250.532	148.31
250.765	158.31
250.998	161.31
251.231	146.31
251.465	163.31
251.698	151.31
251.931	148.31
252.164	161.31
252.397	148.31
252.63	162.31
252.863	152.31
253.096	151.31
253.329	181.31
253.562	142.31
253.795	161.31
254.028	154.31
254.261	166.31
254.494	168.31
254.727	165.31
254.96	158.31
255.193	153.31
255.426	159.31
255.659	174.31
255.892	158.31
256.124	163.31
256.357	166.31
256.59	174.31
256.823	166.31
257.056	187.31
257.289	158.31
257.521	182.31
257.754	169.31
257.987	154.31
258.22	167.31
258.452	181.31
258.685	180.31
258.918	186.31
259.151	172.31
259.383	153.31
259.616	182.31
259.849	177.31
260.081	189.31
260.314	193.31
260.547	185.31
260.779	187.31
261.012	183.31
261.244	200.31
261.477	186.31
261.71	190.31
261.942	190.31
262.175	202.31
262.407	188.31
262.64	180.31
262.872	195.31
263.105	198.31
263.337	179.31
263.57	192.31
263.802	178.31
264.035	181.31
264.267	188.31
264.499	192.31
264.732	201.31
264.964	204.31
265.197	191.31
265.429	196.31
265.661	202.31
265.894	182.31
266.126	198.31
266.358	183.31
266.591	208.31
266.823	191.31
267.055	184.31
267.287	199.31
267.52	199.31
267.752	200.31
267.984	186.31
268.216	181.31
268.448	218.31
268.681	197.31
268.913	201.31
269.145	207.31
269.377	210.31
269.609	188.31
269.841	211.31
270.073	198.31
270.306	210.31
270.538	200.31
270.77	207.31
271.002	198.31
271.234	217.31
271.466	210.31
271.698	244.31
271.93	207.31
272.162	219.31
272.394	220.31
272.626	203.31
272.858	207.31
273.09	222.31
273.322	214.31
273.553	216.31
273.785	224.31
274.017	232.31
274.249	236.31
274.481	236.31
274.713	241.31
274.945	224.31
275.176	233.31
275.408	232.31
275.64	222.31
275.872	227.31
276.104	227.31
276.335	246.31
276.567	233.31
276.799	227.31
277.031	234.31
277.262	234.31
277.494	247.31
277.726	238.31
277.957	255.31
278.189	253.31
278.421	230.31
278.652	236.31
278.884	248.31
279.115	241.31
279.347	242.31
279.579	256.31
279.81	256.31
280.042	246.31
280.273	248.31
280.505	235.31
280.736	252.31
280.968	257.31
281.199	255.31
281.431	257.31
281.662	250.31
281.894	258.31
282.125	248.31
282.356	238.31
282.588	245.31
282.819	246.31
283.051	258.31
283.282	231.31
283.513	272.31
283.745	274.31
283.976	254.31
284.207	253.31
284.439	258.31
284.67	258.31
284.901	260.31
285.132	270.31
285.364	255.31
285.595	260.31
285.826	256.31
286.057	271.31
286.288	260.31
286.52	270.31
286.751	276.31
286.982	275.31
287.213	272.31
287.444	270.31
287.675	267.31
287.906	256.31
288.138	279.31
288.369	276.31
288.6	281.31
288.831	280.31
289.062	280.31
289.293	275.31
289.524	287.31
289.755	271.31
289.986	271.31
290.217	268.31
290.448	305.31
290.679	292.31
290.91	292.31
291.141	279.31
291.371	275.31
291.602	292.31
291.833	297.31
292.064	287.31
292.295	280.31
292.526	289.31
292.757	292.31
292.987	290.31
293.218	284.31
293.449	288.31
293.68	290.31
293.91	289.31
294.141	292.31
294.372	281.31
294.603	302.31
294.833	284.31
295.064	278.31
295.295	275.31
295.525	297.31
295.756	286.31
295.987	289.31
296.217	294.31
296.448	308.31
296.679	299.31
296.909	308.31
297.14	314.31
297.37	326.31
297.601	298.31
297.831	291.31
298.062	291.31
298.292	322.31
298.523	321.31
298.753	322.31
298.984	303.31
299.214	294.31
299.445	326.31
299.675	312.31
299.905	319.31
300.136	287.31
300.366	310.31
300.597	297.31
300.827	325.31
301.057	315.31
301.288	336.31
301.518	324.31
301.748	337.31
301.979	318.31
302.209	321.31
302.439	324.31
302.669	331.31
302.9	328.31
303.13	334.31
303.36	322.31
303.59	338.31
303.82	319.31
304.051	328.31
304.281	338.31
304.511	338.31
304.741	332.31
304.971	323.31
305.201	318.31
305.431	324.31
305.661	324.31
305.891	352.31
306.121	333.31
306.352	337.31
306.582	330.31
306.812	341.31
307.042	343.31
307.272	329.31
307.502	332.31
307.731	345.31
307.961	336.31
308.191	345.31
308.421	320.31
308.651	335.31
308.881	343.31
309.111	307.31
309.341	342.31
309.571	339.31
309.8	346.31
310.03	332.31
310.26	350.31
310.49	350.31
310.72	346.31
310.949	359.31
311.179	342.31
311.409	330.31
311.639	351.31
311.868	346.31
312.098	349.31
312.328	357.31
312.557	352.31
312.787	362.31
313.017	361.31
313.246	349.31
313.476	362.31
313.706	357.31
313.935	344.31
314.165	367.31
314.394	374.31
314.624	346.31
314.853	366.31
315.083	362.31
315.312	370.31
315.542	354.31
315.771	370.31
316.001	379.31
316.23	382.31
316.46	380.31
316.689	368.31
316.919	378.31
317.148	366.31
317.377	356.31
317.607	359.31
317.836	370.31
318.065	362.31
318.295	350.31
318.524	376.31
318.753	353.31
318.983	376.31
319.212	360.31
319.441	384.31
319.67	376.31
319.9	368.31
320.129	368.31
320.358	394.31
320.587	374.31
320.816	360.31
321.046	375.31
321.275	391.31
321.504	381.31
321.733	376.31
321.962	369.31
322.191	379.31
322.42	371.31
322.649	379.31
322.878	379.31
323.108	373.31
323.337	423.31
323.566	383.31
323.795	379.31
324.024	374.31
324.253	367.31
324.482	400.31
324.71	393.31
324.939	391.31
325.168	383.31
325.397	402.31
325.626	384.31
325.855	402.31
326.084	405.31
326.313	392.31
326.542	398.31
326.77	404.31
326.999	401.31
327.228	402.31
327.457	394.31
327.686	389.31
327.914	413.31
328.143	423.31
328.372	403.31
328.6	405.31
328.829	406.31
329.058	413.31
329.287	417.31
329.515	413.31
329.744	410.31
329.972	435.31
330.201	411.31
330.43	400.31
330.658	428.31
330.887	408.31
331.115	436.31
331.344	421.31
331.572	407.31
331.801	428.31
332.03	419.31
332.258	417.31
332.486	459.31
332.715	467.31
332.943	456.31
333.172	454.31
333.4	457.31
333.629	482.31
333.857	483.31
334.085	484.31
334.314	470.31
334.542	474.31
334.771	507.31
334.999	483.31
335.227	476.31
335.455	480.31
335.684	468.31
335.912	483.31
336.14	490.31
336.369	470.31
336.597	466.31
336.825	471.31
337.053	475.31
337.281	446.31
337.51	442.31
337.738	468.31
337.966	457.31
338.194	470.31
338.422	446.31
338.65	453.31
338.878	454.31
339.106	476.31
339.334	444.31
339.562	447.31
339.79	445.31
340.018	449.31
340.246	426.31
340.474	430.31
340.702	441.31
340.93	432.31
341.158	418.31
341.386	450.31
341.614	414.31
341.842	434.31
342.07	424.31
342.298	434.31
342.526	444.31
342.754	446.31
342.981	470.31
343.209	459.31
343.437	460.31
343.665	469.31
343.893	495.31
344.12	490.31
344.348	483.31
344.576	475.31
344.804	446.31
345.031	438.31
345.259	435.31
345.487	446.31
345.714	434.31
345.942	428.31
346.17	444.31
346.397	430.31
346.625	426.31
346.853	417.31
347.08	419.31
347.308	421.31
347.535	421.31
347.763	411.31
347.99	433.31
348.218	417.31
348.445	434.31
348.673	426.31
348.9	412.31
349.128	425.31
349.355	414.31
349.583	421.31
349.81	417.31
350.037	428.31
350.265	443.31
350.492	416.31
350.72	432.31
350.947	415.31
351.174	400.31
351.402	419.31
351.629	440.31
351.856	424.31
352.083	425.31
352.311	405.31
352.538	419.31
352.765	426.31
352.992	420.31
353.22	425.31
353.447	422.31
353.674	423.31
353.901	424.31
354.128	433.31
354.355	416.31
354.583	434.31
354.81	416.31
355.037	423.31
355.264	415.31
355.491	409.31
355.718	411.31
355.945	398.31
356.172	438.31
356.399	419.31
356.626	432.31
356.853	417.31
357.08	437.31
357.307	438.31
357.534	435.31
357.761	423.31
357.988	422.31
358.215	426.31
358.441	418.31
358.668	436.31
358.895	430.31
359.122	440.31
359.349	416.31
359.576	418.31
359.802	430.31
360.029	416.31
360.256	424.31
360.483	447.31
360.709	433.31
360.936	446.31
361.163	436.31
361.39	436.31
361.616	411.31
361.843	447.31
362.07	420.31
362.296	434.31
362.523	420.31
362.749	441.31
362.976	434.31
363.203	427.31
363.429	427.31
363.656	431.31
363.882	434.31
364.109	426.31
364.335	446.31
364.562	440.31
364.788	431.31
365.015	443.31
365.241	425.31
365.468	426.31
365.694	439.31
365.92	425.31
366.147	432.31
366.373	434.31
366.599	425.31
366.826	464.31
367.052	406.31
367.278	446.31
367.505	428.31
367.731	430.31
367.957	452.31
368.184	458.31
368.41	440.31
368.636	447.31
368.862	452.31
369.089	459.31
369.315	440.31
369.541	448.31
369.767	443.31
369.993	440.31
370.219	438.31
370.445	441.31
370.672	444.31
370.898	437.31
371.124	470.31
371.35	470.31
371.576	470.31
371.802	455.31
372.028	449.31
372.254	459.31
372.48	460.31
372.706	476.31
372.932	489.31
373.158	479.31
373.384	467.31
373.61	473.31
373.835	468.31
374.061	461.31
374.287	465.31
374.513	474.31
374.739	488.31
374.965	483.31
375.191	490.31
375.416	464.31
375.642	486.31
375.868	476.31
376.094	473.31
376.319	475.31
376.545	472.31
376.771	463.31
376.997	497.31
377.222	463.31
377.448	447.31
377.674	465.31
377.899	474.31
378.125	471.31
378.35	480.31
378.576	461.31
378.802	467.31
379.027	472.31
379.253	464.31
379.478	447.31
379.704	444.31
379.929	488.31
380.155	471.31
380.38	465.31
380.606	460.31
380.831	466.31
381.057	475.31
381.282	443.31
381.507	485.31
381.733	490.31
381.958	477.31
382.184	472.31
382.409	480.31
382.634	505.31
382.86	487.31
383.085	490.31
383.31	483.31
383.535	480.31
383.761	491.31
383.986	500.31
384.211	493.31
384.436	508.31
384.662	491.31
384.887	514.31
385.112	501.31
385.337	528.31
385.562	521.31
385.787	535.31
386.013	541.31
386.238	534.31
386.463	520.31
386.688	526.31
386.913	538.31
387.138	524.31
387.363	530.31
387.588	536.31
387.813	539.31
388.038	518.31
388.263	548.31
388.488	546.31
388.713	536.31
388.938	538.31
389.163	541.31
389.387	526.31
389.612	536.31
389.837	551.31
390.062	521.31
390.287	516.31
390.512	537.31
390.736	570.31
390.961	542.31
391.186	551.31
391.411	539.31
391.636	542.31
391.86	552.31
392.085	571.31
392.31	558.31
392.534	563.31
392.759	571.31
392.984	566.31
393.208	567.31
393.433	574.31
393.658	565.31
393.882	575.31
394.107	557.31
394.331	576.31
394.556	540.31
394.78	566.31
395.005	578.31
395.229	551.31
395.454	591.31
395.678	580.31
395.903	573.31
396.127	580.31
396.352	575.31
396.576	581.31
396.801	570.31
397.025	586.31
397.249	575.31
397.474	600.31
397.698	603.31
397.922	600.31
398.147	598.31
398.371	603.31
398.595	628.31
398.82	635.31
399.044	651.31
399.268	706.31
399.492	737.31
399.717	759.31
399.941	768.31
400.165	740.31
400.389	708.31
400.613	694.31
400.837	664.31
401.062	666.31
401.286	670.31
401.51	638.31
401.734	641.31
401.958	636.31
402.182	648.31
402.406	639.31
402.63	637.31
402.854	650.31
403.078	634.31
403.302	648.31
403.526	651.31
403.75	679.31
403.974	680.31
404.198	651.31
404.422	674.31
404.645	690.31
404.869	662.31
405.093	686.31
405.317	659.31
405.541	683.31
405.765	666.31
405.988	653.31
406.212	674.31
406.436	678.31
406.66	660.31
406.883	694.31
407.107	706.31
407.331	716.31
407.555	742.31
407.778	716.31
408.002	723.31
408.226	729.31
408.449	703.31
408.673	695.31
408.896	682.31
409.12	680.31
409.344	680.31
409.567	684.31
409.791	699.31
410.014	664.31
410.238	656.31
410.461	671.31
410.685	665.31
410.908	632.31
411.132	652.31
411.355	646.31
411.578	658.31
411.802	653.31
412.025	660.31
412.249	642.31
412.472	644.31
412.695	659.31
412.919	646.31
413.142	631.31
413.365	628.31
413.589	631.31
413.812	646.31
414.035	640.31
414.258	647.31
414.482	645.31
414.705	623.31
414.928	644.31
415.151	637.31
415.374	625.31
415.597	627.31
415.821	600.31
416.044	597.31
416.267	594.31
416.49	607.31
416.713	608.31
416.936	626.31
417.159	606.31
417.382	593.31
417.605	610.31
417.828	612.31
418.051	615.31
418.274	626.31
418.497	615.31
418.72	630.31
418.943	610.31
419.166	632.31
419.389	668.31
419.611	652.31
419.834	642.31
420.057	626.31
420.28	601.31
420.503	612.31
420.726	584.31
420.948	598.31
421.171	594.31
421.394	592.31
421.617	580.31
421.839	605.31
422.062	613.31
422.285	619.31
422.507	623.31
422.73	610.31
422.953	607.31
423.175	590.31
423.398	621.31
423.621	587.31
423.843	613.31
424.066	624.31
424.288	609.31
424.511	607.31
424.733	600.31
424.956	573.31
425.178	596.31
425.401	584.31
425.623	619.31
425.846	582.31
426.068	582.31
426.291	561.31
426.513	596.31
426.735	596.31
426.958	577.31
427.18	575.31
427.402	565.31
427.625	576.31
427.847	579.31
428.069	562.31
428.292	578.31
428.514	570.31
428.736	559.31
428.958	571.31
429.181	547.31
429.403	572.31
429.625	574.31
429.847	554.31
430.069	552.31
430.292	569.31
430.514	542.31
430.736	563.31
430.958	567.31
431.18	548.31
431.402	551.31
431.624	543.31
431.846	587.31
432.068	558.31
432.29	563.31
432.512	555.31
432.734	565.31
432.956	546.31
433.178	551.31
433.4	564.31
433.622	588.31
433.844	571.31
434.066	567.31
434.287	586.31
434.509	564.31
434.731	596.31
434.953	603.31
435.175	590.31
435.397	598.31
435.618	585.31
435.84	576.31
436.062	566.31
436.284	570.31
436.505	538.31
436.727	545.31
436.949	560.31
437.17	564.31
437.392	544.31
437.614	542.31
437.835	561.31
438.057	524.31
438.278	547.31
438.5	558.31
438.721	548.31
438.943	560.31
439.165	545.31
439.386	545.31
439.608	519.31
439.829	542.31
440.05	554.31
440.272	543.31
440.493	562.31
440.715	554.31
440.936	545.31
441.158	554.31
441.379	565.31
441.6	579.31
441.822	572.31
442.043	569.31
442.264	584.31
442.486	565.31
442.707	554.31
442.928	583.31
443.149	584.31
443.371	564.31
443.592	580.31
443.813	598.31
444.034	590.31
444.255	593.31
444.476	601.31
444.698	643.31
444.919	629.31
445.14	686.31
445.361	634.31
445.582	588.31
445.803	575.31
446.024	569.31
446.245	553.31
446.466	544.31
446.687	542.31
446.908	531.31
447.129	522.31
447.35	535.31
447.571	530.31
447.792	532.31
448.013	518.31
448.234	518.31
448.455	524.31
448.675	505.31
448.896	544.31
449.117	505.31
449.338	494.31
449.559	512.31
449.779	491.31
450	495.31
450.221	510.31
450.442	506.31
450.662	509.31
450.883	482.31
451.104	532.31
451.324	509.31
451.545	501.31
451.766	493.31
451.986	486.31
452.207	498.31
452.428	501.31
452.648	483.31
452.869	494.31
453.089	494.31
453.31	504.31
453.53	499.31
453.751	494.31
453.971	472.31
454.192	487.31
454.412	480.31
454.633	512.31
454.853	480.31
455.073	500.31
455.294	486.31
455.514	480.31
455.734	470.31
455.955	473.31
456.175	496.31
456.395	480.31
456.616	468.31
456.836	471.31
457.056	500.31
457.276	491.31
457.497	499.31
457.717	495.31
457.937	498.31
458.157	506.31
458.377	495.31
458.598	514.31
458.818	516.31
459.038	550.31
459.258	527.31
459.478	522.31
459.698	570.31
459.918	581.31
460.138	581.31
460.358	607.31
460.578	563.31
460.798	589.31
461.018	587.31
461.238	589.31
461.458	624.31
461.678	600.31
461.898	628.31
462.118	610.31
462.338	626.31
462.558	666.31
462.777	680.31
462.997	705.31
463.217	698.31
463.437	683.31
463.657	672.31
463.876	690.31
464.096	686.31
464.316	658.31
464.536	690.31
464.755	638.31
464.975	642.31
465.195	626.31
465.414	623.31
465.634	586.31
465.854	558.31
466.073	561.31
466.293	562.31
466.512	532.31
466.732	543.31
466.951	547.31
467.171	541.31
467.391	523.31
467.61	539.31
467.829	498.31
468.049	553.31
468.268	524.31
468.488	525.31
468.707	514.31
468.927	519.31
469.146	518.31
469.365	545.31
469.585	528.31
469.804	552.31
470.023	535.31
470.243	546.31
470.462	565.31
470.681	535.31
470.901	530.31
471.12	523.31
471.339	516.31
471.558	527.31
471.777	534.31
471.997	545.31
472.216	533.31
472.435	539.31
472.654	518.31
472.873	521.31
473.092	521.31
473.311	534.31
473.53	531.31
473.749	545.31
473.968	532.31
474.187	535.31
474.406	547.31
474.625	542.31
474.844	547.31
475.063	534.31
475.282	540.31
475.501	541.31
475.72	555.31
475.939	562.31
476.158	561.31
476.377	592.31
476.596	578.31
476.814	567.31
477.033	562.31
477.252	581.31
477.471	575.31
477.69	582.31
477.908	627.31
478.127	612.31
478.346	617.31
478.564	625.31
478.783	640.31
479.002	627.31
479.22	651.31
479.439	636.31
479.658	632.31
479.876	630.31
480.095	641.31
480.313	668.31
480.532	647.31
480.751	670.31
480.969	638.31
481.188	653.31
481.406	625.31
481.624	644.31
481.843	640.31
482.061	633.31
482.28	636.31
482.498	628.31
482.717	619.31
482.935	631.31
483.153	629.31
483.372	649.31
483.59	635.31
483.808	651.31
484.027	626.31
484.245	640.31
484.463	625.31
484.681	662.31
484.9	654.31
485.118	665.31
485.336	676.31
485.554	652.31
485.772	673.31
485.99	672.31
486.209	670.31
486.427	651.31
486.645	626.31
486.863	663.31
487.081	655.31
487.299	656.31
487.517	653.31
487.735	649.31
487.953	668.31
488.171	663.31
488.389	646.31
488.607	670.31
488.825	657.31
489.043	644.31
489.261	643.31
489.479	680.31
489.696	671.31
489.914	663.31
490.132	683.31
490.35	680.31
490.568	667.31
490.786	660.31
491.003	644.31
491.221	661.31
491.439	674.31
491.657	672.31
491.874	661.31
492.092	650.31
492.31	656.31
492.527	660.31
492.745	677.31
492.963	668.31
493.18	645.31
493.398	683.31
493.615	673.31
493.833	666.31
494.05	664.31
494.268	652.31
494.485	683.31
494.703	661.31
494.92	687.31
495.138	685.31
495.355	683.31
495.573	686.31
495.79	685.31
496.008	679.31
496.225	688.31
496.442	697.31
496.66	719.31
496.877	707.31
497.094	737.31
497.312	724.31
497.529	743.31
497.746	770.31
497.963	766.31
498.181	810.31
498.398	847.31
498.615	873.31
498.832	916.31
499.049	924.31
499.267	970.31
499.484	1024.31
499.701	1111.31
499.918	1112.31
500.135	1246.31
500.352	1285.31
500.569	1296.31
500.786	1264.31
501.003	1178.31
501.22	1186.31
501.437	1079.31
501.654	1031.31
