Data from Fe(NO3)3@0.05M.TitratingCurve.Agarose3%dH2O.NegLispCup.LampEnergy10.LIBS07252019_HRD10591_16-46-33-334.txt Node
Date: Thu Jul 25 16:46:33 EDT 2019
User: cochatt
Spectrometer: HR+D1059
Trigger mode: 1
Integration Time (sec): 1.000000E-1
Scans to average: 1
Electric dark correction enabled: true
Nonlinearity correction enabled: false
Boxcar width: 0
XAxis mode: Wavelengths
Number of Pixels in Spectrum: 2048
>>>>>Begin Spectral Data<<<<<
223.165	-21.06
223.4	-21.06
223.635	-21.06
223.869	-22.06
224.104	-30.06
224.338	-17.06
224.573	-5.06
224.808	-2.06
225.042	-11.06
225.277	-14.06
225.511	-6.06
225.746	2.94
225.98	5.94
226.215	5.94
226.449	18.94
226.683	18.94
226.918	37.94
227.152	37.94
227.387	28.94
227.621	29.94
227.856	34.94
228.09	61.94
228.324	41.94
228.559	52.94
228.793	68.94
229.027	104.94
229.262	135.94
229.496	141.94
229.73	130.94
229.964	130.94
230.199	139.94
230.433	155.94
230.667	142.94
230.901	147.94
231.136	142.94
231.37	156.94
231.604	155.94
231.838	158.94
232.072	164.94
232.306	172.94
232.541	167.94
232.775	166.94
233.009	174.94
233.243	178.94
233.477	162.94
233.711	165.94
233.945	183.94
234.179	175.94
234.413	184.94
234.647	178.94
234.881	193.94
235.115	192.94
235.349	203.94
235.583	188.94
235.817	185.94
236.051	190.94
236.285	179.94
236.519	198.94
236.753	192.94
236.987	184.94
237.221	198.94
237.455	208.94
237.689	203.94
237.922	202.94
238.156	212.94
238.39	215.94
238.624	234.94
238.858	209.94
239.091	216.94
239.325	217.94
239.559	222.94
239.793	230.94
240.027	242.94
240.26	234.94
240.494	251.94
240.728	227.94
240.961	231.94
241.195	239.94
241.429	242.94
241.662	241.94
241.896	239.94
242.13	230.94
242.363	230.94
242.597	240.94
242.83	250.94
243.064	256.94
243.298	246.94
243.531	250.94
243.765	252.94
243.998	269.94
244.232	252.94
244.465	268.94
244.699	276.94
244.932	266.94
245.166	258.94
245.399	263.94
245.633	295.94
245.866	276.94
246.099	252.94
246.333	276.94
246.566	283.94
246.8	275.94
247.033	291.94
247.266	268.94
247.5	288.94
247.733	274.94
247.966	310.94
248.2	280.94
248.433	315.94
248.666	311.94
248.899	283.94
249.133	314.94
249.366	325.94
249.599	324.94
249.832	337.94
250.066	312.94
250.299	314.94
250.532	324.94
250.765	325.94
250.998	309.94
251.231	326.94
251.465	337.94
251.698	350.94
251.931	325.94
252.164	327.94
252.397	341.94
252.63	342.94
252.863	359.94
253.096	361.94
253.329	346.94
253.562	348.94
253.795	374.94
254.028	366.94
254.261	375.94
254.494	375.94
254.727	369.94
254.96	356.94
255.193	366.94
255.426	382.94
255.659	390.94
255.892	364.94
256.124	350.94
256.357	374.94
256.59	386.94
256.823	372.94
257.056	382.94
257.289	376.94
257.521	380.94
257.754	393.94
257.987	381.94
258.22	387.94
258.452	378.94
258.685	411.94
258.918	430.94
259.151	412.94
259.383	395.94
259.616	411.94
259.849	422.94
260.081	469.94
260.314	506.94
260.547	462.94
260.779	438.94
261.012	446.94
261.244	435.94
261.477	464.94
261.71	462.94
261.942	458.94
262.175	434.94
262.407	434.94
262.64	437.94
262.872	459.94
263.105	443.94
263.337	467.94
263.57	459.94
263.802	429.94
264.035	433.94
264.267	428.94
264.499	430.94
264.732	431.94
264.964	434.94
265.197	423.94
265.429	420.94
265.661	432.94
265.894	437.94
266.126	433.94
266.358	450.94
266.591	451.94
266.823	460.94
267.055	427.94
267.287	450.94
267.52	446.94
267.752	452.94
267.984	482.94
268.216	449.94
268.448	462.94
268.681	458.94
268.913	448.94
269.145	478.94
269.377	460.94
269.609	480.94
269.841	471.94
270.073	460.94
270.306	470.94
270.538	497.94
270.77	495.94
271.002	475.94
271.234	490.94
271.466	500.94
271.698	470.94
271.93	501.94
272.162	514.94
272.394	494.94
272.626	499.94
272.858	507.94
273.09	525.94
273.322	526.94
273.553	523.94
273.785	550.94
274.017	568.94
274.249	602.94
274.481	603.94
274.713	624.94
274.945	644.94
275.176	682.94
275.408	626.94
275.64	615.94
275.872	611.94
276.104	578.94
276.335	552.94
276.567	539.94
276.799	548.94
277.031	575.94
277.262	566.94
277.494	574.94
277.726	529.94
277.957	566.94
278.189	572.94
278.421	562.94
278.652	579.94
278.884	558.94
279.115	555.94
279.347	539.94
279.579	569.94
279.81	569.94
280.042	556.94
280.273	598.94
280.505	556.94
280.736	588.94
280.968	583.94
281.199	574.94
281.431	563.94
281.662	592.94
281.894	589.94
282.125	579.94
282.356	590.94
282.588	602.94
282.819	602.94
283.051	588.94
283.282	604.94
283.513	606.94
283.745	618.94
283.976	633.94
284.207	607.94
284.439	610.94
284.67	597.94
284.901	620.94
285.132	600.94
285.364	619.94
285.595	629.94
285.826	636.94
286.057	612.94
286.288	600.94
286.52	629.94
286.751	631.94
286.982	620.94
287.213	654.94
287.444	642.94
287.675	619.94
287.906	639.94
288.138	622.94
288.369	630.94
288.6	636.94
288.831	642.94
289.062	651.94
289.293	648.94
289.524	653.94
289.755	644.94
289.986	643.94
290.217	657.94
290.448	634.94
290.679	659.94
290.91	653.94
291.141	642.94
291.371	648.94
291.602	662.94
291.833	632.94
292.064	652.94
292.295	643.94
292.526	662.94
292.757	666.94
292.987	659.94
293.218	646.94
293.449	651.94
293.68	653.94
293.91	660.94
294.141	648.94
294.372	658.94
294.603	656.94
294.833	659.94
295.064	668.94
295.295	666.94
295.525	664.94
295.756	688.94
295.987	652.94
296.217	679.94
296.448	682.94
296.679	674.94
296.909	682.94
297.14	684.94
297.37	705.94
297.601	692.94
297.831	681.94
298.062	690.94
298.292	714.94
298.523	716.94
298.753	691.94
298.984	719.94
299.214	706.94
299.445	686.94
299.675	687.94
299.905	720.94
300.136	699.94
300.366	711.94
300.597	693.94
300.827	735.94
301.057	724.94
301.288	732.94
301.518	738.94
301.748	715.94
301.979	776.94
302.209	734.94
302.439	760.94
302.669	731.94
302.9	763.94
303.13	729.94
303.36	738.94
303.59	758.94
303.82	759.94
304.051	727.94
304.281	781.94
304.511	762.94
304.741	782.94
304.971	739.94
305.201	751.94
305.431	745.94
305.661	707.94
305.891	732.94
306.121	747.94
306.352	767.94
306.582	761.94
306.812	747.94
307.042	743.94
307.272	747.94
307.502	742.94
307.731	763.94
307.961	766.94
308.191	736.94
308.421	754.94
308.651	751.94
308.881	775.94
309.111	759.94
309.341	761.94
309.571	765.94
309.8	755.94
310.03	784.94
310.26	769.94
310.49	746.94
310.72	751.94
310.949	778.94
311.179	798.94
311.409	749.94
311.639	775.94
311.868	800.94
312.098	797.94
312.328	790.94
312.557	775.94
312.787	787.94
313.017	770.94
313.246	788.94
313.476	787.94
313.706	819.94
313.935	801.94
314.165	798.94
314.394	843.94
314.624	824.94
314.853	827.94
315.083	809.94
315.312	832.94
315.542	806.94
315.771	826.94
316.001	810.94
316.23	825.94
316.46	836.94
316.689	814.94
316.919	815.94
317.148	824.94
317.377	808.94
317.607	826.94
317.836	807.94
318.065	815.94
318.295	827.94
318.524	834.94
318.753	829.94
318.983	856.94
319.212	826.94
319.441	835.94
319.67	830.94
319.9	833.94
320.129	862.94
320.358	816.94
320.587	849.94
320.816	851.94
321.046	863.94
321.275	846.94
321.504	851.94
321.733	840.94
321.962	854.94
322.191	817.94
322.42	835.94
322.649	850.94
322.878	860.94
323.108	862.94
323.337	853.94
323.566	855.94
323.795	849.94
324.024	868.94
324.253	876.94
324.482	876.94
324.71	858.94
324.939	859.94
325.168	852.94
325.397	865.94
325.626	851.94
325.855	893.94
326.084	860.94
326.313	900.94
326.542	900.94
326.77	895.94
326.999	907.94
327.228	891.94
327.457	911.94
327.686	879.94
327.914	876.94
328.143	897.94
328.372	908.94
328.6	904.94
328.829	887.94
329.058	878.94
329.287	915.94
329.515	910.94
329.744	909.94
329.972	934.94
330.201	918.94
330.43	908.94
330.658	907.94
330.887	952.94
331.115	914.94
331.344	946.94
331.572	971.94
331.801	939.94
332.03	962.94
332.258	973.94
332.486	969.94
332.715	976.94
332.943	961.94
333.172	962.94
333.4	1010.94
333.629	997.94
333.857	1034.94
334.085	1035.94
334.314	1057.94
334.542	1040.94
334.771	1040.94
334.999	1054.94
335.227	1049.94
335.455	1052.94
335.684	1052.94
335.912	1031.94
336.14	1048.94
336.369	1059.94
336.597	1032.94
336.825	986.94
337.053	1016.94
337.281	1001.94
337.51	1022.94
337.738	1045.94
337.966	1002.94
338.194	1028.94
338.422	1012.94
338.65	981.94
338.878	995.94
339.106	978.94
339.334	1002.94
339.562	981.94
339.79	978.94
340.018	971.94
340.246	964.94
340.474	953.94
340.702	964.94
340.93	984.94
341.158	961.94
341.386	948.94
341.614	960.94
341.842	965.94
342.07	978.94
342.298	981.94
342.526	959.94
342.754	975.94
342.981	961.94
343.209	974.94
343.437	983.94
343.665	1022.94
343.893	997.94
344.12	1030.94
344.348	1028.94
344.576	1026.94
344.804	1031.94
345.031	1000.94
345.259	980.94
345.487	964.94
345.714	994.94
345.942	948.94
346.17	943.94
346.397	961.94
346.625	941.94
346.853	955.94
347.08	920.94
347.308	930.94
347.535	932.94
347.763	915.94
347.99	925.94
348.218	921.94
348.445	909.94
348.673	911.94
348.9	949.94
349.128	931.94
349.355	918.94
349.583	895.94
349.81	917.94
350.037	922.94
350.265	915.94
350.492	918.94
350.72	907.94
350.947	922.94
351.174	875.94
351.402	926.94
351.629	923.94
351.856	922.94
352.083	898.94
352.311	941.94
352.538	890.94
352.765	886.94
352.992	914.94
353.22	890.94
353.447	894.94
353.674	905.94
353.901	931.94
354.128	951.94
354.355	935.94
354.583	929.94
354.81	899.94
355.037	929.94
355.264	899.94
355.491	926.94
355.718	899.94
355.945	920.94
356.172	930.94
356.399	919.94
356.626	933.94
356.853	938.94
357.08	958.94
357.307	923.94
357.534	930.94
357.761	920.94
357.988	944.94
358.215	938.94
358.441	953.94
358.668	922.94
358.895	908.94
359.122	918.94
359.349	911.94
359.576	914.94
359.802	930.94
360.029	898.94
360.256	935.94
360.483	943.94
360.709	940.94
360.936	946.94
361.163	949.94
361.39	932.94
361.616	954.94
361.843	942.94
362.07	953.94
362.296	932.94
362.523	955.94
362.749	927.94
362.976	948.94
363.203	949.94
363.429	969.94
363.656	944.94
363.882	935.94
364.109	949.94
364.335	926.94
364.562	939.94
364.788	927.94
365.015	923.94
365.241	939.94
365.468	924.94
365.694	919.94
365.92	961.94
366.147	936.94
366.373	951.94
366.599	909.94
366.826	920.94
367.052	921.94
367.278	948.94
367.505	935.94
367.731	971.94
367.957	958.94
368.184	999.94
368.41	994.94
368.636	937.94
368.862	968.94
369.089	978.94
369.315	976.94
369.541	980.94
369.767	981.94
369.993	956.94
370.219	992.94
370.445	986.94
370.672	1030.94
370.898	1008.94
371.124	978.94
371.35	1027.94
371.576	994.94
371.802	1011.94
372.028	1009.94
372.254	1023.94
372.48	1041.94
372.706	1042.94
372.932	1044.94
373.158	1046.94
373.384	1067.94
373.61	1058.94
373.835	1078.94
374.061	1032.94
374.287	1058.94
374.513	1062.94
374.739	1087.94
374.965	1089.94
375.191	1076.94
375.416	1065.94
375.642	1035.94
375.868	1070.94
376.094	1055.94
376.319	1033.94
376.545	1056.94
376.771	1034.94
376.997	1004.94
377.222	1026.94
377.448	1022.94
377.674	1019.94
377.899	1028.94
378.125	1015.94
378.35	995.94
378.576	999.94
378.802	986.94
379.027	1016.94
379.253	1008.94
379.478	1030.94
379.704	1044.94
379.929	1049.94
380.155	1039.94
380.38	1024.94
380.606	1008.94
380.831	1024.94
381.057	1080.94
381.282	1029.94
381.507	1036.94
381.733	1075.94
381.958	1063.94
382.184	1091.94
382.409	1099.94
382.634	1118.94
382.86	1114.94
383.085	1114.94
383.31	1099.94
383.535	1063.94
383.761	1111.94
383.986	1105.94
384.211	1147.94
384.436	1140.94
384.662	1136.94
384.887	1165.94
385.112	1145.94
385.337	1157.94
385.562	1144.94
385.787	1154.94
386.013	1219.94
386.238	1218.94
386.463	1185.94
386.688	1195.94
386.913	1194.94
387.138	1193.94
387.363	1193.94
387.588	1197.94
387.813	1216.94
388.038	1239.94
388.263	1219.94
388.488	1200.94
388.713	1223.94
388.938	1207.94
389.163	1220.94
389.387	1200.94
389.612	1210.94
389.837	1250.94
390.062	1234.94
390.287	1221.94
390.512	1223.94
390.736	1248.94
390.961	1257.94
391.186	1247.94
391.411	1252.94
391.636	1299.94
391.86	1268.94
392.085	1275.94
392.31	1312.94
392.534	1296.94
392.759	1269.94
392.984	1282.94
393.208	1298.94
393.433	1263.94
393.658	1238.94
393.882	1241.94
394.107	1250.94
394.331	1257.94
394.556	1259.94
394.78	1258.94
395.005	1301.94
395.229	1254.94
395.454	1302.94
395.678	1307.94
395.903	1312.94
396.127	1272.94
396.352	1291.94
396.576	1304.94
396.801	1319.94
397.025	1354.94
397.249	1332.94
397.474	1343.94
397.698	1338.94
397.922	1396.94
398.147	1397.94
398.371	1378.94
398.595	1399.94
398.82	1460.94
399.044	1509.94
399.268	1562.94
399.492	1567.94
399.717	1660.94
399.941	1705.94
400.165	1668.94
400.389	1650.94
400.613	1593.94
400.837	1504.94
401.062	1506.94
401.286	1499.94
401.51	1467.94
401.734	1463.94
401.958	1469.94
402.182	1432.94
402.406	1501.94
402.63	1443.94
402.854	1493.94
403.078	1489.94
403.302	1473.94
403.526	1454.94
403.75	1474.94
403.974	1462.94
404.198	1484.94
404.422	1488.94
404.645	1513.94
404.869	1490.94
405.093	1488.94
405.317	1487.94
405.541	1498.94
405.765	1512.94
405.988	1508.94
406.212	1548.94
406.436	1527.94
406.66	1572.94
406.883	1520.94
407.107	1599.94
407.331	1676.94
407.555	1727.94
407.778	1670.94
408.002	1639.94
408.226	1666.94
408.449	1644.94
408.673	1637.94
408.896	1565.94
409.12	1571.94
409.344	1548.94
409.567	1561.94
409.791	1575.94
410.014	1548.94
410.238	1542.94
410.461	1540.94
410.685	1557.94
410.908	1515.94
411.132	1512.94
411.355	1444.94
411.578	1520.94
411.802	1454.94
412.025	1483.94
412.249	1524.94
412.472	1574.94
412.695	1459.94
412.919	1489.94
413.142	1478.94
413.365	1467.94
413.589	1500.94
413.812	1483.94
414.035	1414.94
414.258	1459.94
414.482	1453.94
414.705	1481.94
414.928	1469.94
415.151	1449.94
415.374	1450.94
415.597	1430.94
415.821	1400.94
416.044	1430.94
416.267	1409.94
416.49	1400.94
416.713	1379.94
416.936	1456.94
417.159	1406.94
417.382	1355.94
417.605	1386.94
417.828	1393.94
418.051	1407.94
418.274	1379.94
418.497	1392.94
418.72	1375.94
418.943	1385.94
419.166	1473.94
419.389	1548.94
419.611	1523.94
419.834	1505.94
420.057	1424.94
420.28	1430.94
420.503	1397.94
420.726	1366.94
420.948	1368.94
421.171	1364.94
421.394	1397.94
421.617	1367.94
421.839	1374.94
422.062	1379.94
422.285	1336.94
422.507	1380.94
422.73	1361.94
422.953	1369.94
423.175	1362.94
423.398	1403.94
423.621	1387.94
423.843	1383.94
424.066	1404.94
424.288	1404.94
424.511	1434.94
424.733	1379.94
424.956	1405.94
425.178	1383.94
425.401	1398.94
425.623	1410.94
425.846	1362.94
426.068	1367.94
426.291	1364.94
426.513	1383.94
426.735	1346.94
426.958	1363.94
427.18	1362.94
427.402	1318.94
427.625	1359.94
427.847	1298.94
428.069	1311.94
428.292	1319.94
428.514	1298.94
428.736	1318.94
428.958	1354.94
429.181	1339.94
429.403	1311.94
429.625	1321.94
429.847	1298.94
430.069	1287.94
430.292	1332.94
430.514	1321.94
430.736	1312.94
430.958	1293.94
431.18	1348.94
431.402	1338.94
431.624	1288.94
431.846	1306.94
432.068	1302.94
432.29	1317.94
432.512	1314.94
432.734	1393.94
432.956	1312.94
433.178	1357.94
433.4	1348.94
433.622	1353.94
433.844	1368.94
434.066	1342.94
434.287	1355.94
434.509	1367.94
434.731	1360.94
434.953	1386.94
435.175	1374.94
435.397	1393.94
435.618	1358.94
435.84	1399.94
436.062	1358.94
436.284	1342.94
436.505	1323.94
436.727	1324.94
436.949	1335.94
437.17	1304.94
437.392	1300.94
437.614	1289.94
437.835	1275.94
438.057	1264.94
438.278	1278.94
438.5	1263.94
438.721	1304.94
438.943	1285.94
439.165	1285.94
439.386	1287.94
439.608	1261.94
439.829	1303.94
440.05	1289.94
440.272	1329.94
440.493	1318.94
440.715	1328.94
440.936	1330.94
441.158	1329.94
441.379	1314.94
441.6	1395.94
441.822	1353.94
442.043	1376.94
442.264	1402.94
442.486	1360.94
442.707	1366.94
442.928	1367.94
443.149	1336.94
443.371	1340.94
443.592	1349.94
443.813	1358.94
444.034	1358.94
444.255	1395.94
444.476	1414.94
444.698	1456.94
444.919	1470.94
445.14	1536.94
445.361	1457.94
445.582	1416.94
445.803	1347.94
446.024	1347.94
446.245	1322.94
446.466	1345.94
446.687	1292.94
446.908	1297.94
447.129	1282.94
447.35	1277.94
447.571	1228.94
447.792	1280.94
448.013	1272.94
448.234	1236.94
448.455	1225.94
448.675	1200.94
448.896	1214.94
449.117	1221.94
449.338	1211.94
449.559	1166.94
449.779	1200.94
450	1179.94
450.221	1187.94
450.442	1198.94
450.662	1212.94
450.883	1211.94
451.104	1177.94
451.324	1161.94
451.545	1183.94
451.766	1191.94
451.986	1158.94
452.207	1139.94
452.428	1188.94
452.648	1171.94
452.869	1174.94
453.089	1144.94
453.31	1146.94
453.53	1152.94
453.751	1143.94
453.971	1160.94
454.192	1153.94
454.412	1158.94
454.633	1156.94
454.853	1123.94
455.073	1112.94
455.294	1150.94
455.514	1131.94
455.734	1132.94
455.955	1112.94
456.175	1136.94
456.395	1126.94
456.616	1146.94
456.836	1176.94
457.056	1184.94
457.276	1143.94
457.497	1154.94
457.717	1157.94
457.937	1171.94
458.157	1175.94
458.377	1163.94
458.598	1206.94
458.818	1214.94
459.038	1247.94
459.258	1289.94
459.478	1280.94
459.698	1310.94
459.918	1349.94
460.138	1343.94
460.358	1368.94
460.578	1371.94
460.798	1398.94
461.018	1419.94
461.238	1400.94
461.458	1427.94
461.678	1410.94
461.898	1463.94
462.118	1454.94
462.338	1484.94
462.558	1507.94
462.777	1555.94
462.997	1563.94
463.217	1593.94
463.437	1647.94
463.657	1562.94
463.876	1590.94
464.096	1534.94
464.316	1549.94
464.536	1529.94
464.755	1477.94
464.975	1477.94
465.195	1457.94
465.414	1429.94
465.634	1390.94
465.854	1358.94
466.073	1356.94
466.293	1312.94
466.512	1343.94
466.732	1285.94
466.951	1319.94
467.171	1278.94
467.391	1284.94
467.61	1267.94
467.829	1329.94
468.049	1277.94
468.268	1268.94
468.488	1234.94
468.707	1235.94
468.927	1281.94
469.146	1264.94
469.365	1259.94
469.585	1282.94
469.804	1349.94
470.023	1294.94
470.243	1261.94
470.462	1283.94
470.681	1279.94
470.901	1290.94
471.12	1272.94
471.339	1257.94
471.558	1245.94
471.777	1282.94
471.997	1296.94
472.216	1300.94
472.435	1307.94
472.654	1257.94
472.873	1251.94
473.092	1254.94
473.311	1250.94
473.53	1226.94
473.749	1266.94
473.968	1271.94
474.187	1300.94
474.406	1291.94
474.625	1280.94
474.844	1280.94
475.063	1290.94
475.282	1306.94
475.501	1322.94
475.72	1326.94
475.939	1396.94
476.158	1386.94
476.377	1365.94
476.596	1377.94
476.814	1414.94
477.033	1358.94
477.252	1368.94
477.471	1399.94
477.69	1402.94
477.908	1408.94
478.127	1446.94
478.346	1449.94
478.564	1522.94
478.783	1493.94
479.002	1515.94
479.22	1505.94
479.439	1619.94
479.658	1537.94
479.876	1556.94
480.095	1579.94
480.313	1605.94
480.532	1556.94
480.751	1622.94
480.969	1556.94
481.188	1540.94
481.406	1562.94
481.624	1550.94
481.843	1518.94
482.061	1530.94
482.28	1548.94
482.498	1584.94
482.717	1537.94
482.935	1538.94
483.153	1525.94
483.372	1546.94
483.59	1546.94
483.808	1501.94
484.027	1541.94
484.245	1555.94
484.463	1531.94
484.681	1551.94
484.9	1564.94
485.118	1570.94
485.336	1535.94
485.554	1571.94
485.772	1576.94
485.99	1584.94
486.209	1589.94
486.427	1577.94
486.645	1605.94
486.863	1595.94
487.081	1604.94
487.299	1575.94
487.517	1590.94
487.735	1596.94
487.953	1583.94
488.171	1602.94
488.389	1588.94
488.607	1590.94
488.825	1560.94
489.043	1555.94
489.261	1555.94
489.479	1548.94
489.696	1565.94
489.914	1568.94
490.132	1583.94
490.35	1562.94
490.568	1555.94
490.786	1595.94
491.003	1609.94
491.221	1564.94
491.439	1615.94
491.657	1594.94
491.874	1609.94
492.092	1658.94
492.31	1658.94
492.527	1631.94
492.745	1606.94
492.963	1611.94
493.18	1638.94
493.398	1644.94
493.615	1624.94
