Data from Fe(NO3)3@0.0125M.TitratingCurve.Agarose3%dH2O.NegLispCup.LampEnergy10.LIBS07252019_HRD10591_17-01-26-336.txt Node
Date: Thu Jul 25 17:01:26 EDT 2019
User: cochatt
Spectrometer: HR+D1059
Trigger mode: 1
Integration Time (sec): 1.000000E-1
Scans to average: 1
Electric dark correction enabled: true
Nonlinearity correction enabled: false
Boxcar width: 0
XAxis mode: Wavelengths
Number of Pixels in Spectrum: 2048
>>>>>Begin Spectral Data<<<<<
223.165	-4.81
223.4	-4.81
223.635	-4.81
223.869	-8.81
224.104	-23.81
224.338	-16.81
224.573	-14.81
224.808	-15.81
225.042	-13.81
225.277	-15.81
225.511	-15.81
225.746	4.19
225.98	11.19
226.215	19.19
226.449	15.19
226.683	23.19
226.918	30.19
227.152	27.19
227.387	37.19
227.621	46.19
227.856	33.19
228.09	45.19
228.324	41.19
228.559	48.19
228.793	42.19
229.027	73.19
229.262	90.19
229.496	83.19
229.73	76.19
229.964	95.19
230.199	93.19
230.433	86.19
230.667	85.19
230.901	98.19
231.136	99.19
231.37	94.19
231.604	107.19
231.838	109.19
232.072	94.19
232.306	90.19
232.541	103.19
232.775	90.19
233.009	108.19
233.243	107.19
233.477	93.19
233.711	97.19
233.945	99.19
234.179	93.19
234.413	105.19
234.647	93.19
234.881	101.19
235.115	113.19
235.349	96.19
235.583	106.19
235.817	98.19
236.051	98.19
236.285	101.19
236.519	109.19
236.753	116.19
236.987	90.19
237.221	107.19
237.455	104.19
237.689	103.19
237.922	92.19
238.156	115.19
238.39	103.19
238.624	105.19
238.858	89.19
239.091	95.19
239.325	128.19
239.559	107.19
239.793	115.19
240.027	117.19
240.26	122.19
240.494	109.19
240.728	125.19
240.961	118.19
241.195	116.19
241.429	114.19
241.662	115.19
241.896	118.19
242.13	113.19
242.363	123.19
242.597	103.19
242.83	105.19
243.064	107.19
243.298	110.19
243.531	121.19
243.765	125.19
243.998	133.19
244.232	111.19
244.465	129.19
244.699	129.19
244.932	126.19
245.166	115.19
245.399	140.19
245.633	123.19
245.866	126.19
246.099	129.19
246.333	130.19
246.566	136.19
246.8	127.19
247.033	129.19
247.266	135.19
247.5	129.19
247.733	125.19
247.966	130.19
248.2	144.19
248.433	138.19
248.666	146.19
248.899	131.19
249.133	115.19
249.366	137.19
249.599	142.19
249.832	147.19
250.066	138.19
250.299	139.19
250.532	126.19
250.765	145.19
250.998	139.19
251.231	129.19
251.465	147.19
251.698	133.19
251.931	143.19
252.164	135.19
252.397	134.19
252.63	142.19
252.863	144.19
253.096	134.19
253.329	143.19
253.562	153.19
253.795	149.19
254.028	133.19
254.261	159.19
254.494	143.19
254.727	137.19
254.96	133.19
255.193	155.19
255.426	142.19
255.659	140.19
255.892	166.19
256.124	157.19
256.357	145.19
256.59	146.19
256.823	161.19
257.056	151.19
257.289	145.19
257.521	158.19
257.754	166.19
257.987	152.19
258.22	158.19
258.452	148.19
258.685	165.19
258.918	160.19
259.151	155.19
259.383	181.19
259.616	149.19
259.849	170.19
260.081	163.19
260.314	173.19
260.547	188.19
260.779	168.19
261.012	159.19
261.244	158.19
261.477	155.19
261.71	168.19
261.942	155.19
262.175	180.19
262.407	166.19
262.64	168.19
262.872	190.19
263.105	183.19
263.337	185.19
263.57	166.19
263.802	169.19
264.035	173.19
264.267	174.19
264.499	163.19
264.732	195.19
264.964	170.19
265.197	183.19
265.429	175.19
265.661	176.19
265.894	177.19
266.126	170.19
266.358	187.19
266.591	164.19
266.823	168.19
267.055	184.19
267.287	180.19
267.52	180.19
267.752	178.19
267.984	187.19
268.216	196.19
268.448	184.19
268.681	184.19
268.913	185.19
269.145	189.19
269.377	173.19
269.609	182.19
269.841	190.19
270.073	186.19
270.306	201.19
270.538	183.19
270.77	206.19
271.002	192.19
271.234	191.19
271.466	205.19
271.698	182.19
271.93	217.19
272.162	203.19
272.394	209.19
272.626	210.19
272.858	210.19
273.09	209.19
273.322	204.19
273.553	184.19
273.785	201.19
274.017	212.19
274.249	209.19
274.481	201.19
274.713	209.19
274.945	220.19
275.176	225.19
275.408	204.19
275.64	217.19
275.872	210.19
276.104	202.19
276.335	214.19
276.567	218.19
276.799	225.19
277.031	207.19
277.262	209.19
277.494	222.19
277.726	210.19
277.957	207.19
278.189	202.19
278.421	197.19
278.652	200.19
278.884	224.19
279.115	216.19
279.347	216.19
279.579	201.19
279.81	215.19
280.042	227.19
280.273	221.19
280.505	219.19
280.736	227.19
280.968	227.19
281.199	234.19
281.431	231.19
281.662	231.19
281.894	224.19
282.125	222.19
282.356	217.19
282.588	231.19
282.819	232.19
283.051	217.19
283.282	238.19
283.513	210.19
283.745	230.19
283.976	234.19
284.207	245.19
284.439	232.19
284.67	234.19
284.901	234.19
285.132	245.19
285.364	241.19
285.595	238.19
285.826	244.19
286.057	249.19
286.288	237.19
286.52	246.19
286.751	254.19
286.982	241.19
287.213	255.19
287.444	251.19
287.675	243.19
287.906	262.19
288.138	265.19
288.369	253.19
288.6	257.19
288.831	240.19
289.062	263.19
289.293	228.19
289.524	250.19
289.755	250.19
289.986	262.19
290.217	250.19
290.448	240.19
290.679	244.19
290.91	243.19
291.141	244.19
291.371	238.19
291.602	265.19
291.833	245.19
292.064	259.19
292.295	253.19
292.526	253.19
292.757	238.19
292.987	266.19
293.218	247.19
293.449	255.19
293.68	241.19
293.91	249.19
294.141	262.19
294.372	265.19
294.603	252.19
294.833	268.19
295.064	264.19
295.295	262.19
295.525	259.19
295.756	263.19
295.987	260.19
296.217	277.19
296.448	279.19
296.679	273.19
296.909	258.19
297.14	285.19
297.37	265.19
297.601	272.19
297.831	277.19
298.062	281.19
298.292	260.19
298.523	287.19
298.753	282.19
298.984	264.19
299.214	282.19
299.445	275.19
299.675	274.19
299.905	268.19
300.136	285.19
300.366	268.19
300.597	276.19
300.827	259.19
301.057	279.19
301.288	281.19
301.518	283.19
301.748	286.19
301.979	281.19
302.209	288.19
302.439	299.19
302.669	301.19
302.9	291.19
303.13	295.19
303.36	296.19
303.59	322.19
303.82	305.19
304.051	293.19
304.281	309.19
304.511	295.19
304.741	305.19
304.971	309.19
305.201	304.19
305.431	303.19
305.661	311.19
305.891	306.19
306.121	311.19
306.352	286.19
306.582	288.19
306.812	311.19
307.042	284.19
307.272	290.19
307.502	303.19
307.731	319.19
307.961	321.19
308.191	312.19
308.421	287.19
308.651	315.19
308.881	311.19
309.111	315.19
309.341	302.19
309.571	313.19
309.8	305.19
310.03	308.19
310.26	295.19
310.49	305.19
310.72	322.19
310.949	302.19
311.179	314.19
311.409	312.19
311.639	322.19
311.868	325.19
312.098	309.19
312.328	340.19
312.557	315.19
312.787	319.19
313.017	333.19
313.246	326.19
313.476	319.19
313.706	318.19
313.935	315.19
314.165	318.19
314.394	325.19
314.624	325.19
314.853	339.19
315.083	333.19
315.312	325.19
315.542	327.19
315.771	333.19
316.001	333.19
316.23	320.19
316.46	319.19
316.689	335.19
316.919	340.19
317.148	340.19
317.377	325.19
317.607	334.19
317.836	330.19
318.065	344.19
318.295	323.19
318.524	358.19
318.753	331.19
318.983	320.19
319.212	343.19
319.441	342.19
319.67	336.19
319.9	359.19
320.129	348.19
320.358	337.19
320.587	348.19
320.816	343.19
321.046	355.19
321.275	334.19
321.504	361.19
321.733	354.19
321.962	344.19
322.191	351.19
322.42	333.19
322.649	343.19
322.878	355.19
323.108	351.19
323.337	346.19
323.566	345.19
323.795	330.19
324.024	346.19
324.253	359.19
324.482	363.19
324.71	346.19
324.939	383.19
325.168	371.19
325.397	359.19
325.626	343.19
325.855	369.19
326.084	362.19
326.313	365.19
326.542	347.19
326.77	365.19
326.999	349.19
327.228	366.19
327.457	373.19
327.686	383.19
327.914	377.19
328.143	373.19
328.372	360.19
328.6	364.19
328.829	377.19
329.058	370.19
329.287	376.19
329.515	372.19
329.744	371.19
329.972	375.19
330.201	367.19
330.43	378.19
330.658	363.19
330.887	385.19
331.115	386.19
331.344	396.19
331.572	378.19
331.801	395.19
332.03	384.19
332.258	415.19
332.486	411.19
332.715	399.19
332.943	406.19
333.172	406.19
333.4	414.19
333.629	433.19
333.857	443.19
334.085	422.19
334.314	440.19
334.542	431.19
334.771	426.19
334.999	415.19
335.227	421.19
335.455	413.19
335.684	403.19
335.912	405.19
336.14	417.19
336.369	434.19
336.597	401.19
336.825	410.19
337.053	432.19
337.281	422.19
337.51	419.19
337.738	398.19
337.966	427.19
338.194	419.19
338.422	388.19
338.65	400.19
338.878	402.19
339.106	405.19
339.334	404.19
339.562	395.19
339.79	396.19
340.018	379.19
340.246	377.19
340.474	412.19
340.702	392.19
340.93	404.19
341.158	402.19
341.386	403.19
341.614	412.19
341.842	408.19
342.07	399.19
342.298	405.19
342.526	392.19
342.754	403.19
342.981	413.19
343.209	402.19
343.437	409.19
343.665	422.19
343.893	435.19
344.12	425.19
344.348	409.19
344.576	390.19
344.804	425.19
345.031	419.19
345.259	387.19
345.487	392.19
345.714	406.19
345.942	385.19
346.17	384.19
346.397	406.19
346.625	394.19
346.853	390.19
347.08	393.19
347.308	377.19
347.535	370.19
347.763	385.19
347.99	393.19
348.218	374.19
348.445	369.19
348.673	374.19
348.9	386.19
349.128	398.19
349.355	389.19
349.583	405.19
349.81	383.19
350.037	378.19
350.265	377.19
350.492	374.19
350.72	383.19
350.947	384.19
351.174	381.19
351.402	397.19
351.629	378.19
351.856	380.19
352.083	404.19
352.311	373.19
352.538	374.19
352.765	391.19
352.992	385.19
353.22	373.19
353.447	374.19
353.674	381.19
353.901	386.19
354.128	371.19
354.355	387.19
354.583	378.19
354.81	400.19
355.037	373.19
355.264	405.19
355.491	356.19
355.718	385.19
355.945	386.19
356.172	373.19
356.399	379.19
356.626	384.19
356.853	392.19
357.08	390.19
357.307	390.19
357.534	407.19
357.761	393.19
357.988	385.19
358.215	401.19
358.441	407.19
358.668	397.19
358.895	401.19
359.122	377.19
359.349	388.19
359.576	379.19
359.802	390.19
360.029	396.19
360.256	407.19
360.483	390.19
360.709	383.19
360.936	385.19
361.163	400.19
361.39	412.19
361.616	404.19
361.843	394.19
362.07	385.19
362.296	386.19
362.523	387.19
362.749	389.19
362.976	396.19
363.203	395.19
363.429	378.19
363.656	406.19
363.882	377.19
364.109	366.19
364.335	394.19
364.562	395.19
364.788	387.19
365.015	389.19
365.241	407.19
365.468	415.19
365.694	409.19
365.92	427.19
366.147	392.19
366.373	399.19
366.599	389.19
366.826	406.19
367.052	401.19
367.278	397.19
367.505	413.19
367.731	417.19
367.957	393.19
368.184	412.19
368.41	408.19
368.636	390.19
368.862	431.19
369.089	413.19
369.315	398.19
369.541	410.19
369.767	412.19
369.993	420.19
370.219	427.19
370.445	412.19
370.672	415.19
370.898	410.19
371.124	410.19
371.35	410.19
371.576	413.19
371.802	441.19
372.028	421.19
372.254	418.19
372.48	414.19
372.706	397.19
372.932	440.19
373.158	445.19
373.384	450.19
373.61	432.19
373.835	434.19
374.061	420.19
374.287	424.19
374.513	432.19
374.739	443.19
374.965	463.19
375.191	445.19
375.416	435.19
375.642	439.19
375.868	429.19
376.094	425.19
376.319	411.19
376.545	412.19
376.771	420.19
376.997	429.19
377.222	430.19
377.448	425.19
377.674	421.19
377.899	406.19
378.125	421.19
378.35	431.19
378.576	407.19
378.802	403.19
379.027	424.19
379.253	423.19
379.478	433.19
379.704	431.19
379.929	427.19
380.155	421.19
380.38	419.19
380.606	438.19
380.831	422.19
381.057	441.19
381.282	426.19
381.507	405.19
381.733	431.19
381.958	438.19
382.184	447.19
382.409	426.19
382.634	442.19
382.86	452.19
383.085	459.19
383.31	459.19
383.535	445.19
383.761	454.19
383.986	447.19
384.211	433.19
384.436	477.19
384.662	448.19
384.887	489.19
385.112	458.19
385.337	474.19
385.562	466.19
385.787	462.19
386.013	486.19
386.238	475.19
386.463	505.19
386.688	483.19
386.913	485.19
387.138	475.19
387.363	481.19
387.588	493.19
387.813	485.19
388.038	491.19
388.263	479.19
388.488	479.19
388.713	497.19
388.938	482.19
389.163	474.19
389.387	521.19
389.612	484.19
389.837	479.19
390.062	460.19
390.287	489.19
390.512	486.19
390.736	468.19
390.961	496.19
391.186	502.19
391.411	500.19
391.636	516.19
391.86	518.19
392.085	514.19
392.31	491.19
392.534	525.19
392.759	527.19
392.984	503.19
393.208	537.19
393.433	514.19
393.658	509.19
393.882	503.19
394.107	518.19
394.331	509.19
394.556	487.19
394.78	507.19
395.005	522.19
395.229	519.19
395.454	504.19
395.678	494.19
395.903	509.19
396.127	535.19
396.352	495.19
396.576	530.19
396.801	518.19
397.025	539.19
397.249	532.19
397.474	559.19
397.698	532.19
397.922	555.19
398.147	550.19
398.371	544.19
398.595	560.19
398.82	602.19
399.044	600.19
399.268	622.19
399.492	635.19
399.717	680.19
399.941	657.19
400.165	662.19
400.389	624.19
400.613	628.19
400.837	607.19
401.062	616.19
401.286	586.19
401.51	556.19
401.734	565.19
401.958	571.19
402.182	587.19
402.406	575.19
402.63	579.19
402.854	574.19
403.078	559.19
403.302	592.19
403.526	595.19
403.75	574.19
403.974	595.19
404.198	578.19
404.422	596.19
404.645	579.19
404.869	577.19
405.093	597.19
405.317	587.19
405.541	593.19
405.765	581.19
405.988	626.19
406.212	598.19
406.436	605.19
406.66	596.19
406.883	624.19
407.107	643.19
407.331	633.19
407.555	641.19
407.778	664.19
408.002	656.19
408.226	623.19
408.449	631.19
408.673	631.19
408.896	614.19
409.12	623.19
409.344	627.19
409.567	613.19
409.791	625.19
410.014	619.19
410.238	587.19
410.461	604.19
410.685	578.19
410.908	605.19
411.132	584.19
411.355	567.19
411.578	591.19
411.802	587.19
412.025	597.19
412.249	592.19
412.472	603.19
412.695	587.19
412.919	567.19
413.142	596.19
413.365	555.19
413.589	565.19
413.812	576.19
414.035	554.19
414.258	582.19
414.482	585.19
414.705	582.19
414.928	569.19
415.151	553.19
415.374	570.19
415.597	580.19
415.821	547.19
416.044	563.19
416.267	561.19
416.49	538.19
416.713	547.19
416.936	526.19
417.159	559.19
417.382	527.19
417.605	551.19
417.828	546.19
418.051	549.19
418.274	537.19
418.497	537.19
418.72	535.19
418.943	537.19
419.166	550.19
419.389	570.19
419.611	576.19
419.834	578.19
420.057	579.19
420.28	549.19
420.503	513.19
420.726	533.19
420.948	534.19
421.171	542.19
421.394	524.19
421.617	538.19
421.839	543.19
422.062	541.19
422.285	546.19
422.507	554.19
422.73	542.19
422.953	542.19
423.175	554.19
423.398	561.19
423.621	532.19
423.843	548.19
424.066	546.19
424.288	512.19
424.511	537.19
424.733	525.19
424.956	543.19
425.178	542.19
425.401	528.19
425.623	552.19
425.846	540.19
426.068	535.19
426.291	520.19
426.513	528.19
426.735	527.19
426.958	520.19
427.18	505.19
427.402	522.19
427.625	521.19
427.847	493.19
428.069	507.19
428.292	528.19
428.514	522.19
428.736	521.19
428.958	515.19
429.181	521.19
429.403	531.19
429.625	528.19
429.847	513.19
430.069	493.19
430.292	534.19
430.514	497.19
430.736	497.19
430.958	519.19
431.18	527.19
431.402	516.19
431.624	512.19
431.846	513.19
432.068	513.19
432.29	530.19
432.512	509.19
432.734	541.19
432.956	526.19
433.178	508.19
433.4	512.19
433.622	540.19
433.844	522.19
434.066	527.19
434.287	515.19
434.509	539.19
434.731	526.19
434.953	543.19
435.175	539.19
435.397	525.19
435.618	542.19
435.84	523.19
436.062	506.19
436.284	505.19
436.505	507.19
436.727	520.19
436.949	513.19
437.17	494.19
437.392	504.19
437.614	527.19
437.835	529.19
438.057	496.19
438.278	495.19
438.5	509.19
438.721	523.19
438.943	498.19
439.165	499.19
439.386	490.19
439.608	515.19
439.829	529.19
440.05	503.19
440.272	489.19
440.493	485.19
440.715	523.19
440.936	517.19
441.158	536.19
441.379	523.19
441.6	537.19
441.822	513.19
442.043	548.19
442.264	527.19
442.486	514.19
442.707	520.19
442.928	526.19
443.149	537.19
443.371	537.19
443.592	515.19
443.813	527.19
444.034	533.19
444.255	524.19
444.476	541.19
444.698	533.19
444.919	554.19
445.14	619.19
445.361	579.19
445.582	547.19
445.803	531.19
446.024	530.19
446.245	529.19
446.466	513.19
446.687	527.19
446.908	512.19
447.129	501.19
447.35	487.19
447.571	499.19
447.792	498.19
448.013	493.19
448.234	472.19
448.455	460.19
448.675	480.19
448.896	479.19
449.117	505.19
449.338	483.19
449.559	453.19
449.779	475.19
450	478.19
450.221	465.19
450.442	471.19
450.662	455.19
450.883	477.19
451.104	477.19
451.324	455.19
451.545	471.19
451.766	452.19
451.986	455.19
452.207	445.19
452.428	458.19
452.648	472.19
452.869	451.19
453.089	455.19
453.31	453.19
453.53	444.19
453.751	452.19
453.971	446.19
454.192	454.19
454.412	456.19
454.633	462.19
454.853	465.19
455.073	448.19
455.294	441.19
455.514	461.19
455.734	445.19
455.955	438.19
456.175	441.19
456.395	445.19
456.616	454.19
456.836	453.19
457.056	458.19
457.276	469.19
457.497	467.19
457.717	455.19
457.937	459.19
458.157	463.19
458.377	453.19
458.598	457.19
458.818	481.19
459.038	489.19
459.258	487.19
459.478	503.19
459.698	506.19
459.918	517.19
460.138	513.19
460.358	543.19
460.578	551.19
460.798	542.19
461.018	553.19
461.238	560.19
461.458	552.19
461.678	551.19
461.898	546.19
462.118	566.19
462.338	582.19
462.558	571.19
462.777	601.19
462.997	598.19
463.217	608.19
463.437	621.19
463.657	599.19
463.876	600.19
464.096	613.19
464.316	605.19
464.536	591.19
464.755	582.19
464.975	595.19
465.195	575.19
465.414	547.19
465.634	544.19
465.854	514.19
466.073	490.19
466.293	521.19
466.512	515.19
466.732	510.19
466.951	510.19
467.171	501.19
467.391	495.19
467.61	483.19
467.829	507.19
468.049	497.19
468.268	486.19
468.488	481.19
468.707	498.19
468.927	496.19
469.146	476.19
469.365	493.19
469.585	499.19
469.804	512.19
470.023	485.19
470.243	497.19
470.462	499.19
470.681	519.19
470.901	520.19
471.12	528.19
471.339	513.19
471.558	518.19
471.777	496.19
471.997	491.19
472.216	501.19
472.435	499.19
472.654	517.19
472.873	528.19
473.092	519.19
473.311	517.19
473.53	493.19
473.749	486.19
473.968	501.19
474.187	515.19
474.406	504.19
474.625	495.19
474.844	537.19
475.063	503.19
475.282	504.19
475.501	531.19
475.72	521.19
475.939	508.19
476.158	513.19
476.377	561.19
476.596	548.19
476.814	549.19
477.033	562.19
477.252	559.19
477.471	564.19
477.69	562.19
477.908	565.19
478.127	557.19
478.346	567.19
478.564	573.19
478.783	567.19
479.002	612.19
479.22	607.19
479.439	604.19
479.658	599.19
479.876	605.19
480.095	588.19
480.313	625.19
480.532	616.19
480.751	614.19
480.969	597.19
481.188	597.19
481.406	632.19
481.624	623.19
481.843	607.19
482.061	621.19
482.28	591.19
482.498	605.19
482.717	597.19
482.935	602.19
483.153	602.19
483.372	614.19
483.59	589.19
483.808	592.19
484.027	602.19
484.245	609.19
484.463	609.19
484.681	620.19
484.9	617.19
485.118	628.19
485.336	614.19
485.554	615.19
485.772	640.19
485.99	613.19
486.209	641.19
486.427	618.19
486.645	637.19
486.863	637.19
487.081	624.19
487.299	628.19
487.517	613.19
487.735	633.19
487.953	631.19
488.171	633.19
488.389	633.19
488.607	618.19
488.825	638.19
489.043	639.19
489.261	616.19
489.479	625.19
489.696	616.19
489.914	618.19
490.132	632.19
490.35	633.19
490.568	631.19
490.786	634.19
491.003	629.19
491.221	618.19
491.439	643.19
491.657	639.19
491.874	645.19
492.092	641.19
492.31	630.19
492.527	641.19
492.745	628.19
492.963	646.19
493.18	661.19
493.398	645.19
493.615	627.19
493.833	642.19
494.05	642.19
494.268	651.19
494.485	649.19
494.703	644.19
494.92	665.19
495.138	640.19
495.355	654.19
495.573	673.19
495.79	673.19
496.008	640.19
496.225	671.19
496.442	679.19
496.66	679.19
496.877	694.19
497.094	691.19
497.312	721.19
497.529	737.19
497.746	734.19
497.963	729.19
498.181	740.19
498.398	741.19
498.615	802.19
498.832	876.19
499.049	888.19
499.267	881.19
499.484	913.19
499.701	945.19
499.918	974.19
500.135	1008.19
500.352	1060.19
500.569	1081.19
500.786	1046.19
501.003	1008.19
501.22	1024.19
501.437	985.19
501.654	945.19
501.871	911.19
