Data from Fe(NO3)3@0.0125M.TitratingCurve.Agarose3%dH2O.NegLispCup.LampEnergy10.LIBS07252019_HRD10591_17-00-02-336.txt Node
Date: Thu Jul 25 17:00:02 EDT 2019
User: cochatt
Spectrometer: HR+D1059
Trigger mode: 1
Integration Time (sec): 1.000000E-1
Scans to average: 1
Electric dark correction enabled: true
Nonlinearity correction enabled: false
Boxcar width: 0
XAxis mode: Wavelengths
Number of Pixels in Spectrum: 2048
>>>>>Begin Spectral Data<<<<<
223.165	-13.44
223.4	-13.44
223.635	-13.44
223.869	-12.44
224.104	-22.44
224.338	-14.44
224.573	-21.44
224.808	-11.44
225.042	-5.44
225.277	-17.44
225.511	7.56
225.746	10.56
225.98	5.56
226.215	14.56
226.449	16.56
226.683	30.56
226.918	12.56
227.152	20.56
227.387	18.56
227.621	23.56
227.856	49.56
228.09	51.56
228.324	51.56
228.559	62.56
228.793	60.56
229.027	78.56
229.262	85.56
229.496	81.56
229.73	86.56
229.964	96.56
230.199	96.56
230.433	113.56
230.667	99.56
230.901	97.56
231.136	88.56
231.37	94.56
231.604	106.56
231.838	95.56
232.072	106.56
232.306	103.56
232.541	110.56
232.775	119.56
233.009	110.56
233.243	115.56
233.477	102.56
233.711	108.56
233.945	104.56
234.179	113.56
234.413	102.56
234.647	99.56
234.881	104.56
235.115	114.56
235.349	116.56
235.583	107.56
235.817	98.56
236.051	118.56
236.285	109.56
236.519	112.56
236.753	94.56
236.987	103.56
237.221	102.56
237.455	109.56
237.689	112.56
237.922	112.56
238.156	112.56
238.39	111.56
238.624	123.56
238.858	115.56
239.091	107.56
239.325	121.56
239.559	121.56
239.793	115.56
240.027	111.56
240.26	119.56
240.494	106.56
240.728	122.56
240.961	117.56
241.195	122.56
241.429	114.56
241.662	113.56
241.896	126.56
242.13	130.56
242.363	123.56
242.597	112.56
242.83	116.56
243.064	113.56
243.298	113.56
243.531	116.56
243.765	123.56
243.998	130.56
244.232	126.56
244.465	132.56
244.699	118.56
244.932	119.56
245.166	126.56
245.399	122.56
245.633	143.56
245.866	142.56
246.099	139.56
246.333	136.56
246.566	130.56
246.8	133.56
247.033	139.56
247.266	150.56
247.5	137.56
247.733	146.56
247.966	149.56
248.2	138.56
248.433	136.56
248.666	150.56
248.899	131.56
249.133	134.56
249.366	146.56
249.599	137.56
249.832	138.56
250.066	155.56
250.299	141.56
250.532	141.56
250.765	151.56
250.998	147.56
251.231	142.56
251.465	152.56
251.698	139.56
251.931	146.56
252.164	135.56
252.397	141.56
252.63	172.56
252.863	148.56
253.096	164.56
253.329	153.56
253.562	169.56
253.795	164.56
254.028	176.56
254.261	171.56
254.494	161.56
254.727	158.56
254.96	159.56
255.193	164.56
255.426	156.56
255.659	160.56
255.892	166.56
256.124	158.56
256.357	164.56
256.59	172.56
256.823	149.56
257.056	159.56
257.289	171.56
257.521	175.56
257.754	162.56
257.987	170.56
258.22	168.56
258.452	176.56
258.685	186.56
258.918	181.56
259.151	178.56
259.383	176.56
259.616	159.56
259.849	179.56
260.081	169.56
260.314	196.56
260.547	162.56
260.779	178.56
261.012	186.56
261.244	198.56
261.477	207.56
261.71	191.56
261.942	200.56
262.175	179.56
262.407	166.56
262.64	190.56
262.872	183.56
263.105	194.56
263.337	208.56
263.57	196.56
263.802	182.56
264.035	178.56
264.267	185.56
264.499	184.56
264.732	184.56
264.964	197.56
265.197	193.56
265.429	195.56
265.661	194.56
265.894	178.56
266.126	194.56
266.358	201.56
266.591	193.56
266.823	195.56
267.055	194.56
267.287	210.56
267.52	196.56
267.752	199.56
267.984	206.56
268.216	194.56
268.448	191.56
268.681	196.56
268.913	214.56
269.145	193.56
269.377	198.56
269.609	187.56
269.841	195.56
270.073	185.56
270.306	212.56
270.538	214.56
270.77	210.56
271.002	201.56
271.234	217.56
271.466	216.56
271.698	223.56
271.93	205.56
272.162	207.56
272.394	213.56
272.626	214.56
272.858	206.56
273.09	221.56
273.322	228.56
273.553	210.56
273.785	215.56
274.017	233.56
274.249	223.56
274.481	225.56
274.713	241.56
274.945	230.56
275.176	240.56
275.408	243.56
275.64	218.56
275.872	223.56
276.104	247.56
276.335	212.56
276.567	217.56
276.799	212.56
277.031	227.56
277.262	217.56
277.494	231.56
277.726	242.56
277.957	240.56
278.189	227.56
278.421	219.56
278.652	231.56
278.884	235.56
279.115	229.56
279.347	247.56
279.579	229.56
279.81	240.56
280.042	241.56
280.273	235.56
280.505	237.56
280.736	249.56
280.968	251.56
281.199	257.56
281.431	250.56
281.662	238.56
281.894	258.56
282.125	241.56
282.356	243.56
282.588	257.56
282.819	252.56
283.051	246.56
283.282	263.56
283.513	261.56
283.745	277.56
283.976	248.56
284.207	245.56
284.439	261.56
284.67	273.56
284.901	265.56
285.132	267.56
285.364	261.56
285.595	274.56
285.826	250.56
286.057	266.56
286.288	265.56
286.52	262.56
286.751	250.56
286.982	266.56
287.213	247.56
287.444	266.56
287.675	271.56
287.906	264.56
288.138	274.56
288.369	288.56
288.6	290.56
288.831	266.56
289.062	273.56
289.293	272.56
289.524	255.56
289.755	260.56
289.986	273.56
290.217	267.56
290.448	275.56
290.679	260.56
290.91	277.56
291.141	270.56
291.371	272.56
291.602	289.56
291.833	272.56
292.064	278.56
292.295	279.56
292.526	286.56
292.757	284.56
292.987	311.56
293.218	264.56
293.449	296.56
293.68	278.56
293.91	276.56
294.141	299.56
294.372	294.56
294.603	293.56
294.833	279.56
295.064	295.56
295.295	286.56
295.525	295.56
295.756	307.56
295.987	288.56
296.217	297.56
296.448	295.56
296.679	296.56
296.909	272.56
297.14	320.56
297.37	323.56
297.601	294.56
297.831	303.56
298.062	302.56
298.292	292.56
298.523	321.56
298.753	304.56
298.984	295.56
299.214	306.56
299.445	303.56
299.675	292.56
299.905	310.56
300.136	297.56
300.366	305.56
300.597	314.56
300.827	314.56
301.057	304.56
301.288	319.56
301.518	307.56
301.748	304.56
301.979	327.56
302.209	337.56
302.439	302.56
302.669	314.56
302.9	319.56
303.13	333.56
303.36	323.56
303.59	320.56
303.82	335.56
304.051	325.56
304.281	326.56
304.511	321.56
304.741	331.56
304.971	346.56
305.201	345.56
305.431	324.56
305.661	329.56
305.891	317.56
306.121	341.56
306.352	351.56
306.582	330.56
306.812	331.56
307.042	323.56
307.272	331.56
307.502	330.56
307.731	317.56
307.961	338.56
308.191	326.56
308.421	331.56
308.651	330.56
308.881	337.56
309.111	324.56
309.341	330.56
309.571	346.56
309.8	352.56
310.03	346.56
310.26	325.56
310.49	327.56
310.72	332.56
310.949	330.56
311.179	342.56
311.409	337.56
311.639	332.56
311.868	351.56
312.098	352.56
312.328	345.56
312.557	354.56
312.787	371.56
313.017	370.56
313.246	348.56
313.476	363.56
313.706	347.56
313.935	369.56
314.165	357.56
314.394	353.56
314.624	379.56
314.853	359.56
315.083	354.56
315.312	368.56
315.542	345.56
315.771	353.56
316.001	380.56
316.23	369.56
316.46	371.56
316.689	376.56
316.919	358.56
317.148	360.56
317.377	379.56
317.607	363.56
317.836	374.56
318.065	360.56
318.295	368.56
318.524	370.56
318.753	376.56
318.983	355.56
319.212	356.56
319.441	375.56
319.67	374.56
319.9	381.56
320.129	398.56
320.358	381.56
320.587	380.56
320.816	368.56
321.046	384.56
321.275	371.56
321.504	372.56
321.733	379.56
321.962	362.56
322.191	370.56
322.42	384.56
322.649	387.56
322.878	378.56
323.108	377.56
323.337	389.56
323.566	407.56
323.795	374.56
324.024	400.56
324.253	394.56
324.482	380.56
324.71	394.56
324.939	396.56
325.168	391.56
325.397	388.56
325.626	377.56
325.855	391.56
326.084	404.56
326.313	414.56
326.542	400.56
326.77	400.56
326.999	385.56
327.228	378.56
327.457	403.56
327.686	394.56
327.914	406.56
328.143	407.56
328.372	419.56
328.6	400.56
328.829	393.56
329.058	403.56
329.287	407.56
329.515	394.56
329.744	415.56
329.972	411.56
330.201	436.56
330.43	408.56
330.658	414.56
330.887	414.56
331.115	407.56
331.344	419.56
331.572	423.56
331.801	416.56
332.03	408.56
332.258	405.56
332.486	450.56
332.715	430.56
332.943	436.56
333.172	446.56
333.4	439.56
333.629	458.56
333.857	463.56
334.085	460.56
334.314	455.56
334.542	458.56
334.771	469.56
334.999	444.56
335.227	459.56
335.455	465.56
335.684	467.56
335.912	458.56
336.14	468.56
336.369	482.56
336.597	460.56
336.825	462.56
337.053	454.56
337.281	455.56
337.51	455.56
337.738	459.56
337.966	442.56
338.194	459.56
338.422	457.56
338.65	465.56
338.878	463.56
339.106	438.56
339.334	466.56
339.562	444.56
339.79	432.56
340.018	426.56
340.246	431.56
340.474	440.56
340.702	451.56
340.93	436.56
341.158	433.56
341.386	451.56
341.614	447.56
341.842	446.56
342.07	427.56
342.298	446.56
342.526	435.56
342.754	455.56
342.981	448.56
343.209	462.56
343.437	465.56
343.665	459.56
343.893	460.56
344.12	482.56
344.348	460.56
344.576	448.56
344.804	448.56
345.031	434.56
345.259	443.56
345.487	427.56
345.714	451.56
345.942	460.56
346.17	448.56
346.397	425.56
346.625	440.56
346.853	428.56
347.08	446.56
347.308	449.56
347.535	422.56
347.763	423.56
347.99	428.56
348.218	439.56
348.445	430.56
348.673	438.56
348.9	433.56
349.128	428.56
349.355	404.56
349.583	426.56
349.81	422.56
350.037	446.56
350.265	431.56
350.492	417.56
350.72	430.56
350.947	428.56
351.174	431.56
351.402	427.56
351.629	443.56
351.856	422.56
352.083	437.56
352.311	417.56
352.538	421.56
352.765	429.56
352.992	410.56
353.22	426.56
353.447	427.56
353.674	443.56
353.901	414.56
354.128	441.56
354.355	426.56
354.583	403.56
354.81	443.56
355.037	432.56
355.264	434.56
355.491	438.56
355.718	436.56
355.945	423.56
356.172	424.56
356.399	418.56
356.626	440.56
356.853	408.56
357.08	438.56
357.307	428.56
357.534	434.56
357.761	433.56
357.988	439.56
358.215	443.56
358.441	441.56
358.668	456.56
358.895	438.56
359.122	426.56
359.349	434.56
359.576	443.56
359.802	436.56
360.029	440.56
360.256	423.56
360.483	441.56
360.709	439.56
360.936	443.56
361.163	435.56
361.39	446.56
361.616	455.56
361.843	457.56
362.07	454.56
362.296	450.56
362.523	419.56
362.749	450.56
362.976	425.56
363.203	460.56
363.429	451.56
363.656	455.56
363.882	447.56
364.109	442.56
364.335	447.56
364.562	452.56
364.788	441.56
365.015	441.56
365.241	437.56
365.468	442.56
365.694	441.56
365.92	446.56
366.147	438.56
366.373	446.56
366.599	450.56
366.826	452.56
367.052	443.56
367.278	426.56
367.505	474.56
367.731	459.56
367.957	470.56
368.184	450.56
368.41	454.56
368.636	475.56
368.862	436.56
369.089	456.56
369.315	465.56
369.541	460.56
369.767	465.56
369.993	457.56
370.219	459.56
370.445	471.56
370.672	479.56
370.898	465.56
371.124	446.56
371.35	475.56
371.576	471.56
371.802	461.56
372.028	488.56
372.254	480.56
372.48	488.56
372.706	473.56
372.932	494.56
373.158	482.56
373.384	492.56
373.61	480.56
373.835	498.56
374.061	484.56
374.287	495.56
374.513	491.56
374.739	492.56
374.965	476.56
375.191	501.56
375.416	492.56
375.642	503.56
375.868	487.56
376.094	491.56
376.319	467.56
376.545	483.56
376.771	474.56
376.997	490.56
377.222	498.56
377.448	475.56
377.674	482.56
377.899	488.56
378.125	470.56
378.35	466.56
378.576	482.56
378.802	456.56
379.027	482.56
379.253	480.56
379.478	466.56
379.704	479.56
379.929	486.56
380.155	477.56
380.38	468.56
380.606	466.56
380.831	479.56
381.057	486.56
381.282	482.56
381.507	490.56
381.733	492.56
381.958	484.56
382.184	505.56
382.409	503.56
382.634	512.56
382.86	494.56
383.085	501.56
383.31	517.56
383.535	515.56
383.761	507.56
383.986	500.56
384.211	518.56
384.436	524.56
384.662	507.56
384.887	517.56
385.112	501.56
385.337	537.56
385.562	528.56
385.787	539.56
386.013	544.56
386.238	567.56
386.463	558.56
386.688	542.56
386.913	539.56
387.138	535.56
387.363	547.56
387.588	542.56
387.813	549.56
388.038	550.56
388.263	560.56
388.488	534.56
388.713	528.56
388.938	554.56
389.163	542.56
389.387	552.56
389.612	533.56
389.837	554.56
390.062	545.56
390.287	540.56
390.512	549.56
390.736	551.56
390.961	552.56
391.186	546.56
391.411	540.56
391.636	587.56
391.86	565.56
392.085	589.56
392.31	598.56
392.534	579.56
392.759	572.56
392.984	561.56
393.208	562.56
393.433	611.56
393.658	606.56
393.882	572.56
394.107	562.56
394.331	583.56
394.556	576.56
394.78	560.56
395.005	585.56
395.229	556.56
395.454	589.56
395.678	574.56
395.903	585.56
396.127	586.56
396.352	578.56
396.576	582.56
396.801	594.56
397.025	625.56
397.249	602.56
397.474	603.56
397.698	599.56
397.922	612.56
398.147	603.56
398.371	617.56
398.595	628.56
398.82	626.56
399.044	642.56
399.268	644.56
399.492	690.56
399.717	680.56
399.941	694.56
400.165	700.56
400.389	697.56
400.613	671.56
400.837	644.56
401.062	655.56
401.286	635.56
401.51	636.56
401.734	627.56
401.958	629.56
402.182	619.56
402.406	630.56
402.63	650.56
402.854	619.56
403.078	651.56
403.302	622.56
403.526	648.56
403.75	642.56
403.974	641.56
404.198	636.56
404.422	651.56
404.645	672.56
404.869	652.56
405.093	655.56
405.317	636.56
405.541	639.56
405.765	649.56
405.988	649.56
406.212	671.56
406.436	676.56
406.66	663.56
406.883	664.56
407.107	703.56
407.331	719.56
407.555	714.56
407.778	693.56
408.002	709.56
408.226	713.56
408.449	747.56
408.673	680.56
408.896	675.56
409.12	680.56
409.344	676.56
409.567	692.56
409.791	686.56
410.014	671.56
410.238	672.56
410.461	667.56
410.685	688.56
410.908	648.56
411.132	692.56
411.355	660.56
411.578	664.56
411.802	656.56
412.025	656.56
412.249	629.56
412.472	663.56
412.695	659.56
412.919	647.56
413.142	639.56
413.365	651.56
413.589	652.56
413.812	636.56
414.035	658.56
414.258	644.56
414.482	635.56
414.705	614.56
414.928	638.56
415.151	635.56
415.374	622.56
415.597	618.56
415.821	622.56
416.044	631.56
416.267	616.56
416.49	636.56
416.713	599.56
416.936	616.56
417.159	625.56
417.382	635.56
417.605	607.56
417.828	632.56
418.051	626.56
418.274	620.56
418.497	630.56
418.72	630.56
418.943	609.56
419.166	630.56
419.389	682.56
419.611	640.56
419.834	641.56
420.057	625.56
420.28	630.56
420.503	617.56
420.726	586.56
420.948	594.56
421.171	616.56
421.394	613.56
421.617	619.56
421.839	612.56
422.062	635.56
422.285	572.56
422.507	622.56
422.73	586.56
422.953	626.56
423.175	627.56
423.398	622.56
423.621	611.56
423.843	616.56
424.066	595.56
424.288	599.56
424.511	600.56
424.733	603.56
424.956	594.56
425.178	586.56
425.401	592.56
425.623	609.56
425.846	580.56
426.068	608.56
426.291	599.56
426.513	588.56
426.735	603.56
426.958	616.56
427.18	617.56
427.402	591.56
427.625	606.56
427.847	607.56
428.069	594.56
428.292	613.56
428.514	606.56
428.736	604.56
428.958	593.56
429.181	594.56
429.403	601.56
429.625	590.56
429.847	570.56
430.069	580.56
430.292	599.56
430.514	598.56
430.736	601.56
430.958	614.56
431.18	584.56
431.402	573.56
431.624	575.56
431.846	591.56
432.068	592.56
432.29	596.56
432.512	579.56
432.734	614.56
432.956	589.56
433.178	599.56
433.4	594.56
433.622	592.56
433.844	605.56
434.066	615.56
434.287	598.56
434.509	608.56
434.731	612.56
434.953	627.56
435.175	619.56
435.397	626.56
435.618	609.56
435.84	585.56
436.062	595.56
436.284	605.56
436.505	581.56
436.727	588.56
436.949	583.56
437.17	600.56
437.392	587.56
437.614	633.56
437.835	583.56
438.057	570.56
438.278	593.56
438.5	579.56
438.721	585.56
438.943	592.56
439.165	568.56
439.386	591.56
439.608	596.56
439.829	624.56
440.05	582.56
440.272	596.56
440.493	587.56
440.715	580.56
440.936	588.56
441.158	584.56
441.379	617.56
441.6	625.56
441.822	599.56
442.043	584.56
442.264	617.56
442.486	578.56
442.707	602.56
442.928	596.56
443.149	629.56
443.371	620.56
443.592	620.56
443.813	611.56
444.034	600.56
444.255	609.56
444.476	610.56
444.698	601.56
444.919	623.56
445.14	688.56
445.361	657.56
445.582	612.56
445.803	601.56
446.024	602.56
446.245	585.56
446.466	607.56
446.687	574.56
446.908	590.56
447.129	579.56
447.35	565.56
447.571	556.56
447.792	567.56
448.013	560.56
448.234	536.56
448.455	562.56
448.675	566.56
448.896	549.56
449.117	558.56
449.338	544.56
449.559	546.56
449.779	549.56
450	560.56
450.221	532.56
450.442	546.56
450.662	543.56
450.883	558.56
451.104	571.56
451.324	545.56
451.545	561.56
451.766	556.56
451.986	549.56
452.207	533.56
452.428	545.56
452.648	559.56
452.869	548.56
453.089	533.56
453.31	533.56
453.53	538.56
453.751	526.56
453.971	546.56
454.192	543.56
454.412	536.56
454.633	524.56
454.853	516.56
455.073	524.56
455.294	528.56
455.514	521.56
455.734	530.56
455.955	521.56
456.175	546.56
456.395	530.56
456.616	538.56
456.836	524.56
457.056	540.56
457.276	550.56
457.497	550.56
457.717	554.56
457.937	543.56
458.157	548.56
458.377	543.56
458.598	568.56
458.818	575.56
459.038	558.56
459.258	567.56
459.478	570.56
459.698	597.56
459.918	593.56
460.138	594.56
460.358	626.56
460.578	603.56
460.798	636.56
461.018	620.56
461.238	606.56
461.458	661.56
461.678	615.56
461.898	623.56
462.118	658.56
462.338	642.56
462.558	660.56
462.777	673.56
462.997	667.56
463.217	675.56
463.437	690.56
463.657	699.56
463.876	673.56
464.096	655.56
464.316	628.56
464.536	665.56
464.755	640.56
464.975	650.56
465.195	646.56
465.414	647.56
465.634	617.56
465.854	613.56
466.073	618.56
466.293	587.56
466.512	600.56
466.732	596.56
466.951	616.56
467.171	611.56
467.391	589.56
467.61	585.56
467.829	576.56
468.049	572.56
468.268	594.56
468.488	565.56
468.707	589.56
468.927	581.56
469.146	575.56
469.365	595.56
469.585	582.56
469.804	586.56
470.023	576.56
470.243	576.56
470.462	575.56
470.681	589.56
470.901	580.56
471.12	592.56
471.339	588.56
471.558	602.56
471.777	583.56
471.997	597.56
472.216	601.56
472.435	603.56
472.654	590.56
472.873	579.56
473.092	576.56
473.311	564.56
473.53	609.56
473.749	595.56
473.968	599.56
474.187	582.56
474.406	594.56
474.625	600.56
474.844	586.56
475.063	581.56
475.282	609.56
475.501	596.56
475.72	635.56
475.939	643.56
476.158	624.56
476.377	616.56
476.596	617.56
476.814	623.56
477.033	649.56
477.252	633.56
477.471	664.56
477.69	636.56
477.908	645.56
478.127	662.56
478.346	666.56
478.564	659.56
478.783	664.56
479.002	682.56
479.22	694.56
479.439	702.56
479.658	692.56
479.876	682.56
480.095	683.56
480.313	691.56
480.532	694.56
480.751	678.56
480.969	688.56
481.188	669.56
481.406	700.56
481.624	691.56
481.843	716.56
482.061	720.56
482.28	696.56
482.498	700.56
482.717	673.56
482.935	684.56
483.153	694.56
483.372	689.56
483.59	688.56
483.808	700.56
484.027	723.56
484.245	715.56
484.463	712.56
484.681	729.56
484.9	710.56
485.118	705.56
485.336	700.56
485.554	704.56
485.772	696.56
485.99	703.56
486.209	710.56
486.427	729.56
486.645	733.56
486.863	729.56
487.081	720.56
487.299	724.56
487.517	719.56
487.735	717.56
487.953	706.56
488.171	730.56
488.389	712.56
488.607	727.56
488.825	722.56
489.043	694.56
489.261	729.56
489.479	723.56
489.696	732.56
489.914	720.56
490.132	720.56
490.35	720.56
490.568	716.56
490.786	731.56
491.003	704.56
491.221	728.56
491.439	722.56
491.657	747.56
491.874	730.56
492.092	737.56
492.31	741.56
492.527	733.56
492.745	738.56
492.963	747.56
493.18	739.56
493.398	743.56
493.615	725.56
493.833	745.56
494.05	758.56
494.268	748.56
494.485	752.56
494.703	759.56
494.92	747.56
495.138	752.56
495.355	767.56
495.573	780.56
495.79	747.56
496.008	802.56
496.225	813.56
496.442	791.56
496.66	806.56
496.877	817.56
497.094	831.56
497.312	809.56
497.529	815.56
497.746	819.56
497.963	857.56
498.181	880.56
498.398	887.56
498.615	894.56
498.832	917.56
499.049	984.56
499.267	991.56
499.484	1002.56
499.701	1065.56
499.918	1084.56
500.135	1086.56
500.352	1150.56
500.569	1163.56
500.786	1157.56
501.003	1110.56
501.22	1128.56
501.437	1069.56
501.654	1032.56
