Data from Fe(NO3)3@0.025M.TitratingCurve.Agarose3%dH2O.NegLispCup.LampEnergy10.LIBS07252019_HRD10591_16-56-53-337.txt Node
Date: Thu Jul 25 16:56:53 EDT 2019
User: cochatt
Spectrometer: HR+D1059
Trigger mode: 1
Integration Time (sec): 1.000000E-1
Scans to average: 1
Electric dark correction enabled: true
Nonlinearity correction enabled: false
Boxcar width: 0
XAxis mode: Wavelengths
Number of Pixels in Spectrum: 2048
>>>>>Begin Spectral Data<<<<<
223.165	-22.88
223.4	-22.88
223.635	-22.88
223.869	-24.88
224.104	-17.88
224.338	-11.88
224.573	-11.88
224.808	-4.88
225.042	7.12
225.277	-12.88
225.511	2.12
225.746	8.12
225.98	-5.88
226.215	9.12
226.449	17.12
226.683	9.12
226.918	26.12
227.152	34.12
227.387	39.12
227.621	38.12
227.856	54.12
228.09	27.12
228.324	33.12
228.559	66.12
228.793	61.12
229.027	71.12
229.262	57.12
229.496	70.12
229.73	86.12
229.964	96.12
230.199	96.12
230.433	82.12
230.667	95.12
230.901	78.12
231.136	81.12
231.37	93.12
231.604	89.12
231.838	83.12
232.072	91.12
232.306	91.12
232.541	92.12
232.775	110.12
233.009	101.12
233.243	88.12
233.477	90.12
233.711	95.12
233.945	86.12
234.179	95.12
234.413	99.12
234.647	103.12
234.881	110.12
235.115	92.12
235.349	105.12
235.583	88.12
235.817	95.12
236.051	90.12
236.285	79.12
236.519	101.12
236.753	86.12
236.987	88.12
237.221	93.12
237.455	103.12
237.689	90.12
237.922	93.12
238.156	95.12
238.39	90.12
238.624	88.12
238.858	102.12
239.091	107.12
239.325	97.12
239.559	96.12
239.793	86.12
240.027	85.12
240.26	92.12
240.494	98.12
240.728	99.12
240.961	99.12
241.195	103.12
241.429	90.12
241.662	99.12
241.896	96.12
242.13	108.12
242.363	96.12
242.597	99.12
242.83	107.12
243.064	93.12
243.298	90.12
243.531	113.12
243.765	104.12
243.998	107.12
244.232	102.12
244.465	100.12
244.699	108.12
244.932	96.12
245.166	92.12
245.399	106.12
245.633	95.12
245.866	104.12
246.099	105.12
246.333	97.12
246.566	106.12
246.8	113.12
247.033	92.12
247.266	99.12
247.5	100.12
247.733	116.12
247.966	113.12
248.2	112.12
248.433	110.12
248.666	111.12
248.899	103.12
249.133	100.12
249.366	99.12
249.599	101.12
249.832	125.12
250.066	124.12
250.299	106.12
250.532	108.12
250.765	117.12
250.998	126.12
251.231	119.12
251.465	106.12
251.698	107.12
251.931	114.12
252.164	99.12
252.397	126.12
252.63	132.12
252.863	100.12
253.096	126.12
253.329	122.12
253.562	121.12
253.795	115.12
254.028	121.12
254.261	126.12
254.494	135.12
254.727	122.12
254.96	130.12
255.193	119.12
255.426	112.12
255.659	110.12
255.892	135.12
256.124	130.12
256.357	122.12
256.59	114.12
256.823	129.12
257.056	119.12
257.289	110.12
257.521	128.12
257.754	122.12
257.987	122.12
258.22	127.12
258.452	132.12
258.685	138.12
258.918	107.12
259.151	129.12
259.383	126.12
259.616	125.12
259.849	131.12
260.081	134.12
260.314	130.12
260.547	125.12
260.779	130.12
261.012	140.12
261.244	122.12
261.477	128.12
261.71	118.12
261.942	135.12
262.175	134.12
262.407	128.12
262.64	124.12
262.872	121.12
263.105	131.12
263.337	127.12
263.57	139.12
263.802	132.12
264.035	137.12
264.267	131.12
264.499	129.12
264.732	143.12
264.964	120.12
265.197	139.12
265.429	121.12
265.661	142.12
265.894	124.12
266.126	134.12
266.358	120.12
266.591	121.12
266.823	142.12
267.055	146.12
267.287	139.12
267.52	150.12
267.752	134.12
267.984	146.12
268.216	134.12
268.448	145.12
268.681	130.12
268.913	130.12
269.145	144.12
269.377	140.12
269.609	149.12
269.841	140.12
270.073	134.12
270.306	143.12
270.538	136.12
270.77	131.12
271.002	138.12
271.234	139.12
271.466	144.12
271.698	149.12
271.93	140.12
272.162	147.12
272.394	163.12
272.626	151.12
272.858	147.12
273.09	156.12
273.322	147.12
273.553	141.12
273.785	143.12
274.017	146.12
274.249	150.12
274.481	160.12
274.713	152.12
274.945	159.12
275.176	166.12
275.408	163.12
275.64	142.12
275.872	149.12
276.104	146.12
276.335	163.12
276.567	156.12
276.799	143.12
277.031	150.12
277.262	156.12
277.494	170.12
277.726	155.12
277.957	148.12
278.189	137.12
278.421	151.12
278.652	162.12
278.884	167.12
279.115	163.12
279.347	166.12
279.579	180.12
279.81	161.12
280.042	172.12
280.273	154.12
280.505	156.12
280.736	153.12
280.968	159.12
281.199	159.12
281.431	163.12
281.662	169.12
281.894	175.12
282.125	179.12
282.356	169.12
282.588	172.12
282.819	165.12
283.051	144.12
283.282	158.12
283.513	158.12
283.745	163.12
283.976	174.12
284.207	182.12
284.439	163.12
284.67	178.12
284.901	164.12
285.132	179.12
285.364	169.12
285.595	165.12
285.826	185.12
286.057	172.12
286.288	172.12
286.52	181.12
286.751	165.12
286.982	172.12
287.213	180.12
287.444	181.12
287.675	187.12
287.906	178.12
288.138	185.12
288.369	184.12
288.6	176.12
288.831	186.12
289.062	180.12
289.293	176.12
289.524	185.12
289.755	178.12
289.986	169.12
290.217	159.12
290.448	168.12
290.679	188.12
290.91	163.12
291.141	178.12
291.371	184.12
291.602	175.12
291.833	184.12
292.064	151.12
292.295	171.12
292.526	178.12
292.757	186.12
292.987	177.12
293.218	175.12
293.449	181.12
293.68	179.12
293.91	178.12
294.141	182.12
294.372	174.12
294.603	175.12
294.833	193.12
295.064	182.12
295.295	192.12
295.525	188.12
295.756	182.12
295.987	183.12
296.217	187.12
296.448	194.12
296.679	182.12
296.909	186.12
297.14	192.12
297.37	201.12
297.601	195.12
297.831	182.12
298.062	194.12
298.292	190.12
298.523	195.12
298.753	196.12
298.984	197.12
299.214	192.12
299.445	185.12
299.675	197.12
299.905	198.12
300.136	204.12
300.366	222.12
300.597	200.12
300.827	207.12
301.057	190.12
301.288	197.12
301.518	203.12
301.748	198.12
301.979	212.12
302.209	190.12
302.439	201.12
302.669	201.12
302.9	194.12
303.13	187.12
303.36	223.12
303.59	223.12
303.82	199.12
304.051	217.12
304.281	232.12
304.511	195.12
304.741	212.12
304.971	207.12
305.201	220.12
305.431	207.12
305.661	212.12
305.891	200.12
306.121	210.12
306.352	195.12
306.582	193.12
306.812	200.12
307.042	203.12
307.272	206.12
307.502	208.12
307.731	204.12
307.961	204.12
308.191	199.12
308.421	201.12
308.651	221.12
308.881	198.12
309.111	215.12
309.341	203.12
309.571	230.12
309.8	204.12
310.03	202.12
310.26	194.12
310.49	191.12
310.72	197.12
310.949	220.12
311.179	224.12
311.409	199.12
311.639	205.12
311.868	223.12
312.098	231.12
312.328	211.12
312.557	202.12
312.787	214.12
313.017	216.12
313.246	220.12
313.476	229.12
313.706	208.12
313.935	229.12
314.165	217.12
314.394	230.12
314.624	208.12
314.853	209.12
315.083	219.12
315.312	226.12
315.542	235.12
315.771	220.12
316.001	231.12
316.23	224.12
316.46	207.12
316.689	216.12
316.919	222.12
317.148	218.12
317.377	227.12
317.607	212.12
317.836	218.12
318.065	225.12
318.295	233.12
318.524	211.12
318.753	226.12
318.983	229.12
319.212	212.12
319.441	220.12
319.67	232.12
319.9	215.12
320.129	225.12
320.358	232.12
320.587	223.12
320.816	235.12
321.046	221.12
321.275	221.12
321.504	216.12
321.733	214.12
321.962	221.12
322.191	224.12
322.42	231.12
322.649	233.12
322.878	218.12
323.108	218.12
323.337	225.12
323.566	230.12
323.795	223.12
324.024	226.12
324.253	236.12
324.482	241.12
324.71	225.12
324.939	218.12
325.168	239.12
325.397	217.12
325.626	240.12
325.855	225.12
326.084	226.12
326.313	228.12
326.542	236.12
326.77	247.12
326.999	222.12
327.228	250.12
327.457	249.12
327.686	249.12
327.914	243.12
328.143	234.12
328.372	258.12
328.6	236.12
328.829	232.12
329.058	223.12
329.287	240.12
329.515	235.12
329.744	239.12
329.972	238.12
330.201	258.12
330.43	246.12
330.658	248.12
330.887	247.12
331.115	261.12
331.344	266.12
331.572	263.12
331.801	256.12
332.03	249.12
332.258	270.12
332.486	254.12
332.715	257.12
332.943	252.12
333.172	286.12
333.4	288.12
333.629	282.12
333.857	285.12
334.085	283.12
334.314	285.12
334.542	272.12
334.771	310.12
334.999	294.12
335.227	271.12
335.455	284.12
335.684	289.12
335.912	292.12
336.14	267.12
336.369	276.12
336.597	278.12
336.825	286.12
337.053	282.12
337.281	265.12
337.51	273.12
337.738	278.12
337.966	273.12
338.194	276.12
338.422	256.12
338.65	258.12
338.878	282.12
339.106	259.12
339.334	258.12
339.562	261.12
339.79	247.12
340.018	263.12
340.246	249.12
340.474	245.12
340.702	244.12
340.93	238.12
341.158	279.12
341.386	262.12
341.614	250.12
341.842	247.12
342.07	263.12
342.298	244.12
342.526	248.12
342.754	263.12
342.981	272.12
343.209	252.12
343.437	263.12
343.665	265.12
343.893	282.12
344.12	283.12
344.348	278.12
344.576	265.12
344.804	274.12
345.031	262.12
345.259	248.12
345.487	251.12
345.714	275.12
345.942	243.12
346.17	242.12
346.397	254.12
346.625	246.12
346.853	233.12
347.08	249.12
347.308	264.12
347.535	248.12
347.763	246.12
347.99	254.12
348.218	242.12
348.445	243.12
348.673	251.12
348.9	242.12
349.128	231.12
349.355	249.12
349.583	231.12
349.81	254.12
350.037	266.12
350.265	264.12
350.492	252.12
350.72	262.12
350.947	241.12
351.174	240.12
351.402	254.12
351.629	254.12
351.856	242.12
352.083	235.12
352.311	239.12
352.538	235.12
352.765	262.12
352.992	253.12
353.22	245.12
353.447	242.12
353.674	234.12
353.901	228.12
354.128	234.12
354.355	248.12
354.583	246.12
354.81	233.12
355.037	248.12
355.264	252.12
355.491	268.12
355.718	264.12
355.945	246.12
356.172	262.12
356.399	236.12
356.626	251.12
356.853	264.12
357.08	236.12
357.307	242.12
357.534	235.12
357.761	228.12
357.988	241.12
358.215	241.12
358.441	260.12
358.668	249.12
358.895	254.12
359.122	241.12
359.349	252.12
359.576	240.12
359.802	233.12
360.029	255.12
360.256	269.12
360.483	254.12
360.709	241.12
360.936	246.12
361.163	261.12
361.39	237.12
361.616	265.12
361.843	242.12
362.07	256.12
362.296	253.12
362.523	234.12
362.749	245.12
362.976	229.12
363.203	262.12
363.429	262.12
363.656	251.12
363.882	230.12
364.109	268.12
364.335	254.12
364.562	241.12
364.788	266.12
365.015	258.12
365.241	246.12
365.468	262.12
365.694	249.12
365.92	247.12
366.147	249.12
366.373	246.12
366.599	256.12
366.826	248.12
367.052	265.12
367.278	263.12
367.505	254.12
367.731	250.12
367.957	266.12
368.184	251.12
368.41	271.12
368.636	255.12
368.862	242.12
369.089	265.12
369.315	249.12
369.541	260.12
369.767	260.12
369.993	248.12
370.219	260.12
370.445	258.12
370.672	277.12
370.898	258.12
371.124	255.12
371.35	278.12
371.576	272.12
371.802	274.12
372.028	267.12
372.254	279.12
372.48	272.12
372.706	264.12
372.932	283.12
373.158	264.12
373.384	268.12
373.61	275.12
373.835	281.12
374.061	264.12
374.287	290.12
374.513	289.12
374.739	280.12
374.965	282.12
375.191	289.12
375.416	280.12
375.642	270.12
375.868	280.12
376.094	275.12
376.319	283.12
376.545	300.12
376.771	287.12
376.997	276.12
377.222	272.12
377.448	273.12
377.674	271.12
377.899	269.12
378.125	261.12
378.35	250.12
378.576	288.12
378.802	254.12
379.027	259.12
379.253	264.12
379.478	249.12
379.704	263.12
379.929	276.12
380.155	282.12
380.38	279.12
380.606	266.12
380.831	269.12
381.057	268.12
381.282	268.12
381.507	289.12
381.733	294.12
381.958	271.12
382.184	284.12
382.409	287.12
382.634	291.12
382.86	296.12
383.085	285.12
383.31	271.12
383.535	280.12
383.761	294.12
383.986	278.12
384.211	306.12
384.436	311.12
384.662	307.12
384.887	299.12
385.112	301.12
385.337	298.12
385.562	302.12
385.787	304.12
386.013	308.12
386.238	308.12
386.463	306.12
386.688	310.12
386.913	306.12
387.138	309.12
387.363	305.12
387.588	307.12
387.813	320.12
388.038	304.12
388.263	311.12
388.488	318.12
388.713	328.12
388.938	297.12
389.163	292.12
389.387	318.12
389.612	316.12
389.837	319.12
390.062	291.12
390.287	300.12
390.512	304.12
390.736	290.12
390.961	307.12
391.186	326.12
391.411	304.12
391.636	322.12
391.86	353.12
392.085	326.12
392.31	313.12
392.534	312.12
392.759	328.12
392.984	315.12
393.208	330.12
393.433	296.12
393.658	306.12
393.882	324.12
394.107	308.12
394.331	312.12
394.556	322.12
394.78	324.12
395.005	323.12
395.229	329.12
395.454	329.12
395.678	327.12
395.903	306.12
396.127	335.12
396.352	323.12
396.576	327.12
396.801	319.12
397.025	334.12
397.249	326.12
397.474	343.12
397.698	357.12
397.922	354.12
398.147	326.12
398.371	356.12
398.595	339.12
398.82	388.12
399.044	371.12
399.268	387.12
399.492	411.12
399.717	454.12
399.941	441.12
400.165	441.12
400.389	402.12
400.613	389.12
400.837	375.12
401.062	377.12
401.286	386.12
401.51	372.12
401.734	366.12
401.958	385.12
402.182	380.12
402.406	355.12
402.63	365.12
402.854	387.12
403.078	373.12
403.302	367.12
403.526	362.12
403.75	384.12
403.974	360.12
404.198	378.12
404.422	374.12
404.645	374.12
404.869	395.12
405.093	380.12
405.317	376.12
405.541	396.12
405.765	386.12
405.988	372.12
406.212	390.12
406.436	386.12
406.66	396.12
406.883	390.12
407.107	409.12
407.331	415.12
407.555	402.12
407.778	417.12
408.002	404.12
408.226	411.12
408.449	403.12
408.673	378.12
408.896	386.12
409.12	391.12
409.344	392.12
409.567	393.12
409.791	393.12
410.014	402.12
410.238	380.12
410.461	379.12
410.685	383.12
410.908	382.12
411.132	379.12
411.355	376.12
411.578	384.12
411.802	369.12
412.025	351.12
412.249	380.12
412.472	350.12
412.695	356.12
412.919	345.12
413.142	366.12
413.365	360.12
413.589	362.12
413.812	371.12
414.035	366.12
414.258	374.12
414.482	378.12
414.705	370.12
414.928	357.12
415.151	363.12
415.374	356.12
415.597	357.12
415.821	360.12
416.044	338.12
416.267	344.12
416.49	368.12
416.713	337.12
416.936	351.12
417.159	338.12
417.382	336.12
417.605	349.12
417.828	352.12
418.051	356.12
418.274	334.12
418.497	342.12
418.72	361.12
418.943	369.12
419.166	388.12
419.389	363.12
419.611	380.12
419.834	368.12
420.057	358.12
420.28	376.12
420.503	339.12
420.726	345.12
420.948	354.12
421.171	336.12
421.394	323.12
421.617	348.12
421.839	361.12
422.062	350.12
422.285	321.12
422.507	358.12
422.73	350.12
422.953	363.12
423.175	355.12
423.398	354.12
423.621	370.12
423.843	365.12
424.066	361.12
424.288	333.12
424.511	363.12
424.733	340.12
424.956	361.12
425.178	343.12
425.401	351.12
425.623	350.12
425.846	315.12
426.068	325.12
426.291	339.12
426.513	349.12
426.735	338.12
426.958	329.12
427.18	328.12
427.402	324.12
427.625	323.12
427.847	328.12
428.069	310.12
428.292	343.12
428.514	316.12
428.736	327.12
428.958	334.12
429.181	326.12
429.403	318.12
429.625	322.12
429.847	331.12
430.069	329.12
430.292	326.12
430.514	311.12
430.736	340.12
430.958	321.12
431.18	326.12
431.402	312.12
431.624	318.12
431.846	345.12
432.068	327.12
432.29	336.12
432.512	316.12
432.734	316.12
432.956	309.12
433.178	321.12
433.4	310.12
433.622	336.12
433.844	338.12
434.066	341.12
434.287	338.12
434.509	335.12
434.731	331.12
434.953	339.12
435.175	359.12
435.397	340.12
435.618	337.12
435.84	332.12
436.062	316.12
436.284	313.12
436.505	331.12
436.727	326.12
436.949	326.12
437.17	321.12
437.392	319.12
437.614	319.12
437.835	335.12
438.057	304.12
438.278	325.12
438.5	309.12
438.721	329.12
438.943	321.12
439.165	320.12
439.386	316.12
439.608	318.12
439.829	305.12
440.05	304.12
440.272	308.12
440.493	308.12
440.715	312.12
440.936	308.12
441.158	330.12
441.379	309.12
441.6	351.12
441.822	340.12
442.043	334.12
442.264	334.12
442.486	339.12
442.707	340.12
442.928	345.12
443.149	345.12
443.371	339.12
443.592	323.12
443.813	368.12
444.034	344.12
444.255	347.12
444.476	371.12
444.698	362.12
444.919	360.12
445.14	479.12
445.361	393.12
445.582	336.12
445.803	354.12
446.024	331.12
446.245	316.12
446.466	336.12
446.687	319.12
446.908	310.12
447.129	322.12
447.35	320.12
447.571	321.12
447.792	302.12
448.013	309.12
448.234	293.12
448.455	307.12
448.675	306.12
448.896	291.12
449.117	308.12
449.338	291.12
449.559	327.12
449.779	292.12
450	276.12
450.221	288.12
450.442	310.12
450.662	302.12
450.883	295.12
451.104	309.12
451.324	315.12
451.545	283.12
451.766	287.12
451.986	291.12
452.207	284.12
452.428	298.12
452.648	297.12
452.869	291.12
453.089	279.12
453.31	310.12
453.53	298.12
453.751	305.12
453.971	292.12
454.192	287.12
454.412	292.12
454.633	310.12
454.853	276.12
455.073	294.12
455.294	286.12
455.514	287.12
455.734	264.12
455.955	286.12
456.175	272.12
456.395	291.12
456.616	298.12
456.836	295.12
457.056	282.12
457.276	284.12
457.497	311.12
457.717	291.12
457.937	291.12
458.157	288.12
458.377	294.12
458.598	289.12
458.818	303.12
459.038	308.12
459.258	327.12
459.478	322.12
459.698	314.12
459.918	320.12
460.138	347.12
460.358	342.12
460.578	335.12
460.798	342.12
461.018	324.12
461.238	359.12
461.458	355.12
461.678	343.12
461.898	346.12
462.118	368.12
462.338	369.12
462.558	360.12
462.777	390.12
462.997	413.12
463.217	423.12
463.437	400.12
463.657	396.12
463.876	356.12
464.096	380.12
464.316	402.12
464.536	403.12
464.755	361.12
464.975	362.12
465.195	348.12
465.414	355.12
465.634	350.12
465.854	335.12
466.073	324.12
466.293	318.12
466.512	324.12
466.732	319.12
466.951	300.12
467.171	324.12
467.391	321.12
467.61	303.12
467.829	300.12
468.049	318.12
468.268	311.12
468.488	307.12
468.707	296.12
468.927	299.12
469.146	297.12
469.365	311.12
469.585	328.12
469.804	298.12
470.023	300.12
470.243	318.12
470.462	327.12
470.681	312.12
470.901	304.12
471.12	322.12
471.339	292.12
471.558	297.12
471.777	312.12
471.997	293.12
472.216	313.12
472.435	313.12
472.654	295.12
472.873	298.12
473.092	314.12
473.311	320.12
473.53	323.12
473.749	307.12
473.968	315.12
474.187	295.12
474.406	319.12
474.625	323.12
474.844	316.12
475.063	302.12
475.282	302.12
475.501	303.12
475.72	314.12
475.939	320.12
476.158	322.12
476.377	307.12
476.596	316.12
476.814	331.12
477.033	326.12
477.252	329.12
477.471	316.12
477.69	350.12
477.908	342.12
478.127	364.12
478.346	338.12
478.564	357.12
478.783	370.12
479.002	352.12
479.22	363.12
479.439	367.12
479.658	345.12
479.876	355.12
480.095	362.12
480.313	373.12
480.532	378.12
480.751	371.12
480.969	382.12
481.188	363.12
481.406	356.12
481.624	335.12
481.843	355.12
482.061	360.12
482.28	367.12
482.498	343.12
482.717	356.12
482.935	373.12
483.153	352.12
483.372	340.12
483.59	359.12
483.808	370.12
484.027	366.12
484.245	370.12
484.463	360.12
484.681	374.12
484.9	387.12
485.118	380.12
485.336	348.12
485.554	362.12
485.772	347.12
485.99	354.12
486.209	362.12
486.427	369.12
486.645	374.12
486.863	358.12
487.081	380.12
487.299	382.12
487.517	352.12
487.735	372.12
487.953	355.12
488.171	376.12
488.389	362.12
488.607	374.12
488.825	367.12
489.043	364.12
489.261	360.12
489.479	369.12
489.696	362.12
489.914	390.12
490.132	383.12
490.35	362.12
490.568	352.12
490.786	369.12
491.003	374.12
491.221	369.12
491.439	363.12
491.657	376.12
491.874	376.12
492.092	362.12
492.31	382.12
492.527	384.12
492.745	362.12
492.963	372.12
493.18	360.12
493.398	353.12
493.615	362.12
493.833	389.12
494.05	380.12
494.268	375.12
494.485	374.12
494.703	374.12
494.92	379.12
495.138	388.12
495.355	371.12
495.573	383.12
495.79	367.12
496.008	399.12
496.225	405.12
496.442	376.12
496.66	393.12
496.877	393.12
497.094	414.12
497.312	412.12
497.529	434.12
497.746	425.12
497.963	443.12
498.181	442.12
498.398	457.12
498.615	488.12
498.832	498.12
499.049	518.12
499.267	536.12
499.484	576.12
499.701	627.12
499.918	641.12
500.135	656.12
500.352	704.12
500.569	736.12
500.786	702.12
501.003	682.12
501.22	666.12
501.437	604.12
501.654	571.12
501.871	567.12
502.088	512.12
502.305	507.12
