Data from Fe(NO3)3@0.025M.TitratingCurve.Agarose3%dH2O.NegLispCup.LampEnergy10.LIBS07252019_HRD10591_16-54-28-335.txt Node
Date: Thu Jul 25 16:54:28 EDT 2019
User: cochatt
Spectrometer: HR+D1059
Trigger mode: 1
Integration Time (sec): 1.000000E-1
Scans to average: 1
Electric dark correction enabled: true
Nonlinearity correction enabled: false
Boxcar width: 0
XAxis mode: Wavelengths
Number of Pixels in Spectrum: 2048
>>>>>Begin Spectral Data<<<<<
223.165	-15.38
223.4	-15.38
223.635	-15.38
223.869	-10.38
224.104	-3.38
224.338	-4.38
224.573	-8.38
224.808	-20.38
225.042	-10.38
225.277	2.62
225.511	-12.38
225.746	-7.38
225.98	6.62
226.215	15.62
226.449	16.62
226.683	4.62
226.918	8.62
227.152	37.62
227.387	30.62
227.621	43.62
227.856	37.62
228.09	30.62
228.324	51.62
228.559	55.62
228.793	70.62
229.027	94.62
229.262	96.62
229.496	94.62
229.73	110.62
229.964	100.62
230.199	90.62
230.433	109.62
230.667	115.62
230.901	107.62
231.136	119.62
231.37	115.62
231.604	122.62
231.838	117.62
232.072	116.62
232.306	139.62
232.541	124.62
232.775	122.62
233.009	118.62
233.243	127.62
233.477	116.62
233.711	113.62
233.945	131.62
234.179	135.62
234.413	138.62
234.647	136.62
234.881	129.62
235.115	118.62
235.349	138.62
235.583	123.62
235.817	132.62
236.051	135.62
236.285	131.62
236.519	127.62
236.753	149.62
236.987	128.62
237.221	130.62
237.455	127.62
237.689	130.62
237.922	126.62
238.156	126.62
238.39	145.62
238.624	135.62
238.858	139.62
239.091	144.62
239.325	139.62
239.559	148.62
239.793	159.62
240.027	162.62
240.26	155.62
240.494	149.62
240.728	163.62
240.961	154.62
241.195	149.62
241.429	151.62
241.662	169.62
241.896	161.62
242.13	152.62
242.363	143.62
242.597	182.62
242.83	146.62
243.064	146.62
243.298	158.62
243.531	145.62
243.765	171.62
243.998	150.62
244.232	148.62
244.465	160.62
244.699	159.62
244.932	151.62
245.166	170.62
245.399	167.62
245.633	163.62
245.866	175.62
246.099	164.62
246.333	178.62
246.566	154.62
246.8	177.62
247.033	183.62
247.266	159.62
247.5	177.62
247.733	171.62
247.966	170.62
248.2	181.62
248.433	185.62
248.666	186.62
248.899	183.62
249.133	184.62
249.366	200.62
249.599	180.62
249.832	193.62
250.066	177.62
250.299	174.62
250.532	178.62
250.765	194.62
250.998	194.62
251.231	180.62
251.465	197.62
251.698	204.62
251.931	202.62
252.164	198.62
252.397	202.62
252.63	190.62
252.863	209.62
253.096	202.62
253.329	209.62
253.562	208.62
253.795	214.62
254.028	213.62
254.261	216.62
254.494	248.62
254.727	215.62
254.96	187.62
255.193	208.62
255.426	219.62
255.659	208.62
255.892	234.62
256.124	209.62
256.357	218.62
256.59	225.62
256.823	207.62
257.056	202.62
257.289	218.62
257.521	227.62
257.754	214.62
257.987	214.62
258.22	217.62
258.452	222.62
258.685	232.62
258.918	235.62
259.151	225.62
259.383	222.62
259.616	225.62
259.849	245.62
260.081	267.62
260.314	271.62
260.547	238.62
260.779	267.62
261.012	246.62
261.244	258.62
261.477	260.62
261.71	255.62
261.942	232.62
262.175	249.62
262.407	250.62
262.64	246.62
262.872	250.62
263.105	257.62
263.337	266.62
263.57	254.62
263.802	236.62
264.035	250.62
264.267	243.62
264.499	234.62
264.732	264.62
264.964	246.62
265.197	239.62
265.429	239.62
265.661	243.62
265.894	244.62
266.126	220.62
266.358	257.62
266.591	256.62
266.823	260.62
267.055	249.62
267.287	250.62
267.52	258.62
267.752	247.62
267.984	259.62
268.216	250.62
268.448	267.62
268.681	263.62
268.913	268.62
269.145	280.62
269.377	281.62
269.609	266.62
269.841	274.62
270.073	270.62
270.306	276.62
270.538	254.62
270.77	282.62
271.002	274.62
271.234	275.62
271.466	281.62
271.698	267.62
271.93	265.62
272.162	279.62
272.394	264.62
272.626	293.62
272.858	286.62
273.09	290.62
273.322	300.62
273.553	293.62
273.785	291.62
274.017	302.62
274.249	322.62
274.481	303.62
274.713	331.62
274.945	359.62
275.176	352.62
275.408	332.62
275.64	336.62
275.872	337.62
276.104	311.62
276.335	318.62
276.567	303.62
276.799	299.62
277.031	318.62
277.262	308.62
277.494	305.62
277.726	307.62
277.957	308.62
278.189	314.62
278.421	315.62
278.652	307.62
278.884	314.62
279.115	296.62
279.347	326.62
279.579	314.62
279.81	318.62
280.042	316.62
280.273	301.62
280.505	324.62
280.736	311.62
280.968	319.62
281.199	322.62
281.431	330.62
281.662	324.62
281.894	328.62
282.125	333.62
282.356	324.62
282.588	335.62
282.819	324.62
283.051	324.62
283.282	316.62
283.513	340.62
283.745	359.62
283.976	340.62
284.207	339.62
284.439	347.62
284.67	351.62
284.901	341.62
285.132	342.62
285.364	345.62
285.595	346.62
285.826	332.62
286.057	357.62
286.288	347.62
286.52	329.62
286.751	349.62
286.982	345.62
287.213	339.62
287.444	341.62
287.675	368.62
287.906	362.62
288.138	321.62
288.369	347.62
288.6	340.62
288.831	343.62
289.062	351.62
289.293	367.62
289.524	374.62
289.755	359.62
289.986	363.62
290.217	340.62
290.448	360.62
290.679	361.62
290.91	361.62
291.141	361.62
291.371	373.62
291.602	353.62
291.833	358.62
292.064	363.62
292.295	347.62
292.526	350.62
292.757	378.62
292.987	354.62
293.218	363.62
293.449	356.62
293.68	381.62
293.91	374.62
294.141	372.62
294.372	363.62
294.603	359.62
294.833	383.62
295.064	380.62
295.295	379.62
295.525	371.62
295.756	361.62
295.987	378.62
296.217	386.62
296.448	400.62
296.679	361.62
296.909	374.62
297.14	378.62
297.37	373.62
297.601	383.62
297.831	396.62
298.062	388.62
298.292	379.62
298.523	410.62
298.753	406.62
298.984	399.62
299.214	402.62
299.445	385.62
299.675	386.62
299.905	375.62
300.136	375.62
300.366	404.62
300.597	407.62
300.827	411.62
301.057	401.62
301.288	404.62
301.518	401.62
301.748	411.62
301.979	419.62
302.209	435.62
302.439	405.62
302.669	422.62
302.9	424.62
303.13	407.62
303.36	414.62
303.59	400.62
303.82	401.62
304.051	431.62
304.281	430.62
304.511	396.62
304.741	425.62
304.971	420.62
305.201	428.62
305.431	404.62
305.661	412.62
305.891	430.62
306.121	418.62
306.352	404.62
306.582	405.62
306.812	425.62
307.042	415.62
307.272	416.62
307.502	415.62
307.731	445.62
307.961	419.62
308.191	425.62
308.421	420.62
308.651	423.62
308.881	410.62
309.111	422.62
309.341	408.62
309.571	435.62
309.8	423.62
310.03	425.62
310.26	426.62
310.49	411.62
310.72	397.62
310.949	432.62
311.179	446.62
311.409	427.62
311.639	410.62
311.868	423.62
312.098	453.62
312.328	446.62
312.557	458.62
312.787	440.62
313.017	449.62
313.246	468.62
313.476	451.62
313.706	434.62
313.935	433.62
314.165	446.62
314.394	445.62
314.624	437.62
314.853	464.62
315.083	440.62
315.312	458.62
315.542	453.62
315.771	457.62
316.001	472.62
316.23	464.62
316.46	455.62
316.689	470.62
316.919	464.62
317.148	454.62
317.377	462.62
317.607	447.62
317.836	448.62
318.065	475.62
318.295	481.62
318.524	442.62
318.753	473.62
318.983	442.62
319.212	442.62
319.441	461.62
319.67	458.62
319.9	459.62
320.129	473.62
320.358	471.62
320.587	464.62
320.816	470.62
321.046	470.62
321.275	467.62
321.504	458.62
321.733	472.62
321.962	470.62
322.191	488.62
322.42	486.62
322.649	482.62
322.878	498.62
323.108	460.62
323.337	474.62
323.566	478.62
323.795	481.62
324.024	481.62
324.253	491.62
324.482	480.62
324.71	481.62
324.939	460.62
325.168	489.62
325.397	482.62
325.626	506.62
325.855	502.62
326.084	507.62
326.313	496.62
326.542	521.62
326.77	491.62
326.999	500.62
327.228	487.62
327.457	482.62
327.686	491.62
327.914	489.62
328.143	503.62
328.372	507.62
328.6	523.62
328.829	483.62
329.058	481.62
329.287	502.62
329.515	483.62
329.744	500.62
329.972	521.62
330.201	528.62
330.43	516.62
330.658	536.62
330.887	516.62
331.115	504.62
331.344	529.62
331.572	507.62
331.801	532.62
332.03	554.62
332.258	549.62
332.486	551.62
332.715	558.62
332.943	563.62
333.172	564.62
333.4	565.62
333.629	573.62
333.857	598.62
334.085	592.62
334.314	591.62
334.542	579.62
334.771	598.62
334.999	586.62
335.227	596.62
335.455	610.62
335.684	600.62
335.912	614.62
336.14	583.62
336.369	588.62
336.597	589.62
336.825	576.62
337.053	574.62
337.281	588.62
337.51	573.62
337.738	569.62
337.966	546.62
338.194	554.62
338.422	551.62
338.65	545.62
338.878	554.62
339.106	568.62
339.334	548.62
339.562	529.62
339.79	535.62
340.018	559.62
340.246	554.62
340.474	534.62
340.702	557.62
340.93	547.62
341.158	550.62
341.386	530.62
341.614	538.62
341.842	543.62
342.07	535.62
342.298	532.62
342.526	535.62
342.754	524.62
342.981	544.62
343.209	549.62
343.437	542.62
343.665	596.62
343.893	583.62
344.12	583.62
344.348	582.62
344.576	577.62
344.804	585.62
345.031	570.62
345.259	566.62
345.487	549.62
345.714	537.62
345.942	533.62
346.17	543.62
346.397	529.62
346.625	545.62
346.853	527.62
347.08	518.62
347.308	515.62
347.535	516.62
347.763	530.62
347.99	525.62
348.218	532.62
348.445	516.62
348.673	529.62
348.9	522.62
349.128	528.62
349.355	501.62
349.583	539.62
349.81	498.62
350.037	533.62
350.265	531.62
350.492	534.62
350.72	505.62
350.947	511.62
351.174	514.62
351.402	508.62
351.629	488.62
351.856	510.62
352.083	489.62
352.311	502.62
352.538	507.62
352.765	501.62
352.992	514.62
353.22	515.62
353.447	521.62
353.674	512.62
353.901	508.62
354.128	507.62
354.355	509.62
354.583	485.62
354.81	500.62
355.037	508.62
355.264	496.62
355.491	490.62
355.718	504.62
355.945	530.62
356.172	508.62
356.399	514.62
356.626	507.62
356.853	527.62
357.08	517.62
357.307	528.62
357.534	514.62
357.761	514.62
357.988	529.62
358.215	525.62
358.441	522.62
358.668	505.62
358.895	535.62
359.122	523.62
359.349	504.62
359.576	506.62
359.802	508.62
360.029	497.62
360.256	545.62
360.483	498.62
360.709	506.62
360.936	533.62
361.163	536.62
361.39	517.62
361.616	533.62
361.843	524.62
362.07	527.62
362.296	509.62
362.523	510.62
362.749	520.62
362.976	518.62
363.203	530.62
363.429	512.62
363.656	498.62
363.882	529.62
364.109	518.62
364.335	524.62
364.562	525.62
364.788	520.62
365.015	547.62
365.241	530.62
365.468	512.62
365.694	526.62
365.92	531.62
366.147	521.62
366.373	528.62
366.599	548.62
366.826	518.62
367.052	514.62
367.278	538.62
367.505	528.62
367.731	534.62
367.957	544.62
368.184	536.62
368.41	518.62
368.636	541.62
368.862	550.62
369.089	544.62
369.315	532.62
369.541	518.62
369.767	548.62
369.993	538.62
370.219	542.62
370.445	539.62
370.672	536.62
370.898	544.62
371.124	566.62
371.35	555.62
371.576	555.62
371.802	555.62
372.028	577.62
372.254	575.62
372.48	582.62
372.706	568.62
372.932	570.62
373.158	574.62
373.384	602.62
373.61	568.62
373.835	575.62
374.061	568.62
374.287	572.62
374.513	584.62
374.739	595.62
374.965	595.62
375.191	585.62
375.416	583.62
375.642	562.62
375.868	578.62
376.094	600.62
376.319	583.62
376.545	572.62
376.771	567.62
376.997	556.62
377.222	538.62
377.448	566.62
377.674	569.62
377.899	561.62
378.125	552.62
378.35	545.62
378.576	545.62
378.802	545.62
379.027	552.62
379.253	555.62
379.478	541.62
379.704	565.62
379.929	552.62
380.155	560.62
380.38	562.62
380.606	558.62
380.831	570.62
381.057	562.62
381.282	540.62
381.507	550.62
381.733	563.62
381.958	584.62
382.184	579.62
382.409	587.62
382.634	576.62
382.86	602.62
383.085	607.62
383.31	587.62
383.535	614.62
383.761	589.62
383.986	624.62
384.211	624.62
384.436	606.62
384.662	596.62
384.887	608.62
385.112	626.62
385.337	615.62
385.562	654.62
385.787	644.62
386.013	665.62
386.238	641.62
386.463	658.62
386.688	653.62
386.913	613.62
387.138	622.62
387.363	648.62
387.588	652.62
387.813	649.62
388.038	650.62
388.263	635.62
388.488	645.62
388.713	654.62
388.938	635.62
389.163	631.62
389.387	658.62
389.612	631.62
389.837	629.62
390.062	653.62
390.287	652.62
390.512	640.62
390.736	667.62
390.961	648.62
391.186	674.62
391.411	641.62
391.636	648.62
391.86	681.62
392.085	681.62
392.31	672.62
392.534	668.62
392.759	696.62
392.984	667.62
393.208	688.62
393.433	686.62
393.658	705.62
393.882	679.62
394.107	679.62
394.331	691.62
394.556	676.62
394.78	684.62
395.005	681.62
395.229	684.62
395.454	705.62
395.678	690.62
395.903	712.62
396.127	694.62
396.352	683.62
396.576	694.62
396.801	687.62
397.025	700.62
397.249	715.62
397.474	736.62
397.698	704.62
397.922	743.62
398.147	720.62
398.371	760.62
398.595	769.62
398.82	776.62
399.044	800.62
399.268	832.62
399.492	874.62
399.717	906.62
399.941	935.62
400.165	907.62
400.389	845.62
400.613	850.62
400.837	814.62
401.062	798.62
401.286	802.62
401.51	792.62
401.734	773.62
401.958	750.62
402.182	768.62
402.406	794.62
402.63	778.62
402.854	794.62
403.078	778.62
403.302	765.62
403.526	794.62
403.75	812.62
403.974	780.62
404.198	799.62
404.422	792.62
404.645	817.62
404.869	792.62
405.093	812.62
405.317	793.62
405.541	794.62
405.765	809.62
405.988	808.62
406.212	826.62
406.436	821.62
406.66	836.62
406.883	830.62
407.107	832.62
407.331	879.62
407.555	881.62
407.778	900.62
408.002	886.62
408.226	860.62
408.449	887.62
408.673	862.62
408.896	841.62
409.12	850.62
409.344	858.62
409.567	805.62
409.791	804.62
410.014	816.62
410.238	825.62
410.461	831.62
410.685	808.62
410.908	811.62
411.132	788.62
411.355	799.62
411.578	786.62
411.802	807.62
412.025	764.62
412.249	802.62
412.472	800.62
412.695	795.62
412.919	793.62
413.142	777.62
413.365	786.62
413.589	787.62
413.812	773.62
414.035	752.62
414.258	742.62
414.482	763.62
414.705	752.62
414.928	766.62
415.151	778.62
415.374	752.62
415.597	759.62
415.821	758.62
416.044	743.62
416.267	742.62
416.49	721.62
416.713	732.62
416.936	752.62
417.159	709.62
417.382	729.62
417.605	708.62
417.828	752.62
418.051	752.62
418.274	752.62
418.497	724.62
418.72	726.62
418.943	708.62
419.166	752.62
419.389	800.62
419.611	780.62
419.834	752.62
420.057	768.62
420.28	724.62
420.503	723.62
420.726	712.62
420.948	733.62
421.171	711.62
421.394	717.62
421.617	728.62
421.839	724.62
422.062	720.62
422.285	699.62
422.507	727.62
422.73	743.62
422.953	759.62
423.175	716.62
423.398	701.62
423.621	711.62
423.843	736.62
424.066	741.62
424.288	727.62
424.511	695.62
424.733	735.62
424.956	716.62
425.178	703.62
425.401	735.62
425.623	717.62
425.846	706.62
426.068	697.62
426.291	713.62
426.513	687.62
426.735	688.62
426.958	704.62
427.18	680.62
427.402	715.62
427.625	700.62
427.847	682.62
428.069	690.62
428.292	691.62
428.514	689.62
428.736	694.62
428.958	709.62
429.181	688.62
429.403	646.62
429.625	674.62
429.847	693.62
430.069	678.62
430.292	680.62
430.514	691.62
430.736	694.62
430.958	685.62
431.18	696.62
431.402	656.62
431.624	667.62
431.846	677.62
432.068	645.62
432.29	698.62
432.512	692.62
432.734	670.62
432.956	688.62
433.178	668.62
433.4	683.62
433.622	696.62
433.844	686.62
434.066	700.62
434.287	663.62
434.509	700.62
434.731	695.62
434.953	692.62
435.175	714.62
435.397	715.62
435.618	704.62
435.84	714.62
436.062	694.62
436.284	690.62
436.505	678.62
436.727	670.62
436.949	668.62
437.17	683.62
437.392	664.62
437.614	683.62
437.835	650.62
438.057	641.62
438.278	665.62
438.5	670.62
438.721	658.62
438.943	657.62
439.165	653.62
439.386	660.62
439.608	668.62
439.829	652.62
440.05	678.62
440.272	664.62
440.493	680.62
440.715	672.62
440.936	697.62
441.158	679.62
441.379	648.62
441.6	699.62
441.822	694.62
442.043	695.62
442.264	681.62
442.486	666.62
442.707	711.62
442.928	680.62
443.149	716.62
443.371	696.62
443.592	678.62
443.813	723.62
444.034	686.62
444.255	679.62
444.476	711.62
444.698	727.62
444.919	730.62
445.14	842.62
445.361	772.62
445.582	698.62
445.803	692.62
446.024	704.62
446.245	676.62
446.466	676.62
446.687	645.62
446.908	666.62
447.129	670.62
447.35	645.62
447.571	656.62
447.792	626.62
448.013	623.62
448.234	634.62
448.455	661.62
448.675	644.62
448.896	647.62
449.117	616.62
449.338	633.62
449.559	608.62
449.779	618.62
450	598.62
450.221	604.62
450.442	618.62
450.662	618.62
450.883	618.62
451.104	618.62
451.324	601.62
451.545	617.62
451.766	630.62
451.986	586.62
452.207	578.62
452.428	603.62
452.648	606.62
452.869	599.62
453.089	599.62
453.31	609.62
453.53	613.62
453.751	607.62
453.971	578.62
454.192	580.62
454.412	565.62
454.633	572.62
454.853	580.62
455.073	576.62
455.294	586.62
455.514	584.62
455.734	589.62
455.955	595.62
456.175	577.62
456.395	571.62
456.616	598.62
456.836	574.62
457.056	588.62
457.276	568.62
457.497	581.62
457.717	596.62
457.937	599.62
458.157	637.62
458.377	610.62
458.598	610.62
458.818	615.62
459.038	634.62
459.258	651.62
459.478	656.62
459.698	676.62
459.918	678.62
460.138	680.62
460.358	705.62
460.578	738.62
460.798	731.62
461.018	726.62
461.238	739.62
461.458	750.62
461.678	725.62
461.898	746.62
462.118	761.62
462.338	746.62
462.558	745.62
462.777	789.62
462.997	805.62
463.217	824.62
463.437	836.62
463.657	811.62
463.876	793.62
464.096	824.62
464.316	782.62
464.536	802.62
464.755	753.62
464.975	775.62
465.195	735.62
465.414	734.62
465.634	714.62
465.854	688.62
466.073	665.62
466.293	673.62
466.512	647.62
466.732	653.62
466.951	649.62
467.171	642.62
467.391	643.62
467.61	640.62
467.829	605.62
468.049	632.62
468.268	634.62
468.488	646.62
468.707	655.62
468.927	635.62
469.146	640.62
469.365	645.62
469.585	624.62
469.804	662.62
470.023	656.62
470.243	653.62
470.462	660.62
470.681	673.62
470.901	647.62
471.12	656.62
471.339	635.62
471.558	642.62
471.777	622.62
471.997	648.62
472.216	659.62
472.435	640.62
472.654	647.62
472.873	639.62
473.092	650.62
473.311	656.62
473.53	644.62
473.749	644.62
473.968	645.62
474.187	639.62
474.406	627.62
474.625	635.62
474.844	626.62
475.063	642.62
475.282	651.62
475.501	652.62
475.72	653.62
475.939	674.62
476.158	680.62
476.377	683.62
476.596	688.62
476.814	693.62
477.033	709.62
477.252	698.62
477.471	702.62
477.69	723.62
477.908	702.62
478.127	722.62
478.346	745.62
478.564	750.62
478.783	746.62
479.002	756.62
479.22	779.62
479.439	774.62
479.658	733.62
479.876	754.62
480.095	789.62
480.313	816.62
480.532	798.62
480.751	809.62
480.969	800.62
481.188	798.62
481.406	757.62
481.624	769.62
481.843	770.62
482.061	776.62
482.28	765.62
482.498	784.62
482.717	757.62
482.935	750.62
483.153	768.62
483.372	730.62
483.59	754.62
483.808	781.62
484.027	761.62
484.245	747.62
484.463	771.62
484.681	775.62
484.9	748.62
485.118	763.62
485.336	774.62
485.554	818.62
485.772	811.62
485.99	796.62
486.209	792.62
486.427	790.62
486.645	788.62
486.863	766.62
487.081	774.62
487.299	820.62
487.517	824.62
487.735	817.62
487.953	793.62
488.171	779.62
488.389	811.62
488.607	770.62
488.825	791.62
489.043	767.62
489.261	797.62
489.479	804.62
489.696	801.62
489.914	770.62
490.132	776.62
490.35	795.62
490.568	808.62
490.786	767.62
491.003	775.62
491.221	795.62
491.439	776.62
491.657	821.62
491.874	815.62
492.092	800.62
492.31	796.62
492.527	773.62
492.745	799.62
492.963	808.62
493.18	812.62
493.398	814.62
493.615	792.62
493.833	790.62
494.05	800.62
494.268	793.62
494.485	788.62
494.703	809.62
494.92	794.62
495.138	790.62
495.355	800.62
495.573	815.62
495.79	811.62
496.008	842.62
496.225	848.62
496.442	835.62
496.66	860.62
496.877	902.62
497.094	880.62
497.312	886.62
497.529	922.62
497.746	933.62
497.963	944.62
498.181	969.62
498.398	986.62
498.615	1048.62
498.832	1087.62
499.049	1123.62
499.267	1163.62
499.484	1198.62
499.701	1289.62
499.918	1365.62
500.135	1376.62
500.352	1439.62
500.569	1473.62
500.786	1445.62
501.003	1469.62
501.22	1389.62
501.437	1328.62
