Data from Fe(NO3)3@0.1M.TitratingCurve.Agarose3%dH2O.NegLispCup.LampEnergy10.LIBS07252019_HRD10591_16-37-36-331.txt Node
Date: Thu Jul 25 16:37:36 EDT 2019
User: cochatt
Spectrometer: HR+D1059
Trigger mode: 1
Integration Time (sec): 1.000000E-1
Scans to average: 1
Electric dark correction enabled: true
Nonlinearity correction enabled: false
Boxcar width: 0
XAxis mode: Wavelengths
Number of Pixels in Spectrum: 2048
>>>>>Begin Spectral Data<<<<<
223.165	-7.19
223.4	-7.19
223.635	-7.19
223.869	-19.19
224.104	-18.19
224.338	-19.19
224.573	-17.19
224.808	-15.19
225.042	-4.19
225.277	4.81
225.511	-17.19
225.746	10.81
225.98	3.81
226.215	4.81
226.449	14.81
226.683	20.81
226.918	37.81
227.152	19.81
227.387	20.81
227.621	44.81
227.856	40.81
228.09	51.81
228.324	52.81
228.559	63.81
228.793	55.81
229.027	53.81
229.262	61.81
229.496	67.81
229.73	75.81
229.964	72.81
230.199	78.81
230.433	61.81
230.667	61.81
230.901	81.81
231.136	98.81
231.37	81.81
231.604	82.81
231.838	80.81
232.072	81.81
232.306	83.81
232.541	83.81
232.775	79.81
233.009	96.81
233.243	96.81
233.477	86.81
233.711	81.81
233.945	99.81
234.179	78.81
234.413	93.81
234.647	87.81
234.881	98.81
235.115	84.81
235.349	87.81
235.583	94.81
235.817	79.81
236.051	80.81
236.285	77.81
236.519	77.81
236.753	81.81
236.987	86.81
237.221	82.81
237.455	75.81
237.689	101.81
237.922	72.81
238.156	92.81
238.39	73.81
238.624	65.81
238.858	99.81
239.091	84.81
239.325	92.81
239.559	83.81
239.793	87.81
240.027	99.81
240.26	79.81
240.494	84.81
240.728	92.81
240.961	84.81
241.195	89.81
241.429	96.81
241.662	88.81
241.896	90.81
242.13	85.81
242.363	82.81
242.597	91.81
242.83	80.81
243.064	81.81
243.298	99.81
243.531	91.81
243.765	89.81
243.998	98.81
244.232	81.81
244.465	85.81
244.699	77.81
244.932	82.81
245.166	83.81
245.399	83.81
245.633	84.81
245.866	78.81
246.099	77.81
246.333	82.81
246.566	85.81
246.8	88.81
247.033	98.81
247.266	92.81
247.5	89.81
247.733	85.81
247.966	95.81
248.2	102.81
248.433	90.81
248.666	98.81
248.899	87.81
249.133	79.81
249.366	86.81
249.599	83.81
249.832	70.81
250.066	84.81
250.299	86.81
250.532	90.81
250.765	93.81
250.998	96.81
251.231	86.81
251.465	77.81
251.698	91.81
251.931	99.81
252.164	97.81
252.397	106.81
252.63	102.81
252.863	76.81
253.096	84.81
253.329	99.81
253.562	86.81
253.795	105.81
254.028	96.81
254.261	101.81
254.494	88.81
254.727	107.81
254.96	96.81
255.193	90.81
255.426	83.81
255.659	91.81
255.892	93.81
256.124	86.81
256.357	76.81
256.59	96.81
256.823	90.81
257.056	100.81
257.289	109.81
257.521	87.81
257.754	84.81
257.987	99.81
258.22	84.81
258.452	84.81
258.685	83.81
258.918	96.81
259.151	98.81
259.383	98.81
259.616	106.81
259.849	88.81
260.081	112.81
260.314	86.81
260.547	97.81
260.779	92.81
261.012	96.81
261.244	104.81
261.477	108.81
261.71	101.81
261.942	93.81
262.175	110.81
262.407	88.81
262.64	89.81
262.872	101.81
263.105	102.81
263.337	104.81
263.57	103.81
263.802	99.81
264.035	100.81
264.267	86.81
264.499	102.81
264.732	94.81
264.964	99.81
265.197	91.81
265.429	103.81
265.661	100.81
265.894	91.81
266.126	91.81
266.358	92.81
266.591	92.81
266.823	86.81
267.055	92.81
267.287	96.81
267.52	106.81
267.752	98.81
267.984	103.81
268.216	92.81
268.448	95.81
268.681	102.81
268.913	104.81
269.145	99.81
269.377	85.81
269.609	91.81
269.841	84.81
270.073	96.81
270.306	101.81
270.538	100.81
270.77	101.81
271.002	104.81
271.234	108.81
271.466	96.81
271.698	94.81
271.93	95.81
272.162	106.81
272.394	103.81
272.626	98.81
272.858	102.81
273.09	119.81
273.322	105.81
273.553	93.81
273.785	91.81
274.017	109.81
274.249	113.81
274.481	104.81
274.713	101.81
274.945	102.81
275.176	105.81
275.408	122.81
275.64	90.81
275.872	108.81
276.104	95.81
276.335	93.81
276.567	103.81
276.799	92.81
277.031	101.81
277.262	94.81
277.494	116.81
277.726	110.81
277.957	98.81
278.189	96.81
278.421	101.81
278.652	89.81
278.884	103.81
279.115	104.81
279.347	99.81
279.579	111.81
279.81	99.81
280.042	99.81
280.273	100.81
280.505	116.81
280.736	100.81
280.968	102.81
281.199	94.81
281.431	91.81
281.662	118.81
281.894	115.81
282.125	118.81
282.356	114.81
282.588	114.81
282.819	111.81
283.051	102.81
283.282	86.81
283.513	97.81
283.745	96.81
283.976	106.81
284.207	114.81
284.439	110.81
284.67	106.81
284.901	93.81
285.132	116.81
285.364	118.81
285.595	110.81
285.826	119.81
286.057	111.81
286.288	90.81
286.52	109.81
286.751	102.81
286.982	117.81
287.213	115.81
287.444	99.81
287.675	107.81
287.906	103.81
288.138	101.81
288.369	95.81
288.6	105.81
288.831	108.81
289.062	97.81
289.293	112.81
289.524	105.81
289.755	116.81
289.986	102.81
290.217	101.81
290.448	112.81
290.679	115.81
290.91	110.81
291.141	114.81
291.371	115.81
291.602	114.81
291.833	105.81
292.064	116.81
292.295	114.81
292.526	111.81
292.757	115.81
292.987	103.81
293.218	113.81
293.449	95.81
293.68	104.81
293.91	117.81
294.141	104.81
294.372	89.81
294.603	102.81
294.833	81.81
295.064	119.81
295.295	108.81
295.525	104.81
295.756	114.81
295.987	106.81
296.217	91.81
296.448	109.81
296.679	99.81
296.909	102.81
297.14	110.81
297.37	118.81
297.601	120.81
297.831	114.81
298.062	105.81
298.292	99.81
298.523	131.81
298.753	112.81
298.984	97.81
299.214	106.81
299.445	115.81
299.675	108.81
299.905	112.81
300.136	100.81
300.366	120.81
300.597	102.81
300.827	116.81
301.057	106.81
301.288	119.81
301.518	111.81
301.748	92.81
301.979	111.81
302.209	130.81
302.439	107.81
302.669	120.81
302.9	116.81
303.13	105.81
303.36	114.81
303.59	124.81
303.82	125.81
304.051	116.81
304.281	112.81
304.511	112.81
304.741	119.81
304.971	123.81
305.201	129.81
305.431	110.81
305.661	112.81
305.891	112.81
306.121	102.81
306.352	114.81
306.582	111.81
306.812	110.81
307.042	109.81
307.272	103.81
307.502	118.81
307.731	118.81
307.961	118.81
308.191	118.81
308.421	112.81
308.651	116.81
308.881	116.81
309.111	112.81
309.341	104.81
309.571	106.81
309.8	99.81
310.03	105.81
310.26	98.81
310.49	102.81
310.72	106.81
310.949	92.81
311.179	100.81
311.409	122.81
311.639	121.81
311.868	120.81
312.098	106.81
312.328	127.81
312.557	119.81
312.787	120.81
313.017	111.81
313.246	110.81
313.476	108.81
313.706	121.81
313.935	114.81
314.165	119.81
314.394	115.81
314.624	115.81
314.853	110.81
315.083	100.81
315.312	115.81
315.542	114.81
315.771	118.81
316.001	115.81
316.23	120.81
316.46	123.81
316.689	122.81
316.919	109.81
317.148	125.81
317.377	106.81
317.607	101.81
317.836	121.81
318.065	126.81
318.295	121.81
318.524	111.81
318.753	103.81
318.983	113.81
319.212	109.81
319.441	110.81
319.67	118.81
319.9	106.81
320.129	118.81
320.358	116.81
320.587	117.81
320.816	118.81
321.046	119.81
321.275	119.81
321.504	124.81
321.733	125.81
321.962	108.81
322.191	123.81
322.42	103.81
322.649	119.81
322.878	105.81
323.108	121.81
323.337	120.81
323.566	130.81
323.795	129.81
324.024	131.81
324.253	125.81
324.482	116.81
324.71	123.81
324.939	110.81
325.168	117.81
325.397	92.81
325.626	134.81
325.855	122.81
326.084	128.81
326.313	127.81
326.542	116.81
326.77	115.81
326.999	121.81
327.228	125.81
327.457	108.81
327.686	114.81
327.914	117.81
328.143	128.81
328.372	128.81
328.6	120.81
328.829	111.81
329.058	111.81
329.287	116.81
329.515	119.81
329.744	124.81
329.972	126.81
330.201	124.81
330.43	117.81
330.658	118.81
330.887	119.81
331.115	114.81
331.344	121.81
331.572	123.81
331.801	113.81
332.03	123.81
332.258	123.81
332.486	121.81
332.715	118.81
332.943	129.81
333.172	133.81
333.4	117.81
333.629	132.81
333.857	131.81
334.085	124.81
334.314	124.81
334.542	139.81
334.771	128.81
334.999	116.81
335.227	102.81
335.455	110.81
335.684	124.81
335.912	121.81
336.14	123.81
336.369	123.81
336.597	121.81
336.825	127.81
337.053	119.81
337.281	128.81
337.51	124.81
337.738	132.81
337.966	112.81
338.194	122.81
338.422	122.81
338.65	123.81
338.878	141.81
339.106	123.81
339.334	114.81
339.562	126.81
339.79	119.81
340.018	119.81
340.246	123.81
340.474	120.81
340.702	128.81
340.93	131.81
341.158	122.81
341.386	130.81
341.614	120.81
341.842	119.81
342.07	120.81
342.298	119.81
342.526	126.81
342.754	116.81
342.981	114.81
343.209	130.81
343.437	122.81
343.665	128.81
343.893	134.81
344.12	126.81
344.348	144.81
344.576	128.81
344.804	134.81
345.031	127.81
345.259	131.81
345.487	132.81
345.714	118.81
345.942	134.81
346.17	117.81
346.397	114.81
346.625	108.81
346.853	130.81
347.08	119.81
347.308	122.81
347.535	116.81
347.763	116.81
347.99	111.81
348.218	128.81
348.445	114.81
348.673	130.81
348.9	129.81
349.128	149.81
349.355	130.81
349.583	122.81
349.81	107.81
350.037	116.81
350.265	130.81
350.492	130.81
350.72	115.81
350.947	119.81
351.174	130.81
351.402	128.81
351.629	127.81
351.856	114.81
352.083	122.81
352.311	130.81
352.538	133.81
352.765	115.81
352.992	123.81
353.22	126.81
353.447	113.81
353.674	130.81
353.901	123.81
354.128	117.81
354.355	122.81
354.583	114.81
354.81	124.81
355.037	142.81
355.264	122.81
355.491	107.81
355.718	113.81
355.945	124.81
356.172	122.81
356.399	142.81
356.626	131.81
356.853	134.81
357.08	124.81
357.307	138.81
357.534	134.81
357.761	125.81
357.988	140.81
358.215	135.81
358.441	131.81
358.668	132.81
358.895	140.81
359.122	129.81
359.349	122.81
359.576	118.81
359.802	135.81
360.029	119.81
360.256	128.81
360.483	122.81
360.709	121.81
360.936	126.81
361.163	110.81
361.39	122.81
361.616	122.81
361.843	129.81
362.07	134.81
362.296	144.81
362.523	126.81
362.749	118.81
362.976	132.81
363.203	131.81
363.429	116.81
363.656	121.81
363.882	130.81
364.109	137.81
364.335	117.81
364.562	124.81
364.788	129.81
365.015	143.81
365.241	134.81
365.468	119.81
365.694	121.81
365.92	120.81
366.147	127.81
366.373	145.81
366.599	124.81
366.826	118.81
367.052	116.81
367.278	133.81
367.505	121.81
367.731	144.81
367.957	136.81
368.184	131.81
368.41	137.81
368.636	132.81
368.862	123.81
369.089	132.81
369.315	130.81
369.541	111.81
369.767	136.81
369.993	142.81
370.219	142.81
370.445	109.81
370.672	123.81
370.898	139.81
371.124	134.81
371.35	138.81
371.576	138.81
371.802	134.81
372.028	143.81
372.254	132.81
372.48	137.81
372.706	134.81
372.932	133.81
373.158	134.81
373.384	154.81
373.61	150.81
373.835	168.81
374.061	135.81
374.287	144.81
374.513	164.81
374.739	160.81
374.965	150.81
375.191	158.81
375.416	150.81
375.642	138.81
375.868	137.81
376.094	148.81
376.319	136.81
376.545	150.81
376.771	145.81
376.997	157.81
377.222	135.81
377.448	111.81
377.674	146.81
377.899	143.81
378.125	154.81
378.35	158.81
378.576	133.81
378.802	146.81
379.027	142.81
379.253	145.81
379.478	145.81
379.704	137.81
379.929	134.81
380.155	137.81
380.38	153.81
380.606	152.81
380.831	155.81
381.057	162.81
381.282	151.81
381.507	150.81
381.733	165.81
381.958	153.81
382.184	155.81
382.409	158.81
382.634	162.81
382.86	144.81
383.085	154.81
383.31	157.81
383.535	168.81
383.761	159.81
383.986	160.81
384.211	162.81
384.436	168.81
384.662	173.81
384.887	179.81
385.112	178.81
385.337	168.81
385.562	180.81
385.787	147.81
386.013	174.81
386.238	170.81
386.463	185.81
386.688	162.81
386.913	190.81
387.138	176.81
387.363	169.81
387.588	168.81
387.813	162.81
388.038	171.81
388.263	185.81
388.488	167.81
388.713	183.81
388.938	170.81
389.163	167.81
389.387	162.81
389.612	180.81
389.837	166.81
390.062	190.81
390.287	178.81
390.512	169.81
390.736	169.81
390.961	184.81
391.186	166.81
391.411	195.81
391.636	181.81
391.86	174.81
392.085	195.81
392.31	190.81
392.534	190.81
392.759	180.81
392.984	172.81
393.208	174.81
393.433	173.81
393.658	192.81
393.882	188.81
394.107	179.81
394.331	178.81
394.556	180.81
394.78	191.81
395.005	194.81
395.229	187.81
395.454	187.81
395.678	202.81
395.903	196.81
396.127	193.81
396.352	176.81
396.576	186.81
396.801	178.81
397.025	196.81
397.249	199.81
397.474	210.81
397.698	218.81
397.922	206.81
398.147	174.81
398.371	197.81
398.595	203.81
398.82	213.81
399.044	206.81
399.268	235.81
399.492	269.81
399.717	277.81
399.941	253.81
400.165	248.81
400.389	223.81
400.613	228.81
400.837	213.81
401.062	199.81
401.286	228.81
401.51	217.81
401.734	204.81
401.958	213.81
402.182	221.81
402.406	203.81
402.63	221.81
402.854	220.81
403.078	206.81
403.302	227.81
403.526	238.81
403.75	203.81
403.974	227.81
404.198	229.81
404.422	234.81
404.645	231.81
404.869	232.81
405.093	219.81
405.317	232.81
405.541	223.81
405.765	248.81
405.988	236.81
406.212	229.81
406.436	229.81
406.66	249.81
406.883	234.81
407.107	240.81
407.331	243.81
407.555	264.81
407.778	251.81
408.002	256.81
408.226	244.81
408.449	247.81
408.673	253.81
408.896	232.81
409.12	248.81
409.344	237.81
409.567	216.81
409.791	231.81
410.014	236.81
410.238	236.81
410.461	226.81
410.685	242.81
410.908	223.81
411.132	220.81
411.355	228.81
411.578	223.81
411.802	237.81
412.025	236.81
412.249	226.81
412.472	232.81
412.695	217.81
412.919	234.81
413.142	215.81
413.365	224.81
413.589	228.81
413.812	225.81
414.035	223.81
414.258	232.81
414.482	217.81
414.705	222.81
414.928	214.81
415.151	222.81
415.374	222.81
415.597	220.81
415.821	208.81
416.044	225.81
416.267	219.81
416.49	232.81
416.713	224.81
416.936	233.81
417.159	203.81
417.382	220.81
417.605	219.81
417.828	226.81
418.051	230.81
418.274	201.81
418.497	213.81
418.72	242.81
418.943	210.81
419.166	231.81
419.389	239.81
419.611	238.81
419.834	247.81
420.057	225.81
420.28	226.81
420.503	223.81
420.726	204.81
420.948	212.81
421.171	209.81
421.394	229.81
421.617	228.81
421.839	230.81
422.062	242.81
422.285	214.81
422.507	227.81
422.73	229.81
422.953	209.81
423.175	231.81
423.398	218.81
423.621	214.81
423.843	227.81
424.066	233.81
424.288	222.81
424.511	222.81
424.733	218.81
424.956	231.81
425.178	221.81
425.401	230.81
425.623	216.81
425.846	197.81
426.068	229.81
426.291	223.81
426.513	220.81
426.735	216.81
426.958	224.81
427.18	219.81
427.402	219.81
427.625	205.81
427.847	216.81
428.069	208.81
428.292	206.81
428.514	213.81
428.736	223.81
428.958	208.81
429.181	205.81
429.403	203.81
429.625	229.81
429.847	223.81
430.069	205.81
430.292	210.81
430.514	212.81
430.736	191.81
430.958	207.81
431.18	214.81
431.402	209.81
431.624	200.81
431.846	195.81
432.068	207.81
432.29	214.81
432.512	208.81
432.734	227.81
432.956	208.81
433.178	221.81
433.4	222.81
433.622	207.81
433.844	220.81
434.066	220.81
434.287	215.81
434.509	208.81
434.731	210.81
434.953	221.81
435.175	205.81
435.397	215.81
435.618	212.81
435.84	218.81
436.062	197.81
436.284	199.81
436.505	204.81
436.727	223.81
436.949	222.81
437.17	217.81
437.392	220.81
437.614	216.81
437.835	206.81
438.057	203.81
438.278	212.81
438.5	221.81
438.721	205.81
438.943	208.81
439.165	221.81
439.386	210.81
439.608	220.81
439.829	205.81
440.05	215.81
440.272	219.81
440.493	206.81
440.715	236.81
440.936	242.81
441.158	220.81
441.379	231.81
441.6	241.81
441.822	250.81
442.043	239.81
442.264	215.81
442.486	224.81
442.707	213.81
442.928	226.81
443.149	237.81
443.371	218.81
443.592	232.81
443.813	234.81
444.034	247.81
444.255	233.81
444.476	230.81
444.698	263.81
444.919	253.81
445.14	380.81
445.361	286.81
445.582	239.81
445.803	223.81
446.024	219.81
446.245	242.81
446.466	225.81
446.687	213.81
446.908	221.81
447.129	218.81
447.35	218.81
447.571	220.81
447.792	222.81
448.013	202.81
448.234	225.81
448.455	210.81
448.675	195.81
448.896	213.81
449.117	201.81
449.338	196.81
449.559	192.81
449.779	205.81
450	207.81
450.221	200.81
450.442	220.81
450.662	203.81
450.883	231.81
451.104	228.81
451.324	204.81
451.545	211.81
451.766	225.81
451.986	196.81
452.207	194.81
452.428	209.81
452.648	213.81
452.869	196.81
453.089	200.81
453.31	199.81
453.53	192.81
453.751	188.81
453.971	203.81
454.192	199.81
454.412	200.81
454.633	200.81
454.853	205.81
455.073	202.81
455.294	190.81
455.514	198.81
455.734	217.81
455.955	193.81
456.175	203.81
456.395	195.81
456.616	204.81
456.836	202.81
457.056	215.81
457.276	209.81
457.497	191.81
457.717	196.81
457.937	184.81
458.157	201.81
458.377	209.81
458.598	203.81
458.818	221.81
459.038	207.81
459.258	190.81
459.478	210.81
459.698	215.81
459.918	214.81
460.138	237.81
460.358	258.81
460.578	220.81
460.798	231.81
461.018	238.81
461.238	227.81
461.458	245.81
461.678	250.81
461.898	249.81
462.118	242.81
462.338	251.81
462.558	269.81
462.777	240.81
462.997	290.81
463.217	274.81
463.437	297.81
463.657	260.81
463.876	244.81
464.096	263.81
464.316	266.81
464.536	260.81
464.755	266.81
464.975	250.81
465.195	252.81
465.414	237.81
465.634	220.81
465.854	229.81
466.073	224.81
466.293	228.81
466.512	208.81
466.732	206.81
466.951	232.81
467.171	217.81
467.391	210.81
467.61	204.81
467.829	226.81
468.049	201.81
468.268	197.81
468.488	221.81
468.707	215.81
468.927	214.81
469.146	203.81
469.365	221.81
469.585	214.81
469.804	220.81
470.023	219.81
470.243	219.81
470.462	220.81
470.681	208.81
470.901	200.81
471.12	215.81
471.339	216.81
471.558	204.81
471.777	209.81
471.997	204.81
472.216	220.81
472.435	208.81
472.654	210.81
472.873	206.81
473.092	217.81
473.311	200.81
473.53	201.81
473.749	199.81
473.968	208.81
474.187	214.81
474.406	205.81
474.625	219.81
474.844	223.81
475.063	220.81
475.282	207.81
475.501	209.81
475.72	220.81
475.939	218.81
476.158	204.81
476.377	225.81
476.596	217.81
476.814	216.81
477.033	225.81
477.252	231.81
477.471	226.81
477.69	222.81
477.908	245.81
478.127	239.81
478.346	245.81
478.564	247.81
478.783	247.81
479.002	247.81
479.22	253.81
479.439	247.81
479.658	243.81
479.876	255.81
480.095	241.81
480.313	252.81
480.532	233.81
480.751	256.81
480.969	241.81
481.188	231.81
481.406	235.81
481.624	244.81
481.843	235.81
482.061	246.81
482.28	233.81
482.498	231.81
482.717	217.81
482.935	233.81
483.153	226.81
483.372	238.81
483.59	228.81
483.808	236.81
484.027	238.81
484.245	256.81
484.463	243.81
484.681	244.81
484.9	246.81
485.118	243.81
485.336	242.81
485.554	248.81
485.772	233.81
485.99	216.81
486.209	241.81
486.427	227.81
486.645	248.81
486.863	245.81
487.081	240.81
487.299	245.81
487.517	236.81
487.735	256.81
487.953	236.81
488.171	258.81
488.389	248.81
488.607	253.81
488.825	244.81
489.043	232.81
489.261	228.81
489.479	236.81
489.696	250.81
489.914	254.81
490.132	233.81
490.35	243.81
490.568	236.81
490.786	254.81
491.003	260.81
491.221	253.81
491.439	267.81
491.657	248.81
491.874	254.81
492.092	263.81
492.31	268.81
492.527	262.81
492.745	268.81
492.963	266.81
493.18	264.81
493.398	247.81
493.615	266.81
493.833	253.81
494.05	261.81
494.268	270.81
494.485	266.81
494.703	272.81
494.92	272.81
495.138	259.81
495.355	259.81
495.573	263.81
495.79	272.81
496.008	278.81
496.225	286.81
496.442	259.81
496.66	264.81
496.877	263.81
497.094	269.81
497.312	281.81
497.529	312.81
497.746	287.81
497.963	275.81
498.181	272.81
498.398	301.81
498.615	310.81
498.832	319.81
499.049	339.81
499.267	349.81
499.484	377.81
499.701	393.81
499.918	425.81
500.135	472.81
500.352	487.81
500.569	532.81
500.786	505.81
501.003	473.81
501.22	446.81
501.437	399.81
501.654	352.81
501.871	346.81
502.088	354.81
502.305	333.81
502.522	313.81
502.739	314.81
502.956	309.81
503.172	299.81
503.389	282.81
503.606	282.81
503.823	275.81
504.04	293.81
504.256	293.81
