Data from Fe(NO3)3@0.05M.TitratingCurve.Agarose3%dH2O.NegLispCup.LampEnergy10.LIBS07252019_HRD10591_16-46-04-335.txt Node
Date: Thu Jul 25 16:46:04 EDT 2019
User: cochatt
Spectrometer: HR+D1059
Trigger mode: 1
Integration Time (sec): 1.000000E-1
Scans to average: 1
Electric dark correction enabled: true
Nonlinearity correction enabled: false
Boxcar width: 0
XAxis mode: Wavelengths
Number of Pixels in Spectrum: 2048
>>>>>Begin Spectral Data<<<<<
223.165	-15.69
223.4	-15.69
223.635	-15.69
223.869	-31.69
224.104	-19.69
224.338	-5.69
224.573	-0.69
224.808	-4.69
225.042	-23.69
225.277	-0.69
225.511	-7.69
225.746	6.31
225.98	12.31
226.215	16.31
226.449	21.31
226.683	15.31
226.918	10.31
227.152	28.31
227.387	11.31
227.621	28.31
227.856	41.31
228.09	44.31
228.324	51.31
228.559	62.31
228.793	50.31
229.027	74.31
229.262	74.31
229.496	84.31
229.73	79.31
229.964	77.31
230.199	78.31
230.433	94.31
230.667	89.31
230.901	94.31
231.136	100.31
231.37	104.31
231.604	99.31
231.838	96.31
232.072	92.31
232.306	97.31
232.541	100.31
232.775	103.31
233.009	101.31
233.243	99.31
233.477	99.31
233.711	100.31
233.945	109.31
234.179	105.31
234.413	95.31
234.647	98.31
234.881	105.31
235.115	103.31
235.349	111.31
235.583	110.31
235.817	113.31
236.051	108.31
236.285	121.31
236.519	112.31
236.753	113.31
236.987	109.31
237.221	112.31
237.455	102.31
237.689	115.31
237.922	104.31
238.156	108.31
238.39	103.31
238.624	124.31
238.858	123.31
239.091	117.31
239.325	114.31
239.559	127.31
239.793	114.31
240.027	113.31
240.26	109.31
240.494	111.31
240.728	114.31
240.961	117.31
241.195	123.31
241.429	124.31
241.662	97.31
241.896	112.31
242.13	112.31
242.363	114.31
242.597	116.31
242.83	123.31
243.064	109.31
243.298	124.31
243.531	119.31
243.765	119.31
243.998	96.31
244.232	115.31
244.465	129.31
244.699	132.31
244.932	132.31
245.166	138.31
245.399	119.31
245.633	129.31
245.866	131.31
246.099	133.31
246.333	133.31
246.566	136.31
246.8	130.31
247.033	120.31
247.266	135.31
247.5	123.31
247.733	138.31
247.966	127.31
248.2	141.31
248.433	134.31
248.666	138.31
248.899	136.31
249.133	127.31
249.366	147.31
249.599	138.31
249.832	136.31
250.066	158.31
250.299	135.31
250.532	152.31
250.765	152.31
250.998	153.31
251.231	136.31
251.465	133.31
251.698	137.31
251.931	134.31
252.164	131.31
252.397	148.31
252.63	143.31
252.863	154.31
253.096	135.31
253.329	174.31
253.562	143.31
253.795	157.31
254.028	149.31
254.261	155.31
254.494	151.31
254.727	144.31
254.96	142.31
255.193	153.31
255.426	154.31
255.659	159.31
255.892	130.31
256.124	151.31
256.357	157.31
256.59	159.31
256.823	160.31
257.056	165.31
257.289	157.31
257.521	153.31
257.754	173.31
257.987	149.31
258.22	156.31
258.452	151.31
258.685	175.31
258.918	163.31
259.151	176.31
259.383	164.31
259.616	175.31
259.849	173.31
260.081	171.31
260.314	169.31
260.547	164.31
260.779	170.31
261.012	177.31
261.244	179.31
261.477	175.31
261.71	185.31
261.942	183.31
262.175	163.31
262.407	171.31
262.64	172.31
262.872	174.31
263.105	163.31
263.337	195.31
263.57	171.31
263.802	166.31
264.035	181.31
264.267	180.31
264.499	174.31
264.732	169.31
264.964	168.31
265.197	173.31
265.429	175.31
265.661	188.31
265.894	177.31
266.126	183.31
266.358	168.31
266.591	155.31
266.823	184.31
267.055	173.31
267.287	177.31
267.52	188.31
267.752	164.31
267.984	182.31
268.216	173.31
268.448	187.31
268.681	165.31
268.913	179.31
269.145	199.31
269.377	178.31
269.609	189.31
269.841	193.31
270.073	183.31
270.306	177.31
270.538	189.31
270.77	193.31
271.002	191.31
271.234	175.31
271.466	177.31
271.698	188.31
271.93	188.31
272.162	176.31
272.394	207.31
272.626	205.31
272.858	197.31
273.09	196.31
273.322	198.31
273.553	192.31
273.785	191.31
274.017	204.31
274.249	228.31
274.481	205.31
274.713	222.31
274.945	214.31
275.176	228.31
275.408	229.31
275.64	220.31
275.872	220.31
276.104	197.31
276.335	195.31
276.567	204.31
276.799	206.31
277.031	201.31
277.262	199.31
277.494	205.31
277.726	204.31
277.957	196.31
278.189	205.31
278.421	202.31
278.652	198.31
278.884	211.31
279.115	196.31
279.347	224.31
279.579	200.31
279.81	207.31
280.042	222.31
280.273	214.31
280.505	210.31
280.736	200.31
280.968	208.31
281.199	218.31
281.431	209.31
281.662	214.31
281.894	197.31
282.125	217.31
282.356	229.31
282.588	224.31
282.819	211.31
283.051	223.31
283.282	202.31
283.513	219.31
283.745	217.31
283.976	240.31
284.207	238.31
284.439	222.31
284.67	224.31
284.901	234.31
285.132	222.31
285.364	226.31
285.595	251.31
285.826	222.31
286.057	224.31
286.288	214.31
286.52	239.31
286.751	228.31
286.982	222.31
287.213	227.31
287.444	211.31
287.675	229.31
287.906	237.31
288.138	240.31
288.369	242.31
288.6	240.31
288.831	229.31
289.062	224.31
289.293	210.31
289.524	220.31
289.755	222.31
289.986	238.31
290.217	226.31
290.448	265.31
290.679	251.31
290.91	232.31
291.141	219.31
291.371	236.31
291.602	229.31
291.833	239.31
292.064	220.31
292.295	225.31
292.526	237.31
292.757	233.31
292.987	219.31
293.218	229.31
293.449	232.31
293.68	236.31
293.91	248.31
294.141	245.31
294.372	207.31
294.603	226.31
294.833	243.31
295.064	237.31
295.295	253.31
295.525	256.31
295.756	233.31
295.987	229.31
296.217	235.31
296.448	239.31
296.679	241.31
296.909	238.31
297.14	231.31
297.37	264.31
297.601	237.31
297.831	240.31
298.062	235.31
298.292	251.31
298.523	249.31
298.753	267.31
298.984	254.31
299.214	240.31
299.445	247.31
299.675	258.31
299.905	257.31
300.136	240.31
300.366	241.31
300.597	237.31
300.827	240.31
301.057	247.31
301.288	262.31
301.518	242.31
301.748	255.31
301.979	256.31
302.209	261.31
302.439	268.31
302.669	256.31
302.9	256.31
303.13	268.31
303.36	255.31
303.59	259.31
303.82	245.31
304.051	256.31
304.281	271.31
304.511	266.31
304.741	264.31
304.971	257.31
305.201	266.31
305.431	264.31
305.661	269.31
305.891	242.31
306.121	272.31
306.352	254.31
306.582	256.31
306.812	275.31
307.042	254.31
307.272	259.31
307.502	255.31
307.731	251.31
307.961	256.31
308.191	256.31
308.421	294.31
308.651	248.31
308.881	240.31
309.111	264.31
309.341	268.31
309.571	267.31
309.8	238.31
310.03	261.31
310.26	260.31
310.49	279.31
310.72	243.31
310.949	256.31
311.179	269.31
311.409	285.31
311.639	266.31
311.868	268.31
312.098	265.31
312.328	279.31
312.557	259.31
312.787	276.31
313.017	269.31
313.246	269.31
313.476	289.31
313.706	260.31
313.935	242.31
314.165	259.31
314.394	272.31
314.624	273.31
314.853	271.31
315.083	276.31
315.312	284.31
315.542	276.31
315.771	285.31
316.001	268.31
316.23	270.31
316.46	285.31
316.689	273.31
316.919	284.31
317.148	276.31
317.377	287.31
317.607	275.31
317.836	264.31
318.065	267.31
318.295	283.31
318.524	270.31
318.753	282.31
318.983	270.31
319.212	293.31
319.441	259.31
319.67	266.31
319.9	275.31
320.129	272.31
320.358	273.31
320.587	287.31
320.816	283.31
321.046	275.31
321.275	275.31
321.504	291.31
321.733	298.31
321.962	273.31
322.191	273.31
322.42	281.31
322.649	280.31
322.878	295.31
323.108	278.31
323.337	299.31
323.566	288.31
323.795	289.31
324.024	281.31
324.253	272.31
324.482	287.31
324.71	300.31
324.939	287.31
325.168	294.31
325.397	277.31
325.626	282.31
325.855	282.31
326.084	308.31
326.313	288.31
326.542	288.31
326.77	292.31
326.999	282.31
327.228	309.31
327.457	308.31
327.686	293.31
327.914	297.31
328.143	310.31
328.372	296.31
328.6	321.31
328.829	301.31
329.058	269.31
329.287	308.31
329.515	318.31
329.744	306.31
329.972	290.31
330.201	300.31
330.43	309.31
330.658	301.31
330.887	300.31
331.115	302.31
331.344	299.31
331.572	306.31
331.801	324.31
332.03	301.31
332.258	319.31
332.486	343.31
332.715	340.31
332.943	346.31
333.172	353.31
333.4	341.31
333.629	354.31
333.857	373.31
334.085	359.31
334.314	372.31
334.542	340.31
334.771	362.31
334.999	378.31
335.227	354.31
335.455	362.31
335.684	343.31
335.912	355.31
336.14	344.31
336.369	351.31
336.597	369.31
336.825	340.31
337.053	347.31
337.281	339.31
337.51	331.31
337.738	336.31
337.966	338.31
338.194	328.31
338.422	313.31
338.65	327.31
338.878	335.31
339.106	332.31
339.334	342.31
339.562	332.31
339.79	319.31
340.018	317.31
340.246	320.31
340.474	314.31
340.702	321.31
340.93	322.31
341.158	315.31
341.386	301.31
341.614	321.31
341.842	324.31
342.07	315.31
342.298	305.31
342.526	312.31
342.754	317.31
342.981	321.31
343.209	316.31
343.437	330.31
343.665	322.31
343.893	327.31
344.12	336.31
344.348	342.31
344.576	348.31
344.804	326.31
345.031	319.31
345.259	316.31
345.487	309.31
345.714	294.31
345.942	305.31
346.17	323.31
346.397	305.31
346.625	309.31
346.853	315.31
347.08	304.31
347.308	314.31
347.535	296.31
347.763	307.31
347.99	309.31
348.218	305.31
348.445	294.31
348.673	317.31
348.9	303.31
349.128	304.31
349.355	301.31
349.583	297.31
349.81	289.31
350.037	303.31
350.265	277.31
350.492	297.31
350.72	289.31
350.947	299.31
351.174	310.31
351.402	307.31
351.629	280.31
351.856	293.31
352.083	293.31
352.311	296.31
352.538	307.31
352.765	292.31
352.992	309.31
353.22	280.31
353.447	293.31
353.674	311.31
353.901	303.31
354.128	296.31
354.355	303.31
354.583	309.31
354.81	288.31
355.037	293.31
355.264	296.31
355.491	296.31
355.718	307.31
355.945	292.31
356.172	296.31
356.399	305.31
356.626	295.31
356.853	301.31
357.08	315.31
357.307	304.31
357.534	307.31
357.761	292.31
357.988	309.31
358.215	289.31
358.441	307.31
358.668	306.31
358.895	294.31
359.122	291.31
359.349	297.31
359.576	296.31
359.802	305.31
360.029	299.31
360.256	287.31
360.483	296.31
360.709	302.31
360.936	325.31
361.163	326.31
361.39	313.31
361.616	313.31
361.843	310.31
362.07	315.31
362.296	314.31
362.523	294.31
362.749	310.31
362.976	292.31
363.203	299.31
363.429	307.31
363.656	325.31
363.882	315.31
364.109	301.31
364.335	300.31
364.562	303.31
364.788	312.31
365.015	303.31
365.241	300.31
365.468	308.31
365.694	300.31
365.92	318.31
366.147	305.31
366.373	294.31
366.599	313.31
366.826	307.31
367.052	287.31
367.278	313.31
367.505	312.31
367.731	327.31
367.957	319.31
368.184	316.31
368.41	306.31
368.636	313.31
368.862	321.31
369.089	309.31
369.315	311.31
369.541	357.31
369.767	317.31
369.993	325.31
370.219	327.31
370.445	321.31
370.672	332.31
370.898	300.31
371.124	334.31
371.35	333.31
371.576	329.31
371.802	334.31
372.028	337.31
372.254	335.31
372.48	330.31
372.706	354.31
372.932	347.31
373.158	341.31
373.384	371.31
373.61	348.31
373.835	356.31
374.061	345.31
374.287	335.31
374.513	364.31
374.739	351.31
374.965	358.31
375.191	360.31
375.416	372.31
375.642	351.31
375.868	358.31
376.094	353.31
376.319	328.31
376.545	350.31
376.771	340.31
376.997	344.31
377.222	345.31
377.448	337.31
377.674	350.31
377.899	336.31
378.125	333.31
378.35	351.31
378.576	340.31
378.802	323.31
379.027	336.31
379.253	329.31
379.478	314.31
379.704	339.31
379.929	341.31
380.155	339.31
380.38	341.31
380.606	339.31
380.831	347.31
381.057	341.31
381.282	348.31
381.507	339.31
381.733	346.31
381.958	370.31
382.184	353.31
382.409	375.31
382.634	373.31
382.86	374.31
383.085	356.31
383.31	365.31
383.535	358.31
383.761	373.31
383.986	373.31
384.211	363.31
384.436	389.31
384.662	377.31
384.887	373.31
385.112	384.31
385.337	381.31
385.562	378.31
385.787	372.31
386.013	405.31
386.238	397.31
386.463	400.31
386.688	399.31
386.913	369.31
387.138	382.31
387.363	392.31
387.588	409.31
387.813	391.31
388.038	391.31
388.263	423.31
388.488	411.31
388.713	379.31
388.938	409.31
389.163	405.31
389.387	398.31
389.612	412.31
389.837	404.31
390.062	391.31
390.287	393.31
390.512	384.31
390.736	390.31
390.961	399.31
391.186	411.31
391.411	407.31
391.636	406.31
391.86	413.31
392.085	429.31
392.31	429.31
392.534	427.31
392.759	434.31
392.984	429.31
393.208	420.31
393.433	422.31
393.658	402.31
393.882	433.31
394.107	424.31
394.331	416.31
394.556	422.31
394.78	408.31
395.005	427.31
395.229	423.31
395.454	432.31
395.678	437.31
395.903	435.31
396.127	446.31
396.352	427.31
396.576	426.31
396.801	438.31
397.025	434.31
397.249	445.31
397.474	459.31
397.698	439.31
397.922	445.31
398.147	459.31
398.371	442.31
398.595	455.31
398.82	464.31
399.044	513.31
399.268	507.31
399.492	563.31
399.717	584.31
399.941	613.31
400.165	560.31
400.389	547.31
400.613	526.31
400.837	496.31
401.062	487.31
401.286	494.31
401.51	491.31
401.734	475.31
401.958	457.31
402.182	485.31
402.406	471.31
402.63	489.31
402.854	495.31
403.078	493.31
403.302	505.31
403.526	501.31
403.75	527.31
403.974	516.31
404.198	515.31
404.422	513.31
404.645	516.31
404.869	477.31
405.093	508.31
405.317	503.31
405.541	512.31
405.765	527.31
405.988	499.31
406.212	515.31
406.436	526.31
406.66	547.31
406.883	532.31
407.107	551.31
407.331	575.31
407.555	594.31
407.778	585.31
408.002	572.31
408.226	557.31
408.449	567.31
408.673	541.31
408.896	535.31
409.12	542.31
409.344	535.31
409.567	533.31
409.791	551.31
410.014	523.31
410.238	537.31
410.461	511.31
410.685	535.31
410.908	536.31
411.132	514.31
411.355	513.31
411.578	497.31
411.802	506.31
412.025	513.31
412.249	517.31
412.472	522.31
412.695	487.31
412.919	515.31
413.142	506.31
413.365	515.31
413.589	524.31
413.812	507.31
414.035	492.31
414.258	486.31
414.482	507.31
414.705	503.31
414.928	509.31
415.151	485.31
415.374	510.31
415.597	511.31
415.821	493.31
416.044	485.31
416.267	460.31
416.49	485.31
416.713	502.31
416.936	502.31
417.159	463.31
417.382	494.31
417.605	491.31
417.828	479.31
418.051	465.31
418.274	496.31
418.497	479.31
418.72	523.31
418.943	491.31
419.166	536.31
419.389	551.31
419.611	524.31
419.834	519.31
420.057	517.31
420.28	492.31
420.503	483.31
420.726	476.31
420.948	498.31
421.171	456.31
421.394	486.31
421.617	491.31
421.839	481.31
422.062	487.31
422.285	494.31
422.507	497.31
422.73	483.31
422.953	491.31
423.175	495.31
423.398	491.31
423.621	477.31
423.843	496.31
424.066	509.31
424.288	500.31
424.511	486.31
424.733	511.31
424.956	489.31
425.178	497.31
425.401	480.31
425.623	496.31
425.846	478.31
426.068	492.31
426.291	472.31
426.513	473.31
426.735	483.31
426.958	484.31
427.18	470.31
427.402	467.31
427.625	471.31
427.847	466.31
428.069	454.31
428.292	479.31
428.514	466.31
428.736	454.31
428.958	455.31
429.181	462.31
429.403	467.31
429.625	462.31
429.847	461.31
430.069	472.31
430.292	437.31
430.514	451.31
430.736	470.31
430.958	468.31
431.18	456.31
431.402	472.31
431.624	458.31
431.846	443.31
432.068	463.31
432.29	457.31
432.512	458.31
432.734	488.31
432.956	468.31
433.178	487.31
433.4	479.31
433.622	486.31
433.844	504.31
434.066	471.31
434.287	467.31
434.509	450.31
434.731	477.31
434.953	464.31
435.175	484.31
435.397	497.31
435.618	477.31
435.84	489.31
436.062	453.31
436.284	466.31
436.505	455.31
436.727	452.31
436.949	477.31
437.17	472.31
437.392	447.31
437.614	463.31
437.835	429.31
438.057	463.31
438.278	419.31
438.5	435.31
438.721	457.31
438.943	468.31
439.165	452.31
439.386	468.31
439.608	455.31
439.829	466.31
440.05	484.31
440.272	469.31
440.493	477.31
440.715	483.31
440.936	477.31
441.158	498.31
441.379	476.31
441.6	496.31
441.822	525.31
442.043	479.31
442.264	501.31
442.486	471.31
442.707	505.31
442.928	500.31
443.149	485.31
443.371	482.31
443.592	471.31
443.813	513.31
444.034	507.31
444.255	522.31
444.476	515.31
444.698	529.31
444.919	537.31
445.14	653.31
445.361	591.31
445.582	524.31
445.803	479.31
446.024	487.31
446.245	483.31
446.466	492.31
446.687	481.31
446.908	463.31
447.129	459.31
447.35	454.31
447.571	470.31
447.792	457.31
448.013	435.31
448.234	443.31
448.455	444.31
448.675	444.31
448.896	452.31
449.117	445.31
449.338	421.31
449.559	454.31
449.779	448.31
450	447.31
450.221	445.31
450.442	435.31
450.662	443.31
450.883	428.31
451.104	445.31
451.324	439.31
451.545	441.31
451.766	417.31
451.986	458.31
452.207	451.31
452.428	446.31
452.648	432.31
452.869	423.31
453.089	417.31
453.31	416.31
453.53	425.31
453.751	421.31
453.971	420.31
454.192	424.31
454.412	412.31
454.633	417.31
454.853	402.31
455.073	412.31
455.294	418.31
455.514	417.31
455.734	410.31
455.955	411.31
456.175	433.31
456.395	420.31
456.616	399.31
456.836	416.31
457.056	418.31
457.276	421.31
457.497	416.31
457.717	416.31
457.937	435.31
458.157	433.31
458.377	423.31
458.598	428.31
458.818	449.31
459.038	451.31
459.258	431.31
459.478	449.31
459.698	465.31
459.918	476.31
460.138	510.31
460.358	494.31
460.578	526.31
460.798	513.31
461.018	515.31
461.238	515.31
461.458	510.31
461.678	492.31
461.898	510.31
462.118	531.31
462.338	521.31
462.558	536.31
462.777	552.31
462.997	565.31
463.217	573.31
463.437	592.31
463.657	582.31
463.876	543.31
464.096	556.31
464.316	557.31
464.536	552.31
464.755	557.31
464.975	532.31
465.195	538.31
465.414	483.31
465.634	518.31
465.854	479.31
466.073	481.31
466.293	488.31
466.512	465.31
466.732	466.31
466.951	460.31
467.171	468.31
467.391	439.31
467.61	461.31
467.829	443.31
468.049	448.31
468.268	447.31
468.488	448.31
468.707	444.31
468.927	468.31
469.146	453.31
469.365	435.31
469.585	463.31
469.804	454.31
470.023	448.31
470.243	449.31
470.462	476.31
470.681	471.31
470.901	467.31
471.12	437.31
471.339	470.31
471.558	449.31
471.777	454.31
471.997	456.31
472.216	462.31
472.435	432.31
472.654	417.31
472.873	417.31
473.092	450.31
473.311	435.31
473.53	438.31
473.749	430.31
473.968	452.31
474.187	441.31
474.406	431.31
474.625	449.31
474.844	452.31
475.063	451.31
475.282	431.31
475.501	460.31
475.72	450.31
475.939	464.31
476.158	472.31
476.377	463.31
476.596	462.31
476.814	457.31
477.033	451.31
477.252	462.31
477.471	474.31
477.69	491.31
477.908	504.31
478.127	503.31
478.346	480.31
478.564	501.31
478.783	507.31
479.002	533.31
479.22	544.31
479.439	515.31
479.658	522.31
479.876	514.31
480.095	525.31
480.313	542.31
480.532	529.31
480.751	531.31
480.969	503.31
481.188	511.31
481.406	498.31
481.624	483.31
481.843	507.31
482.061	484.31
482.28	512.31
482.498	508.31
482.717	494.31
482.935	514.31
483.153	500.31
483.372	493.31
483.59	513.31
483.808	513.31
484.027	510.31
484.245	496.31
484.463	511.31
484.681	536.31
484.9	493.31
485.118	536.31
485.336	521.31
485.554	508.31
485.772	518.31
485.99	513.31
486.209	532.31
486.427	515.31
486.645	526.31
486.863	560.31
487.081	525.31
487.299	519.31
487.517	526.31
487.735	521.31
487.953	540.31
488.171	523.31
488.389	541.31
488.607	506.31
488.825	508.31
489.043	518.31
489.261	531.31
489.479	531.31
489.696	521.31
489.914	539.31
490.132	504.31
490.35	522.31
490.568	513.31
490.786	514.31
491.003	513.31
491.221	521.31
491.439	542.31
491.657	507.31
491.874	520.31
492.092	568.31
492.31	551.31
492.527	548.31
492.745	540.31
492.963	581.31
493.18	567.31
493.398	549.31
493.615	552.31
493.833	562.31
494.05	530.31
494.268	527.31
494.485	550.31
494.703	571.31
494.92	562.31
495.138	544.31
495.355	550.31
495.573	543.31
495.79	550.31
496.008	579.31
496.225	560.31
496.442	581.31
496.66	581.31
496.877	587.31
497.094	590.31
497.312	586.31
497.529	581.31
497.746	609.31
497.963	633.31
498.181	624.31
498.398	629.31
498.615	665.31
498.832	712.31
499.049	732.31
499.267	753.31
499.484	799.31
499.701	851.31
499.918	898.31
500.135	933.31
500.352	1039.31
500.569	1043.31
500.786	1025.31
501.003	1019.31
501.22	968.31
501.437	889.31
501.654	855.31
501.871	796.31
