Data from Fe(NO3)3@0.0125M.TitratingCurve.Agarose3%dH2O.NegLispCup.LampEnergy10.LIBS07252019_HRD10591_16-59-02-336.txt Node
Date: Thu Jul 25 16:59:02 EDT 2019
User: cochatt
Spectrometer: HR+D1059
Trigger mode: 1
Integration Time (sec): 1.000000E-1
Scans to average: 1
Electric dark correction enabled: true
Nonlinearity correction enabled: false
Boxcar width: 0
XAxis mode: Wavelengths
Number of Pixels in Spectrum: 2048
>>>>>Begin Spectral Data<<<<<
223.165	-18.81
223.4	-18.81
223.635	-18.81
223.869	-24.81
224.104	-15.81
224.338	-10.81
224.573	-16.81
224.808	-18.81
225.042	-11.81
225.277	-6.81
225.511	-0.81
225.746	12.19
225.98	-0.81
226.215	10.19
226.449	22.19
226.683	24.19
226.918	18.19
227.152	39.19
227.387	37.19
227.621	52.19
227.856	52.19
228.09	41.19
228.324	31.19
228.559	64.19
228.793	57.19
229.027	89.19
229.262	102.19
229.496	103.19
229.73	105.19
229.964	108.19
230.199	124.19
230.433	123.19
230.667	123.19
230.901	119.19
231.136	113.19
231.37	126.19
231.604	127.19
231.838	137.19
232.072	132.19
232.306	127.19
232.541	121.19
232.775	117.19
233.009	131.19
233.243	133.19
233.477	122.19
233.711	151.19
233.945	129.19
234.179	124.19
234.413	144.19
234.647	136.19
234.881	151.19
235.115	128.19
235.349	135.19
235.583	157.19
235.817	139.19
236.051	151.19
236.285	137.19
236.519	148.19
236.753	147.19
236.987	141.19
237.221	141.19
237.455	146.19
237.689	123.19
237.922	144.19
238.156	157.19
238.39	149.19
238.624	162.19
238.858	144.19
239.091	139.19
239.325	161.19
239.559	143.19
239.793	142.19
240.027	168.19
240.26	168.19
240.494	156.19
240.728	167.19
240.961	162.19
241.195	175.19
241.429	172.19
241.662	165.19
241.896	160.19
242.13	167.19
242.363	161.19
242.597	155.19
242.83	172.19
243.064	179.19
243.298	180.19
243.531	168.19
243.765	165.19
243.998	194.19
244.232	187.19
244.465	183.19
244.699	182.19
244.932	190.19
245.166	173.19
245.399	184.19
245.633	198.19
245.866	179.19
246.099	177.19
246.333	184.19
246.566	188.19
246.8	192.19
247.033	200.19
247.266	210.19
247.5	171.19
247.733	205.19
247.966	214.19
248.2	215.19
248.433	205.19
248.666	207.19
248.899	213.19
249.133	200.19
249.366	201.19
249.599	214.19
249.832	214.19
250.066	220.19
250.299	190.19
250.532	199.19
250.765	220.19
250.998	215.19
251.231	229.19
251.465	225.19
251.698	224.19
251.931	219.19
252.164	232.19
252.397	225.19
252.63	231.19
252.863	227.19
253.096	241.19
253.329	243.19
253.562	229.19
253.795	223.19
254.028	217.19
254.261	236.19
254.494	236.19
254.727	232.19
254.96	245.19
255.193	221.19
255.426	225.19
255.659	250.19
255.892	237.19
256.124	233.19
256.357	248.19
256.59	251.19
256.823	237.19
257.056	245.19
257.289	245.19
257.521	243.19
257.754	257.19
257.987	245.19
258.22	267.19
258.452	278.19
258.685	277.19
258.918	272.19
259.151	267.19
259.383	262.19
259.616	266.19
259.849	261.19
260.081	264.19
260.314	288.19
260.547	307.19
260.779	277.19
261.012	280.19
261.244	278.19
261.477	281.19
261.71	287.19
261.942	289.19
262.175	280.19
262.407	276.19
262.64	300.19
262.872	298.19
263.105	293.19
263.337	311.19
263.57	285.19
263.802	300.19
264.035	283.19
264.267	274.19
264.499	286.19
264.732	291.19
264.964	280.19
265.197	308.19
265.429	317.19
265.661	293.19
265.894	275.19
266.126	293.19
266.358	283.19
266.591	309.19
266.823	306.19
267.055	315.19
267.287	305.19
267.52	290.19
267.752	294.19
267.984	322.19
268.216	299.19
268.448	329.19
268.681	312.19
268.913	328.19
269.145	325.19
269.377	327.19
269.609	314.19
269.841	320.19
270.073	317.19
270.306	323.19
270.538	326.19
270.77	323.19
271.002	332.19
271.234	317.19
271.466	326.19
271.698	327.19
271.93	325.19
272.162	336.19
272.394	337.19
272.626	331.19
272.858	339.19
273.09	331.19
273.322	328.19
273.553	346.19
273.785	362.19
274.017	364.19
274.249	361.19
274.481	364.19
274.713	374.19
274.945	375.19
275.176	401.19
275.408	371.19
275.64	385.19
275.872	381.19
276.104	372.19
276.335	373.19
276.567	376.19
276.799	371.19
277.031	377.19
277.262	368.19
277.494	364.19
277.726	387.19
277.957	372.19
278.189	382.19
278.421	394.19
278.652	372.19
278.884	395.19
279.115	370.19
279.347	364.19
279.579	391.19
279.81	391.19
280.042	376.19
280.273	385.19
280.505	378.19
280.736	398.19
280.968	410.19
281.199	389.19
281.431	386.19
281.662	395.19
281.894	428.19
282.125	413.19
282.356	407.19
282.588	389.19
282.819	426.19
283.051	419.19
283.282	401.19
283.513	426.19
283.745	419.19
283.976	411.19
284.207	416.19
284.439	418.19
284.67	411.19
284.901	439.19
285.132	444.19
285.364	408.19
285.595	433.19
285.826	422.19
286.057	433.19
286.288	432.19
286.52	404.19
286.751	425.19
286.982	438.19
287.213	436.19
287.444	435.19
287.675	440.19
287.906	434.19
288.138	464.19
288.369	433.19
288.6	430.19
288.831	441.19
289.062	445.19
289.293	438.19
289.524	433.19
289.755	424.19
289.986	454.19
290.217	456.19
290.448	441.19
290.679	456.19
290.91	458.19
291.141	464.19
291.371	466.19
291.602	465.19
291.833	470.19
292.064	479.19
292.295	477.19
292.526	462.19
292.757	487.19
292.987	443.19
293.218	456.19
293.449	503.19
293.68	470.19
293.91	460.19
294.141	466.19
294.372	456.19
294.603	475.19
294.833	474.19
295.064	466.19
295.295	483.19
295.525	484.19
295.756	477.19
295.987	481.19
296.217	481.19
296.448	479.19
296.679	486.19
296.909	506.19
297.14	495.19
297.37	506.19
297.601	503.19
297.831	509.19
298.062	496.19
298.292	500.19
298.523	514.19
298.753	503.19
298.984	516.19
299.214	505.19
299.445	515.19
299.675	523.19
299.905	490.19
300.136	516.19
300.366	515.19
300.597	500.19
300.827	521.19
301.057	531.19
301.288	515.19
301.518	533.19
301.748	512.19
301.979	512.19
302.209	537.19
302.439	505.19
302.669	523.19
302.9	515.19
303.13	516.19
303.36	547.19
303.59	538.19
303.82	556.19
304.051	522.19
304.281	539.19
304.511	551.19
304.741	540.19
304.971	542.19
305.201	519.19
305.431	567.19
305.661	533.19
305.891	545.19
306.121	548.19
306.352	541.19
306.582	541.19
306.812	570.19
307.042	536.19
307.272	547.19
307.502	550.19
307.731	564.19
307.961	567.19
308.191	575.19
308.421	565.19
308.651	557.19
308.881	552.19
309.111	548.19
309.341	574.19
309.571	565.19
309.8	559.19
310.03	559.19
310.26	577.19
310.49	581.19
310.72	581.19
310.949	564.19
311.179	581.19
311.409	572.19
311.639	572.19
311.868	578.19
312.098	591.19
312.328	569.19
312.557	595.19
312.787	573.19
313.017	595.19
313.246	581.19
313.476	604.19
313.706	603.19
313.935	599.19
314.165	578.19
314.394	622.19
314.624	593.19
314.853	602.19
315.083	600.19
315.312	600.19
315.542	615.19
315.771	598.19
316.001	627.19
316.23	613.19
316.46	603.19
316.689	612.19
316.919	605.19
317.148	630.19
317.377	623.19
317.607	615.19
317.836	604.19
318.065	610.19
318.295	631.19
318.524	615.19
318.753	628.19
318.983	643.19
319.212	617.19
319.441	630.19
319.67	621.19
319.9	611.19
320.129	646.19
320.358	633.19
320.587	647.19
320.816	642.19
321.046	617.19
321.275	620.19
321.504	644.19
321.733	631.19
321.962	636.19
322.191	650.19
322.42	649.19
322.649	656.19
322.878	646.19
323.108	626.19
323.337	630.19
323.566	645.19
323.795	654.19
324.024	662.19
324.253	657.19
324.482	648.19
324.71	649.19
324.939	678.19
325.168	664.19
325.397	692.19
325.626	673.19
325.855	668.19
326.084	653.19
326.313	672.19
326.542	672.19
326.77	684.19
326.999	676.19
327.228	663.19
327.457	670.19
327.686	685.19
327.914	656.19
328.143	676.19
328.372	689.19
328.6	685.19
328.829	691.19
329.058	666.19
329.287	672.19
329.515	677.19
329.744	687.19
329.972	703.19
330.201	694.19
330.43	698.19
330.658	683.19
330.887	685.19
331.115	704.19
331.344	700.19
331.572	697.19
331.801	731.19
332.03	708.19
332.258	693.19
332.486	733.19
332.715	713.19
332.943	732.19
333.172	705.19
333.4	685.19
333.629	703.19
333.857	743.19
334.085	744.19
334.314	756.19
334.542	733.19
334.771	750.19
334.999	763.19
335.227	767.19
335.455	741.19
335.684	746.19
335.912	749.19
336.14	765.19
336.369	745.19
336.597	748.19
336.825	753.19
337.053	735.19
337.281	774.19
337.51	744.19
337.738	753.19
337.966	740.19
338.194	769.19
338.422	761.19
338.65	749.19
338.878	753.19
339.106	741.19
339.334	746.19
339.562	738.19
339.79	740.19
340.018	745.19
340.246	724.19
340.474	742.19
340.702	745.19
340.93	733.19
341.158	741.19
341.386	726.19
341.614	753.19
341.842	736.19
342.07	739.19
342.298	718.19
342.526	742.19
342.754	743.19
342.981	764.19
343.209	730.19
343.437	751.19
343.665	735.19
343.893	748.19
344.12	753.19
344.348	773.19
344.576	772.19
344.804	800.19
345.031	753.19
345.259	738.19
345.487	737.19
345.714	735.19
345.942	731.19
346.17	749.19
346.397	739.19
346.625	748.19
346.853	728.19
347.08	724.19
347.308	728.19
347.535	699.19
347.763	717.19
347.99	726.19
348.218	744.19
348.445	721.19
348.673	723.19
348.9	717.19
349.128	717.19
349.355	749.19
349.583	716.19
349.81	701.19
350.037	709.19
350.265	715.19
350.492	724.19
350.72	711.19
350.947	729.19
351.174	724.19
351.402	729.19
351.629	706.19
351.856	703.19
352.083	696.19
352.311	723.19
352.538	713.19
352.765	715.19
352.992	722.19
353.22	721.19
353.447	699.19
353.674	689.19
353.901	699.19
354.128	701.19
354.355	736.19
354.583	709.19
354.81	699.19
355.037	708.19
355.264	687.19
355.491	693.19
355.718	731.19
355.945	699.19
356.172	713.19
356.399	693.19
356.626	707.19
356.853	694.19
357.08	693.19
357.307	733.19
357.534	737.19
357.761	736.19
357.988	748.19
358.215	717.19
358.441	699.19
358.668	696.19
358.895	736.19
359.122	731.19
359.349	717.19
359.576	724.19
359.802	725.19
360.029	701.19
360.256	707.19
360.483	713.19
360.709	724.19
360.936	727.19
361.163	744.19
361.39	704.19
361.616	721.19
361.843	735.19
362.07	728.19
362.296	742.19
362.523	746.19
362.749	724.19
362.976	714.19
363.203	758.19
363.429	763.19
363.656	724.19
363.882	739.19
364.109	725.19
364.335	757.19
364.562	754.19
364.788	744.19
365.015	747.19
365.241	733.19
365.468	747.19
365.694	712.19
365.92	719.19
366.147	726.19
366.373	727.19
366.599	731.19
366.826	751.19
367.052	718.19
367.278	740.19
367.505	771.19
367.731	759.19
367.957	759.19
368.184	763.19
368.41	760.19
368.636	745.19
368.862	769.19
369.089	777.19
369.315	772.19
369.541	746.19
369.767	782.19
369.993	791.19
370.219	758.19
370.445	779.19
370.672	783.19
370.898	779.19
371.124	784.19
371.35	767.19
371.576	763.19
371.802	762.19
372.028	795.19
372.254	795.19
372.48	772.19
372.706	787.19
372.932	792.19
373.158	789.19
373.384	799.19
373.61	777.19
373.835	793.19
374.061	793.19
374.287	815.19
374.513	807.19
374.739	815.19
374.965	783.19
375.191	800.19
375.416	785.19
375.642	800.19
375.868	809.19
376.094	791.19
376.319	799.19
376.545	804.19
376.771	763.19
376.997	797.19
377.222	791.19
377.448	778.19
377.674	789.19
377.899	772.19
378.125	736.19
378.35	767.19
378.576	799.19
378.802	773.19
379.027	758.19
379.253	779.19
379.478	787.19
379.704	771.19
379.929	798.19
380.155	761.19
380.38	781.19
380.606	793.19
380.831	791.19
381.057	773.19
381.282	784.19
381.507	779.19
381.733	801.19
381.958	778.19
382.184	783.19
382.409	813.19
382.634	800.19
382.86	794.19
383.085	775.19
383.31	821.19
383.535	821.19
383.761	805.19
383.986	803.19
384.211	819.19
384.436	822.19
384.662	806.19
384.887	821.19
385.112	823.19
385.337	823.19
385.562	802.19
385.787	821.19
386.013	849.19
386.238	871.19
386.463	854.19
386.688	838.19
386.913	835.19
387.138	842.19
387.363	861.19
387.588	869.19
387.813	859.19
388.038	858.19
388.263	841.19
388.488	874.19
388.713	869.19
388.938	862.19
389.163	840.19
389.387	852.19
389.612	841.19
389.837	871.19
390.062	869.19
390.287	891.19
390.512	873.19
390.736	869.19
390.961	872.19
391.186	872.19
391.411	884.19
391.636	891.19
391.86	891.19
392.085	904.19
392.31	874.19
392.534	873.19
392.759	903.19
392.984	903.19
393.208	887.19
393.433	887.19
393.658	904.19
393.882	913.19
394.107	880.19
394.331	884.19
394.556	893.19
394.78	899.19
395.005	895.19
395.229	893.19
395.454	898.19
395.678	904.19
395.903	898.19
396.127	901.19
396.352	871.19
396.576	913.19
396.801	892.19
397.025	910.19
397.249	893.19
397.474	909.19
397.698	903.19
397.922	944.19
398.147	945.19
398.371	937.19
398.595	958.19
398.82	936.19
399.044	961.19
399.268	953.19
399.492	987.19
399.717	1007.19
399.941	1028.19
400.165	985.19
400.389	993.19
400.613	984.19
400.837	977.19
401.062	997.19
401.286	942.19
401.51	982.19
401.734	954.19
401.958	965.19
402.182	957.19
402.406	957.19
402.63	927.19
402.854	966.19
403.078	951.19
403.302	942.19
403.526	939.19
403.75	955.19
403.974	957.19
404.198	956.19
404.422	965.19
404.645	950.19
404.869	964.19
405.093	971.19
405.317	976.19
405.541	967.19
405.765	1003.19
405.988	980.19
406.212	991.19
406.436	1019.19
406.66	990.19
406.883	998.19
407.107	981.19
407.331	1013.19
407.555	1051.19
407.778	1027.19
408.002	1045.19
408.226	1037.19
408.449	1041.19
408.673	1034.19
408.896	1017.19
409.12	1014.19
409.344	1014.19
409.567	1003.19
409.791	1013.19
410.014	1018.19
410.238	1010.19
410.461	988.19
410.685	989.19
410.908	978.19
411.132	965.19
411.355	979.19
411.578	977.19
411.802	965.19
412.025	962.19
412.249	978.19
412.472	982.19
412.695	984.19
412.919	968.19
413.142	953.19
413.365	973.19
413.589	960.19
413.812	964.19
414.035	938.19
414.258	964.19
414.482	982.19
414.705	932.19
414.928	925.19
415.151	945.19
415.374	970.19
415.597	937.19
415.821	963.19
416.044	938.19
416.267	941.19
416.49	943.19
416.713	903.19
416.936	916.19
417.159	937.19
417.382	901.19
417.605	926.19
417.828	916.19
418.051	911.19
418.274	901.19
418.497	916.19
418.72	907.19
418.943	902.19
419.166	934.19
419.389	982.19
419.611	984.19
419.834	974.19
420.057	923.19
420.28	914.19
420.503	901.19
420.726	866.19
420.948	885.19
421.171	887.19
421.394	903.19
421.617	907.19
421.839	910.19
422.062	905.19
422.285	876.19
422.507	883.19
422.73	895.19
422.953	890.19
423.175	865.19
423.398	891.19
423.621	880.19
423.843	931.19
424.066	902.19
424.288	917.19
424.511	904.19
424.733	917.19
424.956	900.19
425.178	890.19
425.401	869.19
425.623	901.19
425.846	893.19
426.068	880.19
426.291	909.19
426.513	883.19
426.735	882.19
426.958	912.19
427.18	856.19
427.402	906.19
427.625	892.19
427.847	868.19
428.069	891.19
428.292	901.19
428.514	882.19
428.736	886.19
428.958	883.19
429.181	890.19
429.403	875.19
429.625	864.19
429.847	893.19
430.069	895.19
430.292	903.19
430.514	877.19
430.736	909.19
430.958	897.19
431.18	900.19
431.402	883.19
431.624	873.19
431.846	879.19
432.068	874.19
432.29	885.19
432.512	882.19
432.734	875.19
432.956	886.19
433.178	873.19
433.4	884.19
433.622	879.19
433.844	901.19
434.066	891.19
434.287	907.19
434.509	870.19
434.731	870.19
434.953	897.19
435.175	881.19
435.397	891.19
435.618	888.19
435.84	863.19
436.062	884.19
436.284	884.19
436.505	874.19
436.727	876.19
436.949	872.19
437.17	896.19
437.392	845.19
437.614	887.19
437.835	849.19
438.057	881.19
438.278	848.19
438.5	843.19
438.721	845.19
438.943	861.19
439.165	842.19
439.386	853.19
439.608	874.19
439.829	870.19
440.05	846.19
440.272	863.19
440.493	869.19
440.715	890.19
440.936	882.19
441.158	871.19
441.379	849.19
441.6	908.19
441.822	837.19
442.043	900.19
442.264	889.19
442.486	863.19
442.707	884.19
442.928	875.19
443.149	879.19
443.371	883.19
443.592	867.19
443.813	881.19
444.034	887.19
444.255	887.19
444.476	882.19
444.698	884.19
444.919	897.19
445.14	971.19
445.361	898.19
445.582	881.19
445.803	864.19
446.024	877.19
446.245	887.19
446.466	863.19
446.687	861.19
446.908	855.19
447.129	855.19
447.35	844.19
447.571	847.19
447.792	828.19
448.013	831.19
448.234	807.19
448.455	810.19
448.675	849.19
448.896	829.19
449.117	823.19
449.338	809.19
449.559	822.19
449.779	804.19
450	795.19
450.221	831.19
450.442	809.19
450.662	779.19
450.883	809.19
451.104	793.19
451.324	798.19
451.545	805.19
451.766	818.19
451.986	785.19
452.207	794.19
452.428	787.19
452.648	804.19
452.869	782.19
453.089	773.19
453.31	831.19
453.53	785.19
453.751	780.19
453.971	785.19
454.192	764.19
454.412	748.19
454.633	771.19
454.853	791.19
455.073	784.19
455.294	797.19
455.514	790.19
455.734	805.19
455.955	779.19
456.175	797.19
456.395	810.19
456.616	792.19
456.836	801.19
457.056	803.19
457.276	780.19
457.497	785.19
457.717	799.19
457.937	810.19
458.157	803.19
458.377	805.19
458.598	808.19
458.818	808.19
459.038	816.19
459.258	837.19
459.478	852.19
459.698	830.19
459.918	852.19
460.138	849.19
460.358	841.19
460.578	861.19
460.798	883.19
461.018	881.19
461.238	881.19
461.458	901.19
461.678	864.19
461.898	883.19
462.118	909.19
462.338	907.19
462.558	906.19
462.777	905.19
462.997	921.19
463.217	907.19
463.437	939.19
463.657	910.19
463.876	923.19
464.096	933.19
464.316	883.19
464.536	918.19
464.755	901.19
464.975	926.19
465.195	874.19
465.414	886.19
465.634	863.19
465.854	870.19
466.073	871.19
466.293	859.19
466.512	851.19
466.732	849.19
466.951	837.19
467.171	867.19
467.391	846.19
467.61	851.19
467.829	834.19
468.049	847.19
468.268	815.19
468.488	813.19
468.707	854.19
468.927	850.19
469.146	840.19
469.365	820.19
469.585	819.19
469.804	837.19
470.023	824.19
470.243	842.19
470.462	849.19
470.681	871.19
470.901	837.19
471.12	867.19
471.339	842.19
471.558	870.19
471.777	863.19
471.997	851.19
472.216	875.19
472.435	881.19
472.654	847.19
472.873	865.19
473.092	876.19
473.311	874.19
473.53	849.19
473.749	881.19
473.968	869.19
474.187	880.19
474.406	879.19
474.625	887.19
474.844	897.19
475.063	925.19
475.282	868.19
475.501	912.19
475.72	925.19
475.939	916.19
476.158	874.19
476.377	907.19
476.596	916.19
476.814	957.19
477.033	936.19
477.252	932.19
477.471	950.19
477.69	969.19
477.908	985.19
478.127	965.19
478.346	946.19
478.564	960.19
478.783	957.19
479.002	973.19
479.22	995.19
479.439	1011.19
479.658	1011.19
479.876	979.19
480.095	1012.19
480.313	1035.19
480.532	1010.19
480.751	1043.19
480.969	1002.19
481.188	1025.19
481.406	1022.19
481.624	1031.19
481.843	1011.19
482.061	1015.19
482.28	1008.19
482.498	1023.19
482.717	1041.19
482.935	1019.19
483.153	1042.19
483.372	1060.19
483.59	1032.19
483.808	1038.19
484.027	1036.19
484.245	1074.19
484.463	1068.19
484.681	1080.19
484.9	1055.19
485.118	1059.19
485.336	1073.19
485.554	1040.19
485.772	1061.19
485.99	1048.19
486.209	1055.19
486.427	1023.19
486.645	1080.19
486.863	1057.19
487.081	1087.19
487.299	1065.19
487.517	1101.19
487.735	1081.19
487.953	1059.19
488.171	1054.19
488.389	1071.19
488.607	1097.19
488.825	1080.19
489.043	1038.19
489.261	1067.19
489.479	1049.19
489.696	1081.19
489.914	1065.19
490.132	1063.19
490.35	1072.19
490.568	1083.19
490.786	1121.19
491.003	1084.19
491.221	1071.19
491.439	1115.19
491.657	1081.19
491.874	1108.19
492.092	1111.19
492.31	1057.19
492.527	1083.19
492.745	1100.19
492.963	1119.19
493.18	1099.19
493.398	1114.19
493.615	1093.19
493.833	1130.19
494.05	1089.19
494.268	1109.19
494.485	1109.19
494.703	1116.19
494.92	1114.19
495.138	1099.19
495.355	1119.19
495.573	1169.19
495.79	1133.19
496.008	1108.19
496.225	1131.19
496.442	1140.19
496.66	1151.19
496.877	1148.19
497.094	1174.19
497.312	1177.19
497.529	1165.19
497.746	1201.19
497.963	1220.19
498.181	1229.19
498.398	1207.19
498.615	1293.19
498.832	1295.19
499.049	1264.19
499.267	1338.19
499.484	1343.19
499.701	1372.19
499.918	1395.19
