Data from Fe(NO3)3@0.05M.TitratingCurve.Agarose3%dH2O.NegLispCup.LampEnergy10.LIBS07252019_HRD10591_16-45-57-334.txt Node
Date: Thu Jul 25 16:45:57 EDT 2019
User: cochatt
Spectrometer: HR+D1059
Trigger mode: 1
Integration Time (sec): 1.000000E-1
Scans to average: 1
Electric dark correction enabled: true
Nonlinearity correction enabled: false
Boxcar width: 0
XAxis mode: Wavelengths
Number of Pixels in Spectrum: 2048
>>>>>Begin Spectral Data<<<<<
223.165	-4.38
223.4	-4.38
223.635	-4.38
223.869	-19.38
224.104	-20.38
224.338	-21.38
224.573	-21.38
224.808	-8.38
225.042	-7.38
225.277	-18.38
225.511	-1.38
225.746	8.62
225.98	9.62
226.215	11.62
226.449	31.62
226.683	22.62
226.918	23.62
227.152	14.62
227.387	33.62
227.621	30.62
227.856	51.62
228.09	40.62
228.324	52.62
228.559	48.62
228.793	62.62
229.027	132.62
229.262	116.62
229.496	133.62
229.73	159.62
229.964	162.62
230.199	139.62
230.433	158.62
230.667	155.62
230.901	167.62
231.136	174.62
231.37	171.62
231.604	164.62
231.838	180.62
232.072	176.62
232.306	170.62
232.541	169.62
232.775	181.62
233.009	162.62
233.243	168.62
233.477	186.62
233.711	191.62
233.945	182.62
234.179	189.62
234.413	187.62
234.647	194.62
234.881	200.62
235.115	188.62
235.349	189.62
235.583	209.62
235.817	210.62
236.051	209.62
236.285	212.62
236.519	197.62
236.753	218.62
236.987	207.62
237.221	202.62
237.455	214.62
237.689	225.62
237.922	220.62
238.156	216.62
238.39	250.62
238.624	282.62
238.858	271.62
239.091	247.62
239.325	249.62
239.559	239.62
239.793	254.62
240.027	294.62
240.26	275.62
240.494	266.62
240.728	251.62
240.961	271.62
241.195	274.62
241.429	278.62
241.662	282.62
241.896	252.62
242.13	260.62
242.363	245.62
242.597	255.62
242.83	264.62
243.064	250.62
243.298	280.62
243.531	282.62
243.765	273.62
243.998	282.62
244.232	274.62
244.465	278.62
244.699	278.62
244.932	285.62
245.166	282.62
245.399	300.62
245.633	290.62
245.866	269.62
246.099	306.62
246.333	296.62
246.566	307.62
246.8	310.62
247.033	308.62
247.266	311.62
247.5	304.62
247.733	280.62
247.966	320.62
248.2	295.62
248.433	324.62
248.666	340.62
248.899	345.62
249.133	332.62
249.366	356.62
249.599	380.62
249.832	357.62
250.066	330.62
250.299	329.62
250.532	329.62
250.765	326.62
250.998	324.62
251.231	302.62
251.465	347.62
251.698	346.62
251.931	340.62
252.164	343.62
252.397	369.62
252.63	382.62
252.863	386.62
253.096	381.62
253.329	400.62
253.562	385.62
253.795	387.62
254.028	414.62
254.261	413.62
254.494	423.62
254.727	384.62
254.96	390.62
255.193	389.62
255.426	387.62
255.659	390.62
255.892	379.62
256.124	367.62
256.357	415.62
256.59	420.62
256.823	423.62
257.056	399.62
257.289	402.62
257.521	408.62
257.754	404.62
257.987	413.62
258.22	400.62
258.452	411.62
258.685	438.62
258.918	438.62
259.151	428.62
259.383	423.62
259.616	454.62
259.849	451.62
260.081	558.62
260.314	581.62
260.547	488.62
260.779	465.62
261.012	491.62
261.244	487.62
261.477	501.62
261.71	502.62
261.942	461.62
262.175	456.62
262.407	472.62
262.64	479.62
262.872	483.62
263.105	502.62
263.337	516.62
263.57	552.62
263.802	452.62
264.035	456.62
264.267	448.62
264.499	447.62
264.732	420.62
264.964	424.62
265.197	437.62
265.429	424.62
265.661	430.62
265.894	450.62
266.126	457.62
266.358	477.62
266.591	472.62
266.823	486.62
267.055	485.62
267.287	460.62
267.52	451.62
267.752	479.62
267.984	459.62
268.216	449.62
268.448	476.62
268.681	496.62
268.913	483.62
269.145	480.62
269.377	496.62
269.609	494.62
269.841	515.62
270.073	512.62
270.306	494.62
270.538	495.62
270.77	501.62
271.002	512.62
271.234	504.62
271.466	531.62
271.698	536.62
271.93	552.62
272.162	543.62
272.394	524.62
272.626	546.62
272.858	549.62
273.09	564.62
273.322	554.62
273.553	566.62
273.785	556.62
274.017	617.62
274.249	656.62
274.481	681.62
274.713	660.62
274.945	753.62
275.176	754.62
275.408	698.62
275.64	696.62
275.872	690.62
276.104	649.62
276.335	568.62
276.567	557.62
276.799	567.62
277.031	598.62
277.262	585.62
277.494	573.62
277.726	564.62
277.957	584.62
278.189	571.62
278.421	566.62
278.652	595.62
278.884	605.62
279.115	594.62
279.347	596.62
279.579	588.62
279.81	583.62
280.042	565.62
280.273	578.62
280.505	590.62
280.736	586.62
280.968	581.62
281.199	588.62
281.431	586.62
281.662	599.62
281.894	586.62
282.125	578.62
282.356	608.62
282.588	623.62
282.819	583.62
283.051	580.62
283.282	591.62
283.513	614.62
283.745	621.62
283.976	622.62
284.207	623.62
284.439	633.62
284.67	622.62
284.901	613.62
285.132	644.62
285.364	630.62
285.595	629.62
285.826	646.62
286.057	636.62
286.288	607.62
286.52	626.62
286.751	642.62
286.982	664.62
287.213	638.62
287.444	647.62
287.675	669.62
287.906	628.62
288.138	644.62
288.369	654.62
288.6	652.62
288.831	636.62
289.062	682.62
289.293	652.62
289.524	660.62
289.755	656.62
289.986	661.62
290.217	668.62
290.448	648.62
290.679	658.62
290.91	654.62
291.141	650.62
291.371	650.62
291.602	655.62
291.833	664.62
292.064	664.62
292.295	683.62
292.526	674.62
292.757	663.62
292.987	660.62
293.218	656.62
293.449	680.62
293.68	683.62
293.91	671.62
294.141	673.62
294.372	680.62
294.603	698.62
294.833	702.62
295.064	702.62
295.295	668.62
295.525	692.62
295.756	698.62
295.987	670.62
296.217	693.62
296.448	684.62
296.679	698.62
296.909	709.62
297.14	716.62
297.37	726.62
297.601	711.62
297.831	724.62
298.062	724.62
298.292	724.62
298.523	717.62
298.753	761.62
298.984	705.62
299.214	714.62
299.445	708.62
299.675	723.62
299.905	732.62
300.136	718.62
300.366	758.62
300.597	712.62
300.827	742.62
301.057	728.62
301.288	734.62
301.518	722.62
301.748	761.62
301.979	757.62
302.209	761.62
302.439	799.62
302.669	760.62
302.9	745.62
303.13	760.62
303.36	748.62
303.59	739.62
303.82	785.62
304.051	774.62
304.281	781.62
304.511	788.62
304.741	762.62
304.971	772.62
305.201	740.62
305.431	773.62
305.661	778.62
305.891	748.62
306.121	782.62
306.352	761.62
306.582	748.62
306.812	774.62
307.042	783.62
307.272	750.62
307.502	760.62
307.731	745.62
307.961	766.62
308.191	781.62
308.421	750.62
308.651	745.62
308.881	771.62
309.111	762.62
309.341	784.62
309.571	773.62
309.8	760.62
310.03	768.62
310.26	791.62
310.49	771.62
310.72	777.62
310.949	773.62
311.179	786.62
311.409	784.62
311.639	804.62
311.868	796.62
312.098	812.62
312.328	800.62
312.557	778.62
312.787	811.62
313.017	810.62
313.246	807.62
313.476	812.62
313.706	827.62
313.935	800.62
314.165	828.62
314.394	829.62
314.624	815.62
314.853	814.62
315.083	804.62
315.312	837.62
315.542	850.62
315.771	843.62
316.001	828.62
316.23	852.62
316.46	820.62
316.689	838.62
316.919	831.62
317.148	830.62
317.377	833.62
317.607	831.62
317.836	841.62
318.065	837.62
318.295	829.62
318.524	840.62
318.753	854.62
318.983	827.62
319.212	821.62
319.441	833.62
319.67	846.62
319.9	819.62
320.129	847.62
320.358	856.62
320.587	865.62
320.816	874.62
321.046	851.62
321.275	842.62
321.504	842.62
321.733	863.62
321.962	846.62
322.191	890.62
322.42	875.62
322.649	868.62
322.878	846.62
323.108	889.62
323.337	866.62
323.566	872.62
323.795	869.62
324.024	878.62
324.253	854.62
324.482	894.62
324.71	866.62
324.939	867.62
325.168	895.62
325.397	858.62
325.626	858.62
325.855	883.62
326.084	883.62
326.313	910.62
326.542	895.62
326.77	914.62
326.999	902.62
327.228	873.62
327.457	912.62
327.686	908.62
327.914	901.62
328.143	912.62
328.372	932.62
328.6	903.62
328.829	918.62
329.058	925.62
329.287	891.62
329.515	925.62
329.744	947.62
329.972	930.62
330.201	954.62
330.43	918.62
330.658	932.62
330.887	920.62
331.115	922.62
331.344	960.62
331.572	944.62
331.801	932.62
332.03	923.62
332.258	958.62
332.486	983.62
332.715	985.62
332.943	992.62
333.172	1011.62
333.4	973.62
333.629	1036.62
333.857	1007.62
334.085	1047.62
334.314	1016.62
334.542	1029.62
334.771	1048.62
334.999	1049.62
335.227	1057.62
335.455	1041.62
335.684	1035.62
335.912	1054.62
336.14	1039.62
336.369	1070.62
336.597	1045.62
336.825	1063.62
337.053	1045.62
337.281	1054.62
337.51	1056.62
337.738	1024.62
337.966	1034.62
338.194	1049.62
338.422	1010.62
338.65	981.62
338.878	995.62
339.106	1015.62
339.334	1000.62
339.562	1005.62
339.79	966.62
340.018	1018.62
340.246	972.62
340.474	973.62
340.702	1008.62
340.93	1018.62
341.158	996.62
341.386	971.62
341.614	994.62
341.842	971.62
342.07	976.62
342.298	958.62
342.526	982.62
342.754	985.62
342.981	982.62
343.209	979.62
343.437	1019.62
343.665	1002.62
343.893	1011.62
344.12	1052.62
344.348	1094.62
344.576	1050.62
344.804	1024.62
345.031	1023.62
345.259	976.62
345.487	982.62
345.714	1004.62
345.942	978.62
346.17	952.62
346.397	951.62
346.625	967.62
346.853	967.62
347.08	939.62
347.308	952.62
347.535	991.62
347.763	988.62
347.99	948.62
348.218	949.62
348.445	947.62
348.673	939.62
348.9	934.62
349.128	924.62
349.355	937.62
349.583	944.62
349.81	964.62
350.037	946.62
350.265	920.62
350.492	918.62
350.72	941.62
350.947	910.62
351.174	921.62
351.402	932.62
351.629	919.62
351.856	905.62
352.083	941.62
352.311	927.62
352.538	898.62
352.765	922.62
352.992	913.62
353.22	933.62
353.447	907.62
353.674	929.62
353.901	913.62
354.128	931.62
354.355	902.62
354.583	921.62
354.81	921.62
355.037	939.62
355.264	921.62
355.491	921.62
355.718	951.62
355.945	910.62
356.172	942.62
356.399	951.62
356.626	978.62
356.853	952.62
357.08	966.62
357.307	988.62
357.534	939.62
357.761	955.62
357.988	962.62
358.215	964.62
358.441	1001.62
358.668	954.62
358.895	935.62
359.122	932.62
359.349	940.62
359.576	912.62
359.802	910.62
360.029	908.62
360.256	927.62
360.483	946.62
360.709	986.62
360.936	958.62
361.163	970.62
361.39	949.62
361.616	935.62
361.843	947.62
362.07	991.62
362.296	953.62
362.523	971.62
362.749	950.62
362.976	948.62
363.203	982.62
363.429	993.62
363.656	966.62
363.882	938.62
364.109	970.62
364.335	952.62
364.562	947.62
364.788	959.62
365.015	975.62
365.241	963.62
365.468	929.62
365.694	931.62
365.92	929.62
366.147	941.62
366.373	955.62
366.599	979.62
366.826	983.62
367.052	948.62
367.278	954.62
367.505	994.62
367.731	971.62
367.957	972.62
368.184	968.62
368.41	982.62
368.636	979.62
368.862	990.62
369.089	976.62
369.315	948.62
369.541	1007.62
369.767	968.62
369.993	990.62
370.219	1008.62
370.445	1008.62
370.672	1008.62
370.898	1024.62
371.124	1028.62
371.35	1038.62
371.576	1041.62
371.802	1048.62
372.028	1031.62
372.254	1068.62
372.48	1076.62
372.706	1048.62
372.932	1024.62
373.158	1063.62
373.384	1070.62
373.61	1106.62
373.835	1122.62
374.061	1085.62
374.287	1071.62
374.513	1068.62
374.739	1153.62
374.965	1163.62
375.191	1147.62
375.416	1098.62
375.642	1058.62
375.868	1116.62
376.094	1102.62
376.319	1068.62
376.545	1058.62
376.771	1059.62
376.997	1037.62
377.222	1030.62
377.448	1043.62
377.674	1016.62
377.899	1017.62
378.125	1000.62
378.35	1028.62
378.576	1046.62
378.802	1014.62
379.027	1051.62
379.253	1033.62
379.478	1047.62
379.704	1051.62
379.929	1064.62
380.155	1055.62
380.38	1038.62
380.606	1044.62
380.831	1080.62
381.057	1057.62
381.282	1055.62
381.507	1064.62
381.733	1110.62
381.958	1127.62
382.184	1135.62
382.409	1162.62
382.634	1132.62
382.86	1154.62
383.085	1145.62
383.31	1131.62
383.535	1122.62
383.761	1154.62
383.986	1135.62
384.211	1161.62
384.436	1135.62
384.662	1120.62
384.887	1156.62
385.112	1133.62
385.337	1142.62
385.562	1176.62
385.787	1162.62
386.013	1198.62
386.238	1195.62
386.463	1215.62
386.688	1203.62
386.913	1220.62
387.138	1189.62
387.363	1214.62
387.588	1216.62
387.813	1209.62
388.038	1220.62
388.263	1204.62
388.488	1228.62
388.713	1234.62
388.938	1231.62
389.163	1198.62
389.387	1227.62
389.612	1226.62
389.837	1232.62
390.062	1198.62
390.287	1225.62
390.512	1233.62
390.736	1253.62
390.961	1258.62
391.186	1226.62
391.411	1274.62
391.636	1287.62
391.86	1271.62
392.085	1276.62
392.31	1301.62
392.534	1304.62
392.759	1296.62
392.984	1298.62
393.208	1281.62
393.433	1315.62
393.658	1332.62
393.882	1267.62
394.107	1318.62
394.331	1277.62
394.556	1307.62
394.78	1274.62
395.005	1325.62
395.229	1316.62
395.454	1307.62
395.678	1320.62
395.903	1321.62
396.127	1337.62
396.352	1315.62
396.576	1303.62
396.801	1307.62
397.025	1351.62
397.249	1370.62
397.474	1357.62
397.698	1372.62
397.922	1400.62
398.147	1399.62
398.371	1362.62
398.595	1423.62
398.82	1446.62
399.044	1482.62
399.268	1523.62
399.492	1596.62
399.717	1638.62
399.941	1651.62
400.165	1686.62
400.389	1606.62
400.613	1596.62
400.837	1558.62
401.062	1535.62
401.286	1508.62
401.51	1479.62
401.734	1482.62
401.958	1467.62
402.182	1495.62
402.406	1442.62
402.63	1452.62
402.854	1468.62
403.078	1465.62
403.302	1474.62
403.526	1476.62
403.75	1494.62
403.974	1494.62
404.198	1491.62
404.422	1493.62
404.645	1500.62
404.869	1542.62
405.093	1527.62
405.317	1513.62
405.541	1512.62
405.765	1501.62
405.988	1521.62
406.212	1526.62
406.436	1565.62
406.66	1629.62
406.883	1605.62
407.107	1615.62
407.331	1653.62
407.555	1718.62
407.778	1707.62
408.002	1656.62
408.226	1636.62
408.449	1693.62
408.673	1636.62
408.896	1631.62
409.12	1616.62
409.344	1608.62
409.567	1640.62
409.791	1628.62
410.014	1571.62
410.238	1566.62
410.461	1568.62
410.685	1592.62
410.908	1586.62
411.132	1574.62
411.355	1513.62
411.578	1529.62
411.802	1544.62
412.025	1540.62
412.249	1530.62
412.472	1565.62
412.695	1548.62
412.919	1497.62
413.142	1535.62
413.365	1518.62
413.589	1509.62
413.812	1517.62
414.035	1487.62
414.258	1484.62
414.482	1456.62
414.705	1504.62
414.928	1497.62
415.151	1493.62
415.374	1451.62
415.597	1453.62
415.821	1443.62
416.044	1452.62
416.267	1464.62
416.49	1436.62
416.713	1435.62
416.936	1438.62
417.159	1443.62
417.382	1422.62
417.605	1428.62
417.828	1431.62
418.051	1447.62
418.274	1391.62
418.497	1427.62
418.72	1442.62
418.943	1460.62
419.166	1503.62
419.389	1585.62
419.611	1558.62
419.834	1532.62
420.057	1452.62
420.28	1460.62
420.503	1409.62
420.726	1382.62
420.948	1399.62
421.171	1408.62
421.394	1418.62
421.617	1381.62
421.839	1430.62
422.062	1430.62
422.285	1388.62
422.507	1421.62
422.73	1402.62
422.953	1399.62
423.175	1443.62
423.398	1428.62
423.621	1416.62
423.843	1419.62
424.066	1406.62
424.288	1428.62
424.511	1434.62
424.733	1395.62
424.956	1411.62
425.178	1418.62
425.401	1412.62
425.623	1399.62
425.846	1380.62
426.068	1383.62
426.291	1403.62
426.513	1369.62
426.735	1369.62
426.958	1425.62
427.18	1405.62
427.402	1385.62
427.625	1400.62
427.847	1348.62
428.069	1364.62
428.292	1357.62
428.514	1368.62
428.736	1370.62
428.958	1369.62
429.181	1345.62
429.403	1322.62
429.625	1324.62
429.847	1341.62
430.069	1357.62
430.292	1364.62
430.514	1323.62
430.736	1366.62
430.958	1375.62
431.18	1364.62
431.402	1378.62
431.624	1315.62
431.846	1359.62
432.068	1344.62
432.29	1357.62
432.512	1343.62
432.734	1387.62
432.956	1398.62
433.178	1372.62
433.4	1386.62
433.622	1360.62
433.844	1406.62
434.066	1363.62
434.287	1368.62
434.509	1391.62
434.731	1412.62
434.953	1392.62
435.175	1461.62
435.397	1420.62
435.618	1444.62
435.84	1402.62
436.062	1380.62
436.284	1375.62
436.505	1339.62
436.727	1359.62
436.949	1357.62
437.17	1349.62
437.392	1340.62
437.614	1365.62
437.835	1343.62
438.057	1338.62
438.278	1335.62
438.5	1364.62
438.721	1315.62
438.943	1325.62
439.165	1337.62
439.386	1322.62
439.608	1346.62
439.829	1355.62
440.05	1340.62
440.272	1325.62
440.493	1310.62
440.715	1358.62
440.936	1383.62
441.158	1369.62
441.379	1374.62
441.6	1374.62
441.822	1400.62
442.043	1416.62
442.264	1399.62
442.486	1380.62
442.707	1409.62
442.928	1404.62
443.149	1394.62
443.371	1387.62
443.592	1382.62
443.813	1422.62
444.034	1426.62
444.255	1464.62
444.476	1449.62
444.698	1464.62
444.919	1466.62
445.14	1628.62
445.361	1465.62
445.582	1453.62
445.803	1387.62
446.024	1392.62
446.245	1373.62
446.466	1376.62
446.687	1386.62
446.908	1353.62
447.129	1348.62
447.35	1347.62
447.571	1307.62
447.792	1279.62
448.013	1306.62
448.234	1266.62
448.455	1285.62
448.675	1247.62
448.896	1241.62
449.117	1246.62
449.338	1258.62
449.559	1266.62
449.779	1253.62
450	1256.62
450.221	1214.62
450.442	1266.62
450.662	1262.62
450.883	1231.62
451.104	1202.62
451.324	1231.62
451.545	1248.62
451.766	1245.62
451.986	1231.62
452.207	1239.62
452.428	1207.62
452.648	1251.62
452.869	1215.62
453.089	1194.62
453.31	1228.62
453.53	1184.62
453.751	1180.62
453.971	1202.62
454.192	1234.62
454.412	1197.62
454.633	1202.62
454.853	1178.62
455.073	1188.62
455.294	1182.62
455.514	1188.62
455.734	1190.62
455.955	1187.62
456.175	1185.62
456.395	1199.62
456.616	1208.62
456.836	1204.62
457.056	1219.62
457.276	1178.62
457.497	1212.62
457.717	1200.62
457.937	1217.62
458.157	1229.62
458.377	1218.62
458.598	1253.62
458.818	1269.62
459.038	1279.62
459.258	1304.62
459.478	1316.62
459.698	1323.62
459.918	1384.62
460.138	1356.62
460.358	1412.62
460.578	1399.62
460.798	1466.62
461.018	1466.62
461.238	1473.62
461.458	1456.62
461.678	1474.62
461.898	1511.62
462.118	1465.62
462.338	1514.62
462.558	1559.62
462.777	1588.62
462.997	1588.62
463.217	1613.62
463.437	1612.62
463.657	1596.62
463.876	1609.62
464.096	1629.62
464.316	1574.62
464.536	1578.62
464.755	1574.62
464.975	1516.62
465.195	1463.62
465.414	1440.62
465.634	1419.62
465.854	1412.62
466.073	1416.62
466.293	1367.62
466.512	1349.62
466.732	1327.62
466.951	1355.62
467.171	1312.62
467.391	1348.62
467.61	1304.62
467.829	1304.62
468.049	1309.62
468.268	1281.62
468.488	1301.62
468.707	1300.62
468.927	1310.62
469.146	1363.62
469.365	1293.62
469.585	1288.62
469.804	1309.62
470.023	1350.62
470.243	1302.62
470.462	1321.62
470.681	1335.62
470.901	1337.62
471.12	1336.62
471.339	1332.62
471.558	1292.62
471.777	1319.62
471.997	1304.62
472.216	1289.62
472.435	1318.62
472.654	1340.62
472.873	1269.62
473.092	1291.62
473.311	1317.62
473.53	1301.62
473.749	1309.62
473.968	1285.62
474.187	1295.62
474.406	1308.62
474.625	1327.62
474.844	1338.62
475.063	1315.62
475.282	1355.62
475.501	1352.62
475.72	1327.62
475.939	1366.62
476.158	1410.62
476.377	1383.62
476.596	1446.62
476.814	1516.62
477.033	1428.62
477.252	1381.62
477.471	1434.62
477.69	1468.62
477.908	1481.62
478.127	1499.62
478.346	1482.62
478.564	1500.62
478.783	1470.62
479.002	1524.62
479.22	1533.62
479.439	1637.62
479.658	1572.62
479.876	1573.62
480.095	1569.62
480.313	1614.62
480.532	1573.62
480.751	1599.62
480.969	1604.62
481.188	1616.62
481.406	1596.62
481.624	1570.62
481.843	1552.62
482.061	1533.62
482.28	1558.62
482.498	1586.62
482.717	1568.62
482.935	1572.62
483.153	1573.62
483.372	1564.62
483.59	1546.62
483.808	1560.62
484.027	1609.62
484.245	1554.62
484.463	1598.62
484.681	1620.62
484.9	1636.62
485.118	1624.62
485.336	1565.62
485.554	1629.62
485.772	1646.62
485.99	1606.62
486.209	1604.62
486.427	1589.62
486.645	1598.62
486.863	1614.62
487.081	1582.62
487.299	1630.62
487.517	1617.62
487.735	1628.62
487.953	1604.62
488.171	1629.62
488.389	1593.62
488.607	1583.62
488.825	1588.62
489.043	1614.62
489.261	1562.62
489.479	1602.62
489.696	1605.62
489.914	1610.62
490.132	1604.62
490.35	1587.62
490.568	1579.62
490.786	1603.62
491.003	1604.62
491.221	1611.62
491.439	1619.62
491.657	1632.62
491.874	1654.62
492.092	1691.62
492.31	1666.62
492.527	1650.62
492.745	1700.62
492.963	1643.62
493.18	1660.62
493.398	1666.62
