Data from Fe(NO3)3@0.1M.TitratingCurve.Agarose3%dH2O.NegLispCup.LampEnergy10.LIBS07252019_HRD10591_16-41-13-333.txt Node
Date: Thu Jul 25 16:41:13 EDT 2019
User: cochatt
Spectrometer: HR+D1059
Trigger mode: 1
Integration Time (sec): 1.000000E-1
Scans to average: 1
Electric dark correction enabled: true
Nonlinearity correction enabled: false
Boxcar width: 0
XAxis mode: Wavelengths
Number of Pixels in Spectrum: 2048
>>>>>Begin Spectral Data<<<<<
223.165	-21.19
223.4	-21.19
223.635	-21.19
223.869	-24.19
224.104	-21.19
224.338	-20.19
224.573	-9.19
224.808	-5.19
225.042	-1.19
225.277	-0.19
225.511	-3.19
225.746	2.81
225.98	3.81
226.215	10.81
226.449	28.81
226.683	4.81
226.918	21.81
227.152	32.81
227.387	29.81
227.621	41.81
227.856	46.81
228.09	43.81
228.324	43.81
228.559	49.81
228.793	44.81
229.027	66.81
229.262	87.81
229.496	74.81
229.73	78.81
229.964	70.81
230.199	80.81
230.433	82.81
230.667	87.81
230.901	85.81
231.136	95.81
231.37	101.81
231.604	89.81
231.838	96.81
232.072	84.81
232.306	107.81
232.541	107.81
232.775	101.81
233.009	115.81
233.243	97.81
233.477	105.81
233.711	113.81
233.945	103.81
234.179	104.81
234.413	100.81
234.647	101.81
234.881	105.81
235.115	96.81
235.349	99.81
235.583	112.81
235.817	104.81
236.051	89.81
236.285	104.81
236.519	91.81
236.753	96.81
236.987	107.81
237.221	94.81
237.455	104.81
237.689	90.81
237.922	89.81
238.156	115.81
238.39	101.81
238.624	116.81
238.858	99.81
239.091	92.81
239.325	106.81
239.559	101.81
239.793	113.81
240.027	112.81
240.26	106.81
240.494	98.81
240.728	100.81
240.961	118.81
241.195	106.81
241.429	115.81
241.662	92.81
241.896	99.81
242.13	112.81
242.363	106.81
242.597	119.81
242.83	119.81
243.064	106.81
243.298	104.81
243.531	115.81
243.765	110.81
243.998	97.81
244.232	108.81
244.465	109.81
244.699	107.81
244.932	105.81
245.166	119.81
245.399	119.81
245.633	118.81
245.866	115.81
246.099	99.81
246.333	116.81
246.566	122.81
246.8	110.81
247.033	110.81
247.266	111.81
247.5	117.81
247.733	111.81
247.966	126.81
248.2	114.81
248.433	107.81
248.666	116.81
248.899	119.81
249.133	125.81
249.366	122.81
249.599	110.81
249.832	111.81
250.066	124.81
250.299	127.81
250.532	130.81
250.765	125.81
250.998	119.81
251.231	123.81
251.465	139.81
251.698	122.81
251.931	136.81
252.164	131.81
252.397	134.81
252.63	132.81
252.863	132.81
253.096	119.81
253.329	134.81
253.562	129.81
253.795	126.81
254.028	132.81
254.261	118.81
254.494	126.81
254.727	120.81
254.96	123.81
255.193	134.81
255.426	132.81
255.659	124.81
255.892	127.81
256.124	135.81
256.357	133.81
256.59	144.81
256.823	133.81
257.056	121.81
257.289	116.81
257.521	144.81
257.754	136.81
257.987	147.81
258.22	146.81
258.452	147.81
258.685	152.81
258.918	137.81
259.151	148.81
259.383	138.81
259.616	147.81
259.849	141.81
260.081	134.81
260.314	141.81
260.547	154.81
260.779	133.81
261.012	154.81
261.244	135.81
261.477	140.81
261.71	154.81
261.942	134.81
262.175	144.81
262.407	148.81
262.64	144.81
262.872	144.81
263.105	146.81
263.337	141.81
263.57	148.81
263.802	148.81
264.035	138.81
264.267	138.81
264.499	139.81
264.732	147.81
264.964	154.81
265.197	156.81
265.429	139.81
265.661	168.81
265.894	155.81
266.126	141.81
266.358	158.81
266.591	166.81
266.823	155.81
267.055	152.81
267.287	168.81
267.52	153.81
267.752	150.81
267.984	172.81
268.216	153.81
268.448	136.81
268.681	151.81
268.913	156.81
269.145	163.81
269.377	155.81
269.609	155.81
269.841	161.81
270.073	154.81
270.306	177.81
270.538	156.81
270.77	163.81
271.002	158.81
271.234	156.81
271.466	162.81
271.698	159.81
271.93	176.81
272.162	179.81
272.394	158.81
272.626	158.81
272.858	153.81
273.09	160.81
273.322	180.81
273.553	174.81
273.785	151.81
274.017	188.81
274.249	166.81
274.481	167.81
274.713	159.81
274.945	171.81
275.176	177.81
275.408	165.81
275.64	184.81
275.872	167.81
276.104	174.81
276.335	176.81
276.567	185.81
276.799	165.81
277.031	163.81
277.262	167.81
277.494	174.81
277.726	165.81
277.957	184.81
278.189	163.81
278.421	169.81
278.652	171.81
278.884	185.81
279.115	197.81
279.347	183.81
279.579	180.81
279.81	190.81
280.042	179.81
280.273	167.81
280.505	199.81
280.736	177.81
280.968	185.81
281.199	179.81
281.431	166.81
281.662	170.81
281.894	196.81
282.125	194.81
282.356	186.81
282.588	189.81
282.819	187.81
283.051	190.81
283.282	201.81
283.513	193.81
283.745	181.81
283.976	192.81
284.207	186.81
284.439	202.81
284.67	192.81
284.901	207.81
285.132	189.81
285.364	194.81
285.595	197.81
285.826	203.81
286.057	195.81
286.288	211.81
286.52	197.81
286.751	179.81
286.982	187.81
287.213	208.81
287.444	192.81
287.675	184.81
287.906	201.81
288.138	211.81
288.369	190.81
288.6	194.81
288.831	200.81
289.062	194.81
289.293	217.81
289.524	205.81
289.755	200.81
289.986	203.81
290.217	198.81
290.448	198.81
290.679	205.81
290.91	208.81
291.141	197.81
291.371	200.81
291.602	195.81
291.833	205.81
292.064	208.81
292.295	208.81
292.526	218.81
292.757	193.81
292.987	195.81
293.218	208.81
293.449	183.81
293.68	217.81
293.91	195.81
294.141	187.81
294.372	211.81
294.603	203.81
294.833	203.81
295.064	207.81
295.295	208.81
295.525	203.81
295.756	210.81
295.987	200.81
296.217	230.81
296.448	206.81
296.679	197.81
296.909	227.81
297.14	206.81
297.37	221.81
297.601	210.81
297.831	215.81
298.062	217.81
298.292	219.81
298.523	233.81
298.753	208.81
298.984	223.81
299.214	228.81
299.445	217.81
299.675	221.81
299.905	219.81
300.136	207.81
300.366	231.81
300.597	223.81
300.827	232.81
301.057	243.81
301.288	222.81
301.518	232.81
301.748	224.81
301.979	225.81
302.209	227.81
302.439	233.81
302.669	235.81
302.9	247.81
303.13	209.81
303.36	231.81
303.59	214.81
303.82	228.81
304.051	242.81
304.281	227.81
304.511	216.81
304.741	234.81
304.971	239.81
305.201	216.81
305.431	226.81
305.661	224.81
305.891	226.81
306.121	234.81
306.352	220.81
306.582	230.81
306.812	219.81
307.042	222.81
307.272	220.81
307.502	227.81
307.731	224.81
307.961	227.81
308.191	225.81
308.421	216.81
308.651	222.81
308.881	214.81
309.111	216.81
309.341	233.81
309.571	230.81
309.8	226.81
310.03	226.81
310.26	228.81
310.49	234.81
310.72	245.81
310.949	244.81
311.179	254.81
311.409	240.81
311.639	213.81
311.868	218.81
312.098	228.81
312.328	226.81
312.557	224.81
312.787	223.81
313.017	244.81
313.246	234.81
313.476	230.81
313.706	251.81
313.935	255.81
314.165	266.81
314.394	244.81
314.624	252.81
314.853	229.81
315.083	258.81
315.312	261.81
315.542	258.81
315.771	229.81
316.001	248.81
316.23	236.81
316.46	232.81
316.689	262.81
316.919	239.81
317.148	238.81
317.377	233.81
317.607	231.81
317.836	224.81
318.065	233.81
318.295	236.81
318.524	244.81
318.753	242.81
318.983	236.81
319.212	246.81
319.441	240.81
319.67	259.81
319.9	239.81
320.129	227.81
320.358	244.81
320.587	240.81
320.816	229.81
321.046	251.81
321.275	231.81
321.504	252.81
321.733	246.81
321.962	241.81
322.191	238.81
322.42	246.81
322.649	247.81
322.878	234.81
323.108	246.81
323.337	238.81
323.566	251.81
323.795	254.81
324.024	226.81
324.253	246.81
324.482	242.81
324.71	243.81
324.939	250.81
325.168	251.81
325.397	240.81
325.626	254.81
325.855	269.81
326.084	250.81
326.313	279.81
326.542	258.81
326.77	276.81
326.999	263.81
327.228	257.81
327.457	256.81
327.686	266.81
327.914	264.81
328.143	266.81
328.372	272.81
328.6	245.81
328.829	264.81
329.058	259.81
329.287	266.81
329.515	260.81
329.744	265.81
329.972	254.81
330.201	257.81
330.43	240.81
330.658	266.81
330.887	278.81
331.115	266.81
331.344	263.81
331.572	272.81
331.801	263.81
332.03	277.81
332.258	287.81
332.486	296.81
332.715	281.81
332.943	308.81
333.172	304.81
333.4	311.81
333.629	322.81
333.857	313.81
334.085	318.81
334.314	320.81
334.542	314.81
334.771	322.81
334.999	318.81
335.227	316.81
335.455	309.81
335.684	309.81
335.912	298.81
336.14	318.81
336.369	311.81
336.597	290.81
336.825	315.81
337.053	315.81
337.281	302.81
337.51	305.81
337.738	278.81
337.966	284.81
338.194	300.81
338.422	273.81
338.65	289.81
338.878	274.81
339.106	279.81
339.334	275.81
339.562	266.81
339.79	276.81
340.018	265.81
340.246	273.81
340.474	276.81
340.702	273.81
340.93	283.81
341.158	290.81
341.386	269.81
341.614	267.81
341.842	280.81
342.07	263.81
342.298	256.81
342.526	270.81
342.754	273.81
342.981	275.81
343.209	275.81
343.437	292.81
343.665	308.81
343.893	316.81
344.12	326.81
344.348	308.81
344.576	300.81
344.804	306.81
345.031	268.81
345.259	287.81
345.487	288.81
345.714	268.81
345.942	274.81
346.17	264.81
346.397	280.81
346.625	265.81
346.853	264.81
347.08	252.81
347.308	273.81
347.535	248.81
347.763	264.81
347.99	262.81
348.218	270.81
348.445	266.81
348.673	266.81
348.9	282.81
349.128	284.81
349.355	263.81
349.583	263.81
349.81	260.81
350.037	251.81
350.265	265.81
350.492	255.81
350.72	247.81
350.947	265.81
351.174	261.81
351.402	261.81
351.629	252.81
351.856	256.81
352.083	261.81
352.311	264.81
352.538	262.81
352.765	262.81
352.992	258.81
353.22	244.81
353.447	252.81
353.674	258.81
353.901	268.81
354.128	264.81
354.355	273.81
354.583	254.81
354.81	268.81
355.037	259.81
355.264	256.81
355.491	245.81
355.718	274.81
355.945	276.81
356.172	257.81
356.399	281.81
356.626	267.81
356.853	252.81
357.08	268.81
357.307	272.81
357.534	264.81
357.761	262.81
357.988	265.81
358.215	262.81
358.441	262.81
358.668	258.81
358.895	266.81
359.122	256.81
359.349	269.81
359.576	262.81
359.802	254.81
360.029	238.81
360.256	272.81
360.483	266.81
360.709	254.81
360.936	259.81
361.163	270.81
361.39	259.81
361.616	254.81
361.843	261.81
362.07	261.81
362.296	242.81
362.523	263.81
362.749	267.81
362.976	252.81
363.203	240.81
363.429	269.81
363.656	272.81
363.882	247.81
364.109	278.81
364.335	250.81
364.562	262.81
364.788	268.81
365.015	267.81
365.241	256.81
365.468	257.81
365.694	263.81
365.92	269.81
366.147	250.81
366.373	267.81
366.599	274.81
366.826	246.81
367.052	264.81
367.278	269.81
367.505	254.81
367.731	264.81
367.957	267.81
368.184	264.81
368.41	257.81
368.636	262.81
368.862	272.81
369.089	270.81
369.315	262.81
369.541	258.81
369.767	276.81
369.993	279.81
370.219	264.81
370.445	288.81
370.672	282.81
370.898	283.81
371.124	276.81
371.35	276.81
371.576	272.81
371.802	286.81
372.028	299.81
372.254	284.81
372.48	275.81
372.706	282.81
372.932	290.81
373.158	283.81
373.384	283.81
373.61	277.81
373.835	286.81
374.061	292.81
374.287	282.81
374.513	279.81
374.739	313.81
374.965	314.81
375.191	315.81
375.416	294.81
375.642	314.81
375.868	289.81
376.094	301.81
376.319	271.81
376.545	290.81
376.771	297.81
376.997	281.81
377.222	283.81
377.448	297.81
377.674	302.81
377.899	275.81
378.125	280.81
378.35	283.81
378.576	271.81
378.802	271.81
379.027	283.81
379.253	266.81
379.478	283.81
379.704	283.81
379.929	277.81
380.155	288.81
380.38	281.81
380.606	288.81
380.831	289.81
381.057	287.81
381.282	290.81
381.507	304.81
381.733	291.81
381.958	274.81
382.184	306.81
382.409	305.81
382.634	295.81
382.86	286.81
383.085	310.81
383.31	309.81
383.535	304.81
383.761	285.81
383.986	302.81
384.211	319.81
384.436	305.81
384.662	321.81
384.887	333.81
385.112	323.81
385.337	340.81
385.562	334.81
385.787	342.81
386.013	328.81
386.238	327.81
386.463	306.81
386.688	322.81
386.913	361.81
387.138	338.81
387.363	315.81
387.588	327.81
387.813	331.81
388.038	332.81
388.263	329.81
388.488	336.81
388.713	318.81
388.938	333.81
389.163	308.81
389.387	322.81
389.612	313.81
389.837	322.81
390.062	320.81
390.287	336.81
390.512	330.81
390.736	328.81
390.961	334.81
391.186	339.81
391.411	358.81
391.636	360.81
391.86	374.81
392.085	379.81
392.31	364.81
392.534	376.81
392.759	374.81
392.984	351.81
393.208	365.81
393.433	366.81
393.658	362.81
393.882	344.81
394.107	337.81
394.331	361.81
394.556	352.81
394.78	342.81
395.005	361.81
395.229	370.81
395.454	370.81
395.678	388.81
395.903	377.81
396.127	358.81
396.352	374.81
396.576	371.81
396.801	358.81
397.025	361.81
397.249	373.81
397.474	366.81
397.698	382.81
397.922	363.81
398.147	358.81
398.371	367.81
398.595	396.81
398.82	395.81
399.044	442.81
399.268	473.81
399.492	539.81
399.717	551.81
399.941	563.81
400.165	498.81
400.389	463.81
400.613	424.81
400.837	434.81
401.062	415.81
401.286	426.81
401.51	409.81
401.734	415.81
401.958	406.81
402.182	404.81
402.406	398.81
402.63	402.81
402.854	416.81
403.078	436.81
403.302	424.81
403.526	459.81
403.75	436.81
403.974	444.81
404.198	438.81
404.422	445.81
404.645	460.81
404.869	443.81
405.093	436.81
405.317	450.81
405.541	435.81
405.765	450.81
405.988	453.81
406.212	427.81
406.436	456.81
406.66	464.81
406.883	458.81
407.107	449.81
407.331	484.81
407.555	511.81
407.778	518.81
408.002	497.81
408.226	487.81
408.449	480.81
408.673	465.81
408.896	470.81
409.12	474.81
409.344	448.81
409.567	450.81
409.791	463.81
410.014	455.81
410.238	455.81
410.461	463.81
410.685	453.81
410.908	449.81
411.132	447.81
411.355	399.81
411.578	436.81
411.802	428.81
412.025	432.81
412.249	436.81
412.472	401.81
412.695	421.81
412.919	411.81
413.142	421.81
413.365	419.81
413.589	437.81
413.812	413.81
414.035	396.81
414.258	384.81
414.482	410.81
414.705	418.81
414.928	414.81
415.151	414.81
415.374	422.81
415.597	425.81
415.821	400.81
416.044	412.81
416.267	418.81
416.49	406.81
416.713	412.81
416.936	427.81
417.159	423.81
417.382	425.81
417.605	422.81
417.828	402.81
418.051	397.81
418.274	420.81
418.497	430.81
418.72	426.81
418.943	438.81
419.166	439.81
419.389	480.81
419.611	461.81
419.834	430.81
420.057	408.81
420.28	438.81
420.503	409.81
420.726	400.81
420.948	401.81
421.171	407.81
421.394	429.81
421.617	397.81
421.839	409.81
422.062	411.81
422.285	409.81
422.507	418.81
422.73	421.81
422.953	414.81
423.175	409.81
423.398	437.81
423.621	408.81
423.843	439.81
424.066	428.81
424.288	418.81
424.511	432.81
424.733	427.81
424.956	419.81
425.178	385.81
425.401	419.81
425.623	423.81
425.846	377.81
426.068	394.81
426.291	405.81
426.513	404.81
426.735	397.81
426.958	387.81
427.18	388.81
427.402	399.81
427.625	390.81
427.847	397.81
428.069	401.81
428.292	406.81
428.514	374.81
428.736	398.81
428.958	378.81
429.181	376.81
429.403	376.81
429.625	360.81
429.847	381.81
430.069	373.81
430.292	370.81
430.514	361.81
430.736	378.81
430.958	364.81
431.18	380.81
431.402	366.81
431.624	369.81
431.846	382.81
432.068	380.81
432.29	385.81
432.512	378.81
432.734	375.81
432.956	396.81
433.178	372.81
433.4	383.81
433.622	401.81
433.844	389.81
434.066	389.81
434.287	391.81
434.509	373.81
434.731	396.81
434.953	405.81
435.175	404.81
435.397	390.81
435.618	384.81
435.84	370.81
436.062	397.81
436.284	392.81
436.505	394.81
436.727	396.81
436.949	390.81
437.17	411.81
437.392	350.81
437.614	372.81
437.835	366.81
438.057	374.81
438.278	378.81
438.5	375.81
438.721	371.81
438.943	359.81
439.165	375.81
439.386	375.81
439.608	385.81
439.829	402.81
440.05	406.81
440.272	395.81
440.493	387.81
440.715	372.81
440.936	396.81
441.158	411.81
441.379	399.81
441.6	411.81
441.822	441.81
442.043	420.81
442.264	427.81
442.486	419.81
442.707	431.81
442.928	428.81
443.149	434.81
443.371	435.81
443.592	434.81
443.813	428.81
444.034	434.81
444.255	411.81
444.476	461.81
444.698	471.81
444.919	494.81
445.14	566.81
445.361	481.81
445.582	435.81
445.803	409.81
446.024	394.81
446.245	410.81
446.466	396.81
446.687	396.81
446.908	408.81
447.129	388.81
447.35	372.81
447.571	395.81
447.792	387.81
448.013	372.81
448.234	382.81
448.455	361.81
448.675	386.81
448.896	386.81
449.117	373.81
449.338	371.81
449.559	375.81
449.779	349.81
450	357.81
450.221	375.81
450.442	376.81
450.662	344.81
450.883	362.81
451.104	374.81
451.324	372.81
451.545	371.81
451.766	377.81
451.986	331.81
452.207	373.81
452.428	364.81
452.648	354.81
452.869	368.81
453.089	354.81
453.31	352.81
453.53	348.81
453.751	342.81
453.971	342.81
454.192	367.81
454.412	339.81
454.633	345.81
454.853	329.81
455.073	335.81
455.294	323.81
455.514	370.81
455.734	344.81
455.955	360.81
456.175	347.81
456.395	329.81
456.616	330.81
456.836	331.81
457.056	329.81
457.276	316.81
457.497	343.81
457.717	320.81
457.937	340.81
458.157	344.81
458.377	341.81
458.598	357.81
458.818	361.81
459.038	369.81
459.258	366.81
459.478	377.81
459.698	385.81
459.918	408.81
460.138	398.81
460.358	421.81
460.578	446.81
460.798	460.81
461.018	442.81
461.238	434.81
461.458	431.81
461.678	449.81
461.898	446.81
462.118	461.81
462.338	467.81
462.558	475.81
462.777	497.81
462.997	528.81
463.217	548.81
463.437	560.81
463.657	501.81
463.876	480.81
464.096	506.81
464.316	481.81
464.536	467.81
464.755	464.81
464.975	467.81
465.195	451.81
465.414	410.81
465.634	402.81
465.854	396.81
466.073	386.81
466.293	391.81
466.512	374.81
466.732	374.81
466.951	368.81
467.171	388.81
467.391	391.81
467.61	371.81
467.829	373.81
468.049	355.81
468.268	366.81
468.488	376.81
468.707	377.81
468.927	386.81
469.146	377.81
469.365	386.81
469.585	378.81
469.804	362.81
470.023	376.81
470.243	373.81
470.462	404.81
470.681	384.81
470.901	386.81
471.12	378.81
471.339	375.81
471.558	378.81
471.777	370.81
471.997	354.81
472.216	340.81
472.435	343.81
472.654	337.81
472.873	360.81
473.092	359.81
473.311	335.81
473.53	352.81
473.749	354.81
473.968	370.81
474.187	326.81
474.406	338.81
474.625	362.81
474.844	349.81
475.063	348.81
475.282	351.81
475.501	371.81
475.72	374.81
475.939	354.81
476.158	345.81
476.377	347.81
476.596	387.81
476.814	361.81
477.033	372.81
477.252	368.81
477.471	362.81
477.69	388.81
477.908	389.81
478.127	406.81
478.346	392.81
478.564	410.81
478.783	410.81
479.002	404.81
479.22	387.81
479.439	414.81
479.658	393.81
479.876	402.81
480.095	407.81
480.313	430.81
480.532	443.81
480.751	447.81
480.969	407.81
481.188	401.81
481.406	392.81
481.624	386.81
481.843	376.81
482.061	379.81
482.28	379.81
482.498	385.81
482.717	384.81
482.935	384.81
483.153	380.81
483.372	391.81
483.59	386.81
483.808	391.81
484.027	383.81
484.245	384.81
484.463	389.81
484.681	387.81
484.9	405.81
485.118	405.81
485.336	406.81
485.554	423.81
485.772	410.81
485.99	408.81
486.209	388.81
486.427	408.81
486.645	409.81
486.863	400.81
487.081	391.81
487.299	398.81
487.517	397.81
487.735	395.81
487.953	414.81
488.171	401.81
488.389	379.81
488.607	412.81
488.825	390.81
489.043	390.81
489.261	400.81
489.479	418.81
489.696	400.81
489.914	384.81
490.132	402.81
490.35	406.81
490.568	409.81
490.786	408.81
491.003	408.81
491.221	414.81
491.439	410.81
491.657	418.81
491.874	420.81
492.092	426.81
492.31	443.81
492.527	440.81
492.745	422.81
492.963	412.81
493.18	411.81
493.398	418.81
493.615	412.81
493.833	422.81
494.05	422.81
494.268	417.81
494.485	425.81
494.703	414.81
494.92	423.81
495.138	405.81
495.355	421.81
495.573	431.81
495.79	438.81
496.008	427.81
496.225	449.81
496.442	456.81
496.66	453.81
496.877	449.81
497.094	435.81
497.312	453.81
497.529	473.81
497.746	481.81
497.963	496.81
498.181	471.81
498.398	521.81
498.615	562.81
498.832	564.81
499.049	613.81
499.267	645.81
499.484	691.81
499.701	770.81
499.918	846.81
500.135	937.81
500.352	1046.81
500.569	1050.81
500.786	1025.81
501.003	972.81
501.22	929.81
501.437	800.81
501.654	712.81
501.871	673.81
