Data from Fe(NO3)3@0.05M.TitratingCurve.Agarose3%dH2O.NegLispCup.LampEnergy10.LIBS07252019_HRD10591_16-47-47-334.txt Node
Date: Thu Jul 25 16:47:47 EDT 2019
User: cochatt
Spectrometer: HR+D1059
Trigger mode: 1
Integration Time (sec): 1.000000E-1
Scans to average: 1
Electric dark correction enabled: true
Nonlinearity correction enabled: false
Boxcar width: 0
XAxis mode: Wavelengths
Number of Pixels in Spectrum: 2048
>>>>>Begin Spectral Data<<<<<
223.165	-17.62
223.4	-17.62
223.635	-17.62
223.869	-8.62
224.104	-21.62
224.338	-8.62
224.573	-14.62
224.808	-14.62
225.042	-21.62
225.277	-14.62
225.511	-0.62
225.746	18.38
225.98	3.38
226.215	11.38
226.449	11.38
226.683	23.38
226.918	26.38
227.152	28.38
227.387	33.38
227.621	34.38
227.856	33.38
228.09	38.38
228.324	43.38
228.559	77.38
228.793	65.38
229.027	69.38
229.262	71.38
229.496	75.38
229.73	72.38
229.964	76.38
230.199	86.38
230.433	90.38
230.667	93.38
230.901	67.38
231.136	98.38
231.37	95.38
231.604	94.38
231.838	90.38
232.072	81.38
232.306	92.38
232.541	95.38
232.775	101.38
233.009	106.38
233.243	109.38
233.477	109.38
233.711	95.38
233.945	100.38
234.179	90.38
234.413	100.38
234.647	103.38
234.881	102.38
235.115	83.38
235.349	101.38
235.583	101.38
235.817	93.38
236.051	97.38
236.285	91.38
236.519	99.38
236.753	100.38
236.987	104.38
237.221	95.38
237.455	96.38
237.689	94.38
237.922	103.38
238.156	90.38
238.39	92.38
238.624	90.38
238.858	98.38
239.091	99.38
239.325	104.38
239.559	103.38
239.793	104.38
240.027	113.38
240.26	101.38
240.494	101.38
240.728	106.38
240.961	122.38
241.195	90.38
241.429	98.38
241.662	98.38
241.896	106.38
242.13	115.38
242.363	98.38
242.597	117.38
242.83	104.38
243.064	112.38
243.298	101.38
243.531	90.38
243.765	104.38
243.998	105.38
244.232	105.38
244.465	108.38
244.699	104.38
244.932	115.38
245.166	115.38
245.399	114.38
245.633	117.38
245.866	105.38
246.099	122.38
246.333	108.38
246.566	116.38
246.8	92.38
247.033	103.38
247.266	101.38
247.5	107.38
247.733	103.38
247.966	124.38
248.2	112.38
248.433	116.38
248.666	104.38
248.899	104.38
249.133	119.38
249.366	109.38
249.599	120.38
249.832	106.38
250.066	114.38
250.299	115.38
250.532	114.38
250.765	109.38
250.998	119.38
251.231	91.38
251.465	111.38
251.698	106.38
251.931	116.38
252.164	119.38
252.397	110.38
252.63	125.38
252.863	114.38
253.096	127.38
253.329	121.38
253.562	113.38
253.795	108.38
254.028	123.38
254.261	129.38
254.494	121.38
254.727	123.38
254.96	111.38
255.193	120.38
255.426	133.38
255.659	113.38
255.892	115.38
256.124	141.38
256.357	138.38
256.59	128.38
256.823	117.38
257.056	127.38
257.289	134.38
257.521	118.38
257.754	122.38
257.987	128.38
258.22	120.38
258.452	120.38
258.685	124.38
258.918	123.38
259.151	121.38
259.383	122.38
259.616	122.38
259.849	119.38
260.081	136.38
260.314	174.38
260.547	135.38
260.779	121.38
261.012	133.38
261.244	129.38
261.477	135.38
261.71	115.38
261.942	131.38
262.175	128.38
262.407	139.38
262.64	163.38
262.872	141.38
263.105	137.38
263.337	147.38
263.57	154.38
263.802	141.38
264.035	127.38
264.267	133.38
264.499	125.38
264.732	128.38
264.964	138.38
265.197	139.38
265.429	144.38
265.661	124.38
265.894	145.38
266.126	152.38
266.358	150.38
266.591	144.38
266.823	136.38
267.055	121.38
267.287	138.38
267.52	144.38
267.752	159.38
267.984	135.38
268.216	146.38
268.448	135.38
268.681	143.38
268.913	137.38
269.145	142.38
269.377	138.38
269.609	149.38
269.841	141.38
270.073	149.38
270.306	145.38
270.538	144.38
270.77	136.38
271.002	135.38
271.234	151.38
271.466	144.38
271.698	144.38
271.93	135.38
272.162	140.38
272.394	161.38
272.626	141.38
272.858	146.38
273.09	158.38
273.322	142.38
273.553	161.38
273.785	161.38
274.017	166.38
274.249	186.38
274.481	162.38
274.713	183.38
274.945	167.38
275.176	173.38
275.408	164.38
275.64	146.38
275.872	170.38
276.104	147.38
276.335	157.38
276.567	151.38
276.799	145.38
277.031	134.38
277.262	151.38
277.494	144.38
277.726	156.38
277.957	155.38
278.189	141.38
278.421	159.38
278.652	171.38
278.884	157.38
279.115	157.38
279.347	155.38
279.579	149.38
279.81	173.38
280.042	160.38
280.273	157.38
280.505	168.38
280.736	172.38
280.968	157.38
281.199	163.38
281.431	157.38
281.662	164.38
281.894	155.38
282.125	169.38
282.356	156.38
282.588	159.38
282.819	177.38
283.051	152.38
283.282	164.38
283.513	168.38
283.745	164.38
283.976	160.38
284.207	173.38
284.439	150.38
284.67	152.38
284.901	170.38
285.132	164.38
285.364	159.38
285.595	163.38
285.826	160.38
286.057	180.38
286.288	168.38
286.52	165.38
286.751	172.38
286.982	176.38
287.213	170.38
287.444	165.38
287.675	183.38
287.906	177.38
288.138	179.38
288.369	175.38
288.6	176.38
288.831	184.38
289.062	172.38
289.293	177.38
289.524	164.38
289.755	187.38
289.986	169.38
290.217	161.38
290.448	183.38
290.679	162.38
290.91	185.38
291.141	183.38
291.371	163.38
291.602	167.38
291.833	172.38
292.064	176.38
292.295	187.38
292.526	197.38
292.757	171.38
292.987	176.38
293.218	183.38
293.449	178.38
293.68	179.38
293.91	190.38
294.141	169.38
294.372	184.38
294.603	176.38
294.833	202.38
295.064	193.38
295.295	185.38
295.525	176.38
295.756	191.38
295.987	178.38
296.217	184.38
296.448	178.38
296.679	170.38
296.909	165.38
297.14	190.38
297.37	196.38
297.601	180.38
297.831	177.38
298.062	170.38
298.292	203.38
298.523	185.38
298.753	181.38
298.984	190.38
299.214	192.38
299.445	191.38
299.675	178.38
299.905	205.38
300.136	193.38
300.366	193.38
300.597	191.38
300.827	192.38
301.057	202.38
301.288	187.38
301.518	194.38
301.748	197.38
301.979	199.38
302.209	203.38
302.439	191.38
302.669	192.38
302.9	199.38
303.13	183.38
303.36	202.38
303.59	176.38
303.82	183.38
304.051	195.38
304.281	199.38
304.511	193.38
304.741	188.38
304.971	179.38
305.201	201.38
305.431	192.38
305.661	198.38
305.891	189.38
306.121	200.38
306.352	198.38
306.582	166.38
306.812	186.38
307.042	195.38
307.272	193.38
307.502	185.38
307.731	190.38
307.961	184.38
308.191	180.38
308.421	184.38
308.651	189.38
308.881	198.38
309.111	197.38
309.341	187.38
309.571	205.38
309.8	195.38
310.03	195.38
310.26	194.38
310.49	193.38
310.72	194.38
310.949	188.38
311.179	194.38
311.409	202.38
311.639	187.38
311.868	194.38
312.098	195.38
312.328	207.38
312.557	185.38
312.787	197.38
313.017	199.38
313.246	196.38
313.476	193.38
313.706	212.38
313.935	188.38
314.165	202.38
314.394	224.38
314.624	193.38
314.853	205.38
315.083	218.38
315.312	210.38
315.542	210.38
315.771	217.38
316.001	205.38
316.23	193.38
316.46	197.38
316.689	197.38
316.919	196.38
317.148	210.38
317.377	226.38
317.607	211.38
317.836	200.38
318.065	205.38
318.295	220.38
318.524	182.38
318.753	193.38
318.983	204.38
319.212	200.38
319.441	192.38
319.67	205.38
319.9	220.38
320.129	201.38
320.358	211.38
320.587	212.38
320.816	195.38
321.046	212.38
321.275	204.38
321.504	197.38
321.733	195.38
321.962	201.38
322.191	198.38
322.42	203.38
322.649	196.38
322.878	204.38
323.108	226.38
323.337	207.38
323.566	211.38
323.795	211.38
324.024	202.38
324.253	218.38
324.482	211.38
324.71	221.38
324.939	215.38
325.168	210.38
325.397	205.38
325.626	216.38
325.855	215.38
326.084	217.38
326.313	215.38
326.542	221.38
326.77	199.38
326.999	224.38
327.228	229.38
327.457	220.38
327.686	224.38
327.914	208.38
328.143	232.38
328.372	214.38
328.6	209.38
328.829	206.38
329.058	227.38
329.287	229.38
329.515	216.38
329.744	218.38
329.972	216.38
330.201	214.38
330.43	225.38
330.658	212.38
330.887	231.38
331.115	195.38
331.344	214.38
331.572	247.38
331.801	240.38
332.03	242.38
332.258	243.38
332.486	241.38
332.715	251.38
332.943	240.38
333.172	261.38
333.4	268.38
333.629	258.38
333.857	277.38
334.085	270.38
334.314	267.38
334.542	257.38
334.771	266.38
334.999	266.38
335.227	240.38
335.455	273.38
335.684	247.38
335.912	258.38
336.14	241.38
336.369	275.38
336.597	245.38
336.825	241.38
337.053	243.38
337.281	241.38
337.51	265.38
337.738	238.38
337.966	215.38
338.194	239.38
338.422	224.38
338.65	224.38
338.878	233.38
339.106	234.38
339.334	216.38
339.562	214.38
339.79	231.38
340.018	235.38
340.246	233.38
340.474	241.38
340.702	236.38
340.93	234.38
341.158	219.38
341.386	218.38
341.614	235.38
341.842	232.38
342.07	228.38
342.298	227.38
342.526	224.38
342.754	236.38
342.981	235.38
343.209	246.38
343.437	240.38
343.665	240.38
343.893	246.38
344.12	249.38
344.348	266.38
344.576	247.38
344.804	249.38
345.031	246.38
345.259	236.38
345.487	242.38
345.714	250.38
345.942	223.38
346.17	229.38
346.397	217.38
346.625	230.38
346.853	237.38
347.08	228.38
347.308	227.38
347.535	231.38
347.763	220.38
347.99	239.38
348.218	233.38
348.445	227.38
348.673	231.38
348.9	211.38
349.128	210.38
349.355	220.38
349.583	217.38
349.81	222.38
350.037	240.38
350.265	221.38
350.492	217.38
350.72	254.38
350.947	216.38
351.174	226.38
351.402	236.38
351.629	222.38
351.856	220.38
352.083	215.38
352.311	202.38
352.538	221.38
352.765	217.38
352.992	217.38
353.22	213.38
353.447	226.38
353.674	217.38
353.901	222.38
354.128	233.38
354.355	221.38
354.583	220.38
354.81	240.38
355.037	220.38
355.264	223.38
355.491	216.38
355.718	219.38
355.945	233.38
356.172	236.38
356.399	231.38
356.626	232.38
356.853	234.38
357.08	219.38
357.307	229.38
357.534	223.38
357.761	231.38
357.988	229.38
358.215	234.38
358.441	227.38
358.668	222.38
358.895	227.38
359.122	229.38
359.349	217.38
359.576	247.38
359.802	217.38
360.029	229.38
360.256	224.38
360.483	231.38
360.709	228.38
360.936	248.38
361.163	240.38
361.39	241.38
361.616	235.38
361.843	230.38
362.07	230.38
362.296	241.38
362.523	203.38
362.749	244.38
362.976	225.38
363.203	239.38
363.429	222.38
363.656	243.38
363.882	227.38
364.109	245.38
364.335	240.38
364.562	230.38
364.788	232.38
365.015	240.38
365.241	227.38
365.468	239.38
365.694	227.38
365.92	227.38
366.147	224.38
366.373	230.38
366.599	241.38
366.826	237.38
367.052	235.38
367.278	226.38
367.505	224.38
367.731	233.38
367.957	230.38
368.184	233.38
368.41	230.38
368.636	239.38
368.862	246.38
369.089	253.38
369.315	248.38
369.541	236.38
369.767	251.38
369.993	244.38
370.219	240.38
370.445	251.38
370.672	253.38
370.898	241.38
371.124	260.38
371.35	245.38
371.576	242.38
371.802	241.38
372.028	243.38
372.254	269.38
372.48	273.38
372.706	265.38
372.932	268.38
373.158	269.38
373.384	269.38
373.61	258.38
373.835	272.38
374.061	275.38
374.287	256.38
374.513	278.38
374.739	276.38
374.965	275.38
375.191	275.38
375.416	268.38
375.642	272.38
375.868	264.38
376.094	262.38
376.319	269.38
376.545	267.38
376.771	263.38
376.997	275.38
377.222	253.38
377.448	261.38
377.674	243.38
377.899	241.38
378.125	257.38
378.35	256.38
378.576	264.38
378.802	256.38
379.027	259.38
379.253	257.38
379.478	254.38
379.704	265.38
379.929	260.38
380.155	249.38
380.38	263.38
380.606	272.38
380.831	260.38
381.057	262.38
381.282	286.38
381.507	260.38
381.733	261.38
381.958	275.38
382.184	280.38
382.409	273.38
382.634	266.38
382.86	279.38
383.085	292.38
383.31	284.38
383.535	287.38
383.761	280.38
383.986	303.38
384.211	303.38
384.436	304.38
384.662	305.38
384.887	298.38
385.112	279.38
385.337	306.38
385.562	295.38
385.787	299.38
386.013	305.38
386.238	311.38
386.463	313.38
386.688	321.38
386.913	321.38
387.138	304.38
387.363	314.38
387.588	311.38
387.813	305.38
388.038	294.38
388.263	310.38
388.488	323.38
388.713	307.38
388.938	323.38
389.163	313.38
389.387	316.38
389.612	307.38
389.837	290.38
390.062	297.38
390.287	301.38
390.512	320.38
390.736	321.38
390.961	304.38
391.186	310.38
391.411	309.38
391.636	331.38
391.86	332.38
392.085	342.38
392.31	345.38
392.534	334.38
392.759	331.38
392.984	313.38
393.208	315.38
393.433	331.38
393.658	324.38
393.882	330.38
394.107	350.38
394.331	336.38
394.556	314.38
394.78	315.38
395.005	334.38
395.229	330.38
395.454	338.38
395.678	350.38
395.903	331.38
396.127	344.38
396.352	332.38
396.576	337.38
396.801	330.38
397.025	336.38
397.249	337.38
397.474	348.38
397.698	338.38
397.922	342.38
398.147	350.38
398.371	347.38
398.595	357.38
398.82	371.38
399.044	379.38
399.268	412.38
399.492	446.38
399.717	482.38
399.941	480.38
400.165	462.38
400.389	413.38
400.613	408.38
400.837	390.38
401.062	377.38
401.286	370.38
401.51	383.38
401.734	374.38
401.958	401.38
402.182	377.38
402.406	379.38
402.63	382.38
402.854	403.38
403.078	388.38
403.302	384.38
403.526	400.38
403.75	385.38
403.974	403.38
404.198	392.38
404.422	423.38
404.645	400.38
404.869	426.38
405.093	394.38
405.317	404.38
405.541	401.38
405.765	409.38
405.988	400.38
406.212	391.38
406.436	403.38
406.66	414.38
406.883	419.38
407.107	415.38
407.331	463.38
407.555	435.38
407.778	443.38
408.002	451.38
408.226	435.38
408.449	413.38
408.673	420.38
408.896	407.38
409.12	436.38
409.344	436.38
409.567	392.38
409.791	414.38
410.014	413.38
410.238	390.38
410.461	403.38
410.685	399.38
410.908	408.38
411.132	396.38
411.355	405.38
411.578	396.38
411.802	401.38
412.025	405.38
412.249	402.38
412.472	405.38
412.695	403.38
412.919	374.38
413.142	399.38
413.365	402.38
413.589	390.38
413.812	400.38
414.035	372.38
414.258	393.38
414.482	396.38
414.705	392.38
414.928	393.38
415.151	391.38
415.374	384.38
415.597	396.38
415.821	359.38
416.044	358.38
416.267	383.38
416.49	413.38
416.713	374.38
416.936	377.38
417.159	385.38
417.382	400.38
417.605	397.38
417.828	380.38
418.051	363.38
418.274	381.38
418.497	354.38
418.72	396.38
418.943	407.38
419.166	418.38
419.389	421.38
419.611	432.38
419.834	403.38
420.057	391.38
420.28	390.38
420.503	385.38
420.726	394.38
420.948	383.38
421.171	389.38
421.394	415.38
421.617	373.38
421.839	401.38
422.062	391.38
422.285	377.38
422.507	387.38
422.73	390.38
422.953	396.38
423.175	393.38
423.398	414.38
423.621	404.38
423.843	403.38
424.066	407.38
424.288	413.38
424.511	396.38
424.733	401.38
424.956	383.38
425.178	397.38
425.401	384.38
425.623	401.38
425.846	391.38
426.068	377.38
426.291	378.38
426.513	374.38
426.735	388.38
426.958	371.38
427.18	363.38
427.402	385.38
427.625	379.38
427.847	367.38
428.069	356.38
428.292	375.38
428.514	377.38
428.736	368.38
428.958	376.38
429.181	350.38
429.403	347.38
429.625	357.38
429.847	354.38
430.069	352.38
430.292	358.38
430.514	342.38
430.736	366.38
430.958	360.38
431.18	343.38
431.402	368.38
431.624	351.38
431.846	361.38
432.068	380.38
432.29	364.38
432.512	385.38
432.734	373.38
432.956	384.38
433.178	376.38
433.4	348.38
433.622	387.38
433.844	375.38
434.066	360.38
434.287	381.38
434.509	370.38
434.731	392.38
434.953	380.38
435.175	387.38
435.397	397.38
435.618	375.38
435.84	368.38
436.062	383.38
436.284	364.38
436.505	371.38
436.727	363.38
436.949	375.38
437.17	369.38
437.392	372.38
437.614	372.38
437.835	361.38
438.057	353.38
438.278	349.38
438.5	363.38
438.721	370.38
438.943	357.38
439.165	349.38
439.386	371.38
439.608	383.38
439.829	379.38
440.05	384.38
440.272	367.38
440.493	383.38
440.715	375.38
440.936	395.38
441.158	372.38
441.379	389.38
441.6	408.38
441.822	419.38
442.043	437.38
442.264	408.38
442.486	395.38
442.707	407.38
442.928	402.38
443.149	407.38
443.371	401.38
443.592	400.38
443.813	393.38
444.034	414.38
444.255	422.38
444.476	429.38
444.698	465.38
444.919	466.38
445.14	548.38
445.361	485.38
445.582	414.38
445.803	402.38
446.024	394.38
446.245	416.38
446.466	400.38
446.687	383.38
446.908	380.38
447.129	378.38
447.35	375.38
447.571	361.38
447.792	367.38
448.013	373.38
448.234	367.38
448.455	371.38
448.675	358.38
448.896	344.38
449.117	353.38
449.338	357.38
449.559	359.38
449.779	357.38
450	369.38
450.221	367.38
450.442	359.38
450.662	359.38
450.883	366.38
451.104	353.38
451.324	359.38
451.545	373.38
451.766	360.38
451.986	367.38
452.207	355.38
452.428	369.38
452.648	362.38
452.869	354.38
453.089	337.38
453.31	339.38
453.53	340.38
453.751	341.38
453.971	340.38
454.192	331.38
454.412	315.38
454.633	330.38
454.853	334.38
455.073	333.38
455.294	344.38
455.514	338.38
455.734	325.38
455.955	312.38
456.175	328.38
456.395	335.38
456.616	327.38
456.836	346.38
457.056	343.38
457.276	320.38
457.497	332.38
457.717	340.38
457.937	328.38
458.157	340.38
458.377	340.38
458.598	326.38
458.818	344.38
459.038	353.38
459.258	372.38
459.478	381.38
459.698	391.38
459.918	374.38
460.138	376.38
460.358	399.38
460.578	407.38
460.798	425.38
461.018	408.38
461.238	397.38
461.458	419.38
461.678	411.38
461.898	412.38
462.118	428.38
462.338	425.38
462.558	475.38
462.777	450.38
462.997	471.38
463.217	502.38
463.437	531.38
463.657	476.38
463.876	460.38
464.096	486.38
464.316	464.38
464.536	461.38
464.755	469.38
464.975	426.38
465.195	431.38
465.414	414.38
465.634	402.38
465.854	393.38
466.073	371.38
466.293	368.38
466.512	385.38
466.732	361.38
466.951	383.38
467.171	377.38
467.391	386.38
467.61	385.38
467.829	368.38
468.049	379.38
468.268	376.38
468.488	362.38
468.707	378.38
468.927	373.38
469.146	381.38
469.365	368.38
469.585	363.38
469.804	369.38
470.023	375.38
470.243	366.38
470.462	375.38
470.681	377.38
470.901	373.38
471.12	376.38
471.339	387.38
471.558	375.38
471.777	356.38
471.997	356.38
472.216	367.38
472.435	368.38
472.654	364.38
472.873	355.38
473.092	367.38
473.311	373.38
473.53	347.38
473.749	370.38
473.968	365.38
474.187	359.38
474.406	367.38
474.625	379.38
474.844	353.38
475.063	357.38
475.282	374.38
475.501	367.38
475.72	356.38
475.939	365.38
476.158	368.38
476.377	389.38
476.596	387.38
476.814	367.38
477.033	390.38
477.252	390.38
477.471	404.38
477.69	411.38
477.908	401.38
478.127	399.38
478.346	418.38
478.564	417.38
478.783	408.38
479.002	429.38
479.22	439.38
479.439	446.38
479.658	418.38
479.876	424.38
480.095	433.38
480.313	435.38
480.532	455.38
480.751	441.38
480.969	424.38
481.188	427.38
481.406	445.38
481.624	429.38
481.843	412.38
482.061	419.38
482.28	398.38
482.498	418.38
482.717	440.38
482.935	438.38
483.153	409.38
483.372	414.38
483.59	410.38
483.808	406.38
484.027	424.38
484.245	398.38
484.463	437.38
484.681	432.38
484.9	433.38
485.118	422.38
485.336	411.38
485.554	419.38
485.772	414.38
485.99	410.38
486.209	406.38
486.427	435.38
486.645	419.38
486.863	423.38
487.081	424.38
487.299	428.38
487.517	425.38
487.735	437.38
487.953	417.38
488.171	450.38
488.389	440.38
488.607	430.38
488.825	424.38
489.043	422.38
489.261	426.38
489.479	413.38
489.696	421.38
489.914	443.38
490.132	418.38
490.35	421.38
490.568	432.38
490.786	434.38
491.003	454.38
491.221	436.38
491.439	438.38
491.657	420.38
491.874	455.38
492.092	453.38
492.31	481.38
492.527	463.38
492.745	459.38
492.963	441.38
493.18	439.38
493.398	451.38
493.615	443.38
493.833	441.38
494.05	444.38
494.268	466.38
494.485	478.38
494.703	459.38
494.92	451.38
495.138	445.38
495.355	455.38
495.573	455.38
495.79	453.38
496.008	444.38
496.225	467.38
496.442	469.38
496.66	464.38
496.877	464.38
497.094	479.38
497.312	472.38
497.529	478.38
497.746	511.38
497.963	497.38
498.181	517.38
498.398	530.38
498.615	545.38
498.832	587.38
499.049	613.38
499.267	625.38
499.484	689.38
499.701	711.38
499.918	782.38
500.135	860.38
500.352	930.38
500.569	935.38
500.786	920.38
501.003	874.38
501.22	820.38
501.437	728.38
501.654	692.38
501.871	660.38
502.088	600.38
