Data from Fe(NO3)3@0.05M.TitratingCurve.Agarose3%dH2O.NegLispCup.LampEnergy10.LIBS07252019_HRD10591_16-46-01-334.txt Node
Date: Thu Jul 25 16:46:01 EDT 2019
User: cochatt
Spectrometer: HR+D1059
Trigger mode: 1
Integration Time (sec): 1.000000E-1
Scans to average: 1
Electric dark correction enabled: true
Nonlinearity correction enabled: false
Boxcar width: 0
XAxis mode: Wavelengths
Number of Pixels in Spectrum: 2048
>>>>>Begin Spectral Data<<<<<
223.165	-13.38
223.4	-13.38
223.635	-13.38
223.869	-15.38
224.104	-13.38
224.338	-19.38
224.573	-16.38
224.808	-10.38
225.042	-18.38
225.277	-2.38
225.511	-4.38
225.746	8.62
225.98	4.62
226.215	-0.38
226.449	26.62
226.683	16.62
226.918	25.62
227.152	31.62
227.387	31.62
227.621	54.62
227.856	64.62
228.09	56.62
228.324	57.62
228.559	71.62
228.793	86.62
229.027	132.62
229.262	145.62
229.496	140.62
229.73	141.62
229.964	147.62
230.199	140.62
230.433	160.62
230.667	148.62
230.901	143.62
231.136	161.62
231.37	159.62
231.604	166.62
231.838	169.62
232.072	166.62
232.306	171.62
232.541	179.62
232.775	177.62
233.009	181.62
233.243	185.62
233.477	197.62
233.711	200.62
233.945	180.62
234.179	185.62
234.413	194.62
234.647	195.62
234.881	206.62
235.115	221.62
235.349	219.62
235.583	210.62
235.817	218.62
236.051	207.62
236.285	194.62
236.519	209.62
236.753	207.62
236.987	195.62
237.221	209.62
237.455	222.62
237.689	225.62
237.922	213.62
238.156	210.62
238.39	243.62
238.624	274.62
238.858	260.62
239.091	242.62
239.325	238.62
239.559	244.62
239.793	250.62
240.027	281.62
240.26	277.62
240.494	244.62
240.728	268.62
240.961	274.62
241.195	255.62
241.429	274.62
241.662	266.62
241.896	261.62
242.13	237.62
242.363	243.62
242.597	257.62
242.83	253.62
243.064	274.62
243.298	265.62
243.531	263.62
243.765	278.62
243.998	283.62
244.232	272.62
244.465	290.62
244.699	289.62
244.932	273.62
245.166	305.62
245.399	287.62
245.633	299.62
245.866	297.62
246.099	285.62
246.333	307.62
246.566	307.62
246.8	314.62
247.033	320.62
247.266	307.62
247.5	308.62
247.733	314.62
247.966	322.62
248.2	302.62
248.433	327.62
248.666	351.62
248.899	329.62
249.133	310.62
249.366	380.62
249.599	357.62
249.832	362.62
250.066	348.62
250.299	341.62
250.532	350.62
250.765	349.62
250.998	319.62
251.231	338.62
251.465	345.62
251.698	324.62
251.931	360.62
252.164	357.62
252.397	364.62
252.63	392.62
252.863	393.62
253.096	393.62
253.329	397.62
253.562	394.62
253.795	419.62
254.028	396.62
254.261	434.62
254.494	408.62
254.727	400.62
254.96	394.62
255.193	404.62
255.426	417.62
255.659	378.62
255.892	389.62
256.124	401.62
256.357	412.62
256.59	427.62
256.823	407.62
257.056	402.62
257.289	388.62
257.521	401.62
257.754	402.62
257.987	397.62
258.22	404.62
258.452	420.62
258.685	419.62
258.918	447.62
259.151	423.62
259.383	424.62
259.616	444.62
259.849	452.62
260.081	534.62
260.314	593.62
260.547	474.62
260.779	455.62
261.012	492.62
261.244	500.62
261.477	471.62
261.71	477.62
261.942	459.62
262.175	445.62
262.407	445.62
262.64	446.62
262.872	490.62
263.105	528.62
263.337	535.62
263.57	496.62
263.802	466.62
264.035	436.62
264.267	436.62
264.499	441.62
264.732	442.62
264.964	448.62
265.197	442.62
265.429	438.62
265.661	425.62
265.894	451.62
266.126	455.62
266.358	449.62
266.591	470.62
266.823	468.62
267.055	485.62
267.287	463.62
267.52	441.62
267.752	455.62
267.984	464.62
268.216	478.62
268.448	489.62
268.681	466.62
268.913	480.62
269.145	479.62
269.377	481.62
269.609	477.62
269.841	509.62
270.073	476.62
270.306	493.62
270.538	504.62
270.77	498.62
271.002	500.62
271.234	504.62
271.466	501.62
271.698	508.62
271.93	516.62
272.162	546.62
272.394	535.62
272.626	557.62
272.858	544.62
273.09	529.62
273.322	557.62
273.553	548.62
273.785	549.62
274.017	629.62
274.249	658.62
274.481	644.62
274.713	686.62
274.945	727.62
275.176	742.62
275.408	683.62
275.64	656.62
275.872	684.62
276.104	622.62
276.335	565.62
276.567	579.62
276.799	574.62
277.031	589.62
277.262	586.62
277.494	564.62
277.726	589.62
277.957	586.62
278.189	575.62
278.421	572.62
278.652	574.62
278.884	581.62
279.115	577.62
279.347	593.62
279.579	570.62
279.81	588.62
280.042	556.62
280.273	571.62
280.505	586.62
280.736	577.62
280.968	572.62
281.199	579.62
281.431	601.62
281.662	601.62
281.894	599.62
282.125	584.62
282.356	625.62
282.588	597.62
282.819	595.62
283.051	605.62
283.282	611.62
283.513	604.62
283.745	610.62
283.976	594.62
284.207	609.62
284.439	605.62
284.67	635.62
284.901	637.62
285.132	630.62
285.364	621.62
285.595	614.62
285.826	655.62
286.057	648.62
286.288	612.62
286.52	629.62
286.751	631.62
286.982	650.62
287.213	652.62
287.444	644.62
287.675	637.62
287.906	650.62
288.138	630.62
288.369	644.62
288.6	636.62
288.831	654.62
289.062	649.62
289.293	637.62
289.524	633.62
289.755	663.62
289.986	657.62
290.217	640.62
290.448	649.62
290.679	643.62
290.91	652.62
291.141	642.62
291.371	652.62
291.602	661.62
291.833	662.62
292.064	657.62
292.295	634.62
292.526	673.62
292.757	670.62
292.987	676.62
293.218	651.62
293.449	672.62
293.68	662.62
293.91	646.62
294.141	657.62
294.372	680.62
294.603	692.62
294.833	653.62
295.064	683.62
295.295	684.62
295.525	657.62
295.756	678.62
295.987	662.62
296.217	701.62
296.448	682.62
296.679	683.62
296.909	681.62
297.14	679.62
297.37	719.62
297.601	697.62
297.831	685.62
298.062	690.62
298.292	706.62
298.523	733.62
298.753	750.62
298.984	720.62
299.214	708.62
299.445	701.62
299.675	711.62
299.905	736.62
300.136	730.62
300.366	726.62
300.597	728.62
300.827	740.62
301.057	712.62
301.288	736.62
301.518	706.62
301.748	746.62
301.979	749.62
302.209	758.62
302.439	755.62
302.669	733.62
302.9	749.62
303.13	724.62
303.36	768.62
303.59	749.62
303.82	762.62
304.051	757.62
304.281	758.62
304.511	762.62
304.741	742.62
304.971	768.62
305.201	753.62
305.431	763.62
305.661	775.62
305.891	766.62
306.121	771.62
306.352	738.62
306.582	736.62
306.812	765.62
307.042	748.62
307.272	748.62
307.502	730.62
307.731	754.62
307.961	760.62
308.191	782.62
308.421	754.62
308.651	734.62
308.881	730.62
309.111	769.62
309.341	749.62
309.571	746.62
309.8	755.62
310.03	780.62
310.26	765.62
310.49	732.62
310.72	781.62
310.949	778.62
311.179	776.62
311.409	767.62
311.639	763.62
311.868	781.62
312.098	763.62
312.328	808.62
312.557	803.62
312.787	795.62
313.017	786.62
313.246	810.62
313.476	801.62
313.706	797.62
313.935	787.62
314.165	798.62
314.394	813.62
314.624	802.62
314.853	817.62
315.083	788.62
315.312	797.62
315.542	813.62
315.771	813.62
316.001	820.62
316.23	824.62
316.46	826.62
316.689	809.62
316.919	833.62
317.148	831.62
317.377	819.62
317.607	808.62
317.836	816.62
318.065	825.62
318.295	841.62
318.524	852.62
318.753	816.62
318.983	830.62
319.212	813.62
319.441	817.62
319.67	830.62
319.9	844.62
320.129	805.62
320.358	834.62
320.587	836.62
320.816	815.62
321.046	796.62
321.275	853.62
321.504	841.62
321.733	874.62
321.962	832.62
322.191	867.62
322.42	852.62
322.649	840.62
322.878	819.62
323.108	841.62
323.337	825.62
323.566	865.62
323.795	843.62
324.024	839.62
324.253	842.62
324.482	838.62
324.71	854.62
324.939	866.62
325.168	872.62
325.397	861.62
325.626	861.62
325.855	884.62
326.084	899.62
326.313	894.62
326.542	893.62
326.77	930.62
326.999	878.62
327.228	896.62
327.457	888.62
327.686	886.62
327.914	910.62
328.143	904.62
328.372	904.62
328.6	881.62
328.829	900.62
329.058	926.62
329.287	900.62
329.515	902.62
329.744	909.62
329.972	896.62
330.201	924.62
330.43	933.62
330.658	908.62
330.887	908.62
331.115	921.62
331.344	948.62
331.572	931.62
331.801	949.62
332.03	940.62
332.258	954.62
332.486	942.62
332.715	968.62
332.943	971.62
333.172	974.62
333.4	989.62
333.629	1003.62
333.857	1036.62
334.085	1032.62
334.314	1051.62
334.542	1012.62
334.771	1052.62
334.999	1055.62
335.227	1034.62
335.455	1041.62
335.684	1042.62
335.912	1073.62
336.14	1030.62
336.369	989.62
336.597	1021.62
336.825	1012.62
337.053	1012.62
337.281	1037.62
337.51	1020.62
337.738	978.62
337.966	986.62
338.194	981.62
338.422	986.62
338.65	974.62
338.878	983.62
339.106	988.62
339.334	960.62
339.562	980.62
339.79	943.62
340.018	971.62
340.246	948.62
340.474	946.62
340.702	969.62
340.93	992.62
341.158	992.62
341.386	970.62
341.614	960.62
341.842	972.62
342.07	943.62
342.298	961.62
342.526	965.62
342.754	955.62
342.981	944.62
343.209	972.62
343.437	972.62
343.665	997.62
343.893	1013.62
344.12	1046.62
344.348	1040.62
344.576	1022.62
344.804	1050.62
345.031	975.62
345.259	977.62
345.487	946.62
345.714	959.62
345.942	954.62
346.17	980.62
346.397	943.62
346.625	948.62
346.853	937.62
347.08	899.62
347.308	913.62
347.535	904.62
347.763	932.62
347.99	917.62
348.218	910.62
348.445	912.62
348.673	915.62
348.9	937.62
349.128	950.62
349.355	908.62
349.583	925.62
349.81	922.62
350.037	897.62
350.265	916.62
350.492	938.62
350.72	914.62
350.947	916.62
351.174	914.62
351.402	941.62
351.629	947.62
351.856	892.62
352.083	906.62
352.311	915.62
352.538	922.62
352.765	909.62
352.992	937.62
353.22	869.62
353.447	908.62
353.674	896.62
353.901	896.62
354.128	917.62
354.355	893.62
354.583	893.62
354.81	914.62
355.037	927.62
355.264	926.62
355.491	919.62
355.718	937.62
355.945	907.62
356.172	906.62
356.399	929.62
356.626	914.62
356.853	932.62
357.08	928.62
357.307	929.62
357.534	901.62
357.761	896.62
357.988	962.62
358.215	953.62
358.441	961.62
358.668	938.62
358.895	934.62
359.122	906.62
359.349	912.62
359.576	916.62
359.802	902.62
360.029	910.62
360.256	892.62
360.483	918.62
360.709	951.62
360.936	929.62
361.163	919.62
361.39	901.62
361.616	934.62
361.843	924.62
362.07	946.62
362.296	933.62
362.523	903.62
362.749	927.62
362.976	942.62
363.203	948.62
363.429	926.62
363.656	954.62
363.882	923.62
364.109	923.62
364.335	933.62
364.562	958.62
364.788	931.62
365.015	942.62
365.241	968.62
365.468	957.62
365.694	937.62
365.92	948.62
366.147	925.62
366.373	969.62
366.599	960.62
366.826	930.62
367.052	935.62
367.278	940.62
367.505	942.62
367.731	925.62
367.957	931.62
368.184	968.62
368.41	965.62
368.636	974.62
368.862	962.62
369.089	949.62
369.315	991.62
369.541	987.62
369.767	1000.62
369.993	988.62
370.219	990.62
370.445	976.62
370.672	992.62
370.898	1005.62
371.124	1000.62
371.35	1009.62
371.576	1024.62
371.802	1007.62
372.028	1009.62
372.254	1027.62
372.48	1026.62
372.706	1028.62
372.932	1021.62
373.158	1068.62
373.384	1067.62
373.61	1097.62
373.835	1096.62
374.061	1071.62
374.287	1043.62
374.513	1073.62
374.739	1098.62
374.965	1095.62
375.191	1109.62
375.416	1089.62
375.642	1059.62
375.868	1067.62
376.094	1061.62
376.319	1024.62
376.545	1051.62
376.771	1058.62
376.997	1034.62
377.222	1036.62
377.448	1027.62
377.674	1005.62
377.899	981.62
378.125	1000.62
378.35	980.62
378.576	992.62
378.802	998.62
379.027	1003.62
379.253	1004.62
379.478	1048.62
379.704	1012.62
379.929	1028.62
380.155	1017.62
380.38	1044.62
380.606	1010.62
380.831	1008.62
381.057	1041.62
381.282	1025.62
381.507	1040.62
381.733	1064.62
381.958	1076.62
382.184	1101.62
382.409	1098.62
382.634	1080.62
382.86	1113.62
383.085	1092.62
383.31	1084.62
383.535	1108.62
383.761	1096.62
383.986	1092.62
384.211	1118.62
384.436	1131.62
384.662	1094.62
384.887	1117.62
385.112	1114.62
385.337	1149.62
385.562	1172.62
385.787	1137.62
386.013	1173.62
386.238	1191.62
386.463	1189.62
386.688	1164.62
386.913	1174.62
387.138	1165.62
387.363	1158.62
387.588	1169.62
387.813	1178.62
388.038	1160.62
388.263	1183.62
388.488	1189.62
388.713	1197.62
388.938	1192.62
389.163	1193.62
389.387	1169.62
389.612	1170.62
389.837	1229.62
390.062	1210.62
390.287	1191.62
390.512	1197.62
390.736	1215.62
390.961	1184.62
391.186	1225.62
391.411	1229.62
391.636	1255.62
391.86	1249.62
392.085	1247.62
392.31	1287.62
392.534	1268.62
392.759	1270.62
392.984	1235.62
393.208	1258.62
393.433	1233.62
393.658	1250.62
393.882	1238.62
394.107	1259.62
394.331	1227.62
394.556	1241.62
394.78	1241.62
395.005	1261.62
395.229	1280.62
395.454	1273.62
395.678	1314.62
395.903	1295.62
396.127	1308.62
396.352	1275.62
396.576	1294.62
396.801	1292.62
397.025	1298.62
397.249	1314.62
397.474	1321.62
397.698	1352.62
397.922	1342.62
398.147	1323.62
398.371	1348.62
398.595	1384.62
398.82	1432.62
399.044	1452.62
399.268	1502.62
399.492	1560.62
399.717	1635.62
399.941	1663.62
400.165	1616.62
400.389	1587.62
400.613	1536.62
400.837	1524.62
401.062	1477.62
401.286	1482.62
401.51	1462.62
401.734	1416.62
401.958	1424.62
402.182	1453.62
402.406	1416.62
402.63	1386.62
402.854	1432.62
403.078	1436.62
403.302	1437.62
403.526	1469.62
403.75	1447.62
403.974	1456.62
404.198	1433.62
404.422	1488.62
404.645	1461.62
404.869	1499.62
405.093	1497.62
405.317	1481.62
405.541	1505.62
405.765	1476.62
405.988	1487.62
406.212	1532.62
406.436	1509.62
406.66	1571.62
406.883	1551.62
407.107	1599.62
407.331	1656.62
407.555	1656.62
407.778	1633.62
408.002	1640.62
408.226	1592.62
408.449	1657.62
408.673	1577.62
408.896	1556.62
409.12	1517.62
409.344	1562.62
409.567	1487.62
409.791	1522.62
410.014	1510.62
410.238	1503.62
410.461	1509.62
410.685	1508.62
410.908	1489.62
411.132	1511.62
411.355	1476.62
411.578	1503.62
411.802	1490.62
412.025	1487.62
412.249	1509.62
412.472	1489.62
412.695	1448.62
412.919	1449.62
413.142	1485.62
413.365	1461.62
413.589	1506.62
413.812	1461.62
414.035	1461.62
414.258	1425.62
414.482	1445.62
414.705	1453.62
414.928	1428.62
415.151	1422.62
415.374	1454.62
415.597	1436.62
415.821	1405.62
416.044	1402.62
416.267	1392.62
416.49	1428.62
416.713	1410.62
416.936	1388.62
417.159	1380.62
417.382	1349.62
417.605	1367.62
417.828	1379.62
418.051	1381.62
418.274	1389.62
418.497	1413.62
418.72	1376.62
418.943	1350.62
419.166	1445.62
419.389	1570.62
419.611	1536.62
419.834	1449.62
420.057	1454.62
420.28	1391.62
420.503	1346.62
420.726	1346.62
420.948	1353.62
421.171	1352.62
421.394	1327.62
421.617	1380.62
421.839	1361.62
422.062	1332.62
422.285	1327.62
422.507	1391.62
422.73	1387.62
422.953	1382.62
423.175	1384.62
423.398	1387.62
423.621	1368.62
423.843	1369.62
424.066	1385.62
424.288	1365.62
424.511	1351.62
424.733	1363.62
424.956	1371.62
425.178	1355.62
425.401	1367.62
425.623	1391.62
425.846	1342.62
426.068	1358.62
426.291	1343.62
426.513	1323.62
426.735	1355.62
426.958	1366.62
427.18	1342.62
427.402	1379.62
427.625	1337.62
427.847	1329.62
428.069	1305.62
428.292	1331.62
428.514	1324.62
428.736	1321.62
428.958	1332.62
429.181	1295.62
429.403	1290.62
429.625	1306.62
429.847	1296.62
430.069	1301.62
430.292	1317.62
430.514	1273.62
430.736	1326.62
430.958	1344.62
431.18	1332.62
431.402	1301.62
431.624	1314.62
431.846	1291.62
432.068	1322.62
432.29	1324.62
432.512	1336.62
432.734	1353.62
432.956	1358.62
433.178	1329.62
433.4	1309.62
433.622	1330.62
433.844	1357.62
434.066	1362.62
434.287	1297.62
434.509	1329.62
434.731	1383.62
434.953	1366.62
435.175	1389.62
435.397	1405.62
435.618	1372.62
435.84	1341.62
436.062	1345.62
436.284	1338.62
436.505	1328.62
436.727	1312.62
436.949	1341.62
437.17	1306.62
437.392	1282.62
437.614	1309.62
437.835	1273.62
438.057	1251.62
438.278	1290.62
438.5	1330.62
438.721	1285.62
438.943	1274.62
439.165	1259.62
439.386	1274.62
439.608	1303.62
439.829	1281.62
440.05	1290.62
440.272	1315.62
440.493	1303.62
440.715	1282.62
440.936	1336.62
441.158	1339.62
441.379	1354.62
441.6	1356.62
441.822	1370.62
442.043	1382.62
442.264	1350.62
442.486	1314.62
442.707	1353.62
442.928	1378.62
443.149	1355.62
443.371	1353.62
443.592	1404.62
443.813	1381.62
444.034	1367.62
444.255	1381.62
444.476	1418.62
444.698	1420.62
444.919	1473.62
445.14	1541.62
445.361	1436.62
445.582	1418.62
445.803	1363.62
446.024	1358.62
446.245	1360.62
446.466	1305.62
446.687	1253.62
446.908	1278.62
447.129	1301.62
447.35	1277.62
447.571	1270.62
447.792	1232.62
448.013	1234.62
448.234	1268.62
448.455	1252.62
448.675	1226.62
448.896	1224.62
449.117	1230.62
449.338	1203.62
449.559	1211.62
449.779	1205.62
450	1186.62
450.221	1181.62
450.442	1194.62
450.662	1186.62
450.883	1212.62
451.104	1196.62
451.324	1190.62
451.545	1208.62
451.766	1182.62
451.986	1179.62
452.207	1220.62
452.428	1188.62
452.648	1186.62
452.869	1158.62
453.089	1158.62
453.31	1159.62
453.53	1152.62
453.751	1154.62
453.971	1156.62
454.192	1148.62
454.412	1149.62
454.633	1156.62
454.853	1148.62
455.073	1170.62
455.294	1171.62
455.514	1122.62
455.734	1176.62
455.955	1158.62
456.175	1158.62
456.395	1133.62
456.616	1158.62
456.836	1168.62
457.056	1168.62
457.276	1135.62
457.497	1178.62
457.717	1184.62
457.937	1186.62
458.157	1208.62
458.377	1204.62
458.598	1230.62
458.818	1213.62
459.038	1226.62
459.258	1276.62
459.478	1302.62
459.698	1289.62
459.918	1288.62
460.138	1329.62
460.358	1340.62
460.578	1337.62
460.798	1372.62
461.018	1412.62
461.238	1435.62
461.458	1413.62
461.678	1441.62
461.898	1428.62
462.118	1419.62
462.338	1499.62
462.558	1520.62
462.777	1520.62
462.997	1566.62
463.217	1586.62
463.437	1642.62
463.657	1581.62
463.876	1549.62
464.096	1565.62
464.316	1532.62
464.536	1569.62
464.755	1484.62
464.975	1472.62
465.195	1438.62
465.414	1438.62
465.634	1380.62
465.854	1355.62
466.073	1354.62
466.293	1351.62
466.512	1290.62
466.732	1327.62
466.951	1308.62
467.171	1297.62
467.391	1304.62
467.61	1276.62
467.829	1262.62
468.049	1292.62
468.268	1279.62
468.488	1248.62
468.707	1264.62
468.927	1297.62
469.146	1301.62
469.365	1301.62
469.585	1254.62
469.804	1274.62
470.023	1314.62
470.243	1309.62
470.462	1269.62
470.681	1287.62
470.901	1314.62
471.12	1314.62
471.339	1288.62
471.558	1292.62
471.777	1264.62
471.997	1269.62
472.216	1310.62
472.435	1293.62
472.654	1238.62
472.873	1263.62
473.092	1274.62
473.311	1282.62
473.53	1239.62
473.749	1269.62
473.968	1296.62
474.187	1236.62
474.406	1244.62
474.625	1265.62
474.844	1268.62
475.063	1288.62
475.282	1281.62
475.501	1270.62
475.72	1301.62
475.939	1282.62
476.158	1327.62
476.377	1360.62
476.596	1426.62
476.814	1444.62
477.033	1425.62
477.252	1372.62
477.471	1396.62
477.69	1442.62
477.908	1406.62
478.127	1416.62
478.346	1409.62
478.564	1470.62
478.783	1477.62
479.002	1503.62
479.22	1530.62
479.439	1593.62
479.658	1550.62
479.876	1536.62
480.095	1540.62
480.313	1573.62
480.532	1595.62
480.751	1571.62
480.969	1534.62
481.188	1541.62
481.406	1562.62
481.624	1577.62
481.843	1538.62
482.061	1505.62
482.28	1542.62
482.498	1569.62
482.717	1545.62
482.935	1547.62
483.153	1561.62
483.372	1529.62
483.59	1530.62
483.808	1545.62
484.027	1524.62
484.245	1535.62
484.463	1549.62
484.681	1566.62
484.9	1601.62
485.118	1561.62
485.336	1566.62
485.554	1558.62
485.772	1573.62
485.99	1564.62
486.209	1597.62
486.427	1608.62
486.645	1575.62
486.863	1583.62
487.081	1572.62
487.299	1585.62
487.517	1578.62
487.735	1613.62
487.953	1588.62
488.171	1624.62
488.389	1575.62
488.607	1606.62
488.825	1564.62
489.043	1578.62
489.261	1576.62
489.479	1549.62
489.696	1578.62
489.914	1628.62
490.132	1623.62
490.35	1580.62
490.568	1542.62
490.786	1579.62
491.003	1568.62
491.221	1586.62
491.439	1605.62
491.657	1605.62
491.874	1583.62
492.092	1576.62
492.31	1627.62
492.527	1632.62
492.745	1629.62
492.963	1628.62
493.18	1591.62
493.398	1634.62
493.615	1667.62
