Data from Fe(NO3)3@0.1M.TitratingCurve.Agarose3%dH2O.NegLispCup.LampEnergy10.LIBS07252019_HRD10591_16-41-42-333.txt Node
Date: Thu Jul 25 16:41:42 EDT 2019
User: cochatt
Spectrometer: HR+D1059
Trigger mode: 1
Integration Time (sec): 1.000000E-1
Scans to average: 1
Electric dark correction enabled: true
Nonlinearity correction enabled: false
Boxcar width: 0
XAxis mode: Wavelengths
Number of Pixels in Spectrum: 2048
>>>>>Begin Spectral Data<<<<<
223.165	-19.31
223.4	-19.31
223.635	-19.31
223.869	-16.31
224.104	-17.31
224.338	-24.31
224.573	-19.31
224.808	-15.31
225.042	-5.31
225.277	0.69
225.511	-4.31
225.746	7.69
225.98	-2.31
226.215	20.69
226.449	25.69
226.683	17.69
226.918	20.69
227.152	30.69
227.387	27.69
227.621	51.69
227.856	36.69
228.09	50.69
228.324	56.69
228.559	58.69
228.793	67.69
229.027	63.69
229.262	70.69
229.496	64.69
229.73	71.69
229.964	80.69
230.199	79.69
230.433	77.69
230.667	81.69
230.901	69.69
231.136	92.69
231.37	96.69
231.604	87.69
231.838	82.69
232.072	98.69
232.306	87.69
232.541	85.69
232.775	88.69
233.009	85.69
233.243	79.69
233.477	86.69
233.711	73.69
233.945	78.69
234.179	87.69
234.413	93.69
234.647	92.69
234.881	85.69
235.115	87.69
235.349	90.69
235.583	90.69
235.817	89.69
236.051	93.69
236.285	95.69
236.519	86.69
236.753	80.69
236.987	93.69
237.221	88.69
237.455	79.69
237.689	64.69
237.922	83.69
238.156	79.69
238.39	87.69
238.624	78.69
238.858	79.69
239.091	89.69
239.325	83.69
239.559	83.69
239.793	84.69
240.027	84.69
240.26	87.69
240.494	81.69
240.728	78.69
240.961	90.69
241.195	86.69
241.429	90.69
241.662	84.69
241.896	86.69
242.13	86.69
242.363	91.69
242.597	78.69
242.83	83.69
243.064	67.69
243.298	81.69
243.531	93.69
243.765	90.69
243.998	101.69
244.232	77.69
244.465	90.69
244.699	85.69
244.932	99.69
245.166	89.69
245.399	92.69
245.633	78.69
245.866	88.69
246.099	89.69
246.333	95.69
246.566	102.69
246.8	93.69
247.033	98.69
247.266	99.69
247.5	93.69
247.733	86.69
247.966	89.69
248.2	96.69
248.433	86.69
248.666	87.69
248.899	94.69
249.133	86.69
249.366	94.69
249.599	95.69
249.832	96.69
250.066	105.69
250.299	85.69
250.532	103.69
250.765	89.69
250.998	93.69
251.231	98.69
251.465	103.69
251.698	97.69
251.931	99.69
252.164	106.69
252.397	95.69
252.63	96.69
252.863	99.69
253.096	104.69
253.329	83.69
253.562	98.69
253.795	99.69
254.028	94.69
254.261	98.69
254.494	88.69
254.727	104.69
254.96	107.69
255.193	88.69
255.426	95.69
255.659	83.69
255.892	94.69
256.124	94.69
256.357	100.69
256.59	98.69
256.823	107.69
257.056	106.69
257.289	94.69
257.521	94.69
257.754	106.69
257.987	103.69
258.22	100.69
258.452	100.69
258.685	112.69
258.918	104.69
259.151	95.69
259.383	108.69
259.616	116.69
259.849	102.69
260.081	107.69
260.314	97.69
260.547	102.69
260.779	111.69
261.012	100.69
261.244	111.69
261.477	110.69
261.71	100.69
261.942	111.69
262.175	101.69
262.407	97.69
262.64	98.69
262.872	102.69
263.105	105.69
263.337	101.69
263.57	98.69
263.802	95.69
264.035	105.69
264.267	120.69
264.499	98.69
264.732	116.69
264.964	107.69
265.197	94.69
265.429	112.69
265.661	109.69
265.894	112.69
266.126	95.69
266.358	107.69
266.591	102.69
266.823	114.69
267.055	103.69
267.287	109.69
267.52	111.69
267.752	120.69
267.984	115.69
268.216	115.69
268.448	109.69
268.681	116.69
268.913	107.69
269.145	123.69
269.377	111.69
269.609	98.69
269.841	103.69
270.073	120.69
270.306	107.69
270.538	88.69
270.77	110.69
271.002	94.69
271.234	101.69
271.466	106.69
271.698	107.69
271.93	103.69
272.162	113.69
272.394	111.69
272.626	116.69
272.858	108.69
273.09	99.69
273.322	111.69
273.553	116.69
273.785	112.69
274.017	126.69
274.249	106.69
274.481	110.69
274.713	117.69
274.945	116.69
275.176	107.69
275.408	116.69
275.64	104.69
275.872	111.69
276.104	118.69
276.335	108.69
276.567	109.69
276.799	116.69
277.031	116.69
277.262	109.69
277.494	122.69
277.726	92.69
277.957	114.69
278.189	121.69
278.421	116.69
278.652	106.69
278.884	114.69
279.115	120.69
279.347	130.69
279.579	122.69
279.81	105.69
280.042	98.69
280.273	122.69
280.505	109.69
280.736	109.69
280.968	126.69
281.199	120.69
281.431	129.69
281.662	109.69
281.894	124.69
282.125	118.69
282.356	120.69
282.588	124.69
282.819	110.69
283.051	128.69
283.282	119.69
283.513	126.69
283.745	100.69
283.976	132.69
284.207	112.69
284.439	108.69
284.67	116.69
284.901	144.69
285.132	114.69
285.364	111.69
285.595	107.69
285.826	105.69
286.057	109.69
286.288	119.69
286.52	136.69
286.751	134.69
286.982	117.69
287.213	125.69
287.444	143.69
287.675	126.69
287.906	143.69
288.138	116.69
288.369	126.69
288.6	129.69
288.831	119.69
289.062	133.69
289.293	130.69
289.524	128.69
289.755	116.69
289.986	131.69
290.217	131.69
290.448	116.69
290.679	130.69
290.91	127.69
291.141	136.69
291.371	133.69
291.602	134.69
291.833	125.69
292.064	128.69
292.295	130.69
292.526	120.69
292.757	123.69
292.987	123.69
293.218	132.69
293.449	127.69
293.68	125.69
293.91	127.69
294.141	127.69
294.372	118.69
294.603	127.69
294.833	129.69
295.064	140.69
295.295	122.69
295.525	122.69
295.756	124.69
295.987	123.69
296.217	125.69
296.448	118.69
296.679	127.69
296.909	129.69
297.14	135.69
297.37	129.69
297.601	140.69
297.831	128.69
298.062	133.69
298.292	114.69
298.523	126.69
298.753	134.69
298.984	141.69
299.214	140.69
299.445	143.69
299.675	129.69
299.905	138.69
300.136	141.69
300.366	131.69
300.597	138.69
300.827	132.69
301.057	134.69
301.288	136.69
301.518	140.69
301.748	142.69
301.979	138.69
302.209	129.69
302.439	114.69
302.669	130.69
302.9	134.69
303.13	130.69
303.36	125.69
303.59	128.69
303.82	136.69
304.051	124.69
304.281	132.69
304.511	136.69
304.741	137.69
304.971	147.69
305.201	125.69
305.431	141.69
305.661	138.69
305.891	145.69
306.121	154.69
306.352	141.69
306.582	139.69
306.812	144.69
307.042	134.69
307.272	134.69
307.502	130.69
307.731	138.69
307.961	139.69
308.191	133.69
308.421	142.69
308.651	141.69
308.881	150.69
309.111	150.69
309.341	139.69
309.571	140.69
309.8	141.69
310.03	135.69
310.26	135.69
310.49	144.69
310.72	138.69
310.949	150.69
311.179	138.69
311.409	131.69
311.639	127.69
311.868	132.69
312.098	138.69
312.328	154.69
312.557	151.69
312.787	132.69
313.017	132.69
313.246	144.69
313.476	141.69
313.706	145.69
313.935	131.69
314.165	138.69
314.394	128.69
314.624	146.69
314.853	133.69
315.083	143.69
315.312	153.69
315.542	142.69
315.771	137.69
316.001	157.69
316.23	125.69
316.46	141.69
316.689	149.69
316.919	150.69
317.148	146.69
317.377	139.69
317.607	130.69
317.836	136.69
318.065	128.69
318.295	141.69
318.524	150.69
318.753	142.69
318.983	133.69
319.212	133.69
319.441	136.69
319.67	145.69
319.9	134.69
320.129	146.69
320.358	129.69
320.587	140.69
320.816	131.69
321.046	141.69
321.275	134.69
321.504	150.69
321.733	122.69
321.962	135.69
322.191	162.69
322.42	145.69
322.649	148.69
322.878	152.69
323.108	149.69
323.337	146.69
323.566	141.69
323.795	159.69
324.024	144.69
324.253	132.69
324.482	158.69
324.71	132.69
324.939	150.69
325.168	156.69
325.397	158.69
325.626	159.69
325.855	135.69
326.084	162.69
326.313	143.69
326.542	142.69
326.77	151.69
326.999	148.69
327.228	162.69
327.457	134.69
327.686	168.69
327.914	170.69
328.143	169.69
328.372	134.69
328.6	148.69
328.829	144.69
329.058	151.69
329.287	143.69
329.515	162.69
329.744	156.69
329.972	147.69
330.201	153.69
330.43	139.69
330.658	147.69
330.887	156.69
331.115	167.69
331.344	167.69
331.572	155.69
331.801	149.69
332.03	170.69
332.258	172.69
332.486	165.69
332.715	147.69
332.943	153.69
333.172	164.69
333.4	163.69
333.629	182.69
333.857	174.69
334.085	164.69
334.314	175.69
334.542	174.69
334.771	171.69
334.999	164.69
335.227	158.69
335.455	183.69
335.684	182.69
335.912	150.69
336.14	174.69
336.369	160.69
336.597	162.69
336.825	159.69
337.053	178.69
337.281	166.69
337.51	156.69
337.738	175.69
337.966	170.69
338.194	165.69
338.422	163.69
338.65	154.69
338.878	157.69
339.106	156.69
339.334	167.69
339.562	149.69
339.79	142.69
340.018	148.69
340.246	143.69
340.474	148.69
340.702	143.69
340.93	158.69
341.158	163.69
341.386	156.69
341.614	152.69
341.842	168.69
342.07	151.69
342.298	144.69
342.526	151.69
342.754	152.69
342.981	172.69
343.209	149.69
343.437	163.69
343.665	175.69
343.893	187.69
344.12	153.69
344.348	168.69
344.576	169.69
344.804	166.69
345.031	149.69
345.259	150.69
345.487	150.69
345.714	155.69
345.942	146.69
346.17	149.69
346.397	151.69
346.625	167.69
346.853	164.69
347.08	157.69
347.308	155.69
347.535	159.69
347.763	144.69
347.99	152.69
348.218	149.69
348.445	162.69
348.673	147.69
348.9	150.69
349.128	130.69
349.355	166.69
349.583	149.69
349.81	152.69
350.037	150.69
350.265	163.69
350.492	161.69
350.72	144.69
350.947	136.69
351.174	142.69
351.402	149.69
351.629	152.69
351.856	157.69
352.083	152.69
352.311	150.69
352.538	164.69
352.765	151.69
352.992	152.69
353.22	151.69
353.447	149.69
353.674	142.69
353.901	172.69
354.128	144.69
354.355	161.69
354.583	156.69
354.81	146.69
355.037	167.69
355.264	161.69
355.491	147.69
355.718	155.69
355.945	151.69
356.172	163.69
356.399	157.69
356.626	156.69
356.853	157.69
357.08	163.69
357.307	159.69
357.534	150.69
357.761	154.69
357.988	156.69
358.215	149.69
358.441	163.69
358.668	141.69
358.895	159.69
359.122	149.69
359.349	149.69
359.576	150.69
359.802	160.69
360.029	158.69
360.256	175.69
360.483	143.69
360.709	153.69
360.936	153.69
361.163	150.69
361.39	143.69
361.616	157.69
361.843	155.69
362.07	163.69
362.296	161.69
362.523	154.69
362.749	170.69
362.976	167.69
363.203	158.69
363.429	161.69
363.656	162.69
363.882	168.69
364.109	179.69
364.335	157.69
364.562	151.69
364.788	159.69
365.015	145.69
365.241	141.69
365.468	150.69
365.694	157.69
365.92	156.69
366.147	151.69
366.373	142.69
366.599	160.69
366.826	166.69
367.052	134.69
367.278	147.69
367.505	177.69
367.731	178.69
367.957	160.69
368.184	150.69
368.41	150.69
368.636	154.69
368.862	166.69
369.089	160.69
369.315	152.69
369.541	168.69
369.767	171.69
369.993	149.69
370.219	170.69
370.445	155.69
370.672	171.69
370.898	164.69
371.124	160.69
371.35	171.69
371.576	170.69
371.802	163.69
372.028	158.69
372.254	151.69
372.48	161.69
372.706	170.69
372.932	154.69
373.158	168.69
373.384	170.69
373.61	179.69
373.835	166.69
374.061	162.69
374.287	172.69
374.513	158.69
374.739	166.69
374.965	160.69
375.191	161.69
375.416	175.69
375.642	168.69
375.868	185.69
376.094	164.69
376.319	178.69
376.545	172.69
376.771	163.69
376.997	151.69
377.222	168.69
377.448	166.69
377.674	164.69
377.899	167.69
378.125	164.69
378.35	162.69
378.576	172.69
378.802	179.69
379.027	168.69
379.253	175.69
379.478	151.69
379.704	140.69
379.929	163.69
380.155	158.69
380.38	166.69
380.606	172.69
380.831	176.69
381.057	141.69
381.282	162.69
381.507	179.69
381.733	168.69
381.958	172.69
382.184	165.69
382.409	184.69
382.634	173.69
382.86	167.69
383.085	173.69
383.31	184.69
383.535	174.69
383.761	174.69
383.986	192.69
384.211	176.69
384.436	184.69
384.662	174.69
384.887	197.69
385.112	185.69
385.337	202.69
385.562	201.69
385.787	169.69
386.013	206.69
386.238	195.69
386.463	167.69
386.688	190.69
386.913	187.69
387.138	175.69
387.363	180.69
387.588	161.69
387.813	202.69
388.038	174.69
388.263	180.69
388.488	190.69
388.713	175.69
388.938	176.69
389.163	189.69
389.387	194.69
389.612	184.69
389.837	171.69
390.062	180.69
390.287	192.69
390.512	183.69
390.736	196.69
390.961	191.69
391.186	208.69
391.411	204.69
391.636	200.69
391.86	185.69
392.085	184.69
392.31	204.69
392.534	199.69
392.759	199.69
392.984	178.69
393.208	205.69
393.433	189.69
393.658	201.69
393.882	175.69
394.107	195.69
394.331	208.69
394.556	189.69
394.78	189.69
395.005	210.69
395.229	197.69
395.454	197.69
395.678	193.69
395.903	203.69
396.127	198.69
396.352	187.69
396.576	188.69
396.801	220.69
397.025	203.69
397.249	190.69
397.474	199.69
397.698	197.69
397.922	212.69
398.147	205.69
398.371	202.69
398.595	208.69
398.82	226.69
399.044	218.69
399.268	229.69
399.492	250.69
399.717	272.69
399.941	264.69
400.165	258.69
400.389	234.69
400.613	223.69
400.837	216.69
401.062	228.69
401.286	216.69
401.51	218.69
401.734	204.69
401.958	215.69
402.182	227.69
402.406	210.69
402.63	218.69
402.854	200.69
403.078	210.69
403.302	226.69
403.526	236.69
403.75	223.69
403.974	244.69
404.198	237.69
404.422	235.69
404.645	215.69
404.869	208.69
405.093	214.69
405.317	219.69
405.541	233.69
405.765	220.69
405.988	212.69
406.212	235.69
406.436	220.69
406.66	220.69
406.883	205.69
407.107	242.69
407.331	245.69
407.555	254.69
407.778	254.69
408.002	263.69
408.226	253.69
408.449	230.69
408.673	218.69
408.896	224.69
409.12	223.69
409.344	223.69
409.567	230.69
409.791	230.69
410.014	234.69
410.238	212.69
410.461	229.69
410.685	238.69
410.908	228.69
411.132	239.69
411.355	227.69
411.578	219.69
411.802	223.69
412.025	229.69
412.249	227.69
412.472	212.69
412.695	220.69
412.919	237.69
413.142	212.69
413.365	219.69
413.589	228.69
413.812	216.69
414.035	220.69
414.258	227.69
414.482	204.69
414.705	240.69
414.928	218.69
415.151	230.69
415.374	220.69
415.597	215.69
415.821	224.69
416.044	214.69
416.267	220.69
416.49	223.69
416.713	228.69
416.936	215.69
417.159	220.69
417.382	222.69
417.605	226.69
417.828	206.69
418.051	223.69
418.274	233.69
418.497	234.69
418.72	219.69
418.943	222.69
419.166	220.69
419.389	231.69
419.611	223.69
419.834	229.69
420.057	243.69
420.28	218.69
420.503	216.69
420.726	228.69
420.948	218.69
421.171	214.69
421.394	222.69
421.617	212.69
421.839	213.69
422.062	228.69
422.285	220.69
422.507	224.69
422.73	227.69
422.953	218.69
423.175	217.69
423.398	242.69
423.621	215.69
423.843	224.69
424.066	206.69
424.288	220.69
424.511	217.69
424.733	228.69
424.956	229.69
425.178	215.69
425.401	243.69
425.623	234.69
425.846	229.69
426.068	234.69
426.291	208.69
426.513	222.69
426.735	224.69
426.958	205.69
427.18	195.69
427.402	220.69
427.625	237.69
427.847	235.69
428.069	227.69
428.292	212.69
428.514	196.69
428.736	216.69
428.958	214.69
429.181	222.69
429.403	199.69
429.625	208.69
429.847	229.69
430.069	204.69
430.292	220.69
430.514	208.69
430.736	204.69
430.958	195.69
431.18	221.69
431.402	206.69
431.624	219.69
431.846	203.69
432.068	205.69
432.29	208.69
432.512	216.69
432.734	212.69
432.956	210.69
433.178	227.69
433.4	217.69
433.622	209.69
433.844	204.69
434.066	222.69
434.287	208.69
434.509	219.69
434.731	227.69
434.953	237.69
435.175	236.69
435.397	231.69
435.618	234.69
435.84	232.69
436.062	200.69
436.284	224.69
436.505	223.69
436.727	237.69
436.949	218.69
437.17	206.69
437.392	224.69
437.614	220.69
437.835	220.69
438.057	209.69
438.278	187.69
438.5	210.69
438.721	207.69
438.943	199.69
439.165	236.69
439.386	208.69
439.608	219.69
439.829	220.69
440.05	234.69
440.272	217.69
440.493	236.69
440.715	224.69
440.936	234.69
441.158	238.69
441.379	237.69
441.6	259.69
441.822	238.69
442.043	254.69
442.264	242.69
442.486	236.69
442.707	214.69
442.928	256.69
443.149	222.69
443.371	230.69
443.592	245.69
443.813	236.69
444.034	245.69
444.255	255.69
444.476	253.69
444.698	261.69
444.919	267.69
445.14	348.69
445.361	290.69
445.582	248.69
445.803	251.69
446.024	229.69
446.245	256.69
446.466	234.69
446.687	240.69
446.908	222.69
447.129	237.69
447.35	216.69
447.571	227.69
447.792	232.69
448.013	219.69
448.234	220.69
448.455	223.69
448.675	215.69
448.896	224.69
449.117	222.69
449.338	210.69
449.559	210.69
449.779	209.69
450	212.69
450.221	214.69
450.442	223.69
450.662	215.69
450.883	220.69
451.104	227.69
451.324	216.69
451.545	217.69
451.766	218.69
451.986	218.69
452.207	213.69
452.428	224.69
452.648	206.69
452.869	211.69
453.089	200.69
453.31	203.69
453.53	210.69
453.751	208.69
453.971	203.69
454.192	195.69
454.412	191.69
454.633	195.69
454.853	204.69
455.073	202.69
455.294	192.69
455.514	205.69
455.734	189.69
455.955	199.69
456.175	213.69
456.395	216.69
456.616	212.69
456.836	207.69
457.056	208.69
457.276	206.69
457.497	208.69
457.717	205.69
457.937	193.69
458.157	205.69
458.377	233.69
458.598	212.69
458.818	212.69
459.038	205.69
459.258	200.69
459.478	218.69
459.698	232.69
459.918	218.69
460.138	227.69
460.358	239.69
460.578	260.69
460.798	250.69
461.018	246.69
461.238	242.69
461.458	231.69
461.678	221.69
461.898	263.69
462.118	235.69
462.338	253.69
462.558	248.69
462.777	277.69
462.997	277.69
463.217	283.69
463.437	286.69
463.657	282.69
463.876	252.69
464.096	271.69
464.316	257.69
464.536	266.69
464.755	252.69
464.975	268.69
465.195	260.69
465.414	236.69
465.634	236.69
465.854	235.69
466.073	237.69
466.293	211.69
466.512	218.69
466.732	211.69
466.951	222.69
467.171	207.69
467.391	222.69
467.61	217.69
467.829	223.69
468.049	225.69
468.268	238.69
468.488	205.69
468.707	215.69
468.927	202.69
469.146	207.69
469.365	207.69
469.585	222.69
469.804	213.69
470.023	222.69
470.243	225.69
470.462	234.69
470.681	247.69
470.901	220.69
471.12	220.69
471.339	220.69
471.558	231.69
471.777	226.69
471.997	215.69
472.216	196.69
472.435	195.69
472.654	195.69
472.873	215.69
473.092	217.69
473.311	208.69
473.53	219.69
473.749	221.69
473.968	197.69
474.187	195.69
474.406	191.69
474.625	208.69
474.844	221.69
475.063	199.69
475.282	212.69
475.501	216.69
475.72	226.69
475.939	223.69
476.158	223.69
476.377	204.69
476.596	206.69
476.814	212.69
477.033	231.69
477.252	230.69
477.471	235.69
477.69	233.69
477.908	236.69
478.127	227.69
478.346	223.69
478.564	239.69
478.783	237.69
479.002	238.69
479.22	231.69
479.439	250.69
479.658	244.69
479.876	236.69
480.095	229.69
480.313	252.69
480.532	258.69
480.751	237.69
480.969	242.69
481.188	237.69
481.406	238.69
481.624	247.69
481.843	221.69
482.061	235.69
482.28	219.69
482.498	228.69
482.717	221.69
482.935	236.69
483.153	230.69
483.372	220.69
483.59	230.69
483.808	235.69
484.027	229.69
484.245	251.69
484.463	217.69
484.681	236.69
484.9	234.69
485.118	235.69
485.336	238.69
485.554	237.69
485.772	236.69
485.99	229.69
486.209	251.69
486.427	245.69
486.645	240.69
486.863	254.69
487.081	235.69
487.299	229.69
487.517	246.69
487.735	244.69
487.953	239.69
488.171	263.69
488.389	263.69
488.607	246.69
488.825	249.69
489.043	238.69
489.261	235.69
489.479	236.69
489.696	239.69
489.914	255.69
490.132	235.69
490.35	259.69
490.568	233.69
490.786	262.69
491.003	248.69
491.221	255.69
491.439	248.69
491.657	265.69
491.874	251.69
492.092	262.69
492.31	254.69
492.527	247.69
492.745	253.69
492.963	258.69
493.18	259.69
493.398	271.69
493.615	238.69
493.833	262.69
494.05	229.69
494.268	266.69
494.485	257.69
494.703	244.69
494.92	246.69
495.138	242.69
495.355	271.69
495.573	268.69
495.79	265.69
496.008	258.69
496.225	239.69
496.442	258.69
496.66	271.69
496.877	262.69
497.094	245.69
497.312	256.69
497.529	272.69
497.746	270.69
497.963	269.69
498.181	275.69
498.398	293.69
498.615	290.69
498.832	300.69
499.049	317.69
499.267	331.69
499.484	364.69
499.701	391.69
499.918	413.69
500.135	448.69
500.352	466.69
500.569	493.69
500.786	482.69
501.003	427.69
501.22	412.69
501.437	400.69
501.654	377.69
501.871	343.69
502.088	317.69
502.305	326.69
502.522	317.69
502.739	292.69
502.956	286.69
503.172	281.69
503.389	282.69
