Data from Fe(NO3)3@0.1M.TitratingCurve.Agarose3%dH2O.NegLispCup.LampEnergy10.LIBS07252019_HRD10591_16-41-10-332.txt Node
Date: Thu Jul 25 16:41:10 EDT 2019
User: cochatt
Spectrometer: HR+D1059
Trigger mode: 1
Integration Time (sec): 1.000000E-1
Scans to average: 1
Electric dark correction enabled: true
Nonlinearity correction enabled: false
Boxcar width: 0
XAxis mode: Wavelengths
Number of Pixels in Spectrum: 2048
>>>>>Begin Spectral Data<<<<<
223.165	-22.38
223.4	-22.38
223.635	-22.38
223.869	-22.38
224.104	-28.38
224.338	-17.38
224.573	-7.38
224.808	-8.38
225.042	-8.38
225.277	7.62
225.511	-7.38
225.746	1.62
225.98	13.62
226.215	15.62
226.449	10.62
226.683	16.62
226.918	27.62
227.152	28.62
227.387	43.62
227.621	39.62
227.856	38.62
228.09	48.62
228.324	39.62
228.559	62.62
228.793	65.62
229.027	77.62
229.262	79.62
229.496	78.62
229.73	95.62
229.964	93.62
230.199	72.62
230.433	84.62
230.667	93.62
230.901	89.62
231.136	93.62
231.37	78.62
231.604	98.62
231.838	93.62
232.072	95.62
232.306	101.62
232.541	85.62
232.775	92.62
233.009	92.62
233.243	95.62
233.477	99.62
233.711	95.62
233.945	100.62
234.179	100.62
234.413	104.62
234.647	92.62
234.881	102.62
235.115	93.62
235.349	103.62
235.583	91.62
235.817	109.62
236.051	92.62
236.285	99.62
236.519	103.62
236.753	92.62
236.987	89.62
237.221	100.62
237.455	100.62
237.689	113.62
237.922	109.62
238.156	92.62
238.39	95.62
238.624	102.62
238.858	93.62
239.091	118.62
239.325	108.62
239.559	117.62
239.793	112.62
240.027	104.62
240.26	118.62
240.494	106.62
240.728	106.62
240.961	99.62
241.195	111.62
241.429	111.62
241.662	110.62
241.896	98.62
242.13	108.62
242.363	99.62
242.597	91.62
242.83	110.62
243.064	101.62
243.298	105.62
243.531	98.62
243.765	115.62
243.998	112.62
244.232	103.62
244.465	106.62
244.699	118.62
244.932	109.62
245.166	99.62
245.399	115.62
245.633	101.62
245.866	108.62
246.099	99.62
246.333	108.62
246.566	124.62
246.8	106.62
247.033	107.62
247.266	115.62
247.5	106.62
247.733	115.62
247.966	117.62
248.2	118.62
248.433	118.62
248.666	119.62
248.899	124.62
249.133	128.62
249.366	117.62
249.599	123.62
249.832	116.62
250.066	131.62
250.299	111.62
250.532	131.62
250.765	125.62
250.998	131.62
251.231	127.62
251.465	121.62
251.698	122.62
251.931	124.62
252.164	131.62
252.397	116.62
252.63	123.62
252.863	127.62
253.096	125.62
253.329	127.62
253.562	124.62
253.795	145.62
254.028	131.62
254.261	127.62
254.494	136.62
254.727	137.62
254.96	111.62
255.193	128.62
255.426	119.62
255.659	134.62
255.892	132.62
256.124	126.62
256.357	139.62
256.59	128.62
256.823	139.62
257.056	125.62
257.289	148.62
257.521	135.62
257.754	124.62
257.987	127.62
258.22	141.62
258.452	139.62
258.685	138.62
258.918	133.62
259.151	131.62
259.383	143.62
259.616	139.62
259.849	145.62
260.081	134.62
260.314	154.62
260.547	134.62
260.779	127.62
261.012	136.62
261.244	134.62
261.477	139.62
261.71	146.62
261.942	146.62
262.175	150.62
262.407	135.62
262.64	146.62
262.872	127.62
263.105	147.62
263.337	138.62
263.57	137.62
263.802	150.62
264.035	140.62
264.267	144.62
264.499	134.62
264.732	149.62
264.964	148.62
265.197	150.62
265.429	137.62
265.661	151.62
265.894	159.62
266.126	161.62
266.358	149.62
266.591	154.62
266.823	155.62
267.055	129.62
267.287	159.62
267.52	170.62
267.752	159.62
267.984	162.62
268.216	154.62
268.448	152.62
268.681	163.62
268.913	149.62
269.145	143.62
269.377	155.62
269.609	161.62
269.841	175.62
270.073	147.62
270.306	159.62
270.538	151.62
270.77	184.62
271.002	142.62
271.234	166.62
271.466	153.62
271.698	162.62
271.93	158.62
272.162	157.62
272.394	159.62
272.626	163.62
272.858	172.62
273.09	173.62
273.322	190.62
273.553	155.62
273.785	153.62
274.017	167.62
274.249	172.62
274.481	173.62
274.713	160.62
274.945	166.62
275.176	179.62
275.408	173.62
275.64	175.62
275.872	161.62
276.104	173.62
276.335	176.62
276.567	186.62
276.799	170.62
277.031	149.62
277.262	176.62
277.494	170.62
277.726	180.62
277.957	185.62
278.189	192.62
278.421	173.62
278.652	190.62
278.884	180.62
279.115	184.62
279.347	177.62
279.579	174.62
279.81	189.62
280.042	171.62
280.273	176.62
280.505	181.62
280.736	185.62
280.968	183.62
281.199	174.62
281.431	181.62
281.662	181.62
281.894	183.62
282.125	180.62
282.356	179.62
282.588	181.62
282.819	185.62
283.051	184.62
283.282	180.62
283.513	179.62
283.745	192.62
283.976	175.62
284.207	185.62
284.439	185.62
284.67	192.62
284.901	200.62
285.132	196.62
285.364	203.62
285.595	185.62
285.826	198.62
286.057	199.62
286.288	189.62
286.52	208.62
286.751	196.62
286.982	192.62
287.213	194.62
287.444	187.62
287.675	187.62
287.906	200.62
288.138	199.62
288.369	196.62
288.6	196.62
288.831	196.62
289.062	213.62
289.293	198.62
289.524	199.62
289.755	195.62
289.986	199.62
290.217	206.62
290.448	187.62
290.679	206.62
290.91	200.62
291.141	193.62
291.371	203.62
291.602	203.62
291.833	204.62
292.064	202.62
292.295	187.62
292.526	220.62
292.757	207.62
292.987	211.62
293.218	224.62
293.449	204.62
293.68	195.62
293.91	200.62
294.141	207.62
294.372	218.62
294.603	222.62
294.833	214.62
295.064	196.62
295.295	227.62
295.525	190.62
295.756	185.62
295.987	213.62
296.217	209.62
296.448	237.62
296.679	220.62
296.909	204.62
297.14	207.62
297.37	213.62
297.601	210.62
297.831	207.62
298.062	211.62
298.292	206.62
298.523	218.62
298.753	216.62
298.984	212.62
299.214	217.62
299.445	218.62
299.675	209.62
299.905	229.62
300.136	221.62
300.366	213.62
300.597	219.62
300.827	216.62
301.057	217.62
301.288	229.62
301.518	209.62
301.748	228.62
301.979	228.62
302.209	225.62
302.439	231.62
302.669	234.62
302.9	231.62
303.13	217.62
303.36	206.62
303.59	228.62
303.82	220.62
304.051	216.62
304.281	235.62
304.511	221.62
304.741	224.62
304.971	231.62
305.201	219.62
305.431	220.62
305.661	229.62
305.891	224.62
306.121	239.62
306.352	218.62
306.582	237.62
306.812	215.62
307.042	233.62
307.272	217.62
307.502	229.62
307.731	228.62
307.961	225.62
308.191	211.62
308.421	227.62
308.651	231.62
308.881	226.62
309.111	229.62
309.341	220.62
309.571	209.62
309.8	232.62
310.03	223.62
310.26	234.62
310.49	239.62
310.72	232.62
310.949	232.62
311.179	228.62
311.409	239.62
311.639	227.62
311.868	234.62
312.098	231.62
312.328	237.62
312.557	241.62
312.787	245.62
313.017	235.62
313.246	238.62
313.476	244.62
313.706	229.62
313.935	234.62
314.165	219.62
314.394	257.62
314.624	255.62
314.853	232.62
315.083	235.62
315.312	243.62
315.542	248.62
315.771	259.62
316.001	262.62
316.23	243.62
316.46	251.62
316.689	235.62
316.919	243.62
317.148	235.62
317.377	244.62
317.607	231.62
317.836	228.62
318.065	243.62
318.295	230.62
318.524	234.62
318.753	227.62
318.983	252.62
319.212	239.62
319.441	259.62
319.67	251.62
319.9	241.62
320.129	241.62
320.358	251.62
320.587	243.62
320.816	243.62
321.046	242.62
321.275	223.62
321.504	248.62
321.733	232.62
321.962	228.62
322.191	248.62
322.42	258.62
322.649	248.62
322.878	255.62
323.108	254.62
323.337	250.62
323.566	252.62
323.795	247.62
324.024	251.62
324.253	228.62
324.482	249.62
324.71	241.62
324.939	264.62
325.168	263.62
325.397	238.62
325.626	255.62
325.855	254.62
326.084	261.62
326.313	267.62
326.542	256.62
326.77	277.62
326.999	257.62
327.228	256.62
327.457	256.62
327.686	260.62
327.914	264.62
328.143	262.62
328.372	264.62
328.6	271.62
328.829	264.62
329.058	265.62
329.287	280.62
329.515	275.62
329.744	264.62
329.972	280.62
330.201	275.62
330.43	253.62
330.658	264.62
330.887	286.62
331.115	281.62
331.344	292.62
331.572	278.62
331.801	274.62
332.03	284.62
332.258	271.62
332.486	305.62
332.715	306.62
332.943	307.62
333.172	311.62
333.4	324.62
333.629	339.62
333.857	324.62
334.085	316.62
334.314	313.62
334.542	324.62
334.771	324.62
334.999	318.62
335.227	302.62
335.455	314.62
335.684	315.62
335.912	312.62
336.14	300.62
336.369	304.62
336.597	323.62
336.825	319.62
337.053	313.62
337.281	327.62
337.51	282.62
337.738	292.62
337.966	294.62
338.194	306.62
338.422	267.62
338.65	283.62
338.878	296.62
339.106	287.62
339.334	284.62
339.562	297.62
339.79	287.62
340.018	263.62
340.246	274.62
340.474	281.62
340.702	288.62
340.93	278.62
341.158	278.62
341.386	277.62
341.614	284.62
341.842	278.62
342.07	283.62
342.298	274.62
342.526	277.62
342.754	268.62
342.981	283.62
343.209	289.62
343.437	297.62
343.665	327.62
343.893	317.62
344.12	323.62
344.348	295.62
344.576	309.62
344.804	312.62
345.031	310.62
345.259	286.62
345.487	263.62
345.714	258.62
345.942	280.62
346.17	277.62
346.397	263.62
346.625	274.62
346.853	271.62
347.08	275.62
347.308	277.62
347.535	280.62
347.763	275.62
347.99	288.62
348.218	284.62
348.445	265.62
348.673	268.62
348.9	276.62
349.128	265.62
349.355	267.62
349.583	275.62
349.81	272.62
350.037	282.62
350.265	273.62
350.492	261.62
350.72	255.62
350.947	249.62
351.174	280.62
351.402	259.62
351.629	265.62
351.856	273.62
352.083	284.62
352.311	280.62
352.538	251.62
352.765	267.62
352.992	262.62
353.22	259.62
353.447	276.62
353.674	259.62
353.901	278.62
354.128	269.62
354.355	275.62
354.583	259.62
354.81	244.62
355.037	265.62
355.264	263.62
355.491	274.62
355.718	267.62
355.945	283.62
356.172	281.62
356.399	275.62
356.626	265.62
356.853	262.62
357.08	273.62
357.307	270.62
357.534	259.62
357.761	285.62
357.988	285.62
358.215	270.62
358.441	260.62
358.668	270.62
358.895	280.62
359.122	271.62
359.349	273.62
359.576	271.62
359.802	271.62
360.029	275.62
360.256	262.62
360.483	255.62
360.709	266.62
360.936	273.62
361.163	273.62
361.39	264.62
361.616	268.62
361.843	251.62
362.07	286.62
362.296	276.62
362.523	265.62
362.749	271.62
362.976	278.62
363.203	277.62
363.429	273.62
363.656	273.62
363.882	260.62
364.109	260.62
364.335	270.62
364.562	264.62
364.788	256.62
365.015	277.62
365.241	252.62
365.468	289.62
365.694	284.62
365.92	268.62
366.147	257.62
366.373	278.62
366.599	269.62
366.826	281.62
367.052	269.62
367.278	270.62
367.505	270.62
367.731	263.62
367.957	278.62
368.184	260.62
368.41	291.62
368.636	291.62
368.862	291.62
369.089	290.62
369.315	287.62
369.541	282.62
369.767	275.62
369.993	274.62
370.219	283.62
370.445	284.62
370.672	270.62
370.898	282.62
371.124	283.62
371.35	285.62
371.576	285.62
371.802	299.62
372.028	296.62
372.254	278.62
372.48	298.62
372.706	296.62
372.932	283.62
373.158	300.62
373.384	297.62
373.61	301.62
373.835	293.62
374.061	288.62
374.287	315.62
374.513	288.62
374.739	304.62
374.965	326.62
375.191	320.62
375.416	318.62
375.642	305.62
375.868	319.62
376.094	319.62
376.319	281.62
376.545	272.62
376.771	289.62
376.997	311.62
377.222	294.62
377.448	284.62
377.674	295.62
377.899	285.62
378.125	296.62
378.35	292.62
378.576	296.62
378.802	292.62
379.027	292.62
379.253	272.62
379.478	282.62
379.704	298.62
379.929	304.62
380.155	299.62
380.38	300.62
380.606	282.62
380.831	293.62
381.057	301.62
381.282	313.62
381.507	302.62
381.733	319.62
381.958	309.62
382.184	307.62
382.409	322.62
382.634	305.62
382.86	315.62
383.085	326.62
383.31	312.62
383.535	330.62
383.761	315.62
383.986	320.62
384.211	319.62
384.436	324.62
384.662	345.62
384.887	333.62
385.112	315.62
385.337	328.62
385.562	327.62
385.787	336.62
386.013	352.62
386.238	362.62
386.463	320.62
386.688	328.62
386.913	336.62
387.138	334.62
387.363	353.62
387.588	347.62
387.813	341.62
388.038	319.62
388.263	336.62
388.488	359.62
388.713	353.62
388.938	342.62
389.163	344.62
389.387	335.62
389.612	336.62
389.837	348.62
390.062	347.62
390.287	332.62
390.512	358.62
390.736	355.62
390.961	372.62
391.186	342.62
391.411	338.62
391.636	364.62
391.86	369.62
392.085	379.62
392.31	377.62
392.534	385.62
392.759	376.62
392.984	370.62
393.208	363.62
393.433	357.62
393.658	352.62
393.882	353.62
394.107	375.62
394.331	363.62
394.556	377.62
394.78	363.62
395.005	383.62
395.229	381.62
395.454	380.62
395.678	388.62
395.903	376.62
396.127	379.62
396.352	375.62
396.576	357.62
396.801	373.62
397.025	375.62
397.249	395.62
397.474	392.62
397.698	395.62
397.922	391.62
398.147	380.62
398.371	382.62
398.595	427.62
398.82	410.62
399.044	462.62
399.268	467.62
399.492	519.62
399.717	576.62
399.941	552.62
400.165	523.62
400.389	472.62
400.613	442.62
400.837	432.62
401.062	441.62
401.286	431.62
401.51	409.62
401.734	413.62
401.958	433.62
402.182	415.62
402.406	421.62
402.63	439.62
402.854	413.62
403.078	433.62
403.302	445.62
403.526	462.62
403.75	448.62
403.974	454.62
404.198	456.62
404.422	456.62
404.645	447.62
404.869	443.62
405.093	469.62
405.317	458.62
405.541	455.62
405.765	461.62
405.988	462.62
406.212	458.62
406.436	450.62
406.66	472.62
406.883	497.62
407.107	483.62
407.331	487.62
407.555	509.62
407.778	498.62
408.002	502.62
408.226	490.62
408.449	464.62
408.673	495.62
408.896	464.62
409.12	464.62
409.344	449.62
409.567	467.62
409.791	469.62
410.014	468.62
410.238	454.62
410.461	460.62
410.685	467.62
410.908	439.62
411.132	458.62
411.355	437.62
411.578	432.62
411.802	433.62
412.025	443.62
412.249	465.62
412.472	428.62
412.695	428.62
412.919	436.62
413.142	428.62
413.365	417.62
413.589	439.62
413.812	419.62
414.035	422.62
414.258	427.62
414.482	419.62
414.705	417.62
414.928	429.62
415.151	423.62
415.374	435.62
415.597	421.62
415.821	402.62
416.044	420.62
416.267	426.62
416.49	428.62
416.713	413.62
416.936	438.62
417.159	432.62
417.382	431.62
417.605	403.62
417.828	416.62
418.051	429.62
418.274	424.62
418.497	408.62
418.72	440.62
418.943	435.62
419.166	460.62
419.389	453.62
419.611	465.62
419.834	449.62
420.057	437.62
420.28	433.62
420.503	424.62
420.726	401.62
420.948	413.62
421.171	427.62
421.394	433.62
421.617	410.62
421.839	416.62
422.062	430.62
422.285	431.62
422.507	433.62
422.73	414.62
422.953	438.62
423.175	425.62
423.398	433.62
423.621	427.62
423.843	431.62
424.066	439.62
424.288	428.62
424.511	427.62
424.733	414.62
424.956	439.62
425.178	421.62
425.401	404.62
425.623	430.62
425.846	411.62
426.068	403.62
426.291	406.62
426.513	429.62
426.735	413.62
426.958	427.62
427.18	407.62
427.402	393.62
427.625	395.62
427.847	400.62
428.069	397.62
428.292	377.62
428.514	400.62
428.736	394.62
428.958	406.62
429.181	381.62
429.403	407.62
429.625	391.62
429.847	382.62
430.069	387.62
430.292	383.62
430.514	386.62
430.736	390.62
430.958	401.62
431.18	369.62
431.402	375.62
431.624	372.62
431.846	396.62
432.068	376.62
432.29	377.62
432.512	379.62
432.734	388.62
432.956	401.62
433.178	381.62
433.4	381.62
433.622	410.62
433.844	387.62
434.066	405.62
434.287	402.62
434.509	411.62
434.731	417.62
434.953	423.62
435.175	409.62
435.397	423.62
435.618	397.62
435.84	398.62
436.062	380.62
436.284	382.62
436.505	380.62
436.727	411.62
436.949	399.62
437.17	387.62
437.392	382.62
437.614	393.62
437.835	385.62
438.057	378.62
438.278	384.62
438.5	382.62
438.721	378.62
438.943	383.62
439.165	402.62
439.386	390.62
439.608	398.62
439.829	401.62
440.05	412.62
440.272	406.62
440.493	398.62
440.715	408.62
440.936	402.62
441.158	409.62
441.379	433.62
441.6	448.62
441.822	406.62
442.043	431.62
442.264	425.62
442.486	438.62
442.707	426.62
442.928	419.62
443.149	442.62
443.371	427.62
443.592	433.62
443.813	423.62
444.034	447.62
444.255	457.62
444.476	459.62
444.698	471.62
444.919	496.62
445.14	551.62
445.361	495.62
445.582	449.62
445.803	444.62
446.024	409.62
446.245	426.62
446.466	413.62
446.687	407.62
446.908	417.62
447.129	408.62
447.35	395.62
447.571	385.62
447.792	399.62
448.013	387.62
448.234	410.62
448.455	390.62
448.675	387.62
448.896	376.62
449.117	359.62
449.338	365.62
449.559	378.62
449.779	359.62
450	379.62
450.221	381.62
450.442	384.62
450.662	360.62
450.883	395.62
451.104	397.62
451.324	391.62
451.545	374.62
451.766	366.62
451.986	378.62
452.207	381.62
452.428	360.62
452.648	375.62
452.869	371.62
453.089	360.62
453.31	339.62
453.53	350.62
453.751	345.62
453.971	374.62
454.192	358.62
454.412	343.62
454.633	351.62
454.853	325.62
455.073	358.62
455.294	351.62
455.514	367.62
455.734	356.62
455.955	358.62
456.175	328.62
456.395	356.62
456.616	359.62
456.836	337.62
457.056	348.62
457.276	326.62
457.497	357.62
457.717	350.62
457.937	346.62
458.157	350.62
458.377	372.62
458.598	353.62
458.818	356.62
459.038	370.62
459.258	392.62
459.478	400.62
459.698	381.62
459.918	421.62
460.138	423.62
460.358	423.62
460.578	455.62
460.798	435.62
461.018	454.62
461.238	441.62
461.458	439.62
461.678	447.62
461.898	450.62
462.118	444.62
462.338	468.62
462.558	481.62
462.777	507.62
462.997	542.62
463.217	552.62
463.437	543.62
463.657	513.62
463.876	500.62
464.096	493.62
464.316	493.62
464.536	488.62
464.755	473.62
464.975	464.62
465.195	447.62
465.414	427.62
465.634	391.62
465.854	417.62
466.073	411.62
466.293	401.62
466.512	385.62
466.732	404.62
466.951	399.62
467.171	381.62
467.391	402.62
467.61	389.62
467.829	379.62
468.049	366.62
468.268	381.62
468.488	377.62
468.707	375.62
468.927	381.62
469.146	363.62
469.365	387.62
469.585	384.62
469.804	377.62
470.023	380.62
470.243	392.62
470.462	389.62
470.681	403.62
470.901	399.62
471.12	375.62
471.339	375.62
471.558	374.62
471.777	383.62
471.997	377.62
472.216	351.62
472.435	346.62
472.654	340.62
472.873	348.62
473.092	380.62
473.311	373.62
473.53	386.62
473.749	368.62
473.968	359.62
474.187	344.62
474.406	365.62
474.625	355.62
474.844	361.62
475.063	365.62
475.282	381.62
475.501	366.62
475.72	371.62
475.939	369.62
476.158	364.62
476.377	374.62
476.596	387.62
476.814	383.62
477.033	375.62
477.252	363.62
477.471	389.62
477.69	390.62
477.908	396.62
478.127	405.62
478.346	411.62
478.564	412.62
478.783	410.62
479.002	441.62
479.22	421.62
479.439	426.62
479.658	419.62
479.876	417.62
480.095	410.62
480.313	431.62
480.532	442.62
480.751	439.62
480.969	433.62
481.188	409.62
481.406	412.62
481.624	392.62
481.843	402.62
482.061	395.62
482.28	391.62
482.498	375.62
482.717	402.62
482.935	403.62
483.153	398.62
483.372	388.62
483.59	412.62
483.808	405.62
484.027	402.62
484.245	404.62
484.463	381.62
484.681	407.62
484.9	399.62
485.118	409.62
485.336	409.62
485.554	424.62
485.772	402.62
485.99	425.62
486.209	411.62
486.427	406.62
486.645	422.62
486.863	421.62
487.081	432.62
487.299	412.62
487.517	436.62
487.735	401.62
487.953	430.62
488.171	417.62
488.389	423.62
488.607	397.62
488.825	403.62
489.043	403.62
489.261	405.62
489.479	412.62
489.696	415.62
489.914	407.62
490.132	408.62
490.35	407.62
490.568	453.62
490.786	416.62
491.003	412.62
491.221	443.62
491.439	422.62
491.657	425.62
491.874	432.62
492.092	439.62
492.31	439.62
492.527	446.62
492.745	427.62
492.963	421.62
493.18	433.62
493.398	437.62
493.615	415.62
493.833	443.62
494.05	436.62
494.268	443.62
494.485	435.62
494.703	428.62
494.92	431.62
495.138	456.62
495.355	455.62
495.573	438.62
495.79	428.62
496.008	448.62
496.225	436.62
496.442	442.62
496.66	461.62
496.877	449.62
497.094	469.62
497.312	492.62
497.529	480.62
497.746	506.62
497.963	506.62
498.181	523.62
498.398	537.62
498.615	558.62
498.832	588.62
499.049	632.62
499.267	661.62
499.484	721.62
499.701	774.62
499.918	841.62
500.135	892.62
500.352	1005.62
500.569	1027.62
500.786	1034.62
501.003	964.62
501.22	856.62
501.437	784.62
501.654	735.62
501.871	671.62
502.088	634.62
