Data from Fe(NO3)3@0.1M.TitratingCurve.Agarose3%dH2O.NegLispCup.LampEnergy10.LIBS07252019_HRD10591_16-39-45-332.txt Node
Date: Thu Jul 25 16:39:45 EDT 2019
User: cochatt
Spectrometer: HR+D1059
Trigger mode: 1
Integration Time (sec): 1.000000E-1
Scans to average: 1
Electric dark correction enabled: true
Nonlinearity correction enabled: false
Boxcar width: 0
XAxis mode: Wavelengths
Number of Pixels in Spectrum: 2048
>>>>>Begin Spectral Data<<<<<
223.165	-15.88
223.4	-15.88
223.635	-15.88
223.869	-33.88
224.104	-10.88
224.338	-20.88
224.573	-24.88
224.808	-16.88
225.042	-9.88
225.277	-4.88
225.511	-5.88
225.746	5.12
225.98	11.12
226.215	16.12
226.449	28.12
226.683	15.12
226.918	30.12
227.152	38.12
227.387	36.12
227.621	33.12
227.856	30.12
228.09	34.12
228.324	51.12
228.559	60.12
228.793	62.12
229.027	79.12
229.262	86.12
229.496	74.12
229.73	88.12
229.964	83.12
230.199	75.12
230.433	82.12
230.667	109.12
230.901	89.12
231.136	87.12
231.37	98.12
231.604	103.12
231.838	91.12
232.072	113.12
232.306	110.12
232.541	108.12
232.775	108.12
233.009	100.12
233.243	128.12
233.477	111.12
233.711	108.12
233.945	101.12
234.179	101.12
234.413	123.12
234.647	112.12
234.881	101.12
235.115	108.12
235.349	107.12
235.583	114.12
235.817	100.12
236.051	100.12
236.285	99.12
236.519	107.12
236.753	101.12
236.987	102.12
237.221	103.12
237.455	111.12
237.689	103.12
237.922	111.12
238.156	106.12
238.39	106.12
238.624	108.12
238.858	109.12
239.091	107.12
239.325	108.12
239.559	108.12
239.793	101.12
240.027	114.12
240.26	112.12
240.494	115.12
240.728	118.12
240.961	128.12
241.195	122.12
241.429	116.12
241.662	114.12
241.896	125.12
242.13	124.12
242.363	118.12
242.597	119.12
242.83	131.12
243.064	113.12
243.298	119.12
243.531	128.12
243.765	125.12
243.998	119.12
244.232	125.12
244.465	120.12
244.699	143.12
244.932	134.12
245.166	123.12
245.399	136.12
245.633	141.12
245.866	123.12
246.099	130.12
246.333	144.12
246.566	129.12
246.8	137.12
247.033	128.12
247.266	122.12
247.5	135.12
247.733	136.12
247.966	123.12
248.2	132.12
248.433	140.12
248.666	138.12
248.899	131.12
249.133	152.12
249.366	166.12
249.599	154.12
249.832	142.12
250.066	140.12
250.299	140.12
250.532	154.12
250.765	133.12
250.998	141.12
251.231	155.12
251.465	157.12
251.698	158.12
251.931	144.12
252.164	151.12
252.397	151.12
252.63	146.12
252.863	172.12
253.096	162.12
253.329	142.12
253.562	170.12
253.795	167.12
254.028	157.12
254.261	178.12
254.494	160.12
254.727	166.12
254.96	182.12
255.193	183.12
255.426	171.12
255.659	158.12
255.892	158.12
256.124	176.12
256.357	163.12
256.59	157.12
256.823	155.12
257.056	157.12
257.289	168.12
257.521	168.12
257.754	176.12
257.987	172.12
258.22	181.12
258.452	179.12
258.685	189.12
258.918	186.12
259.151	181.12
259.383	164.12
259.616	146.12
259.849	179.12
260.081	182.12
260.314	190.12
260.547	186.12
260.779	175.12
261.012	185.12
261.244	186.12
261.477	171.12
261.71	188.12
261.942	194.12
262.175	181.12
262.407	171.12
262.64	178.12
262.872	179.12
263.105	176.12
263.337	182.12
263.57	167.12
263.802	191.12
264.035	190.12
264.267	192.12
264.499	201.12
264.732	190.12
264.964	199.12
265.197	205.12
265.429	196.12
265.661	172.12
265.894	203.12
266.126	190.12
266.358	185.12
266.591	201.12
266.823	196.12
267.055	182.12
267.287	203.12
267.52	203.12
267.752	191.12
267.984	202.12
268.216	200.12
268.448	191.12
268.681	205.12
268.913	210.12
269.145	192.12
269.377	205.12
269.609	219.12
269.841	197.12
270.073	200.12
270.306	210.12
270.538	206.12
270.77	195.12
271.002	194.12
271.234	202.12
271.466	198.12
271.698	209.12
271.93	217.12
272.162	214.12
272.394	219.12
272.626	227.12
272.858	221.12
273.09	215.12
273.322	211.12
273.553	215.12
273.785	223.12
274.017	235.12
274.249	239.12
274.481	223.12
274.713	214.12
274.945	210.12
275.176	229.12
275.408	236.12
275.64	232.12
275.872	225.12
276.104	225.12
276.335	221.12
276.567	230.12
276.799	236.12
277.031	228.12
277.262	227.12
277.494	222.12
277.726	240.12
277.957	226.12
278.189	230.12
278.421	240.12
278.652	244.12
278.884	222.12
279.115	226.12
279.347	234.12
279.579	250.12
279.81	239.12
280.042	247.12
280.273	234.12
280.505	236.12
280.736	241.12
280.968	250.12
281.199	250.12
281.431	236.12
281.662	252.12
281.894	250.12
282.125	229.12
282.356	260.12
282.588	273.12
282.819	260.12
283.051	252.12
283.282	255.12
283.513	256.12
283.745	250.12
283.976	258.12
284.207	269.12
284.439	246.12
284.67	237.12
284.901	243.12
285.132	253.12
285.364	259.12
285.595	255.12
285.826	262.12
286.057	268.12
286.288	261.12
286.52	262.12
286.751	261.12
286.982	251.12
287.213	265.12
287.444	283.12
287.675	272.12
287.906	266.12
288.138	273.12
288.369	286.12
288.6	283.12
288.831	267.12
289.062	274.12
289.293	271.12
289.524	277.12
289.755	255.12
289.986	282.12
290.217	278.12
290.448	274.12
290.679	284.12
290.91	282.12
291.141	275.12
291.371	283.12
291.602	285.12
291.833	279.12
292.064	276.12
292.295	276.12
292.526	291.12
292.757	273.12
292.987	272.12
293.218	263.12
293.449	295.12
293.68	273.12
293.91	276.12
294.141	279.12
294.372	284.12
294.603	300.12
294.833	290.12
295.064	293.12
295.295	264.12
295.525	270.12
295.756	290.12
295.987	270.12
296.217	291.12
296.448	272.12
296.679	284.12
296.909	287.12
297.14	295.12
297.37	303.12
297.601	311.12
297.831	290.12
298.062	300.12
298.292	304.12
298.523	323.12
298.753	302.12
298.984	294.12
299.214	287.12
299.445	315.12
299.675	321.12
299.905	310.12
300.136	315.12
300.366	305.12
300.597	308.12
300.827	316.12
301.057	337.12
301.288	323.12
301.518	308.12
301.748	308.12
301.979	316.12
302.209	322.12
302.439	322.12
302.669	313.12
302.9	318.12
303.13	319.12
303.36	309.12
303.59	315.12
303.82	314.12
304.051	322.12
304.281	318.12
304.511	327.12
304.741	329.12
304.971	311.12
305.201	316.12
305.431	332.12
305.661	311.12
305.891	330.12
306.121	302.12
306.352	325.12
306.582	314.12
306.812	303.12
307.042	331.12
307.272	319.12
307.502	333.12
307.731	333.12
307.961	318.12
308.191	322.12
308.421	321.12
308.651	297.12
308.881	330.12
309.111	330.12
309.341	309.12
309.571	325.12
309.8	304.12
310.03	323.12
310.26	328.12
310.49	314.12
310.72	322.12
310.949	329.12
311.179	323.12
311.409	337.12
311.639	343.12
311.868	347.12
312.098	336.12
312.328	336.12
312.557	344.12
312.787	329.12
313.017	340.12
313.246	336.12
313.476	329.12
313.706	354.12
313.935	343.12
314.165	351.12
314.394	337.12
314.624	332.12
314.853	363.12
315.083	350.12
315.312	347.12
315.542	320.12
315.771	351.12
316.001	363.12
316.23	358.12
316.46	321.12
316.689	351.12
316.919	339.12
317.148	343.12
317.377	354.12
317.607	347.12
317.836	347.12
318.065	359.12
318.295	349.12
318.524	370.12
318.753	331.12
318.983	334.12
319.212	353.12
319.441	346.12
319.67	347.12
319.9	341.12
320.129	351.12
320.358	334.12
320.587	352.12
320.816	350.12
321.046	344.12
321.275	348.12
321.504	348.12
321.733	356.12
321.962	364.12
322.191	350.12
322.42	357.12
322.649	370.12
322.878	337.12
323.108	354.12
323.337	357.12
323.566	349.12
323.795	343.12
324.024	366.12
324.253	355.12
324.482	374.12
324.71	370.12
324.939	361.12
325.168	365.12
325.397	355.12
325.626	380.12
325.855	374.12
326.084	380.12
326.313	368.12
326.542	373.12
326.77	394.12
326.999	375.12
327.228	391.12
327.457	369.12
327.686	361.12
327.914	368.12
328.143	374.12
328.372	362.12
328.6	375.12
328.829	361.12
329.058	351.12
329.287	385.12
329.515	400.12
329.744	384.12
329.972	376.12
330.201	385.12
330.43	406.12
330.658	374.12
330.887	388.12
331.115	390.12
331.344	401.12
331.572	386.12
331.801	387.12
332.03	399.12
332.258	413.12
332.486	429.12
332.715	436.12
332.943	458.12
333.172	461.12
333.4	453.12
333.629	461.12
333.857	478.12
334.085	480.12
334.314	478.12
334.542	471.12
334.771	480.12
334.999	461.12
335.227	463.12
335.455	472.12
335.684	442.12
335.912	466.12
336.14	446.12
336.369	459.12
336.597	474.12
336.825	453.12
337.053	442.12
337.281	448.12
337.51	423.12
337.738	420.12
337.966	415.12
338.194	439.12
338.422	421.12
338.65	415.12
338.878	427.12
339.106	414.12
339.334	407.12
339.562	391.12
339.79	398.12
340.018	397.12
340.246	384.12
340.474	399.12
340.702	414.12
340.93	398.12
341.158	422.12
341.386	403.12
341.614	391.12
341.842	398.12
342.07	406.12
342.298	382.12
342.526	402.12
342.754	418.12
342.981	421.12
343.209	402.12
343.437	426.12
343.665	444.12
343.893	461.12
344.12	486.12
344.348	445.12
344.576	442.12
344.804	452.12
345.031	430.12
345.259	428.12
345.487	413.12
345.714	376.12
345.942	402.12
346.17	408.12
346.397	382.12
346.625	389.12
346.853	406.12
347.08	384.12
347.308	410.12
347.535	396.12
347.763	390.12
347.99	386.12
348.218	384.12
348.445	406.12
348.673	392.12
348.9	384.12
349.128	392.12
349.355	392.12
349.583	378.12
349.81	388.12
350.037	350.12
350.265	376.12
350.492	400.12
350.72	399.12
350.947	410.12
351.174	380.12
351.402	374.12
351.629	361.12
351.856	373.12
352.083	385.12
352.311	384.12
352.538	391.12
352.765	378.12
352.992	368.12
353.22	382.12
353.447	374.12
353.674	373.12
353.901	402.12
354.128	372.12
354.355	385.12
354.583	388.12
354.81	384.12
355.037	387.12
355.264	391.12
355.491	398.12
355.718	376.12
355.945	384.12
356.172	387.12
356.399	394.12
356.626	398.12
356.853	375.12
357.08	386.12
357.307	388.12
357.534	376.12
357.761	404.12
357.988	386.12
358.215	391.12
358.441	383.12
358.668	383.12
358.895	393.12
359.122	406.12
359.349	385.12
359.576	372.12
359.802	380.12
360.029	396.12
360.256	387.12
360.483	382.12
360.709	390.12
360.936	388.12
361.163	353.12
361.39	386.12
361.616	399.12
361.843	382.12
362.07	391.12
362.296	374.12
362.523	392.12
362.749	401.12
362.976	392.12
363.203	394.12
363.429	386.12
363.656	372.12
363.882	371.12
364.109	389.12
364.335	380.12
364.562	398.12
364.788	396.12
365.015	388.12
365.241	386.12
365.468	377.12
365.694	374.12
365.92	382.12
366.147	382.12
366.373	401.12
366.599	403.12
366.826	418.12
367.052	383.12
367.278	397.12
367.505	380.12
367.731	398.12
367.957	386.12
368.184	389.12
368.41	394.12
368.636	402.12
368.862	385.12
369.089	393.12
369.315	401.12
369.541	409.12
369.767	407.12
369.993	401.12
370.219	403.12
370.445	407.12
370.672	419.12
370.898	399.12
371.124	400.12
371.35	415.12
371.576	435.12
371.802	437.12
372.028	403.12
372.254	406.12
372.48	430.12
372.706	429.12
372.932	432.12
373.158	439.12
373.384	435.12
373.61	436.12
373.835	424.12
374.061	434.12
374.287	426.12
374.513	422.12
374.739	452.12
374.965	466.12
375.191	472.12
375.416	448.12
375.642	443.12
375.868	454.12
376.094	443.12
376.319	438.12
376.545	442.12
376.771	412.12
376.997	432.12
377.222	433.12
377.448	406.12
377.674	410.12
377.899	416.12
378.125	403.12
378.35	414.12
378.576	426.12
378.802	404.12
379.027	419.12
379.253	438.12
379.478	427.12
379.704	411.12
379.929	432.12
380.155	400.12
380.38	414.12
380.606	416.12
380.831	424.12
381.057	441.12
381.282	411.12
381.507	428.12
381.733	430.12
381.958	453.12
382.184	439.12
382.409	419.12
382.634	432.12
382.86	446.12
383.085	450.12
383.31	448.12
383.535	477.12
383.761	464.12
383.986	461.12
384.211	471.12
384.436	503.12
384.662	498.12
384.887	496.12
385.112	509.12
385.337	509.12
385.562	508.12
385.787	484.12
386.013	506.12
386.238	489.12
386.463	529.12
386.688	508.12
386.913	492.12
387.138	503.12
387.363	491.12
387.588	481.12
387.813	494.12
388.038	495.12
388.263	500.12
388.488	518.12
388.713	497.12
388.938	507.12
389.163	505.12
389.387	507.12
389.612	499.12
389.837	486.12
390.062	488.12
390.287	499.12
390.512	519.12
390.736	508.12
390.961	542.12
391.186	521.12
391.411	516.12
391.636	543.12
391.86	563.12
392.085	546.12
392.31	544.12
392.534	521.12
392.759	566.12
392.984	524.12
393.208	547.12
393.433	542.12
393.658	532.12
393.882	532.12
394.107	534.12
394.331	554.12
394.556	510.12
394.78	546.12
395.005	523.12
395.229	546.12
395.454	561.12
395.678	567.12
395.903	566.12
396.127	558.12
396.352	559.12
396.576	531.12
396.801	544.12
397.025	544.12
397.249	576.12
397.474	568.12
397.698	580.12
397.922	579.12
398.147	568.12
398.371	595.12
398.595	599.12
398.82	641.12
399.044	671.12
399.268	719.12
399.492	781.12
399.717	830.12
399.941	848.12
400.165	782.12
400.389	711.12
400.613	692.12
400.837	647.12
401.062	634.12
401.286	635.12
401.51	624.12
401.734	646.12
401.958	614.12
402.182	615.12
402.406	636.12
402.63	634.12
402.854	655.12
403.078	669.12
403.302	662.12
403.526	671.12
403.75	660.12
403.974	672.12
404.198	675.12
404.422	688.12
404.645	689.12
404.869	664.12
405.093	680.12
405.317	660.12
405.541	659.12
405.765	659.12
405.988	655.12
406.212	670.12
406.436	684.12
406.66	698.12
406.883	693.12
407.107	737.12
407.331	727.12
407.555	753.12
407.778	750.12
408.002	767.12
408.226	733.12
408.449	724.12
408.673	692.12
408.896	692.12
409.12	710.12
409.344	709.12
409.567	677.12
409.791	711.12
410.014	687.12
410.238	663.12
410.461	655.12
410.685	684.12
410.908	666.12
411.132	667.12
411.355	635.12
411.578	624.12
411.802	671.12
412.025	658.12
412.249	668.12
412.472	658.12
412.695	638.12
412.919	628.12
413.142	636.12
413.365	619.12
413.589	606.12
413.812	616.12
414.035	599.12
414.258	633.12
414.482	638.12
414.705	650.12
414.928	655.12
415.151	627.12
415.374	632.12
415.597	626.12
415.821	628.12
416.044	605.12
416.267	630.12
416.49	607.12
416.713	618.12
416.936	612.12
417.159	611.12
417.382	599.12
417.605	607.12
417.828	616.12
418.051	634.12
418.274	623.12
418.497	614.12
418.72	630.12
418.943	630.12
419.166	626.12
419.389	691.12
419.611	688.12
419.834	654.12
420.057	628.12
420.28	627.12
420.503	618.12
420.726	596.12
420.948	623.12
421.171	619.12
421.394	629.12
421.617	622.12
421.839	615.12
422.062	630.12
422.285	599.12
422.507	626.12
422.73	638.12
422.953	632.12
423.175	624.12
423.398	656.12
423.621	652.12
423.843	668.12
424.066	632.12
424.288	629.12
424.511	634.12
424.733	630.12
424.956	631.12
425.178	635.12
425.401	615.12
425.623	590.12
425.846	595.12
426.068	585.12
426.291	607.12
426.513	581.12
426.735	574.12
426.958	583.12
427.18	571.12
427.402	563.12
427.625	571.12
427.847	560.12
428.069	579.12
428.292	554.12
428.514	552.12
428.736	570.12
428.958	576.12
429.181	526.12
429.403	548.12
429.625	556.12
429.847	557.12
430.069	539.12
430.292	556.12
430.514	554.12
430.736	572.12
430.958	578.12
431.18	548.12
431.402	557.12
431.624	571.12
431.846	558.12
432.068	563.12
432.29	562.12
432.512	571.12
432.734	563.12
432.956	563.12
433.178	557.12
433.4	565.12
433.622	558.12
433.844	581.12
434.066	565.12
434.287	550.12
434.509	582.12
434.731	595.12
434.953	627.12
435.175	616.12
435.397	620.12
435.618	592.12
435.84	588.12
436.062	582.12
436.284	569.12
436.505	587.12
436.727	571.12
436.949	572.12
437.17	588.12
437.392	574.12
437.614	564.12
437.835	514.12
438.057	546.12
438.278	551.12
438.5	542.12
438.721	564.12
438.943	583.12
439.165	575.12
439.386	564.12
439.608	595.12
439.829	576.12
440.05	576.12
440.272	594.12
440.493	573.12
440.715	583.12
440.936	567.12
441.158	591.12
441.379	610.12
441.6	609.12
441.822	621.12
442.043	631.12
442.264	607.12
442.486	613.12
442.707	618.12
442.928	616.12
443.149	613.12
443.371	592.12
443.592	626.12
443.813	614.12
444.034	626.12
444.255	645.12
444.476	653.12
444.698	678.12
444.919	695.12
445.14	780.12
445.361	691.12
445.582	638.12
445.803	635.12
446.024	623.12
446.245	602.12
446.466	604.12
446.687	587.12
446.908	584.12
447.129	592.12
447.35	566.12
447.571	557.12
447.792	524.12
448.013	540.12
448.234	537.12
448.455	518.12
448.675	551.12
448.896	519.12
449.117	531.12
449.338	558.12
449.559	556.12
449.779	514.12
450	512.12
450.221	543.12
450.442	541.12
450.662	515.12
450.883	515.12
451.104	531.12
451.324	522.12
451.545	512.12
451.766	525.12
451.986	522.12
452.207	514.12
452.428	527.12
452.648	519.12
452.869	508.12
453.089	499.12
453.31	507.12
453.53	488.12
453.751	546.12
453.971	502.12
454.192	506.12
454.412	485.12
454.633	516.12
454.853	512.12
455.073	492.12
455.294	500.12
455.514	512.12
455.734	498.12
455.955	484.12
456.175	485.12
456.395	510.12
456.616	492.12
456.836	482.12
457.056	506.12
457.276	487.12
457.497	492.12
457.717	506.12
457.937	497.12
458.157	512.12
458.377	508.12
458.598	507.12
458.818	527.12
459.038	537.12
459.258	547.12
459.478	550.12
459.698	584.12
459.918	594.12
460.138	599.12
460.358	606.12
460.578	618.12
460.798	648.12
461.018	646.12
461.238	635.12
461.458	640.12
461.678	649.12
461.898	662.12
462.118	661.12
462.338	684.12
462.558	690.12
462.777	710.12
462.997	780.12
463.217	797.12
463.437	786.12
463.657	767.12
463.876	718.12
464.096	722.12
464.316	710.12
464.536	736.12
464.755	695.12
464.975	651.12
465.195	658.12
465.414	631.12
465.634	597.12
465.854	574.12
466.073	568.12
466.293	572.12
466.512	559.12
466.732	549.12
466.951	556.12
467.171	560.12
467.391	567.12
467.61	580.12
467.829	541.12
468.049	551.12
468.268	533.12
468.488	528.12
468.707	512.12
468.927	538.12
469.146	520.12
469.365	519.12
469.585	540.12
469.804	547.12
470.023	548.12
470.243	557.12
470.462	578.12
470.681	557.12
470.901	542.12
471.12	541.12
471.339	558.12
471.558	556.12
471.777	532.12
471.997	518.12
472.216	505.12
472.435	518.12
472.654	523.12
472.873	492.12
473.092	511.12
473.311	502.12
473.53	526.12
473.749	506.12
473.968	494.12
474.187	509.12
474.406	520.12
474.625	533.12
474.844	530.12
475.063	521.12
475.282	523.12
475.501	526.12
475.72	535.12
475.939	505.12
476.158	529.12
476.377	516.12
476.596	538.12
476.814	534.12
477.033	525.12
477.252	535.12
477.471	564.12
477.69	581.12
477.908	573.12
478.127	602.12
478.346	596.12
478.564	616.12
478.783	614.12
479.002	630.12
479.22	610.12
479.439	602.12
479.658	624.12
479.876	611.12
480.095	646.12
480.313	662.12
480.532	651.12
480.751	634.12
480.969	629.12
481.188	608.12
481.406	612.12
481.624	578.12
481.843	608.12
482.061	571.12
482.28	568.12
482.498	579.12
482.717	576.12
482.935	583.12
483.153	574.12
483.372	579.12
483.59	597.12
483.808	591.12
484.027	585.12
484.245	560.12
484.463	574.12
484.681	599.12
484.9	597.12
485.118	605.12
485.336	578.12
485.554	602.12
485.772	587.12
485.99	582.12
486.209	581.12
486.427	601.12
486.645	591.12
486.863	604.12
487.081	592.12
487.299	593.12
487.517	582.12
487.735	595.12
487.953	587.12
488.171	602.12
488.389	610.12
488.607	579.12
488.825	607.12
489.043	569.12
489.261	573.12
489.479	590.12
489.696	581.12
489.914	576.12
490.132	604.12
490.35	615.12
490.568	601.12
490.786	589.12
491.003	611.12
491.221	608.12
491.439	623.12
491.657	596.12
491.874	591.12
492.092	615.12
492.31	610.12
492.527	615.12
492.745	620.12
492.963	606.12
493.18	622.12
493.398	638.12
493.615	625.12
493.833	630.12
494.05	626.12
494.268	612.12
494.485	624.12
494.703	636.12
494.92	654.12
495.138	653.12
495.355	662.12
495.573	651.12
495.79	659.12
496.008	674.12
496.225	653.12
496.442	654.12
496.66	671.12
496.877	676.12
497.094	668.12
497.312	700.12
497.529	706.12
497.746	746.12
497.963	753.12
498.181	771.12
498.398	798.12
498.615	863.12
498.832	896.12
499.049	949.12
499.267	994.12
499.484	1050.12
499.701	1141.12
499.918	1245.12
500.135	1421.12
500.352	1506.12
500.569	1565.12
500.786	1523.12
501.003	1437.12
501.22	1348.12
501.437	1212.12
501.654	1108.12
