Data from Fe(NO3)3@0.1M.TitratingCurve.Agarose3%dH2O.NegLispCup.LampEnergy10.LIBS07252019_HRD10591_16-39-15-332.txt Node
Date: Thu Jul 25 16:39:15 EDT 2019
User: cochatt
Spectrometer: HR+D1059
Trigger mode: 1
Integration Time (sec): 1.000000E-1
Scans to average: 1
Electric dark correction enabled: true
Nonlinearity correction enabled: false
Boxcar width: 0
XAxis mode: Wavelengths
Number of Pixels in Spectrum: 2048
>>>>>Begin Spectral Data<<<<<
223.165	-1.81
223.4	-1.81
223.635	-1.81
223.869	-20.81
224.104	-11.81
224.338	-16.81
224.573	-17.81
224.808	-11.81
225.042	-21.81
225.277	-7.81
225.511	-1.81
225.746	3.19
225.98	17.19
226.215	6.19
226.449	22.19
226.683	17.19
226.918	18.19
227.152	28.19
227.387	35.19
227.621	36.19
227.856	61.19
228.09	32.19
228.324	61.19
228.559	66.19
228.793	81.19
229.027	81.19
229.262	86.19
229.496	92.19
229.73	86.19
229.964	97.19
230.199	102.19
230.433	123.19
230.667	105.19
230.901	108.19
231.136	104.19
231.37	122.19
231.604	104.19
231.838	111.19
232.072	119.19
232.306	125.19
232.541	127.19
232.775	127.19
233.009	134.19
233.243	111.19
233.477	126.19
233.711	132.19
233.945	130.19
234.179	125.19
234.413	120.19
234.647	116.19
234.881	118.19
235.115	122.19
235.349	128.19
235.583	126.19
235.817	122.19
236.051	120.19
236.285	126.19
236.519	125.19
236.753	122.19
236.987	122.19
237.221	140.19
237.455	122.19
237.689	131.19
237.922	134.19
238.156	127.19
238.39	136.19
238.624	135.19
238.858	145.19
239.091	153.19
239.325	138.19
239.559	123.19
239.793	152.19
240.027	150.19
240.26	102.19
240.494	136.19
240.728	159.19
240.961	144.19
241.195	140.19
241.429	148.19
241.662	141.19
241.896	140.19
242.13	154.19
242.363	139.19
242.597	143.19
242.83	144.19
243.064	143.19
243.298	149.19
243.531	163.19
243.765	162.19
243.998	152.19
244.232	156.19
244.465	153.19
244.699	141.19
244.932	155.19
245.166	170.19
245.399	159.19
245.633	159.19
245.866	150.19
246.099	158.19
246.333	158.19
246.566	162.19
246.8	166.19
247.033	163.19
247.266	173.19
247.5	156.19
247.733	167.19
247.966	173.19
248.2	185.19
248.433	192.19
248.666	168.19
248.899	171.19
249.133	184.19
249.366	192.19
249.599	175.19
249.832	176.19
250.066	183.19
250.299	160.19
250.532	172.19
250.765	189.19
250.998	174.19
251.231	170.19
251.465	181.19
251.698	166.19
251.931	198.19
252.164	183.19
252.397	192.19
252.63	192.19
252.863	191.19
253.096	193.19
253.329	169.19
253.562	198.19
253.795	191.19
254.028	213.19
254.261	201.19
254.494	196.19
254.727	203.19
254.96	199.19
255.193	200.19
255.426	200.19
255.659	198.19
255.892	196.19
256.124	202.19
256.357	202.19
256.59	202.19
256.823	219.19
257.056	207.19
257.289	210.19
257.521	202.19
257.754	215.19
257.987	200.19
258.22	214.19
258.452	212.19
258.685	226.19
258.918	213.19
259.151	225.19
259.383	216.19
259.616	218.19
259.849	208.19
260.081	229.19
260.314	227.19
260.547	217.19
260.779	219.19
261.012	213.19
261.244	222.19
261.477	221.19
261.71	228.19
261.942	227.19
262.175	223.19
262.407	242.19
262.64	229.19
262.872	234.19
263.105	236.19
263.337	236.19
263.57	236.19
263.802	232.19
264.035	238.19
264.267	231.19
264.499	235.19
264.732	229.19
264.964	235.19
265.197	234.19
265.429	237.19
265.661	250.19
265.894	232.19
266.126	237.19
266.358	254.19
266.591	251.19
266.823	242.19
267.055	253.19
267.287	258.19
267.52	245.19
267.752	260.19
267.984	260.19
268.216	263.19
268.448	251.19
268.681	275.19
268.913	254.19
269.145	254.19
269.377	249.19
269.609	241.19
269.841	259.19
270.073	262.19
270.306	252.19
270.538	250.19
270.77	262.19
271.002	269.19
271.234	254.19
271.466	282.19
271.698	272.19
271.93	280.19
272.162	272.19
272.394	264.19
272.626	270.19
272.858	278.19
273.09	248.19
273.322	284.19
273.553	273.19
273.785	302.19
274.017	273.19
274.249	285.19
274.481	284.19
274.713	281.19
274.945	300.19
275.176	294.19
275.408	290.19
275.64	275.19
275.872	283.19
276.104	288.19
276.335	282.19
276.567	282.19
276.799	294.19
277.031	287.19
277.262	319.19
277.494	294.19
277.726	296.19
277.957	286.19
278.189	287.19
278.421	290.19
278.652	318.19
278.884	291.19
279.115	310.19
279.347	292.19
279.579	303.19
279.81	300.19
280.042	331.19
280.273	317.19
280.505	318.19
280.736	292.19
280.968	310.19
281.199	316.19
281.431	318.19
281.662	320.19
281.894	326.19
282.125	309.19
282.356	326.19
282.588	320.19
282.819	331.19
283.051	325.19
283.282	329.19
283.513	331.19
283.745	317.19
283.976	324.19
284.207	328.19
284.439	339.19
284.67	326.19
284.901	333.19
285.132	336.19
285.364	331.19
285.595	334.19
285.826	330.19
286.057	357.19
286.288	340.19
286.52	324.19
286.751	324.19
286.982	332.19
287.213	328.19
287.444	344.19
287.675	326.19
287.906	343.19
288.138	372.19
288.369	332.19
288.6	342.19
288.831	338.19
289.062	355.19
289.293	338.19
289.524	351.19
289.755	366.19
289.986	355.19
290.217	372.19
290.448	328.19
290.679	354.19
290.91	359.19
291.141	368.19
291.371	343.19
291.602	339.19
291.833	340.19
292.064	349.19
292.295	349.19
292.526	361.19
292.757	357.19
292.987	349.19
293.218	367.19
293.449	366.19
293.68	356.19
293.91	345.19
294.141	345.19
294.372	362.19
294.603	360.19
294.833	378.19
295.064	338.19
295.295	350.19
295.525	371.19
295.756	357.19
295.987	360.19
296.217	382.19
296.448	354.19
296.679	374.19
296.909	366.19
297.14	375.19
297.37	371.19
297.601	370.19
297.831	346.19
298.062	379.19
298.292	379.19
298.523	380.19
298.753	354.19
298.984	370.19
299.214	390.19
299.445	380.19
299.675	380.19
299.905	379.19
300.136	382.19
300.366	392.19
300.597	381.19
300.827	362.19
301.057	381.19
301.288	379.19
301.518	380.19
301.748	399.19
301.979	408.19
302.209	408.19
302.439	391.19
302.669	383.19
302.9	371.19
303.13	403.19
303.36	400.19
303.59	401.19
303.82	382.19
304.051	405.19
304.281	389.19
304.511	404.19
304.741	411.19
304.971	378.19
305.201	385.19
305.431	398.19
305.661	396.19
305.891	380.19
306.121	389.19
306.352	394.19
306.582	388.19
306.812	403.19
307.042	408.19
307.272	400.19
307.502	386.19
307.731	381.19
307.961	412.19
308.191	396.19
308.421	400.19
308.651	397.19
308.881	381.19
309.111	398.19
309.341	381.19
309.571	402.19
309.8	406.19
310.03	386.19
310.26	399.19
310.49	383.19
310.72	399.19
310.949	414.19
311.179	407.19
311.409	390.19
311.639	401.19
311.868	401.19
312.098	403.19
312.328	411.19
312.557	407.19
312.787	398.19
313.017	421.19
313.246	400.19
313.476	416.19
313.706	424.19
313.935	435.19
314.165	422.19
314.394	418.19
314.624	430.19
314.853	429.19
315.083	436.19
315.312	428.19
315.542	414.19
315.771	423.19
316.001	436.19
316.23	408.19
316.46	427.19
316.689	443.19
316.919	415.19
317.148	423.19
317.377	443.19
317.607	414.19
317.836	431.19
318.065	428.19
318.295	427.19
318.524	406.19
318.753	394.19
318.983	422.19
319.212	430.19
319.441	406.19
319.67	423.19
319.9	412.19
320.129	398.19
320.358	412.19
320.587	418.19
320.816	428.19
321.046	413.19
321.275	441.19
321.504	439.19
321.733	420.19
321.962	431.19
322.191	428.19
322.42	438.19
322.649	418.19
322.878	427.19
323.108	426.19
323.337	447.19
323.566	450.19
323.795	429.19
324.024	420.19
324.253	437.19
324.482	443.19
324.71	454.19
324.939	436.19
325.168	433.19
325.397	435.19
325.626	425.19
325.855	445.19
326.084	450.19
326.313	442.19
326.542	450.19
326.77	456.19
326.999	444.19
327.228	454.19
327.457	430.19
327.686	456.19
327.914	434.19
328.143	473.19
328.372	456.19
328.6	483.19
328.829	446.19
329.058	458.19
329.287	447.19
329.515	475.19
329.744	463.19
329.972	452.19
330.201	467.19
330.43	483.19
330.658	470.19
330.887	485.19
331.115	482.19
331.344	454.19
331.572	485.19
331.801	474.19
332.03	488.19
332.258	512.19
332.486	530.19
332.715	544.19
332.943	547.19
333.172	554.19
333.4	554.19
333.629	585.19
333.857	587.19
334.085	595.19
334.314	592.19
334.542	589.19
334.771	559.19
334.999	569.19
335.227	563.19
335.455	564.19
335.684	568.19
335.912	544.19
336.14	556.19
336.369	556.19
336.597	554.19
336.825	543.19
337.053	540.19
337.281	527.19
337.51	538.19
337.738	549.19
337.966	524.19
338.194	522.19
338.422	508.19
338.65	511.19
338.878	507.19
339.106	488.19
339.334	504.19
339.562	484.19
339.79	516.19
340.018	500.19
340.246	498.19
340.474	475.19
340.702	484.19
340.93	495.19
341.158	489.19
341.386	501.19
341.614	477.19
341.842	474.19
342.07	455.19
342.298	478.19
342.526	491.19
342.754	478.19
342.981	504.19
343.209	492.19
343.437	519.19
343.665	516.19
343.893	538.19
344.12	580.19
344.348	587.19
344.576	540.19
344.804	515.19
345.031	494.19
345.259	508.19
345.487	477.19
345.714	487.19
345.942	493.19
346.17	463.19
346.397	499.19
346.625	469.19
346.853	468.19
347.08	469.19
347.308	482.19
347.535	469.19
347.763	460.19
347.99	476.19
348.218	480.19
348.445	454.19
348.673	444.19
348.9	464.19
349.128	465.19
349.355	446.19
349.583	455.19
349.81	440.19
350.037	464.19
350.265	455.19
350.492	445.19
350.72	458.19
350.947	460.19
351.174	446.19
351.402	459.19
351.629	445.19
351.856	461.19
352.083	451.19
352.311	415.19
352.538	438.19
352.765	445.19
352.992	426.19
353.22	444.19
353.447	448.19
353.674	449.19
353.901	458.19
354.128	466.19
354.355	455.19
354.583	459.19
354.81	454.19
355.037	438.19
355.264	448.19
355.491	459.19
355.718	463.19
355.945	460.19
356.172	468.19
356.399	465.19
356.626	439.19
356.853	462.19
357.08	441.19
357.307	437.19
357.534	462.19
357.761	471.19
357.988	438.19
358.215	461.19
358.441	465.19
358.668	458.19
358.895	458.19
359.122	457.19
359.349	466.19
359.576	456.19
359.802	474.19
360.029	459.19
360.256	444.19
360.483	452.19
360.709	446.19
360.936	478.19
361.163	461.19
361.39	458.19
361.616	443.19
361.843	459.19
362.07	444.19
362.296	469.19
362.523	455.19
362.749	459.19
362.976	469.19
363.203	442.19
363.429	432.19
363.656	470.19
363.882	462.19
364.109	444.19
364.335	469.19
364.562	446.19
364.788	440.19
365.015	455.19
365.241	451.19
365.468	454.19
365.694	446.19
365.92	462.19
366.147	454.19
366.373	473.19
366.599	458.19
366.826	466.19
367.052	466.19
367.278	462.19
367.505	465.19
367.731	475.19
367.957	451.19
368.184	458.19
368.41	464.19
368.636	478.19
368.862	475.19
369.089	474.19
369.315	474.19
369.541	495.19
369.767	488.19
369.993	459.19
370.219	478.19
370.445	486.19
370.672	483.19
370.898	477.19
371.124	481.19
371.35	514.19
371.576	503.19
371.802	485.19
372.028	504.19
372.254	526.19
372.48	524.19
372.706	514.19
372.932	542.19
373.158	533.19
373.384	546.19
373.61	501.19
373.835	501.19
374.061	512.19
374.287	515.19
374.513	503.19
374.739	529.19
374.965	529.19
375.191	533.19
375.416	580.19
375.642	536.19
375.868	546.19
376.094	537.19
376.319	519.19
376.545	519.19
376.771	507.19
376.997	499.19
377.222	525.19
377.448	509.19
377.674	499.19
377.899	529.19
378.125	486.19
378.35	530.19
378.576	504.19
378.802	503.19
379.027	516.19
379.253	483.19
379.478	493.19
379.704	503.19
379.929	491.19
380.155	526.19
380.38	502.19
380.606	505.19
380.831	509.19
381.057	501.19
381.282	486.19
381.507	498.19
381.733	533.19
381.958	514.19
382.184	518.19
382.409	529.19
382.634	536.19
382.86	546.19
383.085	518.19
383.31	530.19
383.535	572.19
383.761	550.19
383.986	574.19
384.211	596.19
384.436	551.19
384.662	587.19
384.887	586.19
385.112	574.19
385.337	588.19
385.562	616.19
385.787	591.19
386.013	604.19
386.238	628.19
386.463	632.19
386.688	622.19
386.913	618.19
387.138	607.19
387.363	594.19
387.588	600.19
387.813	590.19
388.038	600.19
388.263	609.19
388.488	605.19
388.713	610.19
388.938	613.19
389.163	617.19
389.387	588.19
389.612	624.19
389.837	589.19
390.062	596.19
390.287	646.19
390.512	600.19
390.736	602.19
390.961	615.19
391.186	622.19
391.411	647.19
391.636	647.19
391.86	679.19
392.085	696.19
392.31	678.19
392.534	668.19
392.759	654.19
392.984	636.19
393.208	643.19
393.433	652.19
393.658	630.19
393.882	644.19
394.107	649.19
394.331	668.19
394.556	652.19
394.78	640.19
395.005	649.19
395.229	650.19
395.454	690.19
395.678	668.19
395.903	670.19
396.127	658.19
396.352	650.19
396.576	670.19
396.801	660.19
397.025	677.19
397.249	662.19
397.474	677.19
397.698	670.19
397.922	710.19
398.147	711.19
398.371	710.19
398.595	746.19
398.82	731.19
399.044	815.19
399.268	860.19
399.492	968.19
399.717	1059.19
399.941	1039.19
400.165	986.19
400.389	896.19
400.613	848.19
400.837	802.19
401.062	790.19
401.286	784.19
401.51	765.19
401.734	748.19
401.958	792.19
402.182	773.19
402.406	761.19
402.63	798.19
402.854	796.19
403.078	775.19
403.302	826.19
403.526	838.19
403.75	820.19
403.974	844.19
404.198	830.19
404.422	828.19
404.645	861.19
404.869	830.19
405.093	834.19
405.317	824.19
405.541	835.19
405.765	823.19
405.988	823.19
406.212	811.19
406.436	834.19
406.66	839.19
406.883	879.19
407.107	930.19
407.331	952.19
407.555	962.19
407.778	959.19
408.002	950.19
408.226	903.19
408.449	923.19
408.673	884.19
408.896	888.19
409.12	910.19
409.344	871.19
409.567	854.19
409.791	887.19
410.014	867.19
410.238	860.19
410.461	887.19
410.685	864.19
410.908	827.19
411.132	855.19
411.355	790.19
411.578	811.19
411.802	799.19
412.025	811.19
412.249	823.19
412.472	813.19
412.695	815.19
412.919	792.19
413.142	781.19
413.365	772.19
413.589	812.19
413.812	774.19
414.035	790.19
414.258	763.19
414.482	770.19
414.705	792.19
414.928	788.19
415.151	775.19
415.374	780.19
415.597	756.19
415.821	753.19
416.044	744.19
416.267	771.19
416.49	765.19
416.713	761.19
416.936	771.19
417.159	767.19
417.382	746.19
417.605	740.19
417.828	764.19
418.051	756.19
418.274	774.19
418.497	776.19
418.72	761.19
418.943	788.19
419.166	836.19
419.389	856.19
419.611	864.19
419.834	822.19
420.057	804.19
420.28	767.19
420.503	756.19
420.726	754.19
420.948	766.19
421.171	738.19
421.394	770.19
421.617	770.19
421.839	765.19
422.062	746.19
422.285	717.19
422.507	766.19
422.73	788.19
422.953	760.19
423.175	776.19
423.398	803.19
423.621	781.19
423.843	797.19
424.066	788.19
424.288	773.19
424.511	775.19
424.733	771.19
424.956	797.19
425.178	766.19
425.401	751.19
425.623	786.19
425.846	764.19
426.068	734.19
426.291	732.19
426.513	723.19
426.735	752.19
426.958	749.19
427.18	693.19
427.402	729.19
427.625	730.19
427.847	697.19
428.069	715.19
428.292	713.19
428.514	685.19
428.736	702.19
428.958	684.19
429.181	673.19
429.403	690.19
429.625	684.19
429.847	686.19
430.069	699.19
430.292	683.19
430.514	687.19
430.736	682.19
430.958	689.19
431.18	694.19
431.402	695.19
431.624	665.19
431.846	692.19
432.068	710.19
432.29	710.19
432.512	711.19
432.734	708.19
432.956	676.19
433.178	709.19
433.4	722.19
433.622	707.19
433.844	728.19
434.066	703.19
434.287	698.19
434.509	746.19
434.731	763.19
434.953	768.19
435.175	766.19
435.397	756.19
435.618	724.19
435.84	732.19
436.062	709.19
436.284	717.19
436.505	693.19
436.727	695.19
436.949	706.19
437.17	703.19
437.392	688.19
437.614	653.19
437.835	656.19
438.057	654.19
438.278	670.19
438.5	668.19
438.721	667.19
438.943	680.19
439.165	664.19
439.386	663.19
439.608	702.19
439.829	706.19
440.05	686.19
440.272	688.19
440.493	691.19
440.715	727.19
440.936	726.19
441.158	717.19
441.379	735.19
441.6	755.19
441.822	781.19
442.043	781.19
442.264	754.19
442.486	727.19
442.707	749.19
442.928	770.19
443.149	752.19
443.371	759.19
443.592	770.19
443.813	776.19
444.034	793.19
444.255	760.19
444.476	837.19
444.698	870.19
444.919	888.19
445.14	990.19
445.361	852.19
445.582	796.19
445.803	766.19
446.024	749.19
446.245	728.19
446.466	734.19
446.687	737.19
446.908	711.19
447.129	717.19
447.35	715.19
447.571	693.19
447.792	695.19
448.013	675.19
448.234	670.19
448.455	659.19
448.675	651.19
448.896	654.19
449.117	656.19
449.338	654.19
449.559	653.19
449.779	648.19
450	660.19
450.221	660.19
450.442	662.19
450.662	632.19
450.883	655.19
451.104	661.19
451.324	657.19
451.545	660.19
451.766	649.19
451.986	672.19
452.207	657.19
452.428	630.19
452.648	632.19
452.869	616.19
453.089	599.19
453.31	621.19
453.53	619.19
453.751	617.19
453.971	595.19
454.192	630.19
454.412	605.19
454.633	630.19
454.853	611.19
455.073	618.19
455.294	625.19
455.514	595.19
455.734	597.19
455.955	586.19
456.175	587.19
456.395	630.19
456.616	625.19
456.836	610.19
457.056	610.19
457.276	602.19
457.497	611.19
457.717	611.19
457.937	608.19
458.157	633.19
458.377	622.19
458.598	623.19
458.818	634.19
459.038	668.19
459.258	672.19
459.478	680.19
459.698	733.19
459.918	737.19
460.138	745.19
460.358	760.19
460.578	802.19
460.798	762.19
461.018	791.19
461.238	775.19
461.458	811.19
461.678	804.19
461.898	841.19
462.118	809.19
462.338	855.19
462.558	874.19
462.777	922.19
462.997	952.19
463.217	980.19
463.437	988.19
463.657	961.19
463.876	916.19
464.096	927.19
464.316	875.19
464.536	893.19
464.755	876.19
464.975	861.19
465.195	834.19
465.414	773.19
465.634	756.19
465.854	745.19
466.073	718.19
466.293	701.19
466.512	680.19
466.732	683.19
466.951	702.19
467.171	668.19
467.391	670.19
467.61	675.19
467.829	668.19
468.049	670.19
468.268	690.19
468.488	639.19
468.707	655.19
468.927	662.19
469.146	651.19
469.365	652.19
469.585	681.19
469.804	694.19
470.023	657.19
470.243	684.19
470.462	676.19
470.681	666.19
470.901	677.19
471.12	649.19
471.339	676.19
471.558	659.19
471.777	670.19
471.997	667.19
472.216	646.19
472.435	654.19
472.654	631.19
472.873	638.19
473.092	604.19
473.311	648.19
473.53	604.19
473.749	616.19
473.968	636.19
474.187	618.19
474.406	619.19
474.625	615.19
474.844	630.19
475.063	626.19
475.282	630.19
475.501	643.19
475.72	637.19
475.939	645.19
476.158	672.19
476.377	649.19
476.596	664.19
476.814	648.19
477.033	690.19
477.252	680.19
477.471	680.19
477.69	701.19
477.908	717.19
478.127	748.19
478.346	725.19
478.564	738.19
478.783	747.19
479.002	739.19
479.22	768.19
479.439	748.19
479.658	772.19
479.876	740.19
480.095	761.19
480.313	786.19
480.532	814.19
480.751	782.19
480.969	767.19
481.188	765.19
481.406	749.19
481.624	736.19
481.843	710.19
482.061	706.19
482.28	704.19
482.498	717.19
482.717	703.19
482.935	698.19
483.153	714.19
483.372	730.19
483.59	708.19
483.808	719.19
484.027	712.19
484.245	702.19
484.463	724.19
484.681	720.19
484.9	715.19
485.118	744.19
485.336	773.19
485.554	724.19
485.772	734.19
485.99	740.19
486.209	754.19
486.427	757.19
486.645	736.19
486.863	736.19
487.081	760.19
487.299	770.19
487.517	749.19
487.735	750.19
487.953	739.19
488.171	735.19
488.389	739.19
488.607	733.19
488.825	742.19
489.043	716.19
489.261	746.19
489.479	724.19
489.696	750.19
489.914	757.19
490.132	728.19
490.35	746.19
490.568	752.19
490.786	724.19
491.003	735.19
491.221	765.19
491.439	758.19
491.657	778.19
491.874	764.19
492.092	777.19
492.31	779.19
492.527	766.19
492.745	778.19
492.963	781.19
493.18	797.19
493.398	766.19
493.615	759.19
493.833	762.19
494.05	791.19
494.268	766.19
494.485	783.19
494.703	796.19
494.92	793.19
495.138	805.19
495.355	794.19
495.573	796.19
495.79	800.19
496.008	805.19
496.225	804.19
496.442	803.19
496.66	829.19
496.877	810.19
497.094	844.19
497.312	842.19
497.529	877.19
497.746	878.19
497.963	897.19
498.181	940.19
498.398	964.19
498.615	1022.19
498.832	1090.19
499.049	1161.19
499.267	1192.19
499.484	1320.19
499.701	1445.19
499.918	1586.19
500.135	1745.19
500.352	1934.19
500.569	1985.19
500.786	1959.19
501.003	1887.19
501.22	1719.19
501.437	1512.19
