Data from Fe(NO3)3@0.1M.TitratingCurve.Agarose3%dH2O.NegLispCup.LampEnergy10.LIBS07252019_HRD10591_16-39-56-332.txt Node
Date: Thu Jul 25 16:39:56 EDT 2019
User: cochatt
Spectrometer: HR+D1059
Trigger mode: 1
Integration Time (sec): 1.000000E-1
Scans to average: 1
Electric dark correction enabled: true
Nonlinearity correction enabled: false
Boxcar width: 0
XAxis mode: Wavelengths
Number of Pixels in Spectrum: 2048
>>>>>Begin Spectral Data<<<<<
223.165	-8.25
223.4	-8.25
223.635	-8.25
223.869	-24.25
224.104	-25.25
224.338	-10.25
224.573	-34.25
224.808	-8.25
225.042	-9.25
225.277	-2.25
225.511	9.75
225.746	7.75
225.98	7.75
226.215	16.75
226.449	28.75
226.683	8.75
226.918	14.75
227.152	27.75
227.387	28.75
227.621	49.75
227.856	36.75
228.09	56.75
228.324	45.75
228.559	58.75
228.793	62.75
229.027	88.75
229.262	76.75
229.496	66.75
229.73	84.75
229.964	82.75
230.199	73.75
230.433	86.75
230.667	82.75
230.901	88.75
231.136	92.75
231.37	97.75
231.604	91.75
231.838	86.75
232.072	109.75
232.306	107.75
232.541	110.75
232.775	102.75
233.009	101.75
233.243	108.75
233.477	106.75
233.711	98.75
233.945	101.75
234.179	97.75
234.413	104.75
234.647	105.75
234.881	106.75
235.115	99.75
235.349	104.75
235.583	103.75
235.817	94.75
236.051	114.75
236.285	113.75
236.519	112.75
236.753	97.75
236.987	106.75
237.221	99.75
237.455	99.75
237.689	113.75
237.922	110.75
238.156	106.75
238.39	97.75
238.624	100.75
238.858	100.75
239.091	122.75
239.325	104.75
239.559	112.75
239.793	113.75
240.027	116.75
240.26	107.75
240.494	106.75
240.728	98.75
240.961	116.75
241.195	101.75
241.429	112.75
241.662	103.75
241.896	106.75
242.13	119.75
242.363	114.75
242.597	119.75
242.83	138.75
243.064	107.75
243.298	123.75
243.531	123.75
243.765	119.75
243.998	118.75
244.232	107.75
244.465	118.75
244.699	130.75
244.932	126.75
245.166	134.75
245.399	114.75
245.633	122.75
245.866	109.75
246.099	115.75
246.333	124.75
246.566	118.75
246.8	121.75
247.033	130.75
247.266	137.75
247.5	125.75
247.733	121.75
247.966	124.75
248.2	123.75
248.433	115.75
248.666	129.75
248.899	130.75
249.133	136.75
249.366	133.75
249.599	120.75
249.832	126.75
250.066	143.75
250.299	136.75
250.532	135.75
250.765	137.75
250.998	145.75
251.231	130.75
251.465	140.75
251.698	144.75
251.931	155.75
252.164	137.75
252.397	159.75
252.63	148.75
252.863	138.75
253.096	136.75
253.329	156.75
253.562	134.75
253.795	134.75
254.028	157.75
254.261	147.75
254.494	140.75
254.727	123.75
254.96	135.75
255.193	118.75
255.426	142.75
255.659	149.75
255.892	148.75
256.124	144.75
256.357	144.75
256.59	149.75
256.823	137.75
257.056	153.75
257.289	148.75
257.521	153.75
257.754	163.75
257.987	162.75
258.22	151.75
258.452	159.75
258.685	162.75
258.918	148.75
259.151	169.75
259.383	156.75
259.616	163.75
259.849	136.75
260.081	156.75
260.314	165.75
260.547	154.75
260.779	154.75
261.012	150.75
261.244	158.75
261.477	167.75
261.71	158.75
261.942	170.75
262.175	171.75
262.407	158.75
262.64	162.75
262.872	173.75
263.105	163.75
263.337	156.75
263.57	171.75
263.802	145.75
264.035	163.75
264.267	187.75
264.499	164.75
264.732	170.75
264.964	160.75
265.197	162.75
265.429	168.75
265.661	170.75
265.894	161.75
266.126	167.75
266.358	169.75
266.591	180.75
266.823	152.75
267.055	166.75
267.287	164.75
267.52	170.75
267.752	171.75
267.984	176.75
268.216	172.75
268.448	166.75
268.681	176.75
268.913	180.75
269.145	177.75
269.377	170.75
269.609	190.75
269.841	179.75
270.073	183.75
270.306	189.75
270.538	180.75
270.77	167.75
271.002	182.75
271.234	178.75
271.466	173.75
271.698	166.75
271.93	188.75
272.162	175.75
272.394	173.75
272.626	185.75
272.858	181.75
273.09	175.75
273.322	178.75
273.553	189.75
273.785	203.75
274.017	184.75
274.249	179.75
274.481	180.75
274.713	177.75
274.945	202.75
275.176	192.75
275.408	188.75
275.64	193.75
275.872	192.75
276.104	199.75
276.335	193.75
276.567	188.75
276.799	203.75
277.031	204.75
277.262	186.75
277.494	189.75
277.726	196.75
277.957	208.75
278.189	176.75
278.421	210.75
278.652	200.75
278.884	200.75
279.115	204.75
279.347	195.75
279.579	189.75
279.81	198.75
280.042	210.75
280.273	194.75
280.505	192.75
280.736	198.75
280.968	210.75
281.199	196.75
281.431	208.75
281.662	196.75
281.894	206.75
282.125	192.75
282.356	216.75
282.588	212.75
282.819	211.75
283.051	198.75
283.282	208.75
283.513	208.75
283.745	212.75
283.976	212.75
284.207	206.75
284.439	217.75
284.67	220.75
284.901	201.75
285.132	196.75
285.364	224.75
285.595	215.75
285.826	193.75
286.057	213.75
286.288	225.75
286.52	222.75
286.751	215.75
286.982	218.75
287.213	216.75
287.444	219.75
287.675	212.75
287.906	234.75
288.138	215.75
288.369	196.75
288.6	218.75
288.831	225.75
289.062	229.75
289.293	224.75
289.524	204.75
289.755	201.75
289.986	210.75
290.217	230.75
290.448	230.75
290.679	227.75
290.91	243.75
291.141	236.75
291.371	232.75
291.602	244.75
291.833	219.75
292.064	225.75
292.295	229.75
292.526	214.75
292.757	232.75
292.987	227.75
293.218	232.75
293.449	218.75
293.68	233.75
293.91	225.75
294.141	222.75
294.372	242.75
294.603	232.75
294.833	235.75
295.064	240.75
295.295	238.75
295.525	228.75
295.756	219.75
295.987	236.75
296.217	230.75
296.448	238.75
296.679	240.75
296.909	240.75
297.14	241.75
297.37	249.75
297.601	231.75
297.831	240.75
298.062	248.75
298.292	245.75
298.523	248.75
298.753	270.75
298.984	250.75
299.214	251.75
299.445	256.75
299.675	262.75
299.905	259.75
300.136	266.75
300.366	238.75
300.597	252.75
300.827	265.75
301.057	249.75
301.288	235.75
301.518	266.75
301.748	254.75
301.979	283.75
302.209	269.75
302.439	254.75
302.669	243.75
302.9	261.75
303.13	245.75
303.36	252.75
303.59	269.75
303.82	251.75
304.051	252.75
304.281	261.75
304.511	265.75
304.741	266.75
304.971	246.75
305.201	266.75
305.431	250.75
305.661	268.75
305.891	282.75
306.121	251.75
306.352	250.75
306.582	244.75
306.812	260.75
307.042	258.75
307.272	262.75
307.502	256.75
307.731	273.75
307.961	248.75
308.191	272.75
308.421	260.75
308.651	267.75
308.881	265.75
309.111	246.75
309.341	246.75
309.571	259.75
309.8	268.75
310.03	262.75
310.26	244.75
310.49	247.75
310.72	264.75
310.949	263.75
311.179	258.75
311.409	250.75
311.639	237.75
311.868	263.75
312.098	257.75
312.328	278.75
312.557	280.75
312.787	256.75
313.017	275.75
313.246	267.75
313.476	282.75
313.706	286.75
313.935	288.75
314.165	274.75
314.394	262.75
314.624	277.75
314.853	271.75
315.083	278.75
315.312	266.75
315.542	279.75
315.771	256.75
316.001	273.75
316.23	274.75
316.46	276.75
316.689	288.75
316.919	277.75
317.148	278.75
317.377	265.75
317.607	282.75
317.836	262.75
318.065	278.75
318.295	275.75
318.524	283.75
318.753	252.75
318.983	273.75
319.212	276.75
319.441	285.75
319.67	280.75
319.9	299.75
320.129	280.75
320.358	280.75
320.587	260.75
320.816	281.75
321.046	280.75
321.275	276.75
321.504	304.75
321.733	266.75
321.962	269.75
322.191	269.75
322.42	287.75
322.649	288.75
322.878	295.75
323.108	280.75
323.337	295.75
323.566	275.75
323.795	270.75
324.024	282.75
324.253	278.75
324.482	274.75
324.71	294.75
324.939	296.75
325.168	298.75
325.397	308.75
325.626	300.75
325.855	269.75
326.084	288.75
326.313	298.75
326.542	296.75
326.77	301.75
326.999	288.75
327.228	298.75
327.457	285.75
327.686	286.75
327.914	286.75
328.143	285.75
328.372	279.75
328.6	310.75
328.829	304.75
329.058	296.75
329.287	285.75
329.515	296.75
329.744	307.75
329.972	296.75
330.201	324.75
330.43	304.75
330.658	316.75
330.887	304.75
331.115	316.75
331.344	317.75
331.572	315.75
331.801	311.75
332.03	330.75
332.258	328.75
332.486	326.75
332.715	363.75
332.943	355.75
333.172	358.75
333.4	364.75
333.629	368.75
333.857	372.75
334.085	381.75
334.314	387.75
334.542	368.75
334.771	362.75
334.999	356.75
335.227	336.75
335.455	361.75
335.684	352.75
335.912	338.75
336.14	378.75
336.369	344.75
336.597	354.75
336.825	356.75
337.053	346.75
337.281	358.75
337.51	345.75
337.738	334.75
337.966	325.75
338.194	326.75
338.422	313.75
338.65	336.75
338.878	327.75
339.106	342.75
339.334	319.75
339.562	320.75
339.79	331.75
340.018	338.75
340.246	309.75
340.474	313.75
340.702	299.75
340.93	332.75
341.158	329.75
341.386	312.75
341.614	321.75
341.842	304.75
342.07	306.75
342.298	311.75
342.526	306.75
342.754	317.75
342.981	304.75
343.209	324.75
343.437	343.75
343.665	336.75
343.893	336.75
344.12	354.75
344.348	355.75
344.576	354.75
344.804	313.75
345.031	325.75
345.259	313.75
345.487	326.75
345.714	332.75
345.942	318.75
346.17	322.75
346.397	301.75
346.625	308.75
346.853	308.75
347.08	314.75
347.308	317.75
347.535	312.75
347.763	328.75
347.99	318.75
348.218	322.75
348.445	294.75
348.673	293.75
348.9	297.75
349.128	283.75
349.355	316.75
349.583	295.75
349.81	308.75
350.037	298.75
350.265	277.75
350.492	293.75
350.72	321.75
350.947	293.75
351.174	286.75
351.402	294.75
351.629	287.75
351.856	277.75
352.083	299.75
352.311	298.75
352.538	282.75
352.765	308.75
352.992	310.75
353.22	293.75
353.447	296.75
353.674	293.75
353.901	294.75
354.128	296.75
354.355	299.75
354.583	300.75
354.81	298.75
355.037	307.75
355.264	290.75
355.491	295.75
355.718	306.75
355.945	299.75
356.172	293.75
356.399	294.75
356.626	297.75
356.853	321.75
357.08	293.75
357.307	294.75
357.534	317.75
357.761	301.75
357.988	300.75
358.215	321.75
358.441	301.75
358.668	298.75
358.895	305.75
359.122	308.75
359.349	304.75
359.576	299.75
359.802	293.75
360.029	299.75
360.256	300.75
360.483	279.75
360.709	288.75
360.936	292.75
361.163	313.75
361.39	299.75
361.616	295.75
361.843	313.75
362.07	315.75
362.296	312.75
362.523	293.75
362.749	306.75
362.976	299.75
363.203	288.75
363.429	304.75
363.656	313.75
363.882	295.75
364.109	286.75
364.335	313.75
364.562	284.75
364.788	306.75
365.015	296.75
365.241	310.75
365.468	296.75
365.694	312.75
365.92	289.75
366.147	304.75
366.373	284.75
366.599	307.75
366.826	317.75
367.052	296.75
367.278	300.75
367.505	300.75
367.731	315.75
367.957	311.75
368.184	309.75
368.41	293.75
368.636	320.75
368.862	333.75
369.089	311.75
369.315	310.75
369.541	325.75
369.767	305.75
369.993	320.75
370.219	307.75
370.445	323.75
370.672	345.75
370.898	328.75
371.124	338.75
371.35	335.75
371.576	323.75
371.802	324.75
372.028	335.75
372.254	339.75
372.48	347.75
372.706	348.75
372.932	340.75
373.158	344.75
373.384	342.75
373.61	310.75
373.835	329.75
374.061	328.75
374.287	337.75
374.513	336.75
374.739	339.75
374.965	355.75
375.191	365.75
375.416	371.75
375.642	331.75
375.868	348.75
376.094	336.75
376.319	350.75
376.545	341.75
376.771	326.75
376.997	341.75
377.222	341.75
377.448	331.75
377.674	315.75
377.899	318.75
378.125	335.75
378.35	318.75
378.576	314.75
378.802	316.75
379.027	334.75
379.253	330.75
379.478	317.75
379.704	317.75
379.929	344.75
380.155	332.75
380.38	337.75
380.606	341.75
380.831	325.75
381.057	340.75
381.282	314.75
381.507	329.75
381.733	337.75
381.958	339.75
382.184	349.75
382.409	352.75
382.634	355.75
382.86	362.75
383.085	357.75
383.31	344.75
383.535	354.75
383.761	357.75
383.986	388.75
384.211	364.75
384.436	380.75
384.662	392.75
384.887	382.75
385.112	381.75
385.337	390.75
385.562	393.75
385.787	380.75
386.013	394.75
386.238	397.75
386.463	404.75
386.688	398.75
386.913	378.75
387.138	374.75
387.363	375.75
387.588	390.75
387.813	372.75
388.038	382.75
388.263	397.75
388.488	390.75
388.713	382.75
388.938	380.75
389.163	389.75
389.387	408.75
389.612	373.75
389.837	391.75
390.062	401.75
390.287	384.75
390.512	371.75
390.736	392.75
390.961	397.75
391.186	390.75
391.411	393.75
391.636	411.75
391.86	444.75
392.085	412.75
392.31	432.75
392.534	412.75
392.759	407.75
392.984	402.75
393.208	423.75
393.433	406.75
393.658	413.75
393.882	438.75
394.107	441.75
394.331	420.75
394.556	388.75
394.78	412.75
395.005	413.75
395.229	415.75
395.454	430.75
395.678	448.75
395.903	456.75
396.127	433.75
396.352	418.75
396.576	432.75
396.801	424.75
397.025	403.75
397.249	445.75
397.474	443.75
397.698	445.75
397.922	436.75
398.147	434.75
398.371	458.75
398.595	485.75
398.82	482.75
399.044	511.75
399.268	548.75
399.492	603.75
399.717	645.75
399.941	628.75
400.165	588.75
400.389	542.75
400.613	509.75
400.837	490.75
401.062	492.75
401.286	467.75
401.51	474.75
401.734	481.75
401.958	497.75
402.182	469.75
402.406	497.75
402.63	487.75
402.854	472.75
403.078	488.75
403.302	509.75
403.526	538.75
403.75	525.75
403.974	530.75
404.198	534.75
404.422	531.75
404.645	507.75
404.869	515.75
405.093	504.75
405.317	517.75
405.541	522.75
405.765	513.75
405.988	513.75
406.212	520.75
406.436	522.75
406.66	510.75
406.883	539.75
407.107	546.75
407.331	555.75
407.555	593.75
407.778	597.75
408.002	562.75
408.226	557.75
408.449	548.75
408.673	560.75
408.896	542.75
409.12	534.75
409.344	526.75
409.567	543.75
409.791	552.75
410.014	530.75
410.238	545.75
410.461	530.75
410.685	525.75
410.908	539.75
411.132	535.75
411.355	516.75
411.578	502.75
411.802	493.75
412.025	500.75
412.249	490.75
412.472	513.75
412.695	520.75
412.919	486.75
413.142	486.75
413.365	475.75
413.589	482.75
413.812	483.75
414.035	515.75
414.258	489.75
414.482	509.75
414.705	505.75
414.928	485.75
415.151	496.75
415.374	473.75
415.597	474.75
415.821	475.75
416.044	466.75
416.267	454.75
416.49	468.75
416.713	472.75
416.936	479.75
417.159	481.75
417.382	489.75
417.605	462.75
417.828	486.75
418.051	481.75
418.274	501.75
418.497	482.75
418.72	499.75
418.943	498.75
419.166	521.75
419.389	532.75
419.611	531.75
419.834	511.75
420.057	471.75
420.28	484.75
420.503	479.75
420.726	494.75
420.948	487.75
421.171	472.75
421.394	486.75
421.617	494.75
421.839	482.75
422.062	477.75
422.285	500.75
422.507	483.75
422.73	510.75
422.953	484.75
423.175	484.75
423.398	513.75
423.621	469.75
423.843	498.75
424.066	497.75
424.288	504.75
424.511	498.75
424.733	501.75
424.956	518.75
425.178	482.75
425.401	475.75
425.623	512.75
425.846	475.75
426.068	474.75
426.291	452.75
426.513	481.75
426.735	454.75
426.958	460.75
427.18	472.75
427.402	454.75
427.625	450.75
427.847	439.75
428.069	436.75
428.292	434.75
428.514	458.75
428.736	467.75
428.958	440.75
429.181	440.75
429.403	423.75
429.625	437.75
429.847	440.75
430.069	426.75
430.292	449.75
430.514	438.75
430.736	437.75
430.958	423.75
431.18	416.75
431.402	436.75
431.624	429.75
431.846	432.75
432.068	448.75
432.29	457.75
432.512	432.75
432.734	435.75
432.956	454.75
433.178	432.75
433.4	464.75
433.622	446.75
433.844	475.75
434.066	464.75
434.287	444.75
434.509	461.75
434.731	480.75
434.953	466.75
435.175	485.75
435.397	474.75
435.618	451.75
435.84	446.75
436.062	472.75
436.284	470.75
436.505	439.75
436.727	462.75
436.949	454.75
437.17	439.75
437.392	437.75
437.614	441.75
437.835	416.75
438.057	434.75
438.278	417.75
438.5	448.75
438.721	434.75
438.943	452.75
439.165	435.75
439.386	427.75
439.608	449.75
439.829	465.75
440.05	448.75
440.272	472.75
440.493	460.75
440.715	464.75
440.936	452.75
441.158	471.75
441.379	472.75
441.6	493.75
441.822	508.75
442.043	491.75
442.264	501.75
442.486	500.75
442.707	515.75
442.928	503.75
443.149	512.75
443.371	493.75
443.592	509.75
443.813	512.75
444.034	490.75
444.255	492.75
444.476	519.75
444.698	530.75
444.919	572.75
445.14	642.75
445.361	550.75
445.582	503.75
445.803	490.75
446.024	482.75
446.245	477.75
446.466	473.75
446.687	456.75
446.908	470.75
447.129	447.75
447.35	463.75
447.571	424.75
447.792	430.75
448.013	436.75
448.234	428.75
448.455	419.75
448.675	448.75
448.896	424.75
449.117	417.75
449.338	407.75
449.559	409.75
449.779	432.75
450	426.75
450.221	418.75
450.442	434.75
450.662	418.75
450.883	425.75
451.104	432.75
451.324	415.75
451.545	440.75
451.766	450.75
451.986	420.75
452.207	427.75
452.428	412.75
452.648	404.75
452.869	411.75
453.089	401.75
453.31	418.75
453.53	398.75
453.751	409.75
453.971	392.75
454.192	406.75
454.412	394.75
454.633	407.75
454.853	408.75
455.073	402.75
455.294	394.75
455.514	389.75
455.734	404.75
455.955	397.75
456.175	402.75
456.395	387.75
456.616	388.75
456.836	361.75
457.056	392.75
457.276	406.75
457.497	408.75
457.717	401.75
457.937	404.75
458.157	371.75
458.377	397.75
458.598	426.75
458.818	436.75
459.038	421.75
459.258	440.75
459.478	428.75
459.698	447.75
459.918	456.75
460.138	477.75
460.358	510.75
460.578	480.75
460.798	508.75
461.018	507.75
461.238	513.75
461.458	512.75
461.678	514.75
461.898	530.75
462.118	520.75
462.338	549.75
462.558	559.75
462.777	568.75
462.997	601.75
463.217	630.75
463.437	634.75
463.657	611.75
463.876	574.75
464.096	579.75
464.316	581.75
464.536	567.75
464.755	549.75
464.975	535.75
465.195	513.75
465.414	508.75
465.634	473.75
465.854	461.75
466.073	464.75
466.293	455.75
466.512	418.75
466.732	439.75
466.951	456.75
467.171	445.75
467.391	454.75
467.61	427.75
467.829	431.75
468.049	432.75
468.268	422.75
468.488	418.75
468.707	416.75
468.927	416.75
469.146	427.75
469.365	429.75
469.585	434.75
469.804	426.75
470.023	429.75
470.243	443.75
470.462	461.75
470.681	445.75
470.901	436.75
471.12	427.75
471.339	436.75
471.558	420.75
471.777	432.75
471.997	420.75
472.216	428.75
472.435	424.75
472.654	402.75
472.873	419.75
473.092	420.75
473.311	393.75
473.53	406.75
473.749	409.75
473.968	402.75
474.187	403.75
474.406	407.75
474.625	395.75
474.844	412.75
475.063	415.75
475.282	417.75
475.501	408.75
475.72	429.75
475.939	415.75
476.158	406.75
476.377	418.75
476.596	414.75
476.814	427.75
477.033	435.75
477.252	413.75
477.471	459.75
477.69	441.75
477.908	475.75
478.127	465.75
478.346	466.75
478.564	486.75
478.783	489.75
479.002	493.75
479.22	500.75
479.439	514.75
479.658	501.75
479.876	480.75
480.095	505.75
480.313	527.75
480.532	503.75
480.751	509.75
480.969	479.75
481.188	486.75
481.406	491.75
481.624	451.75
481.843	434.75
482.061	461.75
482.28	464.75
482.498	462.75
482.717	461.75
482.935	464.75
483.153	432.75
483.372	453.75
483.59	457.75
483.808	458.75
484.027	450.75
484.245	467.75
484.463	450.75
484.681	459.75
484.9	448.75
485.118	464.75
485.336	453.75
485.554	489.75
485.772	467.75
485.99	468.75
486.209	465.75
486.427	445.75
486.645	476.75
486.863	474.75
487.081	452.75
487.299	466.75
487.517	472.75
487.735	460.75
487.953	459.75
488.171	476.75
488.389	456.75
488.607	478.75
488.825	468.75
489.043	463.75
489.261	485.75
489.479	460.75
489.696	452.75
489.914	473.75
490.132	468.75
490.35	460.75
490.568	476.75
490.786	488.75
491.003	479.75
491.221	507.75
491.439	462.75
491.657	504.75
491.874	490.75
492.092	500.75
492.31	509.75
492.527	499.75
492.745	485.75
492.963	492.75
493.18	485.75
493.398	493.75
493.615	483.75
493.833	501.75
494.05	470.75
494.268	481.75
494.485	482.75
494.703	491.75
494.92	493.75
495.138	494.75
495.355	491.75
495.573	522.75
495.79	508.75
496.008	518.75
496.225	517.75
496.442	526.75
496.66	530.75
496.877	520.75
497.094	538.75
497.312	537.75
497.529	552.75
497.746	558.75
497.963	604.75
498.181	581.75
498.398	588.75
498.615	660.75
498.832	702.75
499.049	714.75
499.267	752.75
499.484	851.75
499.701	873.75
499.918	980.75
500.135	1065.75
500.352	1184.75
500.569	1244.75
500.786	1204.75
501.003	1148.75
501.22	1061.75
501.437	933.75
501.654	862.75
501.871	788.75
