Data from Fe(NO3)3@0.1M.TitratingCurve.Agarose3%dH2O.NegLispCup.LampEnergy10.LIBS07252019_HRD10591_16-40-12-333.txt Node
Date: Thu Jul 25 16:40:12 EDT 2019
User: cochatt
Spectrometer: HR+D1059
Trigger mode: 1
Integration Time (sec): 1.000000E-1
Scans to average: 1
Electric dark correction enabled: true
Nonlinearity correction enabled: false
Boxcar width: 0
XAxis mode: Wavelengths
Number of Pixels in Spectrum: 2048
>>>>>Begin Spectral Data<<<<<
223.165	-20.56
223.4	-20.56
223.635	-20.56
223.869	-21.56
224.104	-13.56
224.338	-14.56
224.573	-7.56
224.808	-11.56
225.042	-14.56
225.277	-16.56
225.511	2.44
225.746	0.44
225.98	11.44
226.215	9.44
226.449	14.44
226.683	21.44
226.918	24.44
227.152	36.44
227.387	25.44
227.621	51.44
227.856	47.44
228.09	41.44
228.324	49.44
228.559	56.44
228.793	70.44
229.027	56.44
229.262	66.44
229.496	81.44
229.73	75.44
229.964	79.44
230.199	90.44
230.433	105.44
230.667	100.44
230.901	89.44
231.136	86.44
231.37	93.44
231.604	90.44
231.838	102.44
232.072	84.44
232.306	101.44
232.541	96.44
232.775	116.44
233.009	104.44
233.243	103.44
233.477	103.44
233.711	95.44
233.945	100.44
234.179	91.44
234.413	97.44
234.647	99.44
234.881	105.44
235.115	98.44
235.349	77.44
235.583	89.44
235.817	91.44
236.051	99.44
236.285	99.44
236.519	87.44
236.753	94.44
236.987	95.44
237.221	97.44
237.455	110.44
237.689	99.44
237.922	109.44
238.156	85.44
238.39	100.44
238.624	89.44
238.858	92.44
239.091	89.44
239.325	107.44
239.559	106.44
239.793	83.44
240.027	106.44
240.26	95.44
240.494	101.44
240.728	100.44
240.961	105.44
241.195	113.44
241.429	111.44
241.662	108.44
241.896	116.44
242.13	113.44
242.363	112.44
242.597	104.44
242.83	83.44
243.064	117.44
243.298	90.44
243.531	119.44
243.765	114.44
243.998	113.44
244.232	121.44
244.465	121.44
244.699	112.44
244.932	102.44
245.166	113.44
245.399	103.44
245.633	109.44
245.866	119.44
246.099	119.44
246.333	98.44
246.566	84.44
246.8	125.44
247.033	101.44
247.266	107.44
247.5	120.44
247.733	116.44
247.966	112.44
248.2	115.44
248.433	120.44
248.666	102.44
248.899	125.44
249.133	127.44
249.366	119.44
249.599	120.44
249.832	111.44
250.066	119.44
250.299	127.44
250.532	122.44
250.765	119.44
250.998	112.44
251.231	124.44
251.465	124.44
251.698	129.44
251.931	124.44
252.164	117.44
252.397	119.44
252.63	127.44
252.863	124.44
253.096	134.44
253.329	147.44
253.562	129.44
253.795	128.44
254.028	139.44
254.261	131.44
254.494	130.44
254.727	123.44
254.96	121.44
255.193	119.44
255.426	147.44
255.659	132.44
255.892	134.44
256.124	125.44
256.357	130.44
256.59	141.44
256.823	137.44
257.056	129.44
257.289	134.44
257.521	147.44
257.754	134.44
257.987	134.44
258.22	150.44
258.452	151.44
258.685	131.44
258.918	146.44
259.151	130.44
259.383	132.44
259.616	140.44
259.849	159.44
260.081	145.44
260.314	142.44
260.547	137.44
260.779	149.44
261.012	133.44
261.244	138.44
261.477	153.44
261.71	143.44
261.942	147.44
262.175	124.44
262.407	148.44
262.64	137.44
262.872	125.44
263.105	140.44
263.337	156.44
263.57	147.44
263.802	143.44
264.035	154.44
264.267	141.44
264.499	151.44
264.732	145.44
264.964	161.44
265.197	146.44
265.429	151.44
265.661	151.44
265.894	152.44
266.126	151.44
266.358	143.44
266.591	141.44
266.823	159.44
267.055	140.44
267.287	149.44
267.52	146.44
267.752	158.44
267.984	158.44
268.216	164.44
268.448	173.44
268.681	161.44
268.913	147.44
269.145	155.44
269.377	169.44
269.609	163.44
269.841	150.44
270.073	159.44
270.306	164.44
270.538	169.44
270.77	152.44
271.002	159.44
271.234	137.44
271.466	161.44
271.698	156.44
271.93	159.44
272.162	181.44
272.394	161.44
272.626	159.44
272.858	161.44
273.09	171.44
273.322	151.44
273.553	165.44
273.785	168.44
274.017	156.44
274.249	168.44
274.481	184.44
274.713	180.44
274.945	177.44
275.176	171.44
275.408	163.44
275.64	173.44
275.872	159.44
276.104	181.44
276.335	168.44
276.567	165.44
276.799	169.44
277.031	170.44
277.262	179.44
277.494	159.44
277.726	179.44
277.957	168.44
278.189	175.44
278.421	185.44
278.652	176.44
278.884	180.44
279.115	180.44
279.347	182.44
279.579	189.44
279.81	167.44
280.042	171.44
280.273	181.44
280.505	186.44
280.736	182.44
280.968	201.44
281.199	185.44
281.431	185.44
281.662	185.44
281.894	176.44
282.125	190.44
282.356	182.44
282.588	195.44
282.819	191.44
283.051	191.44
283.282	178.44
283.513	192.44
283.745	199.44
283.976	181.44
284.207	197.44
284.439	183.44
284.67	191.44
284.901	193.44
285.132	191.44
285.364	193.44
285.595	202.44
285.826	186.44
286.057	199.44
286.288	201.44
286.52	198.44
286.751	200.44
286.982	211.44
287.213	198.44
287.444	198.44
287.675	205.44
287.906	199.44
288.138	215.44
288.369	201.44
288.6	193.44
288.831	188.44
289.062	197.44
289.293	189.44
289.524	201.44
289.755	210.44
289.986	208.44
290.217	206.44
290.448	205.44
290.679	210.44
290.91	191.44
291.141	200.44
291.371	218.44
291.602	191.44
291.833	208.44
292.064	202.44
292.295	201.44
292.526	207.44
292.757	197.44
292.987	207.44
293.218	217.44
293.449	210.44
293.68	205.44
293.91	204.44
294.141	206.44
294.372	209.44
294.603	199.44
294.833	211.44
295.064	210.44
295.295	198.44
295.525	215.44
295.756	217.44
295.987	209.44
296.217	205.44
296.448	212.44
296.679	209.44
296.909	222.44
297.14	221.44
297.37	215.44
297.601	214.44
297.831	227.44
298.062	232.44
298.292	220.44
298.523	218.44
298.753	229.44
298.984	216.44
299.214	215.44
299.445	205.44
299.675	221.44
299.905	212.44
300.136	211.44
300.366	228.44
300.597	213.44
300.827	218.44
301.057	225.44
301.288	239.44
301.518	233.44
301.748	230.44
301.979	213.44
302.209	221.44
302.439	223.44
302.669	226.44
302.9	239.44
303.13	248.44
303.36	243.44
303.59	217.44
303.82	225.44
304.051	223.44
304.281	243.44
304.511	231.44
304.741	243.44
304.971	230.44
305.201	231.44
305.431	221.44
305.661	222.44
305.891	219.44
306.121	229.44
306.352	227.44
306.582	245.44
306.812	225.44
307.042	233.44
307.272	222.44
307.502	226.44
307.731	225.44
307.961	216.44
308.191	217.44
308.421	228.44
308.651	224.44
308.881	241.44
309.111	234.44
309.341	227.44
309.571	225.44
309.8	222.44
310.03	221.44
310.26	241.44
310.49	229.44
310.72	234.44
310.949	242.44
311.179	234.44
311.409	229.44
311.639	238.44
311.868	235.44
312.098	226.44
312.328	241.44
312.557	243.44
312.787	225.44
313.017	251.44
313.246	251.44
313.476	258.44
313.706	241.44
313.935	248.44
314.165	268.44
314.394	241.44
314.624	243.44
314.853	256.44
315.083	251.44
315.312	257.44
315.542	247.44
315.771	255.44
316.001	228.44
316.23	245.44
316.46	235.44
316.689	257.44
316.919	234.44
317.148	240.44
317.377	255.44
317.607	246.44
317.836	216.44
318.065	253.44
318.295	245.44
318.524	261.44
318.753	244.44
318.983	236.44
319.212	259.44
319.441	241.44
319.67	243.44
319.9	236.44
320.129	247.44
320.358	247.44
320.587	255.44
320.816	249.44
321.046	259.44
321.275	239.44
321.504	249.44
321.733	260.44
321.962	268.44
322.191	262.44
322.42	250.44
322.649	257.44
322.878	239.44
323.108	256.44
323.337	259.44
323.566	236.44
323.795	259.44
324.024	257.44
324.253	258.44
324.482	263.44
324.71	255.44
324.939	262.44
325.168	266.44
325.397	277.44
325.626	246.44
325.855	263.44
326.084	278.44
326.313	271.44
326.542	276.44
326.77	275.44
326.999	257.44
327.228	257.44
327.457	276.44
327.686	249.44
327.914	263.44
328.143	254.44
328.372	263.44
328.6	273.44
328.829	271.44
329.058	276.44
329.287	269.44
329.515	287.44
329.744	275.44
329.972	272.44
330.201	276.44
330.43	268.44
330.658	284.44
330.887	271.44
331.115	278.44
331.344	281.44
331.572	301.44
331.801	287.44
332.03	296.44
332.258	313.44
332.486	325.44
332.715	305.44
332.943	313.44
333.172	348.44
333.4	354.44
333.629	337.44
333.857	339.44
334.085	347.44
334.314	335.44
334.542	323.44
334.771	327.44
334.999	331.44
335.227	344.44
335.455	341.44
335.684	328.44
335.912	326.44
336.14	328.44
336.369	312.44
336.597	315.44
336.825	307.44
337.053	306.44
337.281	329.44
337.51	315.44
337.738	316.44
337.966	307.44
338.194	286.44
338.422	294.44
338.65	298.44
338.878	292.44
339.106	287.44
339.334	304.44
339.562	281.44
339.79	278.44
340.018	261.44
340.246	296.44
340.474	274.44
340.702	273.44
340.93	275.44
341.158	277.44
341.386	295.44
341.614	281.44
341.842	275.44
342.07	282.44
342.298	289.44
342.526	282.44
342.754	275.44
342.981	281.44
343.209	306.44
343.437	313.44
343.665	324.44
343.893	356.44
344.12	338.44
344.348	311.44
344.576	318.44
344.804	314.44
345.031	295.44
345.259	279.44
345.487	282.44
345.714	286.44
345.942	280.44
346.17	282.44
346.397	292.44
346.625	285.44
346.853	272.44
347.08	280.44
347.308	291.44
347.535	284.44
347.763	280.44
347.99	268.44
348.218	282.44
348.445	260.44
348.673	290.44
348.9	287.44
349.128	291.44
349.355	291.44
349.583	276.44
349.81	273.44
350.037	270.44
350.265	273.44
350.492	285.44
350.72	275.44
350.947	280.44
351.174	271.44
351.402	293.44
351.629	272.44
351.856	280.44
352.083	252.44
352.311	279.44
352.538	268.44
352.765	281.44
352.992	276.44
353.22	272.44
353.447	275.44
353.674	275.44
353.901	272.44
354.128	267.44
354.355	270.44
354.583	277.44
354.81	287.44
355.037	272.44
355.264	274.44
355.491	275.44
355.718	273.44
355.945	273.44
356.172	278.44
356.399	279.44
356.626	287.44
356.853	276.44
357.08	262.44
357.307	274.44
357.534	266.44
357.761	257.44
357.988	281.44
358.215	289.44
358.441	276.44
358.668	263.44
358.895	279.44
359.122	287.44
359.349	270.44
359.576	281.44
359.802	287.44
360.029	288.44
360.256	280.44
360.483	276.44
360.709	276.44
360.936	285.44
361.163	283.44
361.39	285.44
361.616	280.44
361.843	274.44
362.07	286.44
362.296	276.44
362.523	269.44
362.749	284.44
362.976	289.44
363.203	284.44
363.429	270.44
363.656	271.44
363.882	256.44
364.109	280.44
364.335	284.44
364.562	293.44
364.788	273.44
365.015	293.44
365.241	293.44
365.468	297.44
365.694	290.44
365.92	273.44
366.147	267.44
366.373	255.44
366.599	277.44
366.826	283.44
367.052	287.44
367.278	297.44
367.505	283.44
367.731	271.44
367.957	268.44
368.184	267.44
368.41	279.44
368.636	273.44
368.862	287.44
369.089	275.44
369.315	277.44
369.541	287.44
369.767	290.44
369.993	306.44
370.219	304.44
370.445	259.44
370.672	304.44
370.898	290.44
371.124	279.44
371.35	295.44
371.576	310.44
371.802	277.44
372.028	309.44
372.254	306.44
372.48	311.44
372.706	300.44
372.932	308.44
373.158	298.44
373.384	299.44
373.61	301.44
373.835	315.44
374.061	307.44
374.287	302.44
374.513	303.44
374.739	317.44
374.965	328.44
375.191	333.44
375.416	330.44
375.642	305.44
375.868	328.44
376.094	299.44
376.319	307.44
376.545	313.44
376.771	319.44
376.997	309.44
377.222	297.44
377.448	284.44
377.674	307.44
377.899	297.44
378.125	297.44
378.35	305.44
378.576	294.44
378.802	289.44
379.027	299.44
379.253	306.44
379.478	298.44
379.704	316.44
379.929	295.44
380.155	289.44
380.38	297.44
380.606	293.44
380.831	293.44
381.057	295.44
381.282	296.44
381.507	301.44
381.733	307.44
381.958	314.44
382.184	314.44
382.409	306.44
382.634	331.44
382.86	308.44
383.085	325.44
383.31	331.44
383.535	331.44
383.761	332.44
383.986	315.44
384.211	345.44
384.436	333.44
384.662	352.44
384.887	370.44
385.112	364.44
385.337	353.44
385.562	363.44
385.787	370.44
386.013	377.44
386.238	345.44
386.463	336.44
386.688	346.44
386.913	352.44
387.138	339.44
387.363	347.44
387.588	355.44
387.813	357.44
388.038	360.44
388.263	351.44
388.488	356.44
388.713	361.44
388.938	347.44
389.163	341.44
389.387	356.44
389.612	354.44
389.837	339.44
390.062	352.44
390.287	333.44
390.512	369.44
390.736	352.44
390.961	366.44
391.186	364.44
391.411	368.44
391.636	361.44
391.86	385.44
392.085	391.44
392.31	387.44
392.534	374.44
392.759	388.44
392.984	383.44
393.208	376.44
393.433	364.44
393.658	371.44
393.882	367.44
394.107	379.44
394.331	367.44
394.556	377.44
394.78	369.44
395.005	376.44
395.229	379.44
395.454	389.44
395.678	385.44
395.903	396.44
396.127	382.44
396.352	379.44
396.576	390.44
396.801	376.44
397.025	393.44
397.249	378.44
397.474	401.44
397.698	391.44
397.922	423.44
398.147	402.44
398.371	415.44
398.595	427.44
398.82	424.44
399.044	464.44
399.268	519.44
399.492	573.44
399.717	627.44
399.941	606.44
400.165	524.44
400.389	492.44
400.613	476.44
400.837	444.44
401.062	468.44
401.286	421.44
401.51	437.44
401.734	425.44
401.958	427.44
402.182	442.44
402.406	440.44
402.63	456.44
402.854	467.44
403.078	461.44
403.302	477.44
403.526	482.44
403.75	516.44
403.974	484.44
404.198	490.44
404.422	501.44
404.645	493.44
404.869	497.44
405.093	482.44
405.317	483.44
405.541	478.44
405.765	444.44
405.988	484.44
406.212	472.44
406.436	485.44
406.66	498.44
406.883	495.44
407.107	520.44
407.331	517.44
407.555	537.44
407.778	541.44
408.002	539.44
408.226	506.44
408.449	518.44
408.673	501.44
408.896	477.44
409.12	480.44
409.344	495.44
409.567	500.44
409.791	489.44
410.014	495.44
410.238	484.44
410.461	479.44
410.685	481.44
410.908	468.44
411.132	441.44
411.355	454.44
411.578	473.44
411.802	473.44
412.025	460.44
412.249	466.44
412.472	460.44
412.695	473.44
412.919	427.44
413.142	444.44
413.365	442.44
413.589	463.44
413.812	450.44
414.035	418.44
414.258	454.44
414.482	442.44
414.705	461.44
414.928	452.44
415.151	457.44
415.374	441.44
415.597	459.44
415.821	454.44
416.044	427.44
416.267	438.44
416.49	438.44
416.713	421.44
416.936	424.44
417.159	454.44
417.382	437.44
417.605	453.44
417.828	445.44
418.051	450.44
418.274	441.44
418.497	467.44
418.72	463.44
418.943	447.44
419.166	481.44
419.389	479.44
419.611	483.44
419.834	454.44
420.057	444.44
420.28	444.44
420.503	437.44
420.726	454.44
420.948	431.44
421.171	425.44
421.394	446.44
421.617	453.44
421.839	428.44
422.062	437.44
422.285	437.44
422.507	446.44
422.73	465.44
422.953	447.44
423.175	443.44
423.398	445.44
423.621	479.44
423.843	475.44
424.066	454.44
424.288	479.44
424.511	457.44
424.733	458.44
424.956	453.44
425.178	458.44
425.401	459.44
425.623	418.44
425.846	408.44
426.068	446.44
426.291	418.44
426.513	425.44
426.735	427.44
426.958	394.44
427.18	413.44
427.402	417.44
427.625	411.44
427.847	381.44
428.069	390.44
428.292	416.44
428.514	401.44
428.736	416.44
428.958	403.44
429.181	395.44
429.403	384.44
429.625	379.44
429.847	391.44
430.069	391.44
430.292	387.44
430.514	395.44
430.736	402.44
430.958	387.44
431.18	402.44
431.402	381.44
431.624	388.44
431.846	396.44
432.068	393.44
432.29	429.44
432.512	394.44
432.734	416.44
432.956	411.44
433.178	415.44
433.4	403.44
433.622	418.44
433.844	415.44
434.066	383.44
434.287	392.44
434.509	436.44
434.731	418.44
434.953	451.44
435.175	474.44
435.397	460.44
435.618	423.44
435.84	401.44
436.062	418.44
436.284	420.44
436.505	415.44
436.727	400.44
436.949	380.44
437.17	392.44
437.392	384.44
437.614	403.44
437.835	411.44
438.057	379.44
438.278	385.44
438.5	388.44
438.721	391.44
438.943	413.44
439.165	415.44
439.386	425.44
439.608	406.44
439.829	419.44
440.05	431.44
440.272	412.44
440.493	424.44
440.715	421.44
440.936	423.44
441.158	434.44
441.379	461.44
441.6	467.44
441.822	463.44
442.043	469.44
442.264	464.44
442.486	437.44
442.707	439.44
442.928	443.44
443.149	438.44
443.371	458.44
443.592	466.44
443.813	451.44
444.034	473.44
444.255	489.44
444.476	497.44
444.698	511.44
444.919	523.44
445.14	600.44
445.361	515.44
445.582	463.44
445.803	435.44
446.024	435.44
446.245	438.44
446.466	425.44
446.687	437.44
446.908	441.44
447.129	414.44
447.35	415.44
447.571	406.44
447.792	404.44
448.013	395.44
448.234	395.44
448.455	386.44
448.675	389.44
448.896	379.44
449.117	397.44
449.338	378.44
449.559	379.44
449.779	384.44
450	374.44
450.221	387.44
450.442	384.44
450.662	403.44
450.883	399.44
451.104	400.44
451.324	380.44
451.545	383.44
451.766	391.44
451.986	380.44
452.207	377.44
452.428	368.44
452.648	401.44
452.869	375.44
453.089	364.44
453.31	373.44
453.53	355.44
453.751	380.44
453.971	372.44
454.192	364.44
454.412	360.44
454.633	359.44
454.853	378.44
455.073	373.44
455.294	364.44
455.514	358.44
455.734	372.44
455.955	362.44
456.175	356.44
456.395	364.44
456.616	347.44
456.836	361.44
457.056	352.44
457.276	335.44
457.497	364.44
457.717	363.44
457.937	341.44
458.157	351.44
458.377	361.44
458.598	383.44
458.818	385.44
459.038	377.44
459.258	389.44
459.478	415.44
459.698	403.44
459.918	440.44
460.138	449.44
460.358	469.44
460.578	490.44
460.798	476.44
461.018	472.44
461.238	475.44
461.458	465.44
461.678	489.44
461.898	487.44
462.118	451.44
462.338	484.44
462.558	519.44
462.777	539.44
462.997	589.44
463.217	596.44
463.437	593.44
463.657	570.44
463.876	547.44
464.096	549.44
464.316	534.44
464.536	523.44
464.755	515.44
464.975	504.44
465.195	467.44
465.414	465.44
465.634	449.44
465.854	416.44
466.073	404.44
466.293	410.44
466.512	395.44
466.732	391.44
466.951	405.44
467.171	375.44
467.391	394.44
467.61	399.44
467.829	394.44
468.049	393.44
468.268	383.44
468.488	376.44
468.707	376.44
468.927	368.44
469.146	387.44
469.365	391.44
469.585	403.44
469.804	393.44
470.023	419.44
470.243	387.44
470.462	393.44
470.681	408.44
470.901	428.44
471.12	398.44
471.339	387.44
471.558	380.44
471.777	384.44
471.997	386.44
472.216	378.44
472.435	369.44
472.654	402.44
472.873	384.44
473.092	362.44
473.311	389.44
473.53	361.44
473.749	375.44
473.968	383.44
474.187	355.44
474.406	372.44
474.625	350.44
474.844	381.44
475.063	363.44
475.282	370.44
475.501	387.44
475.72	388.44
475.939	386.44
476.158	396.44
476.377	372.44
476.596	392.44
476.814	389.44
477.033	388.44
477.252	402.44
477.471	401.44
477.69	416.44
477.908	430.44
478.127	420.44
478.346	420.44
478.564	449.44
478.783	438.44
479.002	434.44
479.22	449.44
479.439	429.44
479.658	435.44
479.876	448.44
480.095	457.44
480.313	451.44
480.532	468.44
480.751	489.44
480.969	442.44
481.188	421.44
481.406	408.44
481.624	409.44
481.843	392.44
482.061	423.44
482.28	410.44
482.498	415.44
482.717	417.44
482.935	408.44
483.153	407.44
483.372	410.44
483.59	401.44
483.808	410.44
484.027	403.44
484.245	403.44
484.463	404.44
484.681	416.44
484.9	414.44
485.118	424.44
485.336	420.44
485.554	398.44
485.772	408.44
485.99	408.44
486.209	419.44
486.427	414.44
486.645	444.44
486.863	413.44
487.081	398.44
487.299	431.44
487.517	445.44
487.735	412.44
487.953	429.44
488.171	424.44
488.389	408.44
488.607	432.44
488.825	394.44
489.043	401.44
489.261	432.44
489.479	425.44
489.696	421.44
489.914	431.44
490.132	421.44
490.35	433.44
490.568	441.44
490.786	424.44
491.003	426.44
491.221	435.44
491.439	427.44
491.657	443.44
491.874	429.44
492.092	435.44
492.31	435.44
492.527	449.44
492.745	433.44
492.963	436.44
493.18	441.44
493.398	432.44
493.615	434.44
493.833	443.44
494.05	440.44
494.268	433.44
494.485	451.44
494.703	464.44
494.92	443.44
495.138	475.44
495.355	466.44
495.573	434.44
495.79	467.44
496.008	476.44
496.225	467.44
496.442	469.44
496.66	465.44
496.877	474.44
497.094	495.44
497.312	503.44
497.529	500.44
497.746	507.44
497.963	487.44
498.181	533.44
498.398	550.44
498.615	605.44
498.832	639.44
499.049	668.44
499.267	704.44
499.484	741.44
499.701	849.44
499.918	915.44
500.135	1038.44
500.352	1159.44
500.569	1177.44
500.786	1155.44
501.003	1089.44
501.22	977.44
501.437	864.44
501.654	750.44
501.871	707.44
502.088	657.44
