Data from Fe(NO3)3@0.1M.TitratingCurve.Agarose3%dH2O.NegLispCup.LampEnergy10.LIBS07252019_HRD10591_16-38-17-331.txt Node
Date: Thu Jul 25 16:38:17 EDT 2019
User: cochatt
Spectrometer: HR+D1059
Trigger mode: 1
Integration Time (sec): 1.000000E-1
Scans to average: 1
Electric dark correction enabled: true
Nonlinearity correction enabled: false
Boxcar width: 0
XAxis mode: Wavelengths
Number of Pixels in Spectrum: 2048
>>>>>Begin Spectral Data<<<<<
223.165	-26.94
223.4	-26.94
223.635	-26.94
223.869	-4.94
224.104	-12.94
224.338	-17.94
224.573	-7.94
224.808	-29.94
225.042	-11.94
225.277	-20.94
225.511	-10.94
225.746	4.06
225.98	19.06
226.215	7.06
226.449	22.06
226.683	24.06
226.918	36.06
227.152	32.06
227.387	26.06
227.621	24.06
227.856	37.06
228.09	46.06
228.324	68.06
228.559	59.06
228.793	60.06
229.027	77.06
229.262	71.06
229.496	69.06
229.73	64.06
229.964	80.06
230.199	105.06
230.433	91.06
230.667	78.06
230.901	82.06
231.136	85.06
231.37	83.06
231.604	92.06
231.838	88.06
232.072	98.06
232.306	89.06
232.541	121.06
232.775	103.06
233.009	96.06
233.243	99.06
233.477	82.06
233.711	83.06
233.945	92.06
234.179	101.06
234.413	91.06
234.647	96.06
234.881	91.06
235.115	98.06
235.349	80.06
235.583	95.06
235.817	78.06
236.051	92.06
236.285	84.06
236.519	102.06
236.753	97.06
236.987	98.06
237.221	102.06
237.455	95.06
237.689	96.06
237.922	102.06
238.156	97.06
238.39	88.06
238.624	92.06
238.858	93.06
239.091	85.06
239.325	104.06
239.559	92.06
239.793	90.06
240.027	89.06
240.26	95.06
240.494	105.06
240.728	102.06
240.961	112.06
241.195	101.06
241.429	94.06
241.662	99.06
241.896	86.06
242.13	77.06
242.363	104.06
242.597	90.06
242.83	88.06
243.064	95.06
243.298	91.06
243.531	101.06
243.765	106.06
243.998	117.06
244.232	104.06
244.465	94.06
244.699	120.06
244.932	100.06
245.166	99.06
245.399	112.06
245.633	100.06
245.866	105.06
246.099	98.06
246.333	107.06
246.566	93.06
246.8	97.06
247.033	118.06
247.266	90.06
247.5	101.06
247.733	110.06
247.966	99.06
248.2	104.06
248.433	105.06
248.666	113.06
248.899	108.06
249.133	121.06
249.366	117.06
249.599	108.06
249.832	97.06
250.066	104.06
250.299	103.06
250.532	105.06
250.765	104.06
250.998	112.06
251.231	109.06
251.465	126.06
251.698	112.06
251.931	114.06
252.164	127.06
252.397	111.06
252.63	127.06
252.863	113.06
253.096	97.06
253.329	117.06
253.562	104.06
253.795	111.06
254.028	105.06
254.261	108.06
254.494	99.06
254.727	114.06
254.96	118.06
255.193	113.06
255.426	110.06
255.659	122.06
255.892	112.06
256.124	134.06
256.357	116.06
256.59	128.06
256.823	108.06
257.056	103.06
257.289	119.06
257.521	129.06
257.754	104.06
257.987	115.06
258.22	118.06
258.452	125.06
258.685	113.06
258.918	129.06
259.151	108.06
259.383	115.06
259.616	112.06
259.849	128.06
260.081	122.06
260.314	134.06
260.547	118.06
260.779	134.06
261.012	134.06
261.244	130.06
261.477	134.06
261.71	123.06
261.942	126.06
262.175	112.06
262.407	130.06
262.64	128.06
262.872	145.06
263.105	133.06
263.337	141.06
263.57	116.06
263.802	130.06
264.035	126.06
264.267	126.06
264.499	139.06
264.732	138.06
264.964	136.06
265.197	123.06
265.429	133.06
265.661	121.06
265.894	137.06
266.126	126.06
266.358	127.06
266.591	141.06
266.823	135.06
267.055	134.06
267.287	138.06
267.52	151.06
267.752	128.06
267.984	131.06
268.216	129.06
268.448	141.06
268.681	123.06
268.913	134.06
269.145	115.06
269.377	131.06
269.609	135.06
269.841	141.06
270.073	135.06
270.306	138.06
270.538	133.06
270.77	146.06
271.002	138.06
271.234	128.06
271.466	144.06
271.698	153.06
271.93	138.06
272.162	136.06
272.394	146.06
272.626	154.06
272.858	130.06
273.09	146.06
273.322	126.06
273.553	149.06
273.785	148.06
274.017	160.06
274.249	137.06
274.481	145.06
274.713	146.06
274.945	150.06
275.176	145.06
275.408	143.06
275.64	158.06
275.872	151.06
276.104	137.06
276.335	147.06
276.567	126.06
276.799	135.06
277.031	142.06
277.262	125.06
277.494	129.06
277.726	148.06
277.957	153.06
278.189	138.06
278.421	145.06
278.652	141.06
278.884	135.06
279.115	150.06
279.347	150.06
279.579	148.06
279.81	148.06
280.042	141.06
280.273	134.06
280.505	156.06
280.736	146.06
280.968	140.06
281.199	137.06
281.431	140.06
281.662	137.06
281.894	155.06
282.125	141.06
282.356	160.06
282.588	148.06
282.819	156.06
283.051	138.06
283.282	147.06
283.513	149.06
283.745	162.06
283.976	152.06
284.207	155.06
284.439	161.06
284.67	157.06
284.901	150.06
285.132	143.06
285.364	147.06
285.595	159.06
285.826	160.06
286.057	163.06
286.288	142.06
286.52	156.06
286.751	153.06
286.982	179.06
287.213	154.06
287.444	173.06
287.675	162.06
287.906	166.06
288.138	161.06
288.369	143.06
288.6	150.06
288.831	161.06
289.062	164.06
289.293	162.06
289.524	154.06
289.755	170.06
289.986	157.06
290.217	164.06
290.448	176.06
290.679	164.06
290.91	173.06
291.141	165.06
291.371	162.06
291.602	172.06
291.833	168.06
292.064	168.06
292.295	164.06
292.526	176.06
292.757	164.06
292.987	172.06
293.218	165.06
293.449	164.06
293.68	150.06
293.91	147.06
294.141	153.06
294.372	146.06
294.603	172.06
294.833	165.06
295.064	156.06
295.295	170.06
295.525	146.06
295.756	164.06
295.987	180.06
296.217	176.06
296.448	173.06
296.679	174.06
296.909	166.06
297.14	184.06
297.37	171.06
297.601	170.06
297.831	157.06
298.062	174.06
298.292	162.06
298.523	181.06
298.753	179.06
298.984	180.06
299.214	176.06
299.445	186.06
299.675	181.06
299.905	159.06
300.136	171.06
300.366	182.06
300.597	168.06
300.827	171.06
301.057	167.06
301.288	188.06
301.518	182.06
301.748	166.06
301.979	170.06
302.209	182.06
302.439	181.06
302.669	189.06
302.9	184.06
303.13	173.06
303.36	182.06
303.59	168.06
303.82	176.06
304.051	174.06
304.281	173.06
304.511	181.06
304.741	177.06
304.971	170.06
305.201	160.06
305.431	177.06
305.661	169.06
305.891	165.06
306.121	172.06
306.352	185.06
306.582	182.06
306.812	185.06
307.042	177.06
307.272	163.06
307.502	173.06
307.731	172.06
307.961	183.06
308.191	185.06
308.421	184.06
308.651	170.06
308.881	169.06
309.111	158.06
309.341	168.06
309.571	172.06
309.8	168.06
310.03	173.06
310.26	179.06
310.49	168.06
310.72	190.06
310.949	188.06
311.179	170.06
311.409	182.06
311.639	180.06
311.868	194.06
312.098	185.06
312.328	188.06
312.557	187.06
312.787	176.06
313.017	169.06
313.246	174.06
313.476	170.06
313.706	184.06
313.935	177.06
314.165	180.06
314.394	179.06
314.624	185.06
314.853	181.06
315.083	177.06
315.312	180.06
315.542	166.06
315.771	187.06
316.001	165.06
316.23	187.06
316.46	182.06
316.689	186.06
316.919	166.06
317.148	189.06
317.377	186.06
317.607	181.06
317.836	181.06
318.065	178.06
318.295	186.06
318.524	180.06
318.753	190.06
318.983	174.06
319.212	190.06
319.441	190.06
319.67	179.06
319.9	179.06
320.129	184.06
320.358	176.06
320.587	172.06
320.816	176.06
321.046	192.06
321.275	183.06
321.504	180.06
321.733	185.06
321.962	161.06
322.191	200.06
322.42	180.06
322.649	183.06
322.878	177.06
323.108	184.06
323.337	196.06
323.566	207.06
323.795	170.06
324.024	195.06
324.253	180.06
324.482	176.06
324.71	195.06
324.939	184.06
325.168	194.06
325.397	178.06
325.626	188.06
325.855	194.06
326.084	184.06
326.313	202.06
326.542	186.06
326.77	213.06
326.999	210.06
327.228	201.06
327.457	197.06
327.686	182.06
327.914	198.06
328.143	210.06
328.372	196.06
328.6	215.06
328.829	211.06
329.058	198.06
329.287	207.06
329.515	195.06
329.744	204.06
329.972	202.06
330.201	193.06
330.43	193.06
330.658	195.06
330.887	211.06
331.115	188.06
331.344	184.06
331.572	200.06
331.801	200.06
332.03	213.06
332.258	187.06
332.486	195.06
332.715	209.06
332.943	216.06
333.172	226.06
333.4	232.06
333.629	219.06
333.857	229.06
334.085	240.06
334.314	226.06
334.542	249.06
334.771	238.06
334.999	227.06
335.227	246.06
335.455	239.06
335.684	221.06
335.912	224.06
336.14	237.06
336.369	205.06
336.597	214.06
336.825	220.06
337.053	213.06
337.281	205.06
337.51	227.06
337.738	210.06
337.966	227.06
338.194	202.06
338.422	205.06
338.65	209.06
338.878	205.06
339.106	228.06
339.334	216.06
339.562	209.06
339.79	211.06
340.018	204.06
340.246	199.06
340.474	221.06
340.702	198.06
340.93	186.06
341.158	205.06
341.386	202.06
341.614	187.06
341.842	200.06
342.07	172.06
342.298	196.06
342.526	212.06
342.754	200.06
342.981	214.06
343.209	209.06
343.437	208.06
343.665	205.06
343.893	214.06
344.12	242.06
344.348	242.06
344.576	211.06
344.804	214.06
345.031	226.06
345.259	209.06
345.487	184.06
345.714	193.06
345.942	201.06
346.17	193.06
346.397	188.06
346.625	197.06
346.853	212.06
347.08	191.06
347.308	181.06
347.535	194.06
347.763	198.06
347.99	205.06
348.218	190.06
348.445	204.06
348.673	176.06
348.9	209.06
349.128	193.06
349.355	206.06
349.583	204.06
349.81	201.06
350.037	197.06
350.265	187.06
350.492	187.06
350.72	202.06
350.947	192.06
351.174	191.06
351.402	188.06
351.629	185.06
351.856	202.06
352.083	180.06
352.311	170.06
352.538	197.06
352.765	170.06
352.992	173.06
353.22	190.06
353.447	197.06
353.674	191.06
353.901	197.06
354.128	181.06
354.355	208.06
354.583	194.06
354.81	197.06
355.037	188.06
355.264	198.06
355.491	187.06
355.718	194.06
355.945	202.06
356.172	196.06
356.399	193.06
356.626	203.06
356.853	190.06
357.08	212.06
357.307	204.06
357.534	210.06
357.761	179.06
357.988	184.06
358.215	183.06
358.441	200.06
358.668	192.06
358.895	189.06
359.122	204.06
359.349	201.06
359.576	192.06
359.802	195.06
360.029	186.06
360.256	193.06
360.483	188.06
360.709	188.06
360.936	200.06
361.163	203.06
361.39	185.06
361.616	169.06
361.843	195.06
362.07	200.06
362.296	198.06
362.523	192.06
362.749	183.06
362.976	204.06
363.203	204.06
363.429	199.06
363.656	198.06
363.882	193.06
364.109	198.06
364.335	184.06
364.562	187.06
364.788	189.06
365.015	194.06
365.241	214.06
365.468	202.06
365.694	220.06
365.92	198.06
366.147	178.06
366.373	196.06
366.599	189.06
366.826	216.06
367.052	201.06
367.278	198.06
367.505	193.06
367.731	192.06
367.957	199.06
368.184	189.06
368.41	196.06
368.636	196.06
368.862	196.06
369.089	202.06
369.315	215.06
369.541	205.06
369.767	193.06
369.993	209.06
370.219	198.06
370.445	203.06
370.672	220.06
370.898	187.06
371.124	195.06
371.35	194.06
371.576	200.06
371.802	204.06
372.028	210.06
372.254	202.06
372.48	207.06
372.706	211.06
372.932	217.06
373.158	221.06
373.384	206.06
373.61	199.06
373.835	223.06
374.061	210.06
374.287	216.06
374.513	225.06
374.739	231.06
374.965	246.06
375.191	237.06
375.416	225.06
375.642	216.06
375.868	220.06
376.094	205.06
376.319	214.06
376.545	204.06
376.771	200.06
376.997	203.06
377.222	205.06
377.448	212.06
377.674	215.06
377.899	233.06
378.125	221.06
378.35	216.06
378.576	216.06
378.802	214.06
379.027	222.06
379.253	214.06
379.478	209.06
379.704	188.06
379.929	200.06
380.155	205.06
380.38	206.06
380.606	206.06
380.831	209.06
381.057	234.06
381.282	213.06
381.507	212.06
381.733	215.06
381.958	230.06
382.184	230.06
382.409	225.06
382.634	226.06
382.86	217.06
383.085	226.06
383.31	220.06
383.535	230.06
383.761	222.06
383.986	231.06
384.211	235.06
384.436	230.06
384.662	245.06
384.887	250.06
385.112	238.06
385.337	250.06
385.562	238.06
385.787	261.06
386.013	262.06
386.238	248.06
386.463	270.06
386.688	261.06
386.913	268.06
387.138	249.06
387.363	263.06
387.588	263.06
387.813	252.06
388.038	247.06
388.263	250.06
388.488	253.06
388.713	240.06
388.938	247.06
389.163	236.06
389.387	240.06
389.612	260.06
389.837	254.06
390.062	234.06
390.287	239.06
390.512	261.06
390.736	253.06
390.961	256.06
391.186	260.06
391.411	266.06
391.636	270.06
391.86	280.06
392.085	267.06
392.31	267.06
392.534	271.06
392.759	268.06
392.984	261.06
393.208	266.06
393.433	248.06
393.658	267.06
393.882	266.06
394.107	268.06
394.331	268.06
394.556	271.06
394.78	275.06
395.005	281.06
395.229	277.06
395.454	264.06
395.678	272.06
395.903	275.06
396.127	278.06
396.352	262.06
396.576	263.06
396.801	252.06
397.025	264.06
397.249	252.06
397.474	273.06
397.698	274.06
397.922	277.06
398.147	266.06
398.371	296.06
398.595	306.06
398.82	294.06
399.044	334.06
399.268	329.06
399.492	372.06
399.717	416.06
399.941	406.06
400.165	376.06
400.389	341.06
400.613	324.06
400.837	326.06
401.062	316.06
401.286	311.06
401.51	321.06
401.734	319.06
401.958	294.06
402.182	308.06
402.406	309.06
402.63	318.06
402.854	323.06
403.078	330.06
403.302	324.06
403.526	338.06
403.75	341.06
403.974	338.06
404.198	350.06
404.422	344.06
404.645	330.06
404.869	342.06
405.093	350.06
405.317	329.06
405.541	321.06
405.765	332.06
405.988	329.06
406.212	315.06
406.436	322.06
406.66	345.06
406.883	345.06
407.107	371.06
407.331	390.06
407.555	393.06
407.778	380.06
408.002	356.06
408.226	359.06
408.449	372.06
408.673	337.06
408.896	340.06
409.12	349.06
409.344	348.06
409.567	331.06
409.791	359.06
410.014	339.06
410.238	355.06
410.461	367.06
410.685	340.06
410.908	328.06
411.132	347.06
411.355	326.06
411.578	323.06
411.802	328.06
412.025	319.06
412.249	330.06
412.472	333.06
412.695	316.06
412.919	319.06
413.142	326.06
413.365	307.06
413.589	325.06
413.812	315.06
414.035	313.06
414.258	301.06
414.482	318.06
414.705	333.06
414.928	311.06
415.151	317.06
415.374	328.06
415.597	312.06
415.821	322.06
416.044	307.06
416.267	315.06
416.49	305.06
416.713	286.06
416.936	310.06
417.159	299.06
417.382	313.06
417.605	309.06
417.828	316.06
418.051	331.06
418.274	313.06
418.497	304.06
418.72	326.06
418.943	318.06
419.166	346.06
419.389	351.06
419.611	347.06
419.834	332.06
420.057	325.06
420.28	340.06
420.503	324.06
420.726	319.06
420.948	322.06
421.171	313.06
421.394	310.06
421.617	295.06
421.839	300.06
422.062	311.06
422.285	331.06
422.507	331.06
422.73	308.06
422.953	332.06
423.175	311.06
423.398	331.06
423.621	329.06
423.843	322.06
424.066	361.06
424.288	349.06
424.511	344.06
424.733	313.06
424.956	311.06
425.178	325.06
425.401	301.06
425.623	308.06
425.846	310.06
426.068	302.06
426.291	327.06
426.513	278.06
426.735	296.06
426.958	307.06
427.18	308.06
427.402	283.06
427.625	296.06
427.847	290.06
428.069	304.06
428.292	304.06
428.514	282.06
428.736	295.06
428.958	306.06
429.181	271.06
429.403	283.06
429.625	306.06
429.847	274.06
430.069	289.06
430.292	284.06
430.514	287.06
430.736	290.06
430.958	282.06
431.18	291.06
431.402	280.06
431.624	281.06
431.846	300.06
432.068	289.06
432.29	294.06
432.512	278.06
432.734	299.06
432.956	292.06
433.178	282.06
433.4	306.06
433.622	321.06
433.844	299.06
434.066	288.06
434.287	294.06
434.509	299.06
434.731	321.06
434.953	324.06
435.175	320.06
435.397	308.06
435.618	300.06
435.84	298.06
436.062	283.06
436.284	285.06
436.505	296.06
436.727	281.06
436.949	285.06
437.17	273.06
437.392	272.06
437.614	277.06
437.835	273.06
438.057	280.06
438.278	280.06
438.5	304.06
438.721	278.06
438.943	284.06
439.165	298.06
439.386	281.06
439.608	277.06
439.829	305.06
440.05	300.06
440.272	297.06
440.493	284.06
440.715	303.06
440.936	295.06
441.158	292.06
441.379	293.06
441.6	318.06
441.822	314.06
442.043	325.06
442.264	315.06
442.486	306.06
442.707	313.06
442.928	328.06
443.149	309.06
443.371	310.06
443.592	326.06
443.813	347.06
444.034	319.06
444.255	337.06
444.476	333.06
444.698	359.06
444.919	379.06
445.14	470.06
445.361	387.06
445.582	332.06
445.803	316.06
446.024	294.06
446.245	302.06
446.466	298.06
446.687	307.06
446.908	306.06
447.129	289.06
447.35	301.06
447.571	300.06
447.792	273.06
448.013	305.06
448.234	253.06
448.455	268.06
448.675	268.06
448.896	284.06
449.117	282.06
449.338	274.06
449.559	279.06
449.779	252.06
450	262.06
450.221	262.06
450.442	283.06
450.662	276.06
450.883	278.06
451.104	279.06
451.324	285.06
451.545	269.06
451.766	283.06
451.986	271.06
452.207	272.06
452.428	260.06
452.648	261.06
452.869	258.06
453.089	268.06
453.31	284.06
453.53	285.06
453.751	283.06
453.971	282.06
454.192	277.06
454.412	276.06
454.633	263.06
454.853	249.06
455.073	256.06
455.294	253.06
455.514	258.06
455.734	261.06
455.955	264.06
456.175	264.06
456.395	257.06
456.616	262.06
456.836	253.06
457.056	269.06
457.276	263.06
457.497	256.06
457.717	257.06
457.937	252.06
458.157	256.06
458.377	251.06
458.598	269.06
458.818	275.06
459.038	283.06
459.258	284.06
459.478	287.06
459.698	307.06
459.918	300.06
460.138	300.06
460.358	331.06
460.578	337.06
460.798	320.06
461.018	350.06
461.238	336.06
461.458	337.06
461.678	336.06
461.898	350.06
462.118	344.06
462.338	343.06
462.558	335.06
462.777	341.06
462.997	386.06
463.217	411.06
463.437	403.06
463.657	375.06
463.876	373.06
464.096	378.06
464.316	374.06
464.536	378.06
464.755	367.06
464.975	347.06
465.195	333.06
465.414	337.06
465.634	316.06
465.854	316.06
466.073	300.06
466.293	296.06
466.512	293.06
466.732	279.06
466.951	283.06
467.171	299.06
467.391	288.06
467.61	291.06
467.829	278.06
468.049	270.06
468.268	269.06
468.488	272.06
468.707	275.06
468.927	294.06
469.146	276.06
469.365	282.06
469.585	294.06
469.804	284.06
470.023	276.06
470.243	284.06
470.462	295.06
470.681	278.06
470.901	286.06
471.12	291.06
471.339	294.06
471.558	281.06
471.777	285.06
471.997	277.06
472.216	294.06
472.435	279.06
472.654	261.06
472.873	258.06
473.092	265.06
473.311	268.06
473.53	267.06
473.749	267.06
473.968	268.06
474.187	260.06
474.406	254.06
474.625	280.06
474.844	273.06
475.063	267.06
475.282	284.06
475.501	269.06
475.72	253.06
475.939	263.06
476.158	287.06
476.377	281.06
476.596	285.06
476.814	275.06
477.033	300.06
477.252	303.06
477.471	296.06
477.69	301.06
477.908	285.06
478.127	321.06
478.346	316.06
478.564	315.06
478.783	319.06
479.002	305.06
479.22	330.06
479.439	324.06
479.658	323.06
479.876	335.06
480.095	346.06
480.313	351.06
480.532	328.06
480.751	337.06
480.969	332.06
481.188	314.06
481.406	316.06
481.624	300.06
481.843	312.06
482.061	282.06
482.28	302.06
482.498	309.06
482.717	301.06
482.935	323.06
483.153	284.06
483.372	277.06
483.59	312.06
483.808	304.06
484.027	305.06
484.245	294.06
484.463	322.06
484.681	320.06
484.9	313.06
485.118	303.06
485.336	311.06
485.554	318.06
485.772	335.06
485.99	323.06
486.209	306.06
486.427	322.06
486.645	314.06
486.863	314.06
487.081	329.06
487.299	354.06
487.517	316.06
487.735	308.06
487.953	315.06
488.171	323.06
488.389	313.06
488.607	307.06
488.825	314.06
489.043	310.06
489.261	301.06
489.479	308.06
489.696	321.06
489.914	311.06
490.132	313.06
490.35	321.06
490.568	312.06
490.786	318.06
491.003	332.06
491.221	302.06
491.439	310.06
491.657	330.06
491.874	325.06
492.092	336.06
492.31	326.06
492.527	320.06
492.745	315.06
492.963	326.06
493.18	318.06
493.398	323.06
493.615	328.06
493.833	309.06
494.05	325.06
494.268	345.06
494.485	330.06
494.703	334.06
494.92	336.06
495.138	316.06
495.355	314.06
495.573	310.06
495.79	328.06
496.008	344.06
496.225	351.06
496.442	337.06
496.66	344.06
496.877	358.06
497.094	361.06
497.312	369.06
497.529	361.06
497.746	371.06
497.963	372.06
498.181	379.06
498.398	396.06
498.615	410.06
498.832	423.06
499.049	454.06
499.267	476.06
499.484	552.06
499.701	582.06
499.918	626.06
500.135	674.06
500.352	773.06
500.569	814.06
500.786	818.06
501.003	728.06
501.22	661.06
501.437	605.06
501.654	536.06
501.871	504.06
502.088	499.06
502.305	462.06
