Data from Fe(NO3)3@0.0125M.TitratingCurve.Agarose3%dH2O.NegLispCup.LampEnergy10.LIBS07252019_HRD10591_17-00-56-336.txt Node
Date: Thu Jul 25 17:00:56 EDT 2019
User: cochatt
Spectrometer: HR+D1059
Trigger mode: 1
Integration Time (sec): 1.000000E-1
Scans to average: 1
Electric dark correction enabled: true
Nonlinearity correction enabled: false
Boxcar width: 0
XAxis mode: Wavelengths
Number of Pixels in Spectrum: 2048
>>>>>Begin Spectral Data<<<<<
223.165	-24.19
223.4	-24.19
223.635	-24.19
223.869	-10.19
224.104	-10.19
224.338	-30.19
224.573	-30.19
224.808	-22.19
225.042	1.81
225.277	-9.19
225.511	9.81
225.746	13.81
225.98	9.81
226.215	16.81
226.449	19.81
226.683	24.81
226.918	23.81
227.152	15.81
227.387	31.81
227.621	52.81
227.856	49.81
228.09	38.81
228.324	39.81
228.559	51.81
228.793	55.81
229.027	79.81
229.262	69.81
229.496	82.81
229.73	83.81
229.964	95.81
230.199	90.81
230.433	99.81
230.667	76.81
230.901	101.81
231.136	86.81
231.37	81.81
231.604	83.81
231.838	110.81
232.072	97.81
232.306	99.81
232.541	95.81
232.775	94.81
233.009	88.81
233.243	104.81
233.477	91.81
233.711	90.81
233.945	118.81
234.179	97.81
234.413	108.81
234.647	108.81
234.881	86.81
235.115	89.81
235.349	107.81
235.583	98.81
235.817	108.81
236.051	113.81
236.285	109.81
236.519	115.81
236.753	125.81
236.987	111.81
237.221	101.81
237.455	115.81
237.689	122.81
237.922	123.81
238.156	104.81
238.39	90.81
238.624	111.81
238.858	111.81
239.091	116.81
239.325	103.81
239.559	97.81
239.793	101.81
240.027	113.81
240.26	107.81
240.494	107.81
240.728	99.81
240.961	116.81
241.195	100.81
241.429	121.81
241.662	124.81
241.896	122.81
242.13	109.81
242.363	120.81
242.597	119.81
242.83	111.81
243.064	120.81
243.298	131.81
243.531	118.81
243.765	122.81
243.998	115.81
244.232	115.81
244.465	119.81
244.699	121.81
244.932	121.81
245.166	124.81
245.399	120.81
245.633	120.81
245.866	120.81
246.099	124.81
246.333	123.81
246.566	146.81
246.8	118.81
247.033	129.81
247.266	141.81
247.5	122.81
247.733	124.81
247.966	134.81
248.2	128.81
248.433	133.81
248.666	135.81
248.899	135.81
249.133	133.81
249.366	136.81
249.599	145.81
249.832	118.81
250.066	124.81
250.299	137.81
250.532	134.81
250.765	135.81
250.998	152.81
251.231	137.81
251.465	156.81
251.698	128.81
251.931	149.81
252.164	150.81
252.397	149.81
252.63	159.81
252.863	147.81
253.096	149.81
253.329	144.81
253.562	147.81
253.795	141.81
254.028	143.81
254.261	159.81
254.494	148.81
254.727	148.81
254.96	141.81
255.193	155.81
255.426	150.81
255.659	141.81
255.892	155.81
256.124	140.81
256.357	151.81
256.59	144.81
256.823	160.81
257.056	160.81
257.289	120.81
257.521	140.81
257.754	153.81
257.987	155.81
258.22	152.81
258.452	159.81
258.685	151.81
258.918	153.81
259.151	161.81
259.383	156.81
259.616	162.81
259.849	165.81
260.081	157.81
260.314	163.81
260.547	161.81
260.779	172.81
261.012	176.81
261.244	162.81
261.477	157.81
261.71	152.81
261.942	155.81
262.175	164.81
262.407	162.81
262.64	160.81
262.872	162.81
263.105	178.81
263.337	175.81
263.57	179.81
263.802	164.81
264.035	171.81
264.267	167.81
264.499	172.81
264.732	165.81
264.964	170.81
265.197	186.81
265.429	187.81
265.661	175.81
265.894	163.81
266.126	147.81
266.358	170.81
266.591	180.81
266.823	175.81
267.055	186.81
267.287	183.81
267.52	186.81
267.752	174.81
267.984	178.81
268.216	179.81
268.448	184.81
268.681	177.81
268.913	179.81
269.145	183.81
269.377	176.81
269.609	196.81
269.841	187.81
270.073	193.81
270.306	177.81
270.538	195.81
270.77	181.81
271.002	189.81
271.234	185.81
271.466	182.81
271.698	173.81
271.93	179.81
272.162	195.81
272.394	189.81
272.626	196.81
272.858	193.81
273.09	192.81
273.322	187.81
273.553	207.81
273.785	196.81
274.017	199.81
274.249	211.81
274.481	213.81
274.713	205.81
274.945	221.81
275.176	215.81
275.408	216.81
275.64	188.81
275.872	217.81
276.104	212.81
276.335	202.81
276.567	198.81
276.799	193.81
277.031	205.81
277.262	209.81
277.494	204.81
277.726	187.81
277.957	197.81
278.189	198.81
278.421	201.81
278.652	193.81
278.884	211.81
279.115	195.81
279.347	198.81
279.579	213.81
279.81	207.81
280.042	204.81
280.273	201.81
280.505	219.81
280.736	211.81
280.968	189.81
281.199	221.81
281.431	212.81
281.662	211.81
281.894	219.81
282.125	216.81
282.356	212.81
282.588	218.81
282.819	216.81
283.051	211.81
283.282	209.81
283.513	229.81
283.745	211.81
283.976	204.81
284.207	220.81
284.439	231.81
284.67	219.81
284.901	235.81
285.132	211.81
285.364	221.81
285.595	225.81
285.826	230.81
286.057	229.81
286.288	224.81
286.52	234.81
286.751	235.81
286.982	230.81
287.213	223.81
287.444	240.81
287.675	233.81
287.906	237.81
288.138	251.81
288.369	224.81
288.6	233.81
288.831	231.81
289.062	218.81
289.293	249.81
289.524	253.81
289.755	247.81
289.986	255.81
290.217	251.81
290.448	237.81
290.679	242.81
290.91	249.81
291.141	226.81
291.371	245.81
291.602	233.81
291.833	253.81
292.064	231.81
292.295	236.81
292.526	234.81
292.757	237.81
292.987	232.81
293.218	240.81
293.449	231.81
293.68	243.81
293.91	250.81
294.141	226.81
294.372	235.81
294.603	243.81
294.833	225.81
295.064	241.81
295.295	246.81
295.525	241.81
295.756	269.81
295.987	268.81
296.217	249.81
296.448	255.81
296.679	240.81
296.909	251.81
297.14	259.81
297.37	253.81
297.601	265.81
297.831	267.81
298.062	246.81
298.292	249.81
298.523	259.81
298.753	261.81
298.984	255.81
299.214	255.81
299.445	258.81
299.675	269.81
299.905	254.81
300.136	268.81
300.366	267.81
300.597	266.81
300.827	264.81
301.057	254.81
301.288	254.81
301.518	272.81
301.748	271.81
301.979	281.81
302.209	290.81
302.439	259.81
302.669	277.81
302.9	277.81
303.13	262.81
303.36	275.81
303.59	266.81
303.82	269.81
304.051	281.81
304.281	290.81
304.511	282.81
304.741	275.81
304.971	268.81
305.201	289.81
305.431	279.81
305.661	281.81
305.891	270.81
306.121	287.81
306.352	264.81
306.582	275.81
306.812	265.81
307.042	285.81
307.272	277.81
307.502	263.81
307.731	263.81
307.961	277.81
308.191	270.81
308.421	287.81
308.651	277.81
308.881	279.81
309.111	270.81
309.341	287.81
309.571	290.81
309.8	300.81
310.03	261.81
310.26	277.81
310.49	283.81
310.72	288.81
310.949	279.81
311.179	271.81
311.409	276.81
311.639	280.81
311.868	288.81
312.098	295.81
312.328	291.81
312.557	307.81
312.787	277.81
313.017	282.81
313.246	304.81
313.476	291.81
313.706	289.81
313.935	295.81
314.165	289.81
314.394	299.81
314.624	285.81
314.853	309.81
315.083	278.81
315.312	295.81
315.542	288.81
315.771	298.81
316.001	299.81
316.23	287.81
316.46	294.81
316.689	299.81
316.919	305.81
317.148	276.81
317.377	305.81
317.607	313.81
317.836	287.81
318.065	300.81
318.295	305.81
318.524	297.81
318.753	301.81
318.983	327.81
319.212	297.81
319.441	304.81
319.67	313.81
319.9	303.81
320.129	306.81
320.358	301.81
320.587	294.81
320.816	323.81
321.046	297.81
321.275	289.81
321.504	313.81
321.733	309.81
321.962	312.81
322.191	308.81
322.42	312.81
322.649	315.81
322.878	312.81
323.108	333.81
323.337	303.81
323.566	302.81
323.795	306.81
324.024	318.81
324.253	312.81
324.482	323.81
324.71	295.81
324.939	332.81
325.168	330.81
325.397	309.81
325.626	328.81
325.855	311.81
326.084	319.81
326.313	329.81
326.542	331.81
326.77	333.81
326.999	324.81
327.228	327.81
327.457	325.81
327.686	322.81
327.914	323.81
328.143	326.81
328.372	331.81
328.6	323.81
328.829	320.81
329.058	337.81
329.287	326.81
329.515	329.81
329.744	325.81
329.972	331.81
330.201	328.81
330.43	337.81
330.658	334.81
330.887	335.81
331.115	331.81
331.344	321.81
331.572	344.81
331.801	332.81
332.03	357.81
332.258	330.81
332.486	347.81
332.715	368.81
332.943	348.81
333.172	379.81
333.4	379.81
333.629	380.81
333.857	377.81
334.085	356.81
334.314	370.81
334.542	364.81
334.771	359.81
334.999	387.81
335.227	379.81
335.455	376.81
335.684	392.81
335.912	375.81
336.14	351.81
336.369	379.81
336.597	364.81
336.825	381.81
337.053	353.81
337.281	343.81
337.51	375.81
337.738	372.81
337.966	362.81
338.194	353.81
338.422	355.81
338.65	363.81
338.878	363.81
339.106	338.81
339.334	353.81
339.562	354.81
339.79	367.81
340.018	357.81
340.246	367.81
340.474	383.81
340.702	372.81
340.93	347.81
341.158	331.81
341.386	338.81
341.614	327.81
341.842	354.81
342.07	340.81
342.298	345.81
342.526	363.81
342.754	338.81
342.981	351.81
343.209	361.81
343.437	360.81
343.665	393.81
343.893	394.81
344.12	384.81
344.348	383.81
344.576	381.81
344.804	355.81
345.031	364.81
345.259	341.81
345.487	343.81
345.714	331.81
345.942	333.81
346.17	337.81
346.397	347.81
346.625	340.81
346.853	347.81
347.08	340.81
347.308	342.81
347.535	346.81
347.763	327.81
347.99	351.81
348.218	345.81
348.445	337.81
348.673	365.81
348.9	344.81
349.128	328.81
349.355	328.81
349.583	334.81
349.81	335.81
350.037	328.81
350.265	353.81
350.492	332.81
350.72	339.81
350.947	315.81
351.174	323.81
351.402	325.81
351.629	340.81
351.856	333.81
352.083	339.81
352.311	348.81
352.538	331.81
352.765	341.81
352.992	343.81
353.22	332.81
353.447	332.81
353.674	326.81
353.901	325.81
354.128	331.81
354.355	345.81
354.583	338.81
354.81	335.81
355.037	339.81
355.264	339.81
355.491	324.81
355.718	332.81
355.945	350.81
356.172	331.81
356.399	333.81
356.626	327.81
356.853	324.81
357.08	341.81
357.307	341.81
357.534	347.81
357.761	333.81
357.988	349.81
358.215	352.81
358.441	346.81
358.668	344.81
358.895	346.81
359.122	328.81
359.349	328.81
359.576	336.81
359.802	329.81
360.029	333.81
360.256	343.81
360.483	339.81
360.709	363.81
360.936	348.81
361.163	340.81
361.39	336.81
361.616	342.81
361.843	326.81
362.07	340.81
362.296	359.81
362.523	339.81
362.749	342.81
362.976	345.81
363.203	357.81
363.429	329.81
363.656	329.81
363.882	333.81
364.109	338.81
364.335	336.81
364.562	352.81
364.788	324.81
365.015	330.81
365.241	339.81
365.468	348.81
365.694	342.81
365.92	333.81
366.147	356.81
366.373	359.81
366.599	333.81
366.826	358.81
367.052	358.81
367.278	363.81
367.505	331.81
367.731	356.81
367.957	340.81
368.184	365.81
368.41	348.81
368.636	362.81
368.862	375.81
369.089	335.81
369.315	363.81
369.541	346.81
369.767	357.81
369.993	347.81
370.219	347.81
370.445	365.81
370.672	348.81
370.898	372.81
371.124	347.81
371.35	348.81
371.576	369.81
371.802	367.81
372.028	381.81
372.254	374.81
372.48	363.81
372.706	359.81
372.932	360.81
373.158	373.81
373.384	394.81
373.61	367.81
373.835	370.81
374.061	380.81
374.287	372.81
374.513	388.81
374.739	363.81
374.965	395.81
375.191	380.81
375.416	386.81
375.642	372.81
375.868	371.81
376.094	367.81
376.319	377.81
376.545	364.81
376.771	385.81
376.997	377.81
377.222	356.81
377.448	369.81
377.674	371.81
377.899	369.81
378.125	376.81
378.35	362.81
378.576	347.81
378.802	379.81
379.027	367.81
379.253	364.81
379.478	364.81
379.704	348.81
379.929	392.81
380.155	361.81
380.38	355.81
380.606	368.81
380.831	377.81
381.057	377.81
381.282	358.81
381.507	374.81
381.733	385.81
381.958	377.81
382.184	376.81
382.409	398.81
382.634	365.81
382.86	393.81
383.085	385.81
383.31	385.81
383.535	396.81
383.761	387.81
383.986	378.81
384.211	373.81
384.436	404.81
384.662	381.81
384.887	396.81
385.112	404.81
385.337	392.81
385.562	402.81
385.787	405.81
386.013	425.81
386.238	415.81
386.463	404.81
386.688	408.81
386.913	389.81
387.138	415.81
387.363	402.81
387.588	418.81
387.813	425.81
388.038	396.81
388.263	408.81
388.488	405.81
388.713	406.81
388.938	397.81
389.163	409.81
389.387	404.81
389.612	392.81
389.837	409.81
390.062	403.81
390.287	408.81
390.512	434.81
390.736	425.81
390.961	417.81
391.186	406.81
391.411	421.81
391.636	423.81
391.86	428.81
392.085	448.81
392.31	423.81
392.534	437.81
392.759	440.81
392.984	425.81
393.208	426.81
393.433	450.81
393.658	435.81
393.882	449.81
394.107	432.81
394.331	415.81
394.556	435.81
394.78	430.81
395.005	440.81
395.229	418.81
395.454	449.81
395.678	441.81
395.903	454.81
396.127	428.81
396.352	443.81
396.576	439.81
396.801	441.81
397.025	456.81
397.249	455.81
397.474	433.81
397.698	438.81
397.922	445.81
398.147	440.81
398.371	469.81
398.595	490.81
398.82	465.81
399.044	486.81
399.268	502.81
399.492	535.81
399.717	542.81
399.941	551.81
400.165	526.81
400.389	529.81
400.613	511.81
400.837	499.81
401.062	499.81
401.286	499.81
401.51	466.81
401.734	484.81
401.958	462.81
402.182	463.81
402.406	486.81
402.63	465.81
402.854	481.81
403.078	480.81
403.302	499.81
403.526	513.81
403.75	478.81
403.974	506.81
404.198	474.81
404.422	499.81
404.645	503.81
404.869	500.81
405.093	493.81
405.317	519.81
405.541	497.81
405.765	498.81
405.988	510.81
406.212	504.81
406.436	505.81
406.66	524.81
406.883	523.81
407.107	537.81
407.331	525.81
407.555	538.81
407.778	540.81
408.002	551.81
408.226	547.81
408.449	531.81
408.673	535.81
408.896	524.81
409.12	529.81
409.344	529.81
409.567	515.81
409.791	520.81
410.014	519.81
410.238	473.81
410.461	491.81
410.685	508.81
410.908	521.81
411.132	515.81
411.355	516.81
411.578	522.81
411.802	515.81
412.025	497.81
412.249	500.81
412.472	501.81
412.695	485.81
412.919	484.81
413.142	487.81
413.365	482.81
413.589	492.81
413.812	490.81
414.035	513.81
414.258	474.81
414.482	484.81
414.705	497.81
414.928	463.81
415.151	478.81
415.374	466.81
415.597	472.81
415.821	459.81
416.044	474.81
416.267	477.81
416.49	498.81
416.713	471.81
416.936	489.81
417.159	464.81
417.382	458.81
417.605	460.81
417.828	449.81
418.051	485.81
418.274	469.81
418.497	455.81
418.72	470.81
418.943	467.81
419.166	482.81
419.389	513.81
419.611	506.81
419.834	514.81
420.057	489.81
420.28	470.81
420.503	455.81
420.726	455.81
420.948	442.81
421.171	468.81
421.394	455.81
421.617	435.81
421.839	457.81
422.062	459.81
422.285	439.81
422.507	462.81
422.73	470.81
422.953	460.81
423.175	467.81
423.398	457.81
423.621	464.81
423.843	454.81
424.066	471.81
424.288	468.81
424.511	449.81
424.733	450.81
424.956	473.81
425.178	465.81
425.401	449.81
425.623	464.81
425.846	458.81
426.068	447.81
426.291	473.81
426.513	458.81
426.735	447.81
426.958	455.81
427.18	444.81
427.402	455.81
427.625	441.81
427.847	439.81
428.069	442.81
428.292	423.81
428.514	452.81
428.736	433.81
428.958	426.81
429.181	421.81
429.403	465.81
429.625	439.81
429.847	415.81
430.069	434.81
430.292	432.81
430.514	426.81
430.736	459.81
430.958	449.81
431.18	432.81
431.402	442.81
431.624	441.81
431.846	427.81
432.068	443.81
432.29	432.81
432.512	443.81
432.734	437.81
432.956	435.81
433.178	443.81
433.4	438.81
433.622	443.81
433.844	442.81
434.066	417.81
434.287	451.81
434.509	445.81
434.731	454.81
434.953	473.81
435.175	464.81
435.397	459.81
435.618	465.81
435.84	445.81
436.062	450.81
436.284	465.81
436.505	428.81
436.727	436.81
436.949	447.81
437.17	441.81
437.392	443.81
437.614	431.81
437.835	439.81
438.057	429.81
438.278	423.81
438.5	445.81
438.721	442.81
438.943	445.81
439.165	450.81
439.386	440.81
439.608	426.81
439.829	444.81
440.05	420.81
440.272	441.81
440.493	449.81
440.715	432.81
440.936	452.81
441.158	440.81
441.379	459.81
441.6	461.81
441.822	427.81
442.043	449.81
442.264	463.81
442.486	451.81
442.707	460.81
442.928	433.81
443.149	459.81
443.371	455.81
443.592	456.81
443.813	471.81
444.034	477.81
444.255	461.81
444.476	473.81
444.698	469.81
444.919	484.81
445.14	564.81
445.361	484.81
445.582	474.81
445.803	445.81
446.024	425.81
446.245	441.81
446.466	439.81
446.687	428.81
446.908	421.81
447.129	435.81
447.35	435.81
447.571	425.81
447.792	407.81
448.013	427.81
448.234	420.81
448.455	410.81
448.675	399.81
448.896	413.81
449.117	405.81
449.338	419.81
449.559	407.81
449.779	389.81
450	396.81
450.221	390.81
450.442	388.81
450.662	387.81
450.883	407.81
451.104	414.81
451.324	424.81
451.545	412.81
451.766	389.81
451.986	403.81
452.207	385.81
452.428	393.81
452.648	390.81
452.869	405.81
453.089	377.81
453.31	395.81
453.53	403.81
453.751	407.81
453.971	395.81
454.192	385.81
454.412	405.81
454.633	401.81
454.853	407.81
455.073	375.81
455.294	398.81
455.514	388.81
455.734	395.81
455.955	384.81
456.175	393.81
456.395	390.81
456.616	385.81
456.836	383.81
457.056	395.81
457.276	403.81
457.497	396.81
457.717	397.81
457.937	391.81
458.157	379.81
458.377	386.81
458.598	401.81
458.818	411.81
459.038	417.81
459.258	415.81
459.478	414.81
459.698	439.81
459.918	445.81
460.138	447.81
460.358	459.81
460.578	461.81
460.798	446.81
461.018	453.81
461.238	478.81
461.458	451.81
461.678	479.81
461.898	483.81
462.118	481.81
462.338	476.81
462.558	497.81
462.777	504.81
462.997	534.81
463.217	528.81
463.437	515.81
463.657	522.81
463.876	508.81
464.096	521.81
464.316	489.81
464.536	496.81
464.755	492.81
464.975	513.81
465.195	478.81
465.414	457.81
465.634	449.81
465.854	439.81
466.073	455.81
466.293	465.81
466.512	429.81
466.732	422.81
466.951	453.81
467.171	433.81
467.391	417.81
467.61	451.81
467.829	437.81
468.049	412.81
468.268	415.81
468.488	414.81
468.707	434.81
468.927	406.81
469.146	418.81
469.365	439.81
469.585	429.81
469.804	419.81
470.023	412.81
470.243	433.81
470.462	437.81
470.681	415.81
470.901	411.81
471.12	431.81
471.339	450.81
471.558	439.81
471.777	428.81
471.997	423.81
472.216	431.81
472.435	425.81
472.654	425.81
472.873	426.81
473.092	431.81
473.311	417.81
473.53	437.81
473.749	406.81
473.968	411.81
474.187	414.81
474.406	405.81
474.625	433.81
474.844	431.81
475.063	420.81
475.282	422.81
475.501	438.81
475.72	435.81
475.939	435.81
476.158	447.81
476.377	452.81
476.596	465.81
476.814	467.81
477.033	465.81
477.252	461.81
477.471	451.81
477.69	468.81
477.908	458.81
478.127	482.81
478.346	471.81
478.564	483.81
478.783	473.81
479.002	486.81
479.22	506.81
479.439	504.81
479.658	514.81
479.876	468.81
480.095	489.81
480.313	492.81
480.532	519.81
480.751	511.81
480.969	515.81
481.188	508.81
481.406	515.81
481.624	480.81
481.843	476.81
482.061	489.81
482.28	480.81
482.498	502.81
482.717	481.81
482.935	526.81
483.153	486.81
483.372	513.81
483.59	511.81
483.808	488.81
484.027	506.81
484.245	491.81
484.463	509.81
484.681	518.81
484.9	519.81
485.118	515.81
485.336	507.81
485.554	510.81
485.772	516.81
485.99	504.81
486.209	507.81
486.427	506.81
486.645	516.81
486.863	534.81
487.081	503.81
487.299	492.81
487.517	523.81
487.735	514.81
487.953	518.81
488.171	528.81
488.389	522.81
488.607	515.81
488.825	523.81
489.043	507.81
489.261	521.81
489.479	518.81
489.696	507.81
489.914	512.81
490.132	544.81
490.35	539.81
490.568	513.81
490.786	533.81
491.003	528.81
491.221	528.81
491.439	543.81
491.657	517.81
491.874	516.81
492.092	531.81
492.31	507.81
492.527	526.81
492.745	536.81
492.963	525.81
493.18	518.81
493.398	524.81
493.615	524.81
493.833	531.81
494.05	519.81
494.268	539.81
494.485	556.81
494.703	539.81
494.92	555.81
495.138	530.81
495.355	544.81
495.573	555.81
495.79	547.81
496.008	554.81
496.225	546.81
496.442	544.81
496.66	579.81
496.877	588.81
497.094	579.81
497.312	565.81
497.529	581.81
497.746	590.81
497.963	599.81
498.181	634.81
498.398	649.81
498.615	643.81
498.832	653.81
499.049	703.81
499.267	701.81
499.484	739.81
499.701	781.81
499.918	811.81
500.135	859.81
500.352	923.81
500.569	903.81
500.786	897.81
501.003	890.81
501.22	869.81
501.437	803.81
501.654	748.81
501.871	719.81
