Data from Fe(NO3)3@0.0125M.TitratingCurve.Agarose3%dH2O.NegLispCup.LampEnergy10.LIBS07252019_HRD10591_16-59-20-337.txt Node
Date: Thu Jul 25 16:59:20 EDT 2019
User: cochatt
Spectrometer: HR+D1059
Trigger mode: 1
Integration Time (sec): 1.000000E-1
Scans to average: 1
Electric dark correction enabled: true
Nonlinearity correction enabled: false
Boxcar width: 0
XAxis mode: Wavelengths
Number of Pixels in Spectrum: 2048
>>>>>Begin Spectral Data<<<<<
223.165	-12.12
223.4	-12.12
223.635	-12.12
223.869	-17.12
224.104	-29.12
224.338	-13.12
224.573	-6.12
224.808	-5.12
225.042	-21.12
225.277	4.88
225.511	-5.12
225.746	6.88
225.98	-5.12
226.215	22.88
226.449	10.88
226.683	15.88
226.918	22.88
227.152	29.88
227.387	38.88
227.621	26.88
227.856	40.88
228.09	40.88
228.324	54.88
228.559	63.88
228.793	62.88
229.027	65.88
229.262	69.88
229.496	71.88
229.73	62.88
229.964	94.88
230.199	81.88
230.433	81.88
230.667	90.88
230.901	100.88
231.136	105.88
231.37	84.88
231.604	90.88
231.838	100.88
232.072	86.88
232.306	79.88
232.541	94.88
232.775	91.88
233.009	101.88
233.243	99.88
233.477	89.88
233.711	101.88
233.945	109.88
234.179	100.88
234.413	94.88
234.647	102.88
234.881	94.88
235.115	109.88
235.349	119.88
235.583	104.88
235.817	87.88
236.051	92.88
236.285	95.88
236.519	102.88
236.753	113.88
236.987	106.88
237.221	87.88
237.455	109.88
237.689	101.88
237.922	90.88
238.156	97.88
238.39	96.88
238.624	97.88
238.858	109.88
239.091	112.88
239.325	119.88
239.559	100.88
239.793	87.88
240.027	109.88
240.26	109.88
240.494	96.88
240.728	106.88
240.961	91.88
241.195	109.88
241.429	102.88
241.662	103.88
241.896	97.88
242.13	111.88
242.363	109.88
242.597	101.88
242.83	98.88
243.064	113.88
243.298	101.88
243.531	103.88
243.765	115.88
243.998	117.88
244.232	95.88
244.465	119.88
244.699	102.88
244.932	120.88
245.166	113.88
245.399	109.88
245.633	110.88
245.866	113.88
246.099	124.88
246.333	96.88
246.566	94.88
246.8	116.88
247.033	120.88
247.266	118.88
247.5	115.88
247.733	118.88
247.966	115.88
248.2	135.88
248.433	127.88
248.666	115.88
248.899	133.88
249.133	123.88
249.366	126.88
249.599	120.88
249.832	127.88
250.066	126.88
250.299	120.88
250.532	121.88
250.765	120.88
250.998	131.88
251.231	125.88
251.465	125.88
251.698	134.88
251.931	126.88
252.164	131.88
252.397	124.88
252.63	119.88
252.863	132.88
253.096	125.88
253.329	127.88
253.562	137.88
253.795	138.88
254.028	122.88
254.261	142.88
254.494	122.88
254.727	154.88
254.96	129.88
255.193	147.88
255.426	138.88
255.659	133.88
255.892	131.88
256.124	143.88
256.357	130.88
256.59	143.88
256.823	147.88
257.056	132.88
257.289	139.88
257.521	135.88
257.754	145.88
257.987	140.88
258.22	138.88
258.452	143.88
258.685	139.88
258.918	130.88
259.151	125.88
259.383	154.88
259.616	157.88
259.849	149.88
260.081	152.88
260.314	148.88
260.547	146.88
260.779	142.88
261.012	142.88
261.244	162.88
261.477	151.88
261.71	153.88
261.942	145.88
262.175	159.88
262.407	151.88
262.64	149.88
262.872	155.88
263.105	147.88
263.337	153.88
263.57	157.88
263.802	146.88
264.035	146.88
264.267	147.88
264.499	137.88
264.732	160.88
264.964	149.88
265.197	147.88
265.429	154.88
265.661	169.88
265.894	157.88
266.126	160.88
266.358	150.88
266.591	160.88
266.823	151.88
267.055	160.88
267.287	161.88
267.52	153.88
267.752	170.88
267.984	161.88
268.216	161.88
268.448	151.88
268.681	178.88
268.913	170.88
269.145	169.88
269.377	167.88
269.609	160.88
269.841	168.88
270.073	169.88
270.306	178.88
270.538	167.88
270.77	149.88
271.002	175.88
271.234	171.88
271.466	175.88
271.698	161.88
271.93	155.88
272.162	167.88
272.394	181.88
272.626	191.88
272.858	178.88
273.09	191.88
273.322	165.88
273.553	186.88
273.785	197.88
274.017	187.88
274.249	182.88
274.481	185.88
274.713	191.88
274.945	199.88
275.176	194.88
275.408	188.88
275.64	201.88
275.872	194.88
276.104	192.88
276.335	187.88
276.567	187.88
276.799	170.88
277.031	183.88
277.262	202.88
277.494	197.88
277.726	195.88
277.957	199.88
278.189	184.88
278.421	189.88
278.652	197.88
278.884	197.88
279.115	183.88
279.347	189.88
279.579	188.88
279.81	202.88
280.042	193.88
280.273	192.88
280.505	197.88
280.736	209.88
280.968	204.88
281.199	198.88
281.431	206.88
281.662	203.88
281.894	209.88
282.125	196.88
282.356	205.88
282.588	205.88
282.819	198.88
283.051	193.88
283.282	214.88
283.513	208.88
283.745	202.88
283.976	222.88
284.207	213.88
284.439	209.88
284.67	225.88
284.901	218.88
285.132	211.88
285.364	222.88
285.595	211.88
285.826	227.88
286.057	205.88
286.288	218.88
286.52	231.88
286.751	235.88
286.982	203.88
287.213	213.88
287.444	226.88
287.675	222.88
287.906	216.88
288.138	213.88
288.369	227.88
288.6	211.88
288.831	224.88
289.062	243.88
289.293	241.88
289.524	229.88
289.755	206.88
289.986	216.88
290.217	213.88
290.448	235.88
290.679	226.88
290.91	235.88
291.141	244.88
291.371	233.88
291.602	250.88
291.833	237.88
292.064	231.88
292.295	230.88
292.526	246.88
292.757	243.88
292.987	235.88
293.218	234.88
293.449	242.88
293.68	239.88
293.91	237.88
294.141	238.88
294.372	247.88
294.603	240.88
294.833	242.88
295.064	249.88
295.295	237.88
295.525	235.88
295.756	247.88
295.987	249.88
296.217	234.88
296.448	250.88
296.679	238.88
296.909	238.88
297.14	261.88
297.37	242.88
297.601	257.88
297.831	244.88
298.062	271.88
298.292	253.88
298.523	239.88
298.753	265.88
298.984	254.88
299.214	234.88
299.445	255.88
299.675	263.88
299.905	264.88
300.136	266.88
300.366	262.88
300.597	278.88
300.827	276.88
301.057	254.88
301.288	267.88
301.518	283.88
301.748	255.88
301.979	271.88
302.209	259.88
302.439	259.88
302.669	263.88
302.9	288.88
303.13	252.88
303.36	279.88
303.59	277.88
303.82	262.88
304.051	279.88
304.281	282.88
304.511	271.88
304.741	280.88
304.971	266.88
305.201	271.88
305.431	278.88
305.661	269.88
305.891	295.88
306.121	294.88
306.352	286.88
306.582	287.88
306.812	275.88
307.042	311.88
307.272	277.88
307.502	270.88
307.731	280.88
307.961	295.88
308.191	282.88
308.421	279.88
308.651	290.88
308.881	293.88
309.111	282.88
309.341	281.88
309.571	271.88
309.8	293.88
310.03	307.88
310.26	281.88
310.49	281.88
310.72	283.88
310.949	296.88
311.179	296.88
311.409	290.88
311.639	291.88
311.868	307.88
312.098	291.88
312.328	296.88
312.557	307.88
312.787	306.88
313.017	303.88
313.246	282.88
313.476	292.88
313.706	288.88
313.935	305.88
314.165	291.88
314.394	309.88
314.624	303.88
314.853	320.88
315.083	297.88
315.312	299.88
315.542	307.88
315.771	311.88
316.001	305.88
316.23	313.88
316.46	311.88
316.689	298.88
316.919	319.88
317.148	326.88
317.377	314.88
317.607	328.88
317.836	309.88
318.065	315.88
318.295	315.88
318.524	320.88
318.753	321.88
318.983	313.88
319.212	315.88
319.441	341.88
319.67	313.88
319.9	326.88
320.129	322.88
320.358	315.88
320.587	337.88
320.816	307.88
321.046	304.88
321.275	324.88
321.504	324.88
321.733	321.88
321.962	332.88
322.191	334.88
322.42	322.88
322.649	330.88
322.878	328.88
323.108	331.88
323.337	330.88
323.566	327.88
323.795	339.88
324.024	328.88
324.253	322.88
324.482	341.88
324.71	327.88
324.939	340.88
325.168	349.88
325.397	336.88
325.626	342.88
325.855	329.88
326.084	355.88
326.313	351.88
326.542	346.88
326.77	330.88
326.999	349.88
327.228	334.88
327.457	337.88
327.686	320.88
327.914	339.88
328.143	356.88
328.372	354.88
328.6	339.88
328.829	351.88
329.058	326.88
329.287	343.88
329.515	350.88
329.744	337.88
329.972	355.88
330.201	325.88
330.43	332.88
330.658	344.88
330.887	351.88
331.115	367.88
331.344	345.88
331.572	342.88
331.801	340.88
332.03	366.88
332.258	357.88
332.486	367.88
332.715	361.88
332.943	363.88
333.172	357.88
333.4	352.88
333.629	377.88
333.857	367.88
334.085	373.88
334.314	368.88
334.542	370.88
334.771	360.88
334.999	367.88
335.227	373.88
335.455	368.88
335.684	360.88
335.912	383.88
336.14	377.88
336.369	367.88
336.597	377.88
336.825	378.88
337.053	362.88
337.281	378.88
337.51	369.88
337.738	391.88
337.966	360.88
338.194	371.88
338.422	375.88
338.65	373.88
338.878	372.88
339.106	384.88
339.334	381.88
339.562	387.88
339.79	373.88
340.018	370.88
340.246	372.88
340.474	367.88
340.702	361.88
340.93	379.88
341.158	384.88
341.386	356.88
341.614	365.88
341.842	357.88
342.07	387.88
342.298	377.88
342.526	377.88
342.754	365.88
342.981	375.88
343.209	389.88
343.437	376.88
343.665	376.88
343.893	366.88
344.12	369.88
344.348	362.88
344.576	378.88
344.804	376.88
345.031	389.88
345.259	389.88
345.487	374.88
345.714	388.88
345.942	371.88
346.17	371.88
346.397	365.88
346.625	369.88
346.853	368.88
347.08	372.88
347.308	369.88
347.535	367.88
347.763	358.88
347.99	368.88
348.218	349.88
348.445	361.88
348.673	365.88
348.9	372.88
349.128	367.88
349.355	374.88
349.583	365.88
349.81	365.88
350.037	369.88
350.265	362.88
350.492	373.88
350.72	381.88
350.947	367.88
351.174	381.88
351.402	370.88
351.629	357.88
351.856	378.88
352.083	371.88
352.311	350.88
352.538	349.88
352.765	371.88
352.992	357.88
353.22	385.88
353.447	359.88
353.674	383.88
353.901	368.88
354.128	372.88
354.355	377.88
354.583	353.88
354.81	371.88
355.037	370.88
355.264	369.88
355.491	358.88
355.718	353.88
355.945	370.88
356.172	374.88
356.399	374.88
356.626	366.88
356.853	374.88
357.08	379.88
357.307	355.88
357.534	359.88
357.761	358.88
357.988	382.88
358.215	375.88
358.441	365.88
358.668	371.88
358.895	364.88
359.122	383.88
359.349	377.88
359.576	358.88
359.802	359.88
360.029	375.88
360.256	369.88
360.483	367.88
360.709	364.88
360.936	373.88
361.163	387.88
361.39	351.88
361.616	365.88
361.843	367.88
362.07	389.88
362.296	401.88
362.523	388.88
362.749	396.88
362.976	395.88
363.203	361.88
363.429	385.88
363.656	362.88
363.882	373.88
364.109	386.88
364.335	393.88
364.562	385.88
364.788	375.88
365.015	359.88
365.241	400.88
365.468	373.88
365.694	374.88
365.92	373.88
366.147	381.88
366.373	375.88
366.599	384.88
366.826	383.88
367.052	386.88
367.278	377.88
367.505	370.88
367.731	395.88
367.957	395.88
368.184	403.88
368.41	397.88
368.636	403.88
368.862	394.88
369.089	384.88
369.315	394.88
369.541	380.88
369.767	389.88
369.993	395.88
370.219	389.88
370.445	396.88
370.672	405.88
370.898	381.88
371.124	415.88
371.35	395.88
371.576	395.88
371.802	404.88
372.028	395.88
372.254	387.88
372.48	411.88
372.706	403.88
372.932	403.88
373.158	417.88
373.384	419.88
373.61	423.88
373.835	395.88
374.061	403.88
374.287	405.88
374.513	395.88
374.739	396.88
374.965	421.88
375.191	414.88
375.416	411.88
375.642	409.88
375.868	407.88
376.094	403.88
376.319	401.88
376.545	419.88
376.771	402.88
376.997	397.88
377.222	404.88
377.448	403.88
377.674	395.88
377.899	413.88
378.125	401.88
378.35	403.88
378.576	405.88
378.802	389.88
379.027	427.88
379.253	410.88
379.478	416.88
379.704	415.88
379.929	410.88
380.155	406.88
380.38	405.88
380.606	401.88
380.831	401.88
381.057	421.88
381.282	416.88
381.507	401.88
381.733	393.88
381.958	421.88
382.184	417.88
382.409	421.88
382.634	419.88
382.86	409.88
383.085	422.88
383.31	426.88
383.535	394.88
383.761	395.88
383.986	414.88
384.211	414.88
384.436	416.88
384.662	425.88
384.887	443.88
385.112	427.88
385.337	411.88
385.562	398.88
385.787	428.88
386.013	448.88
386.238	443.88
386.463	433.88
386.688	410.88
386.913	428.88
387.138	433.88
387.363	440.88
387.588	441.88
387.813	426.88
388.038	405.88
388.263	424.88
388.488	445.88
388.713	419.88
388.938	411.88
389.163	458.88
389.387	444.88
389.612	424.88
389.837	436.88
390.062	439.88
390.287	441.88
390.512	443.88
390.736	434.88
390.961	438.88
391.186	450.88
391.411	452.88
391.636	436.88
391.86	463.88
392.085	450.88
392.31	459.88
392.534	441.88
392.759	447.88
392.984	449.88
393.208	453.88
393.433	456.88
393.658	460.88
393.882	463.88
394.107	448.88
394.331	448.88
394.556	441.88
394.78	437.88
395.005	452.88
395.229	455.88
395.454	465.88
395.678	450.88
395.903	458.88
396.127	467.88
396.352	456.88
396.576	469.88
396.801	460.88
397.025	470.88
397.249	447.88
397.474	473.88
397.698	446.88
397.922	479.88
398.147	473.88
398.371	469.88
398.595	479.88
398.82	490.88
399.044	490.88
399.268	483.88
399.492	494.88
399.717	468.88
399.941	497.88
400.165	501.88
400.389	504.88
400.613	503.88
400.837	497.88
401.062	487.88
401.286	505.88
401.51	497.88
401.734	495.88
401.958	493.88
402.182	496.88
402.406	479.88
402.63	484.88
402.854	485.88
403.078	501.88
403.302	473.88
403.526	493.88
403.75	469.88
403.974	498.88
404.198	488.88
404.422	485.88
404.645	511.88
404.869	525.88
405.093	489.88
405.317	484.88
405.541	514.88
405.765	528.88
405.988	487.88
406.212	521.88
406.436	505.88
406.66	513.88
406.883	507.88
407.107	521.88
407.331	527.88
407.555	517.88
407.778	517.88
408.002	527.88
408.226	514.88
408.449	538.88
408.673	536.88
408.896	521.88
409.12	516.88
409.344	536.88
409.567	515.88
409.791	527.88
410.014	532.88
410.238	513.88
410.461	528.88
410.685	519.88
410.908	511.88
411.132	509.88
411.355	520.88
411.578	519.88
411.802	508.88
412.025	494.88
412.249	502.88
412.472	509.88
412.695	506.88
412.919	494.88
413.142	475.88
413.365	491.88
413.589	516.88
413.812	488.88
414.035	499.88
414.258	505.88
414.482	491.88
414.705	475.88
414.928	477.88
415.151	488.88
415.374	479.88
415.597	501.88
415.821	469.88
416.044	478.88
416.267	482.88
416.49	481.88
416.713	488.88
416.936	493.88
417.159	482.88
417.382	465.88
417.605	458.88
417.828	495.88
418.051	488.88
418.274	486.88
418.497	455.88
418.72	472.88
418.943	469.88
419.166	499.88
419.389	527.88
419.611	518.88
419.834	481.88
420.057	493.88
420.28	484.88
420.503	454.88
420.726	468.88
420.948	465.88
421.171	455.88
421.394	454.88
421.617	478.88
421.839	473.88
422.062	456.88
422.285	465.88
422.507	465.88
422.73	490.88
422.953	468.88
423.175	482.88
423.398	469.88
423.621	442.88
423.843	471.88
424.066	465.88
424.288	474.88
424.511	466.88
424.733	477.88
424.956	479.88
425.178	469.88
425.401	474.88
425.623	479.88
425.846	464.88
426.068	486.88
426.291	466.88
426.513	470.88
426.735	452.88
426.958	476.88
427.18	466.88
427.402	473.88
427.625	447.88
427.847	466.88
428.069	467.88
428.292	463.88
428.514	482.88
428.736	476.88
428.958	473.88
429.181	469.88
429.403	455.88
429.625	464.88
429.847	454.88
430.069	447.88
430.292	463.88
430.514	476.88
430.736	451.88
430.958	460.88
431.18	465.88
431.402	473.88
431.624	471.88
431.846	465.88
432.068	467.88
432.29	466.88
432.512	475.88
432.734	467.88
432.956	468.88
433.178	456.88
433.4	465.88
433.622	463.88
433.844	466.88
434.066	473.88
434.287	463.88
434.509	476.88
434.731	474.88
434.953	451.88
435.175	467.88
435.397	467.88
435.618	490.88
435.84	473.88
436.062	472.88
436.284	469.88
436.505	464.88
436.727	458.88
436.949	455.88
437.17	451.88
437.392	437.88
437.614	455.88
437.835	448.88
438.057	468.88
438.278	465.88
438.5	448.88
438.721	454.88
438.943	446.88
439.165	442.88
439.386	452.88
439.608	439.88
439.829	441.88
440.05	458.88
440.272	457.88
440.493	466.88
440.715	466.88
440.936	470.88
441.158	458.88
441.379	482.88
441.6	478.88
441.822	470.88
442.043	476.88
442.264	461.88
442.486	461.88
442.707	450.88
442.928	449.88
443.149	454.88
443.371	451.88
443.592	452.88
443.813	465.88
444.034	476.88
444.255	464.88
444.476	464.88
444.698	470.88
444.919	463.88
445.14	586.88
445.361	527.88
445.582	484.88
445.803	457.88
446.024	459.88
446.245	440.88
446.466	473.88
446.687	459.88
446.908	454.88
447.129	446.88
447.35	424.88
447.571	449.88
447.792	446.88
448.013	457.88
448.234	436.88
448.455	435.88
448.675	441.88
448.896	442.88
449.117	435.88
449.338	447.88
449.559	436.88
449.779	422.88
450	441.88
450.221	426.88
450.442	451.88
450.662	429.88
450.883	421.88
451.104	444.88
451.324	436.88
451.545	439.88
451.766	419.88
451.986	446.88
452.207	454.88
452.428	433.88
452.648	422.88
452.869	432.88
453.089	408.88
453.31	440.88
453.53	405.88
453.751	441.88
453.971	417.88
454.192	438.88
454.412	429.88
454.633	413.88
454.853	433.88
455.073	438.88
455.294	433.88
455.514	433.88
455.734	430.88
455.955	423.88
456.175	430.88
456.395	411.88
456.616	430.88
456.836	434.88
457.056	417.88
457.276	426.88
457.497	439.88
457.717	437.88
457.937	431.88
458.157	425.88
458.377	450.88
458.598	445.88
458.818	435.88
459.038	435.88
459.258	425.88
459.478	465.88
459.698	458.88
459.918	438.88
460.138	464.88
460.358	457.88
460.578	452.88
460.798	459.88
461.018	436.88
461.238	467.88
461.458	475.88
461.678	474.88
461.898	434.88
462.118	472.88
462.338	478.88
462.558	454.88
462.777	498.88
462.997	490.88
463.217	495.88
463.437	483.88
463.657	474.88
463.876	493.88
464.096	489.88
464.316	460.88
464.536	490.88
464.755	477.88
464.975	475.88
465.195	485.88
465.414	480.88
465.634	474.88
465.854	456.88
466.073	460.88
466.293	473.88
466.512	465.88
466.732	478.88
466.951	445.88
467.171	460.88
467.391	459.88
467.61	465.88
467.829	467.88
468.049	458.88
468.268	445.88
468.488	469.88
468.707	447.88
468.927	459.88
469.146	445.88
469.365	457.88
469.585	445.88
469.804	463.88
470.023	465.88
470.243	444.88
470.462	457.88
470.681	447.88
470.901	466.88
471.12	485.88
471.339	455.88
471.558	451.88
471.777	455.88
471.997	478.88
472.216	484.88
472.435	474.88
472.654	461.88
472.873	482.88
473.092	468.88
473.311	511.88
473.53	477.88
473.749	474.88
473.968	472.88
474.187	467.88
474.406	470.88
474.625	482.88
474.844	463.88
475.063	478.88
475.282	484.88
475.501	469.88
475.72	511.88
475.939	489.88
476.158	518.88
476.377	511.88
476.596	511.88
476.814	514.88
477.033	497.88
477.252	495.88
477.471	505.88
477.69	515.88
477.908	514.88
478.127	514.88
478.346	522.88
478.564	505.88
478.783	522.88
479.002	536.88
479.22	527.88
479.439	546.88
479.658	532.88
479.876	521.88
480.095	548.88
480.313	527.88
480.532	560.88
480.751	541.88
480.969	521.88
481.188	562.88
481.406	538.88
481.624	550.88
481.843	557.88
482.061	542.88
482.28	549.88
482.498	553.88
482.717	553.88
482.935	555.88
483.153	567.88
483.372	549.88
483.59	545.88
483.808	563.88
484.027	561.88
484.245	573.88
484.463	563.88
484.681	575.88
484.9	570.88
485.118	585.88
485.336	562.88
485.554	546.88
485.772	551.88
485.99	563.88
486.209	561.88
486.427	576.88
486.645	562.88
486.863	591.88
487.081	577.88
487.299	574.88
487.517	574.88
487.735	579.88
487.953	586.88
488.171	595.88
488.389	573.88
488.607	573.88
488.825	577.88
489.043	578.88
489.261	560.88
489.479	582.88
489.696	568.88
489.914	582.88
490.132	574.88
490.35	577.88
490.568	569.88
490.786	569.88
491.003	582.88
491.221	600.88
491.439	581.88
491.657	579.88
491.874	612.88
492.092	605.88
492.31	629.88
492.527	602.88
492.745	575.88
492.963	606.88
493.18	612.88
493.398	618.88
493.615	591.88
493.833	605.88
494.05	586.88
494.268	601.88
494.485	603.88
494.703	598.88
494.92	609.88
495.138	618.88
495.355	613.88
495.573	597.88
495.79	621.88
496.008	623.88
496.225	614.88
496.442	615.88
496.66	627.88
496.877	627.88
497.094	607.88
497.312	625.88
497.529	625.88
497.746	635.88
497.963	652.88
498.181	661.88
498.398	655.88
498.615	672.88
498.832	678.88
499.049	673.88
499.267	697.88
499.484	705.88
499.701	677.88
499.918	707.88
500.135	714.88
500.352	757.88
500.569	730.88
500.786	761.88
501.003	729.88
501.22	720.88
501.437	724.88
501.654	714.88
501.871	688.88
502.088	687.88
