Data from Fe(NO3)3@0.05M.TitratingCurve.Agarose3%dH2O.NegLispCup.LampEnergy10.LIBS07252019_HRD10591_16-46-24-334.txt Node
Date: Thu Jul 25 16:46:24 EDT 2019
User: cochatt
Spectrometer: HR+D1059
Trigger mode: 1
Integration Time (sec): 1.000000E-1
Scans to average: 1
Electric dark correction enabled: true
Nonlinearity correction enabled: false
Boxcar width: 0
XAxis mode: Wavelengths
Number of Pixels in Spectrum: 2048
>>>>>Begin Spectral Data<<<<<
223.165	-17.56
223.4	-17.56
223.635	-17.56
223.869	-13.56
224.104	-7.56
224.338	-30.56
224.573	-27.56
224.808	-16.56
225.042	-9.56
225.277	0.44
225.511	-1.56
225.746	6.44
225.98	5.44
226.215	22.44
226.449	9.44
226.683	23.44
226.918	22.44
227.152	34.44
227.387	34.44
227.621	49.44
227.856	49.44
228.09	49.44
228.324	40.44
228.559	51.44
228.793	68.44
229.027	110.44
229.262	122.44
229.496	127.44
229.73	130.44
229.964	150.44
230.199	124.44
230.433	146.44
230.667	155.44
230.901	139.44
231.136	145.44
231.37	165.44
231.604	149.44
231.838	140.44
232.072	145.44
232.306	158.44
232.541	150.44
232.775	152.44
233.009	158.44
233.243	171.44
233.477	174.44
233.711	185.44
233.945	172.44
234.179	170.44
234.413	178.44
234.647	194.44
234.881	197.44
235.115	176.44
235.349	180.44
235.583	196.44
235.817	184.44
236.051	190.44
236.285	183.44
236.519	176.44
236.753	175.44
236.987	191.44
237.221	193.44
237.455	180.44
237.689	187.44
237.922	196.44
238.156	184.44
238.39	207.44
238.624	219.44
238.858	216.44
239.091	211.44
239.325	220.44
239.559	201.44
239.793	221.44
240.027	243.44
240.26	243.44
240.494	210.44
240.728	213.44
240.961	227.44
241.195	227.44
241.429	247.44
241.662	252.44
241.896	213.44
242.13	238.44
242.363	230.44
242.597	244.44
242.83	241.44
243.064	235.44
243.298	232.44
243.531	241.44
243.765	260.44
243.998	252.44
244.232	246.44
244.465	244.44
244.699	253.44
244.932	252.44
245.166	245.44
245.399	234.44
245.633	264.44
245.866	278.44
246.099	271.44
246.333	271.44
246.566	265.44
246.8	266.44
247.033	262.44
247.266	268.44
247.5	260.44
247.733	278.44
247.966	273.44
248.2	271.44
248.433	283.44
248.666	286.44
248.899	302.44
249.133	291.44
249.366	310.44
249.599	315.44
249.832	312.44
250.066	321.44
250.299	300.44
250.532	320.44
250.765	314.44
250.998	317.44
251.231	327.44
251.465	312.44
251.698	300.44
251.931	327.44
252.164	322.44
252.397	325.44
252.63	343.44
252.863	331.44
253.096	327.44
253.329	350.44
253.562	320.44
253.795	350.44
254.028	390.44
254.261	390.44
254.494	352.44
254.727	360.44
254.96	351.44
255.193	349.44
255.426	352.44
255.659	352.44
255.892	347.44
256.124	349.44
256.357	361.44
256.59	372.44
256.823	384.44
257.056	361.44
257.289	358.44
257.521	368.44
257.754	370.44
257.987	390.44
258.22	373.44
258.452	364.44
258.685	384.44
258.918	396.44
259.151	396.44
259.383	375.44
259.616	396.44
259.849	400.44
260.081	477.44
260.314	503.44
260.547	428.44
260.779	411.44
261.012	434.44
261.244	444.44
261.477	435.44
261.71	420.44
261.942	439.44
262.175	420.44
262.407	409.44
262.64	410.44
262.872	433.44
263.105	451.44
263.337	460.44
263.57	453.44
263.802	415.44
264.035	407.44
264.267	398.44
264.499	392.44
264.732	417.44
264.964	412.44
265.197	421.44
265.429	406.44
265.661	396.44
265.894	408.44
266.126	410.44
266.358	404.44
266.591	429.44
266.823	444.44
267.055	439.44
267.287	433.44
267.52	427.44
267.752	417.44
267.984	431.44
268.216	420.44
268.448	444.44
268.681	459.44
268.913	451.44
269.145	442.44
269.377	459.44
269.609	435.44
269.841	457.44
270.073	441.44
270.306	446.44
270.538	436.44
270.77	460.44
271.002	473.44
271.234	460.44
271.466	494.44
271.698	478.44
271.93	484.44
272.162	469.44
272.394	480.44
272.626	477.44
272.858	497.44
273.09	481.44
273.322	483.44
273.553	473.44
273.785	524.44
274.017	544.44
274.249	588.44
274.481	588.44
274.713	586.44
274.945	624.44
275.176	626.44
275.408	607.44
275.64	588.44
275.872	579.44
276.104	534.44
276.335	526.44
276.567	514.44
276.799	511.44
277.031	550.44
277.262	551.44
277.494	519.44
277.726	503.44
277.957	498.44
278.189	518.44
278.421	499.44
278.652	543.44
278.884	512.44
279.115	546.44
279.347	530.44
279.579	522.44
279.81	523.44
280.042	534.44
280.273	534.44
280.505	554.44
280.736	562.44
280.968	559.44
281.199	528.44
281.431	543.44
281.662	551.44
281.894	542.44
282.125	534.44
282.356	561.44
282.588	536.44
282.819	569.44
283.051	552.44
283.282	550.44
283.513	575.44
283.745	573.44
283.976	558.44
284.207	574.44
284.439	576.44
284.67	588.44
284.901	561.44
285.132	584.44
285.364	578.44
285.595	577.44
285.826	563.44
286.057	582.44
286.288	585.44
286.52	586.44
286.751	594.44
286.982	582.44
287.213	583.44
287.444	594.44
287.675	574.44
287.906	581.44
288.138	609.44
288.369	585.44
288.6	586.44
288.831	598.44
289.062	587.44
289.293	593.44
289.524	566.44
289.755	614.44
289.986	590.44
290.217	603.44
290.448	602.44
290.679	630.44
290.91	617.44
291.141	620.44
291.371	623.44
291.602	619.44
291.833	608.44
292.064	603.44
292.295	620.44
292.526	599.44
292.757	612.44
292.987	616.44
293.218	612.44
293.449	612.44
293.68	604.44
293.91	599.44
294.141	615.44
294.372	618.44
294.603	624.44
294.833	610.44
295.064	644.44
295.295	614.44
295.525	626.44
295.756	627.44
295.987	622.44
296.217	641.44
296.448	627.44
296.679	648.44
296.909	615.44
297.14	637.44
297.37	653.44
297.601	636.44
297.831	638.44
298.062	658.44
298.292	622.44
298.523	660.44
298.753	669.44
298.984	634.44
299.214	672.44
299.445	668.44
299.675	661.44
299.905	674.44
300.136	660.44
300.366	662.44
300.597	676.44
300.827	662.44
301.057	679.44
301.288	667.44
301.518	674.44
301.748	667.44
301.979	681.44
302.209	691.44
302.439	702.44
302.669	673.44
302.9	677.44
303.13	659.44
303.36	681.44
303.59	696.44
303.82	678.44
304.051	686.44
304.281	704.44
304.511	673.44
304.741	698.44
304.971	718.44
305.201	693.44
305.431	675.44
305.661	695.44
305.891	698.44
306.121	673.44
306.352	677.44
306.582	690.44
306.812	660.44
307.042	695.44
307.272	708.44
307.502	689.44
307.731	686.44
307.961	692.44
308.191	704.44
308.421	675.44
308.651	692.44
308.881	690.44
309.111	694.44
309.341	697.44
309.571	691.44
309.8	705.44
310.03	692.44
310.26	694.44
310.49	705.44
310.72	688.44
310.949	689.44
311.179	699.44
311.409	728.44
311.639	728.44
311.868	717.44
312.098	720.44
312.328	737.44
312.557	735.44
312.787	747.44
313.017	737.44
313.246	725.44
313.476	737.44
313.706	745.44
313.935	745.44
314.165	752.44
314.394	774.44
314.624	743.44
314.853	755.44
315.083	758.44
315.312	777.44
315.542	768.44
315.771	742.44
316.001	743.44
316.23	775.44
316.46	754.44
316.689	783.44
316.919	776.44
317.148	734.44
317.377	763.44
317.607	767.44
317.836	755.44
318.065	781.44
318.295	786.44
318.524	783.44
318.753	759.44
318.983	772.44
319.212	750.44
319.441	768.44
319.67	767.44
319.9	776.44
320.129	758.44
320.358	770.44
320.587	782.44
320.816	750.44
321.046	764.44
321.275	766.44
321.504	785.44
321.733	782.44
321.962	785.44
322.191	790.44
322.42	770.44
322.649	774.44
322.878	776.44
323.108	799.44
323.337	780.44
323.566	816.44
323.795	825.44
324.024	817.44
324.253	808.44
324.482	801.44
324.71	809.44
324.939	824.44
325.168	809.44
325.397	816.44
325.626	810.44
325.855	820.44
326.084	829.44
326.313	847.44
326.542	816.44
326.77	838.44
326.999	831.44
327.228	820.44
327.457	838.44
327.686	817.44
327.914	837.44
328.143	846.44
328.372	857.44
328.6	851.44
328.829	820.44
329.058	842.44
329.287	824.44
329.515	831.44
329.744	844.44
329.972	832.44
330.201	805.44
330.43	854.44
330.658	854.44
330.887	875.44
331.115	873.44
331.344	852.44
331.572	846.44
331.801	884.44
332.03	894.44
332.258	902.44
332.486	880.44
332.715	890.44
332.943	901.44
333.172	896.44
333.4	938.44
333.629	933.44
333.857	939.44
334.085	962.44
334.314	956.44
334.542	983.44
334.771	978.44
334.999	968.44
335.227	960.44
335.455	965.44
335.684	990.44
335.912	979.44
336.14	974.44
336.369	935.44
336.597	973.44
336.825	931.44
337.053	969.44
337.281	945.44
337.51	930.44
337.738	946.44
337.966	944.44
338.194	945.44
338.422	908.44
338.65	894.44
338.878	923.44
339.106	886.44
339.334	916.44
339.562	909.44
339.79	898.44
340.018	889.44
340.246	892.44
340.474	906.44
340.702	906.44
340.93	892.44
341.158	892.44
341.386	890.44
341.614	880.44
341.842	887.44
342.07	885.44
342.298	883.44
342.526	894.44
342.754	883.44
342.981	909.44
343.209	891.44
343.437	926.44
343.665	947.44
343.893	936.44
344.12	967.44
344.348	963.44
344.576	935.44
344.804	942.44
345.031	927.44
345.259	913.44
345.487	910.44
345.714	886.44
345.942	870.44
346.17	912.44
346.397	880.44
346.625	858.44
346.853	846.44
347.08	852.44
347.308	873.44
347.535	856.44
347.763	844.44
347.99	880.44
348.218	887.44
348.445	872.44
348.673	861.44
348.9	855.44
349.128	850.44
349.355	853.44
349.583	858.44
349.81	847.44
350.037	850.44
350.265	834.44
350.492	851.44
350.72	865.44
350.947	843.44
351.174	856.44
351.402	838.44
351.629	842.44
351.856	837.44
352.083	866.44
352.311	841.44
352.538	805.44
352.765	835.44
352.992	810.44
353.22	860.44
353.447	812.44
353.674	834.44
353.901	830.44
354.128	851.44
354.355	827.44
354.583	856.44
354.81	868.44
355.037	844.44
355.264	831.44
355.491	839.44
355.718	859.44
355.945	881.44
356.172	867.44
356.399	853.44
356.626	865.44
356.853	856.44
357.08	866.44
357.307	861.44
357.534	836.44
357.761	862.44
357.988	863.44
358.215	903.44
358.441	867.44
358.668	860.44
358.895	862.44
359.122	851.44
359.349	836.44
359.576	836.44
359.802	837.44
360.029	838.44
360.256	853.44
360.483	884.44
360.709	866.44
360.936	860.44
361.163	895.44
361.39	848.44
361.616	896.44
361.843	871.44
362.07	865.44
362.296	848.44
362.523	868.44
362.749	880.44
362.976	882.44
363.203	868.44
363.429	882.44
363.656	848.44
363.882	846.44
364.109	865.44
364.335	895.44
364.562	862.44
364.788	878.44
365.015	894.44
365.241	873.44
365.468	882.44
365.694	898.44
365.92	897.44
366.147	892.44
366.373	872.44
366.599	863.44
366.826	896.44
367.052	880.44
367.278	908.44
367.505	892.44
367.731	878.44
367.957	904.44
368.184	907.44
368.41	892.44
368.636	922.44
368.862	900.44
369.089	921.44
369.315	914.44
369.541	928.44
369.767	915.44
369.993	912.44
370.219	896.44
370.445	917.44
370.672	943.44
370.898	923.44
371.124	946.44
371.35	919.44
371.576	950.44
371.802	934.44
372.028	947.44
372.254	979.44
372.48	943.44
372.706	948.44
372.932	980.44
373.158	959.44
373.384	976.44
373.61	966.44
373.835	988.44
374.061	963.44
374.287	944.44
374.513	987.44
374.739	1033.44
374.965	1003.44
375.191	1015.44
375.416	976.44
375.642	966.44
375.868	983.44
376.094	978.44
376.319	998.44
376.545	947.44
376.771	978.44
376.997	961.44
377.222	957.44
377.448	954.44
377.674	939.44
377.899	947.44
378.125	959.44
378.35	944.44
378.576	947.44
378.802	944.44
379.027	930.44
379.253	943.44
379.478	961.44
379.704	951.44
379.929	954.44
380.155	939.44
380.38	950.44
380.606	987.44
380.831	941.44
381.057	948.44
381.282	977.44
381.507	961.44
381.733	1011.44
381.958	994.44
382.184	996.44
382.409	965.44
382.634	996.44
382.86	1010.44
383.085	1018.44
383.31	1030.44
383.535	1041.44
383.761	1044.44
383.986	1012.44
384.211	1057.44
384.436	1024.44
384.662	1046.44
384.887	1099.44
385.112	1068.44
385.337	1047.44
385.562	1055.44
385.787	1082.44
386.013	1092.44
386.238	1090.44
386.463	1081.44
386.688	1090.44
386.913	1065.44
387.138	1122.44
387.363	1101.44
387.588	1096.44
387.813	1106.44
388.038	1112.44
388.263	1146.44
388.488	1124.44
388.713	1127.44
388.938	1142.44
389.163	1127.44
389.387	1093.44
389.612	1107.44
389.837	1099.44
390.062	1111.44
390.287	1131.44
390.512	1116.44
390.736	1144.44
390.961	1142.44
391.186	1153.44
391.411	1145.44
391.636	1168.44
391.86	1182.44
392.085	1192.44
392.31	1185.44
392.534	1187.44
392.759	1207.44
392.984	1178.44
393.208	1188.44
393.433	1171.44
393.658	1188.44
393.882	1169.44
394.107	1160.44
394.331	1167.44
394.556	1167.44
394.78	1164.44
395.005	1177.44
395.229	1180.44
395.454	1191.44
395.678	1204.44
395.903	1209.44
396.127	1209.44
396.352	1183.44
396.576	1198.44
396.801	1231.44
397.025	1242.44
397.249	1198.44
397.474	1273.44
397.698	1239.44
397.922	1272.44
398.147	1243.44
398.371	1258.44
398.595	1307.44
398.82	1306.44
399.044	1359.44
399.268	1419.44
399.492	1456.44
399.717	1560.44
399.941	1556.44
400.165	1548.44
400.389	1494.44
400.613	1450.44
400.837	1394.44
401.062	1395.44
401.286	1366.44
401.51	1326.44
401.734	1319.44
401.958	1353.44
402.182	1335.44
402.406	1306.44
402.63	1342.44
402.854	1357.44
403.078	1313.44
403.302	1348.44
403.526	1350.44
403.75	1363.44
403.974	1360.44
404.198	1375.44
404.422	1355.44
404.645	1393.44
404.869	1407.44
405.093	1356.44
405.317	1365.44
405.541	1364.44
405.765	1402.44
405.988	1402.44
406.212	1417.44
406.436	1412.44
406.66	1442.44
406.883	1444.44
407.107	1500.44
407.331	1490.44
407.555	1541.44
407.778	1544.44
408.002	1528.44
408.226	1483.44
408.449	1538.44
408.673	1510.44
408.896	1490.44
409.12	1465.44
409.344	1487.44
409.567	1438.44
409.791	1458.44
410.014	1438.44
410.238	1446.44
410.461	1422.44
410.685	1416.44
410.908	1402.44
411.132	1416.44
411.355	1378.44
411.578	1377.44
411.802	1420.44
412.025	1352.44
412.249	1416.44
412.472	1430.44
412.695	1423.44
412.919	1354.44
413.142	1378.44
413.365	1370.44
413.589	1350.44
413.812	1371.44
414.035	1363.44
414.258	1347.44
414.482	1329.44
414.705	1393.44
414.928	1364.44
415.151	1373.44
415.374	1310.44
415.597	1308.44
415.821	1303.44
416.044	1316.44
416.267	1329.44
416.49	1297.44
416.713	1280.44
416.936	1290.44
417.159	1286.44
417.382	1279.44
417.605	1266.44
417.828	1311.44
418.051	1309.44
418.274	1279.44
418.497	1270.44
418.72	1304.44
418.943	1288.44
419.166	1361.44
419.389	1458.44
419.611	1414.44
419.834	1393.44
420.057	1346.44
420.28	1320.44
420.503	1321.44
420.726	1264.44
420.948	1251.44
421.171	1270.44
421.394	1287.44
421.617	1300.44
421.839	1325.44
422.062	1324.44
422.285	1257.44
422.507	1284.44
422.73	1284.44
422.953	1286.44
423.175	1293.44
423.398	1298.44
423.621	1278.44
423.843	1308.44
424.066	1314.44
424.288	1273.44
424.511	1274.44
424.733	1261.44
424.956	1298.44
425.178	1311.44
425.401	1319.44
425.623	1270.44
425.846	1254.44
426.068	1268.44
426.291	1257.44
426.513	1270.44
426.735	1271.44
426.958	1286.44
427.18	1232.44
427.402	1251.44
427.625	1238.44
427.847	1236.44
428.069	1204.44
428.292	1258.44
428.514	1245.44
428.736	1232.44
428.958	1242.44
429.181	1236.44
429.403	1212.44
429.625	1210.44
429.847	1207.44
430.069	1206.44
430.292	1220.44
430.514	1211.44
430.736	1220.44
430.958	1244.44
431.18	1224.44
431.402	1198.44
431.624	1206.44
431.846	1248.44
432.068	1229.44
432.29	1265.44
432.512	1260.44
432.734	1232.44
432.956	1259.44
433.178	1270.44
433.4	1241.44
433.622	1204.44
433.844	1275.44
434.066	1262.44
434.287	1255.44
434.509	1264.44
434.731	1267.44
434.953	1250.44
435.175	1267.44
435.397	1315.44
435.618	1290.44
435.84	1260.44
436.062	1250.44
436.284	1217.44
436.505	1223.44
436.727	1240.44
436.949	1232.44
437.17	1209.44
437.392	1220.44
437.614	1251.44
437.835	1187.44
438.057	1219.44
438.278	1194.44
438.5	1200.44
438.721	1210.44
438.943	1208.44
439.165	1193.44
439.386	1228.44
439.608	1215.44
439.829	1217.44
440.05	1218.44
440.272	1208.44
440.493	1231.44
440.715	1235.44
440.936	1248.44
441.158	1233.44
441.379	1257.44
441.6	1273.44
441.822	1282.44
442.043	1294.44
442.264	1258.44
442.486	1245.44
442.707	1282.44
442.928	1291.44
443.149	1293.44
443.371	1278.44
443.592	1246.44
443.813	1291.44
444.034	1284.44
444.255	1285.44
444.476	1322.44
444.698	1355.44
444.919	1334.44
445.14	1462.44
445.361	1377.44
445.582	1304.44
445.803	1254.44
446.024	1222.44
446.245	1264.44
446.466	1248.44
446.687	1176.44
446.908	1236.44
447.129	1193.44
447.35	1198.44
447.571	1208.44
447.792	1143.44
448.013	1168.44
448.234	1162.44
448.455	1164.44
448.675	1163.44
448.896	1147.44
449.117	1107.44
449.338	1151.44
449.559	1142.44
449.779	1123.44
450	1112.44
450.221	1143.44
450.442	1141.44
450.662	1116.44
450.883	1136.44
451.104	1103.44
451.324	1130.44
451.545	1135.44
451.766	1119.44
451.986	1115.44
452.207	1107.44
452.428	1093.44
452.648	1106.44
452.869	1068.44
453.089	1098.44
453.31	1101.44
453.53	1090.44
453.751	1086.44
453.971	1071.44
454.192	1074.44
454.412	1072.44
454.633	1062.44
454.853	1088.44
455.073	1076.44
455.294	1072.44
455.514	1078.44
455.734	1088.44
455.955	1055.44
456.175	1070.44
456.395	1091.44
456.616	1084.44
456.836	1089.44
457.056	1060.44
457.276	1042.44
457.497	1114.44
457.717	1065.44
457.937	1092.44
458.157	1093.44
458.377	1107.44
458.598	1161.44
458.818	1152.44
459.038	1172.44
459.258	1120.44
459.478	1192.44
459.698	1183.44
459.918	1267.44
460.138	1244.44
460.358	1286.44
460.578	1315.44
460.798	1284.44
461.018	1284.44
461.238	1332.44
461.458	1306.44
461.678	1291.44
461.898	1354.44
462.118	1343.44
462.338	1382.44
462.558	1369.44
462.777	1419.44
462.997	1446.44
463.217	1481.44
463.437	1501.44
463.657	1472.44
463.876	1454.44
464.096	1460.44
464.316	1389.44
464.536	1394.44
464.755	1409.44
464.975	1391.44
465.195	1352.44
465.414	1320.44
465.634	1292.44
465.854	1274.44
466.073	1262.44
466.293	1272.44
466.512	1235.44
466.732	1240.44
466.951	1223.44
467.171	1191.44
467.391	1195.44
467.61	1215.44
467.829	1198.44
468.049	1220.44
468.268	1154.44
468.488	1146.44
468.707	1156.44
468.927	1206.44
469.146	1194.44
469.365	1191.44
469.585	1163.44
469.804	1218.44
470.023	1256.44
470.243	1187.44
470.462	1182.44
470.681	1190.44
470.901	1212.44
471.12	1221.44
471.339	1177.44
471.558	1199.44
471.777	1187.44
471.997	1198.44
472.216	1176.44
472.435	1187.44
472.654	1198.44
472.873	1182.44
473.092	1180.44
473.311	1151.44
473.53	1170.44
473.749	1195.44
473.968	1168.44
474.187	1178.44
474.406	1174.44
474.625	1202.44
474.844	1204.44
475.063	1198.44
475.282	1187.44
475.501	1198.44
475.72	1204.44
475.939	1194.44
476.158	1244.44
476.377	1253.44
476.596	1297.44
476.814	1332.44
477.033	1260.44
477.252	1240.44
477.471	1264.44
477.69	1264.44
477.908	1334.44
478.127	1372.44
478.346	1307.44
478.564	1338.44
478.783	1403.44
479.002	1383.44
479.22	1419.44
479.439	1444.44
479.658	1415.44
479.876	1432.44
480.095	1408.44
480.313	1415.44
480.532	1468.44
480.751	1465.44
480.969	1442.44
481.188	1442.44
481.406	1458.44
481.624	1448.44
481.843	1414.44
482.061	1404.44
482.28	1403.44
482.498	1393.44
482.717	1426.44
482.935	1427.44
483.153	1426.44
483.372	1402.44
483.59	1454.44
483.808	1429.44
484.027	1394.44
484.245	1394.44
484.463	1432.44
484.681	1442.44
484.9	1472.44
485.118	1457.44
485.336	1434.44
485.554	1432.44
485.772	1431.44
485.99	1395.44
486.209	1443.44
486.427	1448.44
486.645	1461.44
486.863	1439.44
487.081	1424.44
487.299	1467.44
487.517	1452.44
487.735	1476.44
487.953	1453.44
488.171	1477.44
488.389	1449.44
488.607	1467.44
488.825	1434.44
489.043	1457.44
489.261	1466.44
489.479	1441.44
489.696	1445.44
489.914	1464.44
490.132	1486.44
490.35	1456.44
490.568	1464.44
490.786	1474.44
491.003	1456.44
491.221	1499.44
491.439	1490.44
491.657	1446.44
491.874	1479.44
492.092	1489.44
492.31	1506.44
492.527	1538.44
492.745	1501.44
492.963	1534.44
493.18	1506.44
493.398	1486.44
493.615	1508.44
493.833	1507.44
494.05	1471.44
494.268	1544.44
494.485	1510.44
494.703	1511.44
