Data from Fe(NO3)3@0.025M.TitratingCurve.Agarose3%dH2O.NegLispCup.LampEnergy10.LIBS07252019_HRD10591_16-54-36-335.txt Node
Date: Thu Jul 25 16:54:36 EDT 2019
User: cochatt
Spectrometer: HR+D1059
Trigger mode: 1
Integration Time (sec): 1.000000E-1
Scans to average: 1
Electric dark correction enabled: true
Nonlinearity correction enabled: false
Boxcar width: 0
XAxis mode: Wavelengths
Number of Pixels in Spectrum: 2048
>>>>>Begin Spectral Data<<<<<
223.165	-12.88
223.4	-12.88
223.635	-12.88
223.869	-5.88
224.104	-24.88
224.338	-22.88
224.573	-7.88
224.808	-11.88
225.042	-10.88
225.277	-14.88
225.511	-6.88
225.746	3.12
225.98	6.12
226.215	17.12
226.449	21.12
226.683	17.12
226.918	23.12
227.152	31.12
227.387	15.12
227.621	32.12
227.856	37.12
228.09	34.12
228.324	45.12
228.559	67.12
228.793	60.12
229.027	96.12
229.262	104.12
229.496	98.12
229.73	100.12
229.964	106.12
230.199	115.12
230.433	123.12
230.667	108.12
230.901	117.12
231.136	102.12
231.37	108.12
231.604	124.12
231.838	112.12
232.072	118.12
232.306	116.12
232.541	113.12
232.775	131.12
233.009	119.12
233.243	125.12
233.477	124.12
233.711	120.12
233.945	114.12
234.179	125.12
234.413	118.12
234.647	130.12
234.881	131.12
235.115	129.12
235.349	140.12
235.583	141.12
235.817	137.12
236.051	135.12
236.285	125.12
236.519	123.12
236.753	127.12
236.987	128.12
237.221	136.12
237.455	122.12
237.689	132.12
237.922	139.12
238.156	130.12
238.39	134.12
238.624	149.12
238.858	140.12
239.091	136.12
239.325	142.12
239.559	157.12
239.793	124.12
240.027	142.12
240.26	134.12
240.494	142.12
240.728	150.12
240.961	145.12
241.195	149.12
241.429	156.12
241.662	141.12
241.896	159.12
242.13	148.12
242.363	146.12
242.597	132.12
242.83	149.12
243.064	156.12
243.298	152.12
243.531	160.12
243.765	166.12
243.998	146.12
244.232	163.12
244.465	158.12
244.699	161.12
244.932	149.12
245.166	140.12
245.399	149.12
245.633	174.12
245.866	164.12
246.099	155.12
246.333	181.12
246.566	166.12
246.8	157.12
247.033	185.12
247.266	168.12
247.5	161.12
247.733	175.12
247.966	172.12
248.2	180.12
248.433	167.12
248.666	172.12
248.899	183.12
249.133	176.12
249.366	171.12
249.599	183.12
249.832	164.12
250.066	189.12
250.299	182.12
250.532	184.12
250.765	190.12
250.998	170.12
251.231	179.12
251.465	186.12
251.698	192.12
251.931	205.12
252.164	208.12
252.397	201.12
252.63	199.12
252.863	185.12
253.096	212.12
253.329	194.12
253.562	199.12
253.795	216.12
254.028	208.12
254.261	192.12
254.494	200.12
254.727	196.12
254.96	199.12
255.193	189.12
255.426	189.12
255.659	214.12
255.892	212.12
256.124	202.12
256.357	213.12
256.59	237.12
256.823	214.12
257.056	202.12
257.289	202.12
257.521	213.12
257.754	218.12
257.987	207.12
258.22	221.12
258.452	240.12
258.685	240.12
258.918	220.12
259.151	241.12
259.383	222.12
259.616	212.12
259.849	254.12
260.081	253.12
260.314	235.12
260.547	226.12
260.779	237.12
261.012	224.12
261.244	236.12
261.477	249.12
261.71	231.12
261.942	245.12
262.175	240.12
262.407	242.12
262.64	241.12
262.872	233.12
263.105	264.12
263.337	262.12
263.57	252.12
263.802	253.12
264.035	248.12
264.267	235.12
264.499	248.12
264.732	247.12
264.964	224.12
265.197	254.12
265.429	242.12
265.661	250.12
265.894	243.12
266.126	233.12
266.358	252.12
266.591	251.12
266.823	243.12
267.055	253.12
267.287	268.12
267.52	232.12
267.752	253.12
267.984	260.12
268.216	257.12
268.448	251.12
268.681	262.12
268.913	272.12
269.145	267.12
269.377	262.12
269.609	278.12
269.841	256.12
270.073	257.12
270.306	280.12
270.538	285.12
270.77	273.12
271.002	270.12
271.234	269.12
271.466	268.12
271.698	279.12
271.93	270.12
272.162	264.12
272.394	296.12
272.626	283.12
272.858	294.12
273.09	292.12
273.322	281.12
273.553	285.12
273.785	288.12
274.017	298.12
274.249	297.12
274.481	315.12
274.713	323.12
274.945	321.12
275.176	320.12
275.408	309.12
275.64	316.12
275.872	305.12
276.104	301.12
276.335	309.12
276.567	288.12
276.799	302.12
277.031	309.12
277.262	314.12
277.494	302.12
277.726	306.12
277.957	297.12
278.189	302.12
278.421	317.12
278.652	334.12
278.884	311.12
279.115	310.12
279.347	309.12
279.579	311.12
279.81	307.12
280.042	319.12
280.273	328.12
280.505	314.12
280.736	332.12
280.968	309.12
281.199	309.12
281.431	306.12
281.662	324.12
281.894	332.12
282.125	302.12
282.356	343.12
282.588	335.12
282.819	317.12
283.051	328.12
283.282	343.12
283.513	344.12
283.745	337.12
283.976	355.12
284.207	323.12
284.439	309.12
284.67	353.12
284.901	349.12
285.132	336.12
285.364	344.12
285.595	354.12
285.826	351.12
286.057	353.12
286.288	339.12
286.52	349.12
286.751	352.12
286.982	342.12
287.213	328.12
287.444	369.12
287.675	358.12
287.906	341.12
288.138	361.12
288.369	354.12
288.6	365.12
288.831	370.12
289.062	341.12
289.293	368.12
289.524	359.12
289.755	368.12
289.986	371.12
290.217	357.12
290.448	378.12
290.679	362.12
290.91	372.12
291.141	356.12
291.371	378.12
291.602	373.12
291.833	370.12
292.064	368.12
292.295	386.12
292.526	386.12
292.757	374.12
292.987	364.12
293.218	376.12
293.449	370.12
293.68	373.12
293.91	377.12
294.141	377.12
294.372	371.12
294.603	384.12
294.833	385.12
295.064	356.12
295.295	362.12
295.525	386.12
295.756	399.12
295.987	388.12
296.217	396.12
296.448	371.12
296.679	382.12
296.909	391.12
297.14	386.12
297.37	393.12
297.601	390.12
297.831	382.12
298.062	401.12
298.292	402.12
298.523	418.12
298.753	401.12
298.984	402.12
299.214	412.12
299.445	420.12
299.675	405.12
299.905	399.12
300.136	406.12
300.366	412.12
300.597	394.12
300.827	414.12
301.057	420.12
301.288	420.12
301.518	406.12
301.748	409.12
301.979	424.12
302.209	442.12
302.439	464.12
302.669	413.12
302.9	420.12
303.13	428.12
303.36	426.12
303.59	441.12
303.82	438.12
304.051	451.12
304.281	438.12
304.511	419.12
304.741	449.12
304.971	439.12
305.201	413.12
305.431	426.12
305.661	432.12
305.891	427.12
306.121	449.12
306.352	436.12
306.582	426.12
306.812	427.12
307.042	445.12
307.272	443.12
307.502	422.12
307.731	420.12
307.961	417.12
308.191	440.12
308.421	432.12
308.651	439.12
308.881	439.12
309.111	441.12
309.341	440.12
309.571	444.12
309.8	433.12
310.03	421.12
310.26	433.12
310.49	438.12
310.72	446.12
310.949	451.12
311.179	419.12
311.409	453.12
311.639	455.12
311.868	422.12
312.098	449.12
312.328	444.12
312.557	460.12
312.787	451.12
313.017	463.12
313.246	461.12
313.476	442.12
313.706	481.12
313.935	467.12
314.165	459.12
314.394	470.12
314.624	457.12
314.853	465.12
315.083	464.12
315.312	473.12
315.542	453.12
315.771	462.12
316.001	458.12
316.23	481.12
316.46	482.12
316.689	468.12
316.919	470.12
317.148	474.12
317.377	473.12
317.607	481.12
317.836	465.12
318.065	473.12
318.295	489.12
318.524	498.12
318.753	484.12
318.983	487.12
319.212	464.12
319.441	472.12
319.67	488.12
319.9	478.12
320.129	482.12
320.358	488.12
320.587	488.12
320.816	474.12
321.046	470.12
321.275	475.12
321.504	477.12
321.733	490.12
321.962	493.12
322.191	484.12
322.42	484.12
322.649	498.12
322.878	491.12
323.108	480.12
323.337	507.12
323.566	500.12
323.795	484.12
324.024	517.12
324.253	500.12
324.482	481.12
324.71	479.12
324.939	483.12
325.168	497.12
325.397	528.12
325.626	525.12
325.855	505.12
326.084	524.12
326.313	502.12
326.542	508.12
326.77	509.12
326.999	520.12
327.228	523.12
327.457	516.12
327.686	524.12
327.914	506.12
328.143	519.12
328.372	544.12
328.6	530.12
328.829	525.12
329.058	530.12
329.287	532.12
329.515	564.12
329.744	538.12
329.972	557.12
330.201	526.12
330.43	547.12
330.658	545.12
330.887	564.12
331.115	560.12
331.344	556.12
331.572	564.12
331.801	561.12
332.03	574.12
332.258	570.12
332.486	584.12
332.715	586.12
332.943	586.12
333.172	582.12
333.4	597.12
333.629	593.12
333.857	595.12
334.085	616.12
334.314	625.12
334.542	631.12
334.771	630.12
334.999	627.12
335.227	629.12
335.455	626.12
335.684	617.12
335.912	618.12
336.14	634.12
336.369	618.12
336.597	624.12
336.825	608.12
337.053	591.12
337.281	595.12
337.51	611.12
337.738	589.12
337.966	599.12
338.194	596.12
338.422	569.12
338.65	601.12
338.878	573.12
339.106	578.12
339.334	590.12
339.562	573.12
339.79	563.12
340.018	580.12
340.246	558.12
340.474	566.12
340.702	565.12
340.93	552.12
341.158	567.12
341.386	574.12
341.614	565.12
341.842	600.12
342.07	586.12
342.298	595.12
342.526	565.12
342.754	576.12
342.981	544.12
343.209	584.12
343.437	615.12
343.665	604.12
343.893	601.12
344.12	616.12
344.348	613.12
344.576	605.12
344.804	609.12
345.031	580.12
345.259	590.12
345.487	566.12
345.714	570.12
345.942	570.12
346.17	549.12
346.397	565.12
346.625	550.12
346.853	544.12
347.08	529.12
347.308	546.12
347.535	566.12
347.763	552.12
347.99	533.12
348.218	530.12
348.445	539.12
348.673	526.12
348.9	530.12
349.128	553.12
349.355	526.12
349.583	538.12
349.81	545.12
350.037	548.12
350.265	531.12
350.492	552.12
350.72	524.12
350.947	538.12
351.174	550.12
351.402	546.12
351.629	538.12
351.856	534.12
352.083	521.12
352.311	483.12
352.538	536.12
352.765	545.12
352.992	548.12
353.22	540.12
353.447	549.12
353.674	546.12
353.901	520.12
354.128	537.12
354.355	534.12
354.583	546.12
354.81	546.12
355.037	546.12
355.264	541.12
355.491	535.12
355.718	541.12
355.945	536.12
356.172	536.12
356.399	541.12
356.626	528.12
356.853	545.12
357.08	544.12
357.307	556.12
357.534	557.12
357.761	553.12
357.988	537.12
358.215	551.12
358.441	570.12
358.668	548.12
358.895	554.12
359.122	537.12
359.349	534.12
359.576	553.12
359.802	545.12
360.029	562.12
360.256	553.12
360.483	552.12
360.709	557.12
360.936	541.12
361.163	526.12
361.39	554.12
361.616	531.12
361.843	550.12
362.07	537.12
362.296	536.12
362.523	532.12
362.749	569.12
362.976	566.12
363.203	566.12
363.429	538.12
363.656	560.12
363.882	560.12
364.109	568.12
364.335	563.12
364.562	576.12
364.788	572.12
365.015	559.12
365.241	562.12
365.468	577.12
365.694	557.12
365.92	519.12
366.147	531.12
366.373	552.12
366.599	561.12
366.826	573.12
367.052	550.12
367.278	563.12
367.505	572.12
367.731	540.12
367.957	576.12
368.184	561.12
368.41	588.12
368.636	582.12
368.862	557.12
369.089	564.12
369.315	569.12
369.541	580.12
369.767	576.12
369.993	562.12
370.219	569.12
370.445	584.12
370.672	585.12
370.898	583.12
371.124	594.12
371.35	588.12
371.576	601.12
371.802	601.12
372.028	591.12
372.254	589.12
372.48	597.12
372.706	598.12
372.932	589.12
373.158	591.12
373.384	614.12
373.61	631.12
373.835	614.12
374.061	611.12
374.287	641.12
374.513	626.12
374.739	622.12
374.965	628.12
375.191	632.12
375.416	628.12
375.642	612.12
375.868	596.12
376.094	633.12
376.319	584.12
376.545	602.12
376.771	593.12
376.997	598.12
377.222	596.12
377.448	605.12
377.674	596.12
377.899	569.12
378.125	610.12
378.35	581.12
378.576	603.12
378.802	612.12
379.027	595.12
379.253	621.12
379.478	579.12
379.704	588.12
379.929	600.12
380.155	587.12
380.38	612.12
380.606	616.12
380.831	593.12
381.057	592.12
381.282	600.12
381.507	594.12
381.733	604.12
381.958	614.12
382.184	630.12
382.409	631.12
382.634	610.12
382.86	640.12
383.085	633.12
383.31	630.12
383.535	627.12
383.761	610.12
383.986	631.12
384.211	634.12
384.436	658.12
384.662	646.12
384.887	683.12
385.112	656.12
385.337	656.12
385.562	690.12
385.787	673.12
386.013	674.12
386.238	678.12
386.463	693.12
386.688	704.12
386.913	670.12
387.138	683.12
387.363	700.12
387.588	661.12
387.813	711.12
388.038	690.12
388.263	690.12
388.488	699.12
388.713	695.12
388.938	700.12
389.163	704.12
389.387	706.12
389.612	684.12
389.837	702.12
390.062	697.12
390.287	682.12
390.512	694.12
390.736	718.12
390.961	709.12
391.186	692.12
391.411	715.12
391.636	730.12
391.86	706.12
392.085	725.12
392.31	714.12
392.534	732.12
392.759	725.12
392.984	717.12
393.208	736.12
393.433	714.12
393.658	731.12
393.882	727.12
394.107	716.12
394.331	724.12
394.556	714.12
394.78	707.12
395.005	727.12
395.229	724.12
395.454	737.12
395.678	748.12
395.903	748.12
396.127	776.12
396.352	768.12
396.576	739.12
396.801	741.12
397.025	764.12
397.249	737.12
397.474	795.12
397.698	774.12
397.922	813.12
398.147	791.12
398.371	790.12
398.595	822.12
398.82	855.12
399.044	850.12
399.268	905.12
399.492	905.12
399.717	957.12
399.941	975.12
400.165	952.12
400.389	917.12
400.613	895.12
400.837	869.12
401.062	865.12
401.286	826.12
401.51	856.12
401.734	836.12
401.958	808.12
402.182	847.12
402.406	852.12
402.63	827.12
402.854	859.12
403.078	837.12
403.302	829.12
403.526	837.12
403.75	835.12
403.974	834.12
404.198	836.12
404.422	845.12
404.645	829.12
404.869	842.12
405.093	882.12
405.317	846.12
405.541	878.12
405.765	866.12
405.988	853.12
406.212	861.12
406.436	893.12
406.66	880.12
406.883	882.12
407.107	885.12
407.331	914.12
407.555	940.12
407.778	960.12
408.002	910.12
408.226	934.12
408.449	927.12
408.673	904.12
408.896	882.12
409.12	879.12
409.344	888.12
409.567	880.12
409.791	883.12
410.014	860.12
410.238	884.12
410.461	889.12
410.685	860.12
410.908	823.12
411.132	850.12
411.355	824.12
411.578	848.12
411.802	851.12
412.025	842.12
412.249	858.12
412.472	849.12
412.695	856.12
412.919	848.12
413.142	843.12
413.365	839.12
413.589	816.12
413.812	826.12
414.035	835.12
414.258	838.12
414.482	815.12
414.705	816.12
414.928	819.12
415.151	813.12
415.374	833.12
415.597	804.12
415.821	833.12
416.044	799.12
416.267	776.12
416.49	793.12
416.713	796.12
416.936	780.12
417.159	769.12
417.382	758.12
417.605	776.12
417.828	799.12
418.051	770.12
418.274	767.12
418.497	794.12
418.72	766.12
418.943	774.12
419.166	818.12
419.389	857.12
419.611	840.12
419.834	828.12
420.057	804.12
420.28	766.12
420.503	798.12
420.726	779.12
420.948	748.12
421.171	789.12
421.394	786.12
421.617	779.12
421.839	775.12
422.062	786.12
422.285	741.12
422.507	771.12
422.73	782.12
422.953	750.12
423.175	765.12
423.398	772.12
423.621	764.12
423.843	750.12
424.066	776.12
424.288	748.12
424.511	767.12
424.733	779.12
424.956	768.12
425.178	788.12
425.401	752.12
425.623	757.12
425.846	766.12
426.068	751.12
426.291	779.12
426.513	735.12
426.735	729.12
426.958	761.12
427.18	742.12
427.402	740.12
427.625	729.12
427.847	715.12
428.069	723.12
428.292	748.12
428.514	713.12
428.736	733.12
428.958	719.12
429.181	728.12
429.403	724.12
429.625	725.12
429.847	747.12
430.069	718.12
430.292	710.12
430.514	690.12
430.736	723.12
430.958	699.12
431.18	721.12
431.402	748.12
431.624	716.12
431.846	712.12
432.068	717.12
432.29	724.12
432.512	713.12
432.734	738.12
432.956	718.12
433.178	722.12
433.4	742.12
433.622	724.12
433.844	747.12
434.066	735.12
434.287	729.12
434.509	741.12
434.731	739.12
434.953	723.12
435.175	746.12
435.397	769.12
435.618	756.12
435.84	743.12
436.062	749.12
436.284	737.12
436.505	733.12
436.727	730.12
436.949	703.12
437.17	733.12
437.392	721.12
437.614	715.12
437.835	693.12
438.057	692.12
438.278	720.12
438.5	712.12
438.721	685.12
438.943	717.12
439.165	716.12
439.386	728.12
439.608	722.12
439.829	694.12
440.05	712.12
440.272	704.12
440.493	723.12
440.715	708.12
440.936	716.12
441.158	729.12
441.379	741.12
441.6	754.12
441.822	752.12
442.043	742.12
442.264	752.12
442.486	702.12
442.707	726.12
442.928	738.12
443.149	746.12
443.371	750.12
443.592	719.12
443.813	748.12
444.034	760.12
444.255	732.12
444.476	774.12
444.698	809.12
444.919	793.12
445.14	898.12
445.361	811.12
445.582	782.12
445.803	755.12
446.024	728.12
446.245	752.12
446.466	731.12
446.687	724.12
446.908	715.12
447.129	682.12
447.35	662.12
447.571	665.12
447.792	681.12
448.013	668.12
448.234	665.12
448.455	673.12
448.675	673.12
448.896	668.12
449.117	634.12
449.338	667.12
449.559	638.12
449.779	655.12
450	641.12
450.221	659.12
450.442	669.12
450.662	646.12
450.883	637.12
451.104	658.12
451.324	640.12
451.545	653.12
451.766	646.12
451.986	646.12
452.207	632.12
452.428	635.12
452.648	645.12
452.869	617.12
453.089	612.12
453.31	611.12
453.53	635.12
453.751	616.12
453.971	642.12
454.192	622.12
454.412	624.12
454.633	624.12
454.853	595.12
455.073	612.12
455.294	622.12
455.514	619.12
455.734	617.12
455.955	616.12
456.175	612.12
456.395	616.12
456.616	626.12
456.836	628.12
457.056	620.12
457.276	623.12
457.497	634.12
457.717	625.12
457.937	650.12
458.157	629.12
458.377	630.12
458.598	668.12
458.818	665.12
459.038	672.12
459.258	694.12
459.478	714.12
459.698	735.12
459.918	728.12
460.138	727.12
460.358	746.12
460.578	763.12
460.798	779.12
461.018	765.12
461.238	779.12
461.458	775.12
461.678	772.12
461.898	788.12
462.118	782.12
462.338	840.12
462.558	838.12
462.777	856.12
462.997	827.12
463.217	876.12
463.437	892.12
463.657	850.12
463.876	844.12
464.096	886.12
464.316	847.12
464.536	838.12
464.755	832.12
464.975	811.12
465.195	781.12
465.414	789.12
465.634	758.12
465.854	745.12
466.073	736.12
466.293	707.12
466.512	706.12
466.732	719.12
466.951	709.12
467.171	699.12
467.391	689.12
467.61	701.12
467.829	677.12
468.049	688.12
468.268	680.12
468.488	675.12
468.707	674.12
468.927	672.12
469.146	683.12
469.365	692.12
469.585	680.12
469.804	702.12
470.023	684.12
470.243	679.12
470.462	692.12
470.681	686.12
470.901	710.12
471.12	690.12
471.339	705.12
471.558	683.12
471.777	695.12
471.997	715.12
472.216	709.12
472.435	684.12
472.654	683.12
472.873	690.12
473.092	683.12
473.311	670.12
473.53	677.12
473.749	705.12
473.968	679.12
474.187	671.12
474.406	690.12
474.625	693.12
474.844	710.12
475.063	704.12
475.282	686.12
475.501	688.12
475.72	716.12
475.939	690.12
476.158	728.12
476.377	729.12
476.596	748.12
476.814	748.12
477.033	725.12
477.252	726.12
477.471	741.12
477.69	761.12
477.908	749.12
478.127	800.12
478.346	782.12
478.564	805.12
478.783	795.12
479.002	806.12
479.22	820.12
479.439	817.12
479.658	825.12
479.876	849.12
480.095	824.12
480.313	834.12
480.532	860.12
480.751	844.12
480.969	820.12
481.188	840.12
481.406	841.12
481.624	827.12
481.843	820.12
482.061	798.12
482.28	794.12
482.498	824.12
482.717	784.12
482.935	821.12
483.153	795.12
483.372	810.12
483.59	795.12
483.808	785.12
484.027	808.12
484.245	831.12
484.463	819.12
484.681	828.12
484.9	842.12
485.118	813.12
485.336	808.12
485.554	848.12
485.772	813.12
485.99	805.12
486.209	823.12
486.427	843.12
486.645	867.12
486.863	844.12
487.081	827.12
487.299	837.12
487.517	823.12
487.735	821.12
487.953	838.12
488.171	830.12
488.389	804.12
488.607	866.12
488.825	826.12
489.043	861.12
489.261	806.12
489.479	822.12
489.696	835.12
489.914	851.12
490.132	854.12
490.35	820.12
490.568	821.12
490.786	844.12
491.003	822.12
491.221	813.12
491.439	849.12
491.657	808.12
491.874	845.12
492.092	826.12
492.31	841.12
492.527	843.12
492.745	836.12
492.963	828.12
493.18	861.12
493.398	874.12
493.615	865.12
493.833	877.12
494.05	866.12
494.268	881.12
494.485	876.12
494.703	868.12
494.92	855.12
495.138	870.12
495.355	871.12
495.573	898.12
495.79	896.12
496.008	909.12
496.225	909.12
496.442	926.12
496.66	940.12
496.877	942.12
497.094	944.12
497.312	945.12
497.529	981.12
497.746	1006.12
497.963	1009.12
498.181	1074.12
498.398	1092.12
498.615	1125.12
498.832	1163.12
499.049	1219.12
499.267	1212.12
499.484	1282.12
499.701	1324.12
499.918	1452.12
500.135	1458.12
500.352	1536.12
500.569	1544.12
500.786	1537.12
501.003	1495.12
501.22	1421.12
501.437	1347.12
