Data from Fe(NO3)3@0.1M.TitratingCurve.Agarose3%dH2O.NegLispCup.LampEnergy10.LIBS07252019_HRD10591_16-40-02-332.txt Node
Date: Thu Jul 25 16:40:02 EDT 2019
User: cochatt
Spectrometer: HR+D1059
Trigger mode: 1
Integration Time (sec): 1.000000E-1
Scans to average: 1
Electric dark correction enabled: true
Nonlinearity correction enabled: false
Boxcar width: 0
XAxis mode: Wavelengths
Number of Pixels in Spectrum: 2048
>>>>>Begin Spectral Data<<<<<
223.165	-29.19
223.4	-29.19
223.635	-29.19
223.869	-10.19
224.104	-24.19
224.338	-2.19
224.573	-21.19
224.808	-14.19
225.042	-5.19
225.277	-6.19
225.511	-0.19
225.746	6.81
225.98	6.81
226.215	19.81
226.449	14.81
226.683	17.81
226.918	22.81
227.152	23.81
227.387	20.81
227.621	41.81
227.856	33.81
228.09	37.81
228.324	45.81
228.559	53.81
228.793	66.81
229.027	82.81
229.262	80.81
229.496	81.81
229.73	79.81
229.964	96.81
230.199	99.81
230.433	101.81
230.667	101.81
230.901	95.81
231.136	96.81
231.37	100.81
231.604	90.81
231.838	96.81
232.072	103.81
232.306	108.81
232.541	110.81
232.775	105.81
233.009	107.81
233.243	93.81
233.477	109.81
233.711	109.81
233.945	106.81
234.179	94.81
234.413	127.81
234.647	113.81
234.881	105.81
235.115	105.81
235.349	102.81
235.583	102.81
235.817	102.81
236.051	105.81
236.285	98.81
236.519	102.81
236.753	107.81
236.987	116.81
237.221	100.81
237.455	110.81
237.689	112.81
237.922	101.81
238.156	113.81
238.39	90.81
238.624	112.81
238.858	113.81
239.091	107.81
239.325	117.81
239.559	125.81
239.793	111.81
240.027	124.81
240.26	113.81
240.494	105.81
240.728	124.81
240.961	112.81
241.195	131.81
241.429	110.81
241.662	106.81
241.896	124.81
242.13	127.81
242.363	122.81
242.597	109.81
242.83	122.81
243.064	109.81
243.298	113.81
243.531	129.81
243.765	113.81
243.998	121.81
244.232	133.81
244.465	130.81
244.699	124.81
244.932	130.81
245.166	138.81
245.399	129.81
245.633	114.81
245.866	136.81
246.099	119.81
246.333	115.81
246.566	122.81
246.8	128.81
247.033	129.81
247.266	116.81
247.5	142.81
247.733	142.81
247.966	132.81
248.2	128.81
248.433	129.81
248.666	141.81
248.899	137.81
249.133	137.81
249.366	149.81
249.599	146.81
249.832	140.81
250.066	124.81
250.299	131.81
250.532	124.81
250.765	139.81
250.998	131.81
251.231	126.81
251.465	154.81
251.698	144.81
251.931	146.81
252.164	142.81
252.397	144.81
252.63	152.81
252.863	128.81
253.096	138.81
253.329	154.81
253.562	142.81
253.795	150.81
254.028	156.81
254.261	157.81
254.494	149.81
254.727	137.81
254.96	141.81
255.193	154.81
255.426	155.81
255.659	148.81
255.892	150.81
256.124	154.81
256.357	155.81
256.59	149.81
256.823	147.81
257.056	141.81
257.289	157.81
257.521	163.81
257.754	150.81
257.987	155.81
258.22	159.81
258.452	152.81
258.685	162.81
258.918	150.81
259.151	158.81
259.383	152.81
259.616	165.81
259.849	162.81
260.081	158.81
260.314	170.81
260.547	167.81
260.779	152.81
261.012	158.81
261.244	157.81
261.477	160.81
261.71	169.81
261.942	168.81
262.175	172.81
262.407	173.81
262.64	174.81
262.872	168.81
263.105	172.81
263.337	163.81
263.57	164.81
263.802	161.81
264.035	154.81
264.267	151.81
264.499	161.81
264.732	182.81
264.964	177.81
265.197	173.81
265.429	166.81
265.661	190.81
265.894	171.81
266.126	173.81
266.358	172.81
266.591	169.81
266.823	169.81
267.055	180.81
267.287	165.81
267.52	172.81
267.752	188.81
267.984	174.81
268.216	168.81
268.448	188.81
268.681	173.81
268.913	177.81
269.145	194.81
269.377	167.81
269.609	181.81
269.841	192.81
270.073	190.81
270.306	189.81
270.538	189.81
270.77	182.81
271.002	193.81
271.234	191.81
271.466	195.81
271.698	168.81
271.93	207.81
272.162	180.81
272.394	181.81
272.626	190.81
272.858	187.81
273.09	172.81
273.322	178.81
273.553	209.81
273.785	193.81
274.017	190.81
274.249	197.81
274.481	187.81
274.713	188.81
274.945	203.81
275.176	198.81
275.408	203.81
275.64	202.81
275.872	210.81
276.104	203.81
276.335	204.81
276.567	215.81
276.799	199.81
277.031	193.81
277.262	190.81
277.494	207.81
277.726	200.81
277.957	203.81
278.189	212.81
278.421	189.81
278.652	206.81
278.884	222.81
279.115	203.81
279.347	210.81
279.579	214.81
279.81	203.81
280.042	206.81
280.273	215.81
280.505	232.81
280.736	205.81
280.968	212.81
281.199	211.81
281.431	207.81
281.662	206.81
281.894	216.81
282.125	213.81
282.356	225.81
282.588	222.81
282.819	195.81
283.051	211.81
283.282	213.81
283.513	227.81
283.745	220.81
283.976	210.81
284.207	216.81
284.439	236.81
284.67	225.81
284.901	230.81
285.132	209.81
285.364	219.81
285.595	225.81
285.826	221.81
286.057	233.81
286.288	196.81
286.52	234.81
286.751	216.81
286.982	242.81
287.213	239.81
287.444	235.81
287.675	227.81
287.906	225.81
288.138	232.81
288.369	222.81
288.6	234.81
288.831	238.81
289.062	247.81
289.293	249.81
289.524	224.81
289.755	234.81
289.986	231.81
290.217	229.81
290.448	229.81
290.679	231.81
290.91	228.81
291.141	232.81
291.371	255.81
291.602	239.81
291.833	249.81
292.064	235.81
292.295	232.81
292.526	220.81
292.757	252.81
292.987	263.81
293.218	251.81
293.449	255.81
293.68	234.81
293.91	249.81
294.141	247.81
294.372	233.81
294.603	228.81
294.833	231.81
295.064	251.81
295.295	228.81
295.525	236.81
295.756	235.81
295.987	232.81
296.217	244.81
296.448	232.81
296.679	235.81
296.909	218.81
297.14	257.81
297.37	248.81
297.601	239.81
297.831	239.81
298.062	254.81
298.292	245.81
298.523	270.81
298.753	260.81
298.984	267.81
299.214	252.81
299.445	233.81
299.675	265.81
299.905	246.81
300.136	241.81
300.366	237.81
300.597	279.81
300.827	260.81
301.057	270.81
301.288	241.81
301.518	245.81
301.748	266.81
301.979	276.81
302.209	275.81
302.439	258.81
302.669	274.81
302.9	263.81
303.13	271.81
303.36	274.81
303.59	281.81
303.82	277.81
304.051	272.81
304.281	271.81
304.511	255.81
304.741	267.81
304.971	269.81
305.201	261.81
305.431	265.81
305.661	276.81
305.891	243.81
306.121	275.81
306.352	282.81
306.582	260.81
306.812	269.81
307.042	249.81
307.272	261.81
307.502	250.81
307.731	289.81
307.961	261.81
308.191	262.81
308.421	265.81
308.651	277.81
308.881	269.81
309.111	268.81
309.341	270.81
309.571	252.81
309.8	266.81
310.03	264.81
310.26	266.81
310.49	261.81
310.72	272.81
310.949	261.81
311.179	284.81
311.409	267.81
311.639	279.81
311.868	260.81
312.098	270.81
312.328	269.81
312.557	279.81
312.787	296.81
313.017	271.81
313.246	293.81
313.476	263.81
313.706	268.81
313.935	279.81
314.165	276.81
314.394	271.81
314.624	268.81
314.853	281.81
315.083	280.81
315.312	268.81
315.542	293.81
315.771	271.81
316.001	295.81
316.23	284.81
316.46	280.81
316.689	274.81
316.919	263.81
317.148	279.81
317.377	286.81
317.607	288.81
317.836	272.81
318.065	281.81
318.295	262.81
318.524	274.81
318.753	269.81
318.983	277.81
319.212	247.81
319.441	281.81
319.67	268.81
319.9	279.81
320.129	267.81
320.358	274.81
320.587	276.81
320.816	275.81
321.046	280.81
321.275	291.81
321.504	292.81
321.733	289.81
321.962	275.81
322.191	288.81
322.42	276.81
322.649	278.81
322.878	286.81
323.108	282.81
323.337	273.81
323.566	304.81
323.795	285.81
324.024	279.81
324.253	289.81
324.482	287.81
324.71	284.81
324.939	299.81
325.168	297.81
325.397	296.81
325.626	292.81
325.855	305.81
326.084	299.81
326.313	305.81
326.542	291.81
326.77	282.81
326.999	327.81
327.228	285.81
327.457	313.81
327.686	300.81
327.914	312.81
328.143	329.81
328.372	308.81
328.6	310.81
328.829	319.81
329.058	310.81
329.287	313.81
329.515	318.81
329.744	325.81
329.972	299.81
330.201	295.81
330.43	307.81
330.658	308.81
330.887	294.81
331.115	311.81
331.344	333.81
331.572	336.81
331.801	323.81
332.03	326.81
332.258	339.81
332.486	345.81
332.715	344.81
332.943	350.81
333.172	354.81
333.4	375.81
333.629	377.81
333.857	367.81
334.085	400.81
334.314	373.81
334.542	371.81
334.771	381.81
334.999	360.81
335.227	373.81
335.455	359.81
335.684	365.81
335.912	361.81
336.14	362.81
336.369	354.81
336.597	373.81
336.825	350.81
337.053	362.81
337.281	345.81
337.51	353.81
337.738	343.81
337.966	343.81
338.194	341.81
338.422	359.81
338.65	329.81
338.878	345.81
339.106	342.81
339.334	338.81
339.562	326.81
339.79	322.81
340.018	331.81
340.246	312.81
340.474	314.81
340.702	318.81
340.93	336.81
341.158	319.81
341.386	326.81
341.614	317.81
341.842	313.81
342.07	311.81
342.298	325.81
342.526	323.81
342.754	323.81
342.981	324.81
343.209	352.81
343.437	332.81
343.665	373.81
343.893	360.81
344.12	377.81
344.348	365.81
344.576	351.81
344.804	354.81
345.031	342.81
345.259	334.81
345.487	337.81
345.714	329.81
345.942	312.81
346.17	330.81
346.397	326.81
346.625	309.81
346.853	310.81
347.08	308.81
347.308	312.81
347.535	309.81
347.763	321.81
347.99	319.81
348.218	303.81
348.445	325.81
348.673	309.81
348.9	320.81
349.128	309.81
349.355	302.81
349.583	305.81
349.81	300.81
350.037	313.81
350.265	321.81
350.492	308.81
350.72	311.81
350.947	311.81
351.174	307.81
351.402	324.81
351.629	317.81
351.856	306.81
352.083	294.81
352.311	311.81
352.538	301.81
352.765	281.81
352.992	292.81
353.22	316.81
353.447	309.81
353.674	297.81
353.901	292.81
354.128	297.81
354.355	301.81
354.583	290.81
354.81	299.81
355.037	323.81
355.264	302.81
355.491	302.81
355.718	300.81
355.945	314.81
356.172	297.81
356.399	300.81
356.626	312.81
356.853	325.81
357.08	322.81
357.307	300.81
357.534	315.81
357.761	306.81
357.988	310.81
358.215	322.81
358.441	289.81
358.668	316.81
358.895	312.81
359.122	322.81
359.349	315.81
359.576	308.81
359.802	315.81
360.029	300.81
360.256	316.81
360.483	299.81
360.709	302.81
360.936	306.81
361.163	315.81
361.39	307.81
361.616	301.81
361.843	300.81
362.07	302.81
362.296	325.81
362.523	309.81
362.749	321.81
362.976	313.81
363.203	312.81
363.429	315.81
363.656	307.81
363.882	309.81
364.109	326.81
364.335	318.81
364.562	317.81
364.788	302.81
365.015	281.81
365.241	311.81
365.468	318.81
365.694	313.81
365.92	318.81
366.147	289.81
366.373	319.81
366.599	327.81
366.826	303.81
367.052	306.81
367.278	313.81
367.505	309.81
367.731	325.81
367.957	321.81
368.184	315.81
368.41	316.81
368.636	308.81
368.862	322.81
369.089	332.81
369.315	334.81
369.541	328.81
369.767	330.81
369.993	307.81
370.219	314.81
370.445	316.81
370.672	323.81
370.898	313.81
371.124	352.81
371.35	321.81
371.576	329.81
371.802	322.81
372.028	318.81
372.254	324.81
372.48	334.81
372.706	341.81
372.932	343.81
373.158	348.81
373.384	339.81
373.61	339.81
373.835	336.81
374.061	333.81
374.287	326.81
374.513	353.81
374.739	361.81
374.965	359.81
375.191	371.81
375.416	358.81
375.642	385.81
375.868	349.81
376.094	335.81
376.319	326.81
376.545	353.81
376.771	339.81
376.997	354.81
377.222	333.81
377.448	343.81
377.674	335.81
377.899	336.81
378.125	331.81
378.35	329.81
378.576	341.81
378.802	323.81
379.027	329.81
379.253	312.81
379.478	369.81
379.704	343.81
379.929	342.81
380.155	335.81
380.38	322.81
380.606	331.81
380.831	349.81
381.057	337.81
381.282	359.81
381.507	360.81
381.733	348.81
381.958	340.81
382.184	345.81
382.409	358.81
382.634	365.81
382.86	345.81
383.085	365.81
383.31	359.81
383.535	372.81
383.761	371.81
383.986	366.81
384.211	369.81
384.436	401.81
384.662	373.81
384.887	397.81
385.112	395.81
385.337	394.81
385.562	390.81
385.787	406.81
386.013	411.81
386.238	394.81
386.463	405.81
386.688	392.81
386.913	386.81
387.138	385.81
387.363	404.81
387.588	381.81
387.813	387.81
388.038	385.81
388.263	405.81
388.488	405.81
388.713	386.81
388.938	401.81
389.163	407.81
389.387	390.81
389.612	394.81
389.837	385.81
390.062	410.81
390.287	394.81
390.512	398.81
390.736	413.81
390.961	414.81
391.186	398.81
391.411	433.81
391.636	437.81
391.86	419.81
392.085	433.81
392.31	455.81
392.534	441.81
392.759	399.81
392.984	421.81
393.208	436.81
393.433	442.81
393.658	413.81
393.882	433.81
394.107	428.81
394.331	435.81
394.556	436.81
394.78	442.81
395.005	437.81
395.229	444.81
395.454	438.81
395.678	462.81
395.903	429.81
396.127	419.81
396.352	431.81
396.576	432.81
396.801	418.81
397.025	424.81
397.249	450.81
397.474	457.81
397.698	443.81
397.922	462.81
398.147	460.81
398.371	467.81
398.595	479.81
398.82	483.81
399.044	511.81
399.268	541.81
399.492	604.81
399.717	667.81
399.941	656.81
400.165	617.81
400.389	551.81
400.613	534.81
400.837	537.81
401.062	519.81
401.286	514.81
401.51	490.81
401.734	475.81
401.958	499.81
402.182	488.81
402.406	485.81
402.63	495.81
402.854	513.81
403.078	517.81
403.302	555.81
403.526	545.81
403.75	516.81
403.974	533.81
404.198	551.81
404.422	542.81
404.645	533.81
404.869	527.81
405.093	535.81
405.317	506.81
405.541	547.81
405.765	547.81
405.988	525.81
406.212	556.81
406.436	530.81
406.66	546.81
406.883	550.81
407.107	566.81
407.331	594.81
407.555	611.81
407.778	611.81
408.002	614.81
408.226	609.81
408.449	600.81
408.673	572.81
408.896	558.81
409.12	547.81
409.344	547.81
409.567	553.81
409.791	550.81
410.014	550.81
410.238	531.81
410.461	555.81
410.685	543.81
410.908	555.81
411.132	550.81
411.355	517.81
411.578	523.81
411.802	518.81
412.025	525.81
412.249	534.81
412.472	521.81
412.695	517.81
412.919	490.81
413.142	484.81
413.365	489.81
413.589	511.81
413.812	501.81
414.035	492.81
414.258	501.81
414.482	503.81
414.705	491.81
414.928	515.81
415.151	523.81
415.374	520.81
415.597	519.81
415.821	501.81
416.044	499.81
416.267	482.81
416.49	493.81
416.713	495.81
416.936	492.81
417.159	487.81
417.382	484.81
417.605	476.81
417.828	481.81
418.051	502.81
418.274	504.81
418.497	479.81
418.72	508.81
418.943	509.81
419.166	498.81
419.389	558.81
419.611	528.81
419.834	503.81
420.057	505.81
420.28	496.81
420.503	488.81
420.726	475.81
420.948	485.81
421.171	489.81
421.394	499.81
421.617	466.81
421.839	480.81
422.062	475.81
422.285	484.81
422.507	481.81
422.73	497.81
422.953	501.81
423.175	485.81
423.398	500.81
423.621	491.81
423.843	493.81
424.066	508.81
424.288	511.81
424.511	500.81
424.733	507.81
424.956	510.81
425.178	489.81
425.401	476.81
425.623	490.81
425.846	488.81
426.068	484.81
426.291	503.81
426.513	476.81
426.735	486.81
426.958	475.81
427.18	484.81
427.402	465.81
427.625	473.81
427.847	459.81
428.069	454.81
428.292	463.81
428.514	449.81
428.736	456.81
428.958	455.81
429.181	460.81
429.403	445.81
429.625	465.81
429.847	452.81
430.069	455.81
430.292	463.81
430.514	476.81
430.736	446.81
430.958	471.81
431.18	448.81
431.402	452.81
431.624	463.81
431.846	464.81
432.068	449.81
432.29	459.81
432.512	459.81
432.734	459.81
432.956	462.81
433.178	454.81
433.4	454.81
433.622	476.81
433.844	455.81
434.066	467.81
434.287	458.81
434.509	459.81
434.731	483.81
434.953	485.81
435.175	520.81
435.397	503.81
435.618	494.81
435.84	491.81
436.062	446.81
436.284	469.81
436.505	455.81
436.727	460.81
436.949	483.81
437.17	485.81
437.392	437.81
437.614	443.81
437.835	441.81
438.057	439.81
438.278	443.81
438.5	440.81
438.721	448.81
438.943	452.81
439.165	443.81
439.386	441.81
439.608	450.81
439.829	442.81
440.05	474.81
440.272	455.81
440.493	454.81
440.715	457.81
440.936	480.81
441.158	480.81
441.379	491.81
441.6	524.81
441.822	521.81
442.043	508.81
442.264	503.81
442.486	491.81
442.707	509.81
442.928	507.81
443.149	505.81
443.371	492.81
443.592	492.81
443.813	526.81
444.034	545.81
444.255	534.81
444.476	526.81
444.698	559.81
444.919	567.81
445.14	655.81
445.361	563.81
445.582	520.81
445.803	515.81
446.024	488.81
446.245	513.81
446.466	470.81
446.687	484.81
446.908	474.81
447.129	484.81
447.35	457.81
447.571	429.81
447.792	457.81
448.013	453.81
448.234	441.81
448.455	434.81
448.675	438.81
448.896	441.81
449.117	443.81
449.338	429.81
449.559	427.81
449.779	434.81
450	417.81
450.221	424.81
450.442	434.81
450.662	433.81
450.883	451.81
451.104	428.81
451.324	424.81
451.545	439.81
451.766	430.81
451.986	427.81
452.207	418.81
452.428	441.81
452.648	427.81
452.869	406.81
453.089	423.81
453.31	422.81
453.53	406.81
453.751	405.81
453.971	398.81
454.192	417.81
454.412	421.81
454.633	418.81
454.853	415.81
455.073	399.81
455.294	423.81
455.514	406.81
455.734	411.81
455.955	418.81
456.175	394.81
456.395	411.81
456.616	407.81
456.836	413.81
457.056	415.81
457.276	407.81
457.497	413.81
457.717	407.81
457.937	423.81
458.157	403.81
458.377	410.81
458.598	426.81
458.818	456.81
459.038	452.81
459.258	424.81
459.478	458.81
459.698	476.81
459.918	489.81
460.138	487.81
460.358	510.81
460.578	510.81
460.798	502.81
461.018	527.81
461.238	525.81
461.458	520.81
461.678	530.81
461.898	534.81
462.118	545.81
462.338	573.81
462.558	554.81
462.777	583.81
462.997	609.81
463.217	633.81
463.437	637.81
463.657	616.81
463.876	605.81
464.096	574.81
464.316	587.81
464.536	579.81
464.755	545.81
464.975	553.81
465.195	544.81
465.414	518.81
465.634	509.81
465.854	475.81
466.073	501.81
466.293	471.81
466.512	473.81
466.732	445.81
466.951	438.81
467.171	446.81
467.391	444.81
467.61	463.81
467.829	450.81
468.049	465.81
468.268	425.81
468.488	439.81
468.707	433.81
468.927	445.81
469.146	430.81
469.365	455.81
469.585	444.81
469.804	453.81
470.023	457.81
470.243	435.81
470.462	471.81
470.681	462.81
470.901	455.81
471.12	455.81
471.339	443.81
471.558	447.81
471.777	444.81
471.997	428.81
472.216	429.81
472.435	425.81
472.654	408.81
472.873	404.81
473.092	439.81
473.311	441.81
473.53	435.81
473.749	414.81
473.968	423.81
474.187	424.81
474.406	425.81
474.625	424.81
474.844	438.81
475.063	413.81
475.282	436.81
475.501	444.81
475.72	419.81
475.939	433.81
476.158	442.81
476.377	429.81
476.596	418.81
476.814	440.81
477.033	443.81
477.252	436.81
477.471	441.81
477.69	483.81
477.908	479.81
478.127	487.81
478.346	474.81
478.564	499.81
478.783	491.81
479.002	503.81
479.22	494.81
479.439	501.81
479.658	497.81
479.876	503.81
480.095	481.81
480.313	541.81
480.532	519.81
480.751	515.81
480.969	507.81
481.188	497.81
481.406	477.81
481.624	476.81
481.843	486.81
482.061	469.81
482.28	470.81
482.498	452.81
482.717	496.81
482.935	459.81
483.153	477.81
483.372	475.81
483.59	470.81
483.808	474.81
484.027	467.81
484.245	473.81
484.463	488.81
484.681	495.81
484.9	511.81
485.118	493.81
485.336	469.81
485.554	473.81
485.772	475.81
485.99	467.81
486.209	509.81
486.427	497.81
486.645	493.81
486.863	472.81
487.081	482.81
487.299	492.81
487.517	508.81
487.735	507.81
487.953	523.81
488.171	483.81
488.389	485.81
488.607	489.81
488.825	491.81
489.043	450.81
489.261	473.81
489.479	497.81
489.696	483.81
489.914	488.81
490.132	479.81
490.35	493.81
490.568	512.81
490.786	515.81
491.003	495.81
491.221	497.81
491.439	487.81
491.657	502.81
491.874	510.81
492.092	516.81
492.31	514.81
492.527	513.81
492.745	504.81
492.963	526.81
493.18	494.81
493.398	518.81
493.615	500.81
493.833	509.81
494.05	512.81
494.268	504.81
494.485	514.81
494.703	533.81
494.92	527.81
495.138	526.81
495.355	516.81
495.573	526.81
495.79	520.81
496.008	529.81
496.225	547.81
496.442	546.81
496.66	520.81
496.877	555.81
497.094	545.81
497.312	577.81
497.529	582.81
497.746	582.81
497.963	589.81
498.181	641.81
498.398	641.81
498.615	648.81
498.832	671.81
499.049	714.81
499.267	783.81
499.484	835.81
499.701	890.81
499.918	953.81
500.135	1067.81
500.352	1205.81
500.569	1225.81
500.786	1241.81
501.003	1159.81
501.22	1093.81
501.437	988.81
501.654	869.81
