Data from Fe(NO3)3@0.0125M.TitratingCurve.Agarose3%dH2O.NegLispCup.LampEnergy10.LIBS07252019_HRD10591_16-59-51-336.txt Node
Date: Thu Jul 25 16:59:51 EDT 2019
User: cochatt
Spectrometer: HR+D1059
Trigger mode: 1
Integration Time (sec): 1.000000E-1
Scans to average: 1
Electric dark correction enabled: true
Nonlinearity correction enabled: false
Boxcar width: 0
XAxis mode: Wavelengths
Number of Pixels in Spectrum: 2048
>>>>>Begin Spectral Data<<<<<
223.165	-20.38
223.4	-20.38
223.635	-20.38
223.869	-30.38
224.104	-18.38
224.338	-17.38
224.573	0.62
224.808	-13.38
225.042	-8.38
225.277	-7.38
225.511	-2.38
225.746	1.62
225.98	8.62
226.215	9.62
226.449	18.62
226.683	30.62
226.918	24.62
227.152	23.62
227.387	31.62
227.621	43.62
227.856	48.62
228.09	38.62
228.324	46.62
228.559	56.62
228.793	63.62
229.027	63.62
229.262	65.62
229.496	83.62
229.73	75.62
229.964	80.62
230.199	83.62
230.433	70.62
230.667	82.62
230.901	91.62
231.136	84.62
231.37	81.62
231.604	98.62
231.838	84.62
232.072	79.62
232.306	88.62
232.541	105.62
232.775	89.62
233.009	87.62
233.243	83.62
233.477	98.62
233.711	101.62
233.945	87.62
234.179	86.62
234.413	97.62
234.647	109.62
234.881	98.62
235.115	86.62
235.349	89.62
235.583	71.62
235.817	88.62
236.051	98.62
236.285	85.62
236.519	84.62
236.753	94.62
236.987	79.62
237.221	86.62
237.455	103.62
237.689	86.62
237.922	98.62
238.156	97.62
238.39	103.62
238.624	82.62
238.858	96.62
239.091	90.62
239.325	96.62
239.559	86.62
239.793	83.62
240.027	103.62
240.26	96.62
240.494	106.62
240.728	108.62
240.961	107.62
241.195	106.62
241.429	93.62
241.662	92.62
241.896	95.62
242.13	91.62
242.363	89.62
242.597	107.62
242.83	94.62
243.064	100.62
243.298	81.62
243.531	89.62
243.765	101.62
243.998	103.62
244.232	94.62
244.465	103.62
244.699	115.62
244.932	110.62
245.166	102.62
245.399	99.62
245.633	101.62
245.866	83.62
246.099	110.62
246.333	109.62
246.566	95.62
246.8	94.62
247.033	105.62
247.266	103.62
247.5	98.62
247.733	109.62
247.966	118.62
248.2	99.62
248.433	105.62
248.666	103.62
248.899	97.62
249.133	91.62
249.366	107.62
249.599	108.62
249.832	105.62
250.066	109.62
250.299	105.62
250.532	115.62
250.765	111.62
250.998	98.62
251.231	110.62
251.465	92.62
251.698	107.62
251.931	100.62
252.164	112.62
252.397	110.62
252.63	114.62
252.863	115.62
253.096	116.62
253.329	118.62
253.562	120.62
253.795	129.62
254.028	115.62
254.261	102.62
254.494	110.62
254.727	112.62
254.96	114.62
255.193	113.62
255.426	107.62
255.659	119.62
255.892	110.62
256.124	105.62
256.357	126.62
256.59	126.62
256.823	129.62
257.056	124.62
257.289	134.62
257.521	124.62
257.754	124.62
257.987	137.62
258.22	107.62
258.452	121.62
258.685	125.62
258.918	126.62
259.151	115.62
259.383	128.62
259.616	127.62
259.849	128.62
260.081	136.62
260.314	133.62
260.547	130.62
260.779	125.62
261.012	106.62
261.244	137.62
261.477	137.62
261.71	135.62
261.942	138.62
262.175	132.62
262.407	137.62
262.64	130.62
262.872	154.62
263.105	119.62
263.337	141.62
263.57	131.62
263.802	120.62
264.035	128.62
264.267	120.62
264.499	122.62
264.732	137.62
264.964	123.62
265.197	135.62
265.429	138.62
265.661	130.62
265.894	124.62
266.126	138.62
266.358	128.62
266.591	139.62
266.823	123.62
267.055	133.62
267.287	142.62
267.52	126.62
267.752	145.62
267.984	137.62
268.216	138.62
268.448	137.62
268.681	132.62
268.913	144.62
269.145	136.62
269.377	130.62
269.609	129.62
269.841	160.62
270.073	123.62
270.306	130.62
270.538	130.62
270.77	133.62
271.002	150.62
271.234	150.62
271.466	156.62
271.698	147.62
271.93	146.62
272.162	136.62
272.394	150.62
272.626	133.62
272.858	148.62
273.09	152.62
273.322	156.62
273.553	130.62
273.785	150.62
274.017	153.62
274.249	162.62
274.481	166.62
274.713	162.62
274.945	188.62
275.176	179.62
275.408	150.62
275.64	161.62
275.872	153.62
276.104	162.62
276.335	152.62
276.567	140.62
276.799	164.62
277.031	150.62
277.262	155.62
277.494	166.62
277.726	159.62
277.957	155.62
278.189	164.62
278.421	159.62
278.652	156.62
278.884	156.62
279.115	167.62
279.347	172.62
279.579	175.62
279.81	156.62
280.042	158.62
280.273	163.62
280.505	181.62
280.736	190.62
280.968	163.62
281.199	178.62
281.431	182.62
281.662	186.62
281.894	169.62
282.125	176.62
282.356	185.62
282.588	174.62
282.819	177.62
283.051	177.62
283.282	188.62
283.513	178.62
283.745	183.62
283.976	178.62
284.207	177.62
284.439	185.62
284.67	187.62
284.901	203.62
285.132	189.62
285.364	202.62
285.595	192.62
285.826	186.62
286.057	198.62
286.288	190.62
286.52	188.62
286.751	199.62
286.982	184.62
287.213	189.62
287.444	198.62
287.675	192.62
287.906	207.62
288.138	186.62
288.369	207.62
288.6	199.62
288.831	206.62
289.062	202.62
289.293	197.62
289.524	195.62
289.755	196.62
289.986	194.62
290.217	198.62
290.448	221.62
290.679	194.62
290.91	211.62
291.141	200.62
291.371	207.62
291.602	206.62
291.833	209.62
292.064	204.62
292.295	211.62
292.526	221.62
292.757	220.62
292.987	205.62
293.218	223.62
293.449	218.62
293.68	217.62
293.91	222.62
294.141	229.62
294.372	216.62
294.603	217.62
294.833	207.62
295.064	208.62
295.295	216.62
295.525	218.62
295.756	230.62
295.987	232.62
296.217	220.62
296.448	228.62
296.679	229.62
296.909	213.62
297.14	231.62
297.37	222.62
297.601	221.62
297.831	217.62
298.062	246.62
298.292	239.62
298.523	218.62
298.753	242.62
298.984	238.62
299.214	239.62
299.445	245.62
299.675	240.62
299.905	246.62
300.136	248.62
300.366	237.62
300.597	240.62
300.827	252.62
301.057	252.62
301.288	250.62
301.518	246.62
301.748	241.62
301.979	243.62
302.209	258.62
302.439	263.62
302.669	246.62
302.9	260.62
303.13	264.62
303.36	276.62
303.59	262.62
303.82	250.62
304.051	241.62
304.281	268.62
304.511	252.62
304.741	256.62
304.971	266.62
305.201	267.62
305.431	256.62
305.661	271.62
305.891	283.62
306.121	269.62
306.352	255.62
306.582	273.62
306.812	276.62
307.042	279.62
307.272	278.62
307.502	274.62
307.731	274.62
307.961	263.62
308.191	280.62
308.421	266.62
308.651	284.62
308.881	270.62
309.111	273.62
309.341	265.62
309.571	271.62
309.8	291.62
310.03	290.62
310.26	272.62
310.49	284.62
310.72	272.62
310.949	282.62
311.179	276.62
311.409	286.62
311.639	290.62
311.868	287.62
312.098	298.62
312.328	296.62
312.557	292.62
312.787	311.62
313.017	299.62
313.246	296.62
313.476	294.62
313.706	298.62
313.935	305.62
314.165	299.62
314.394	291.62
314.624	286.62
314.853	305.62
315.083	298.62
315.312	308.62
315.542	313.62
315.771	292.62
316.001	297.62
316.23	306.62
316.46	310.62
316.689	321.62
316.919	303.62
317.148	322.62
317.377	323.62
317.607	316.62
317.836	319.62
318.065	319.62
318.295	334.62
318.524	303.62
318.753	314.62
318.983	323.62
319.212	315.62
319.441	318.62
319.67	342.62
319.9	313.62
320.129	312.62
320.358	308.62
320.587	320.62
320.816	338.62
321.046	321.62
321.275	334.62
321.504	336.62
321.733	326.62
321.962	329.62
322.191	333.62
322.42	337.62
322.649	351.62
322.878	316.62
323.108	339.62
323.337	352.62
323.566	338.62
323.795	337.62
324.024	355.62
324.253	338.62
324.482	350.62
324.71	347.62
324.939	334.62
325.168	332.62
325.397	347.62
325.626	338.62
325.855	350.62
326.084	356.62
326.313	357.62
326.542	330.62
326.77	359.62
326.999	354.62
327.228	340.62
327.457	352.62
327.686	373.62
327.914	368.62
328.143	352.62
328.372	362.62
328.6	348.62
328.829	378.62
329.058	366.62
329.287	357.62
329.515	360.62
329.744	363.62
329.972	375.62
330.201	375.62
330.43	358.62
330.658	350.62
330.887	373.62
331.115	363.62
331.344	372.62
331.572	370.62
331.801	363.62
332.03	366.62
332.258	370.62
332.486	382.62
332.715	391.62
332.943	392.62
333.172	388.62
333.4	386.62
333.629	375.62
333.857	376.62
334.085	380.62
334.314	398.62
334.542	394.62
334.771	366.62
334.999	397.62
335.227	390.62
335.455	388.62
335.684	387.62
335.912	398.62
336.14	378.62
336.369	389.62
336.597	395.62
336.825	380.62
337.053	417.62
337.281	379.62
337.51	387.62
337.738	389.62
337.966	385.62
338.194	402.62
338.422	369.62
338.65	390.62
338.878	388.62
339.106	379.62
339.334	396.62
339.562	387.62
339.79	400.62
340.018	386.62
340.246	391.62
340.474	404.62
340.702	398.62
340.93	388.62
341.158	384.62
341.386	404.62
341.614	399.62
341.842	383.62
342.07	398.62
342.298	380.62
342.526	386.62
342.754	392.62
342.981	403.62
343.209	374.62
343.437	392.62
343.665	390.62
343.893	386.62
344.12	396.62
344.348	412.62
344.576	395.62
344.804	397.62
345.031	414.62
345.259	414.62
345.487	408.62
345.714	384.62
345.942	388.62
346.17	410.62
346.397	399.62
346.625	410.62
346.853	404.62
347.08	388.62
347.308	409.62
347.535	407.62
347.763	384.62
347.99	372.62
348.218	386.62
348.445	406.62
348.673	392.62
348.9	384.62
349.128	381.62
349.355	378.62
349.583	390.62
349.81	404.62
350.037	420.62
350.265	395.62
350.492	382.62
350.72	394.62
350.947	404.62
351.174	390.62
351.402	379.62
351.629	388.62
351.856	402.62
352.083	388.62
352.311	409.62
352.538	396.62
352.765	407.62
352.992	391.62
353.22	380.62
353.447	382.62
353.674	388.62
353.901	379.62
354.128	392.62
354.355	386.62
354.583	396.62
354.81	387.62
355.037	393.62
355.264	387.62
355.491	411.62
355.718	383.62
355.945	381.62
356.172	393.62
356.399	392.62
356.626	394.62
356.853	403.62
357.08	408.62
357.307	400.62
357.534	390.62
357.761	410.62
357.988	389.62
358.215	434.62
358.441	413.62
358.668	392.62
358.895	409.62
359.122	398.62
359.349	400.62
359.576	409.62
359.802	399.62
360.029	400.62
360.256	394.62
360.483	404.62
360.709	415.62
360.936	417.62
361.163	418.62
361.39	407.62
361.616	406.62
361.843	421.62
362.07	400.62
362.296	402.62
362.523	399.62
362.749	398.62
362.976	416.62
363.203	418.62
363.429	412.62
363.656	411.62
363.882	396.62
364.109	392.62
364.335	426.62
364.562	390.62
364.788	398.62
365.015	423.62
365.241	413.62
365.468	430.62
365.694	428.62
365.92	402.62
366.147	439.62
366.373	415.62
366.599	414.62
366.826	418.62
367.052	428.62
367.278	402.62
367.505	410.62
367.731	420.62
367.957	425.62
368.184	434.62
368.41	427.62
368.636	410.62
368.862	450.62
369.089	431.62
369.315	451.62
369.541	438.62
369.767	430.62
369.993	434.62
370.219	439.62
370.445	437.62
370.672	447.62
370.898	433.62
371.124	446.62
371.35	430.62
371.576	438.62
371.802	436.62
372.028	420.62
372.254	427.62
372.48	453.62
372.706	436.62
372.932	448.62
373.158	457.62
373.384	465.62
373.61	466.62
373.835	469.62
374.061	444.62
374.287	446.62
374.513	458.62
374.739	457.62
374.965	439.62
375.191	479.62
375.416	453.62
375.642	444.62
375.868	459.62
376.094	438.62
376.319	448.62
376.545	459.62
376.771	448.62
376.997	437.62
377.222	436.62
377.448	446.62
377.674	456.62
377.899	447.62
378.125	423.62
378.35	464.62
378.576	454.62
378.802	458.62
379.027	444.62
379.253	421.62
379.478	462.62
379.704	441.62
379.929	455.62
380.155	463.62
380.38	460.62
380.606	451.62
380.831	451.62
381.057	464.62
381.282	449.62
381.507	451.62
381.733	465.62
381.958	464.62
382.184	478.62
382.409	451.62
382.634	483.62
382.86	463.62
383.085	459.62
383.31	452.62
383.535	467.62
383.761	454.62
383.986	459.62
384.211	486.62
384.436	460.62
384.662	479.62
384.887	444.62
385.112	475.62
385.337	491.62
385.562	471.62
385.787	492.62
386.013	478.62
386.238	472.62
386.463	499.62
386.688	490.62
386.913	479.62
387.138	485.62
387.363	506.62
387.588	482.62
387.813	491.62
388.038	518.62
388.263	491.62
388.488	503.62
388.713	513.62
388.938	486.62
389.163	483.62
389.387	485.62
389.612	495.62
389.837	487.62
390.062	482.62
390.287	492.62
390.512	502.62
390.736	488.62
390.961	482.62
391.186	482.62
391.411	502.62
391.636	502.62
391.86	515.62
392.085	498.62
392.31	500.62
392.534	501.62
392.759	510.62
392.984	503.62
393.208	502.62
393.433	519.62
393.658	540.62
393.882	511.62
394.107	491.62
394.331	534.62
394.556	528.62
394.78	516.62
395.005	526.62
395.229	513.62
395.454	512.62
395.678	530.62
395.903	523.62
396.127	548.62
396.352	526.62
396.576	514.62
396.801	516.62
397.025	513.62
397.249	542.62
397.474	538.62
397.698	521.62
397.922	520.62
398.147	532.62
398.371	536.62
398.595	542.62
398.82	527.62
399.044	549.62
399.268	551.62
399.492	556.62
399.717	553.62
399.941	583.62
400.165	577.62
400.389	548.62
400.613	564.62
400.837	579.62
401.062	555.62
401.286	568.62
401.51	546.62
401.734	559.62
401.958	546.62
402.182	564.62
402.406	545.62
402.63	550.62
402.854	542.62
403.078	522.62
403.302	562.62
403.526	553.62
403.75	552.62
403.974	565.62
404.198	543.62
404.422	547.62
404.645	548.62
404.869	556.62
405.093	563.62
405.317	553.62
405.541	581.62
405.765	585.62
405.988	552.62
406.212	571.62
406.436	564.62
406.66	604.62
406.883	582.62
407.107	594.62
407.331	587.62
407.555	586.62
407.778	567.62
408.002	603.62
408.226	592.62
408.449	607.62
408.673	584.62
408.896	583.62
409.12	592.62
409.344	582.62
409.567	590.62
409.791	573.62
410.014	555.62
410.238	572.62
410.461	572.62
410.685	575.62
410.908	562.62
411.132	570.62
411.355	567.62
411.578	586.62
411.802	570.62
412.025	568.62
412.249	583.62
412.472	566.62
412.695	587.62
412.919	563.62
413.142	561.62
413.365	561.62
413.589	569.62
413.812	570.62
414.035	565.62
414.258	559.62
414.482	561.62
414.705	566.62
414.928	573.62
415.151	562.62
415.374	584.62
415.597	570.62
415.821	549.62
416.044	541.62
416.267	570.62
416.49	540.62
416.713	567.62
416.936	556.62
417.159	544.62
417.382	564.62
417.605	548.62
417.828	554.62
418.051	534.62
418.274	537.62
418.497	556.62
418.72	531.62
418.943	547.62
419.166	543.62
419.389	576.62
419.611	575.62
419.834	563.62
420.057	537.62
420.28	539.62
420.503	528.62
420.726	550.62
420.948	539.62
421.171	542.62
421.394	530.62
421.617	528.62
421.839	546.62
422.062	522.62
422.285	519.62
422.507	527.62
422.73	527.62
422.953	547.62
423.175	520.62
423.398	553.62
423.621	542.62
423.843	570.62
424.066	522.62
424.288	543.62
424.511	514.62
424.733	540.62
424.956	523.62
425.178	560.62
425.401	514.62
425.623	543.62
425.846	532.62
426.068	549.62
426.291	542.62
426.513	546.62
426.735	532.62
426.958	522.62
427.18	525.62
427.402	563.62
427.625	536.62
427.847	543.62
428.069	532.62
428.292	550.62
428.514	550.62
428.736	525.62
428.958	554.62
429.181	532.62
429.403	528.62
429.625	526.62
429.847	509.62
430.069	534.62
430.292	542.62
430.514	520.62
430.736	539.62
430.958	543.62
431.18	531.62
431.402	542.62
431.624	526.62
431.846	522.62
432.068	525.62
432.29	518.62
432.512	539.62
432.734	543.62
432.956	531.62
433.178	546.62
433.4	551.62
433.622	558.62
433.844	545.62
434.066	530.62
434.287	514.62
434.509	564.62
434.731	559.62
434.953	551.62
435.175	542.62
435.397	555.62
435.618	538.62
435.84	516.62
436.062	538.62
436.284	550.62
436.505	549.62
436.727	542.62
436.949	520.62
437.17	535.62
437.392	548.62
437.614	531.62
437.835	519.62
438.057	522.62
438.278	512.62
438.5	539.62
438.721	528.62
438.943	536.62
439.165	534.62
439.386	547.62
439.608	540.62
439.829	537.62
440.05	532.62
440.272	543.62
440.493	539.62
440.715	558.62
440.936	536.62
441.158	528.62
441.379	520.62
441.6	534.62
441.822	534.62
442.043	554.62
442.264	524.62
442.486	520.62
442.707	540.62
442.928	545.62
443.149	542.62
443.371	542.62
443.592	551.62
443.813	515.62
444.034	541.62
444.255	513.62
444.476	540.62
444.698	530.62
444.919	546.62
445.14	620.62
445.361	564.62
445.582	564.62
445.803	550.62
446.024	530.62
446.245	529.62
446.466	520.62
446.687	548.62
446.908	522.62
447.129	522.62
447.35	524.62
447.571	514.62
447.792	511.62
448.013	497.62
448.234	528.62
448.455	508.62
448.675	541.62
448.896	540.62
449.117	510.62
449.338	528.62
449.559	516.62
449.779	496.62
450	504.62
450.221	522.62
450.442	530.62
450.662	495.62
450.883	510.62
451.104	534.62
451.324	503.62
451.545	511.62
451.766	490.62
451.986	486.62
452.207	514.62
452.428	492.62
452.648	517.62
452.869	487.62
453.089	506.62
453.31	491.62
453.53	521.62
453.751	504.62
453.971	503.62
454.192	476.62
454.412	491.62
454.633	488.62
454.853	496.62
455.073	497.62
455.294	506.62
455.514	502.62
455.734	509.62
455.955	495.62
456.175	499.62
456.395	491.62
456.616	469.62
456.836	497.62
457.056	499.62
457.276	501.62
457.497	513.62
457.717	499.62
457.937	507.62
458.157	530.62
458.377	510.62
458.598	486.62
458.818	512.62
459.038	500.62
459.258	522.62
459.478	529.62
459.698	518.62
459.918	520.62
460.138	516.62
460.358	535.62
460.578	559.62
460.798	547.62
461.018	545.62
461.238	554.62
461.458	565.62
461.678	579.62
461.898	570.62
462.118	558.62
462.338	579.62
462.558	577.62
462.777	584.62
462.997	589.62
463.217	578.62
463.437	595.62
463.657	568.62
463.876	583.62
464.096	584.62
464.316	580.62
464.536	572.62
464.755	578.62
464.975	563.62
465.195	565.62
465.414	574.62
465.634	562.62
465.854	549.62
466.073	549.62
466.293	542.62
466.512	542.62
466.732	535.62
466.951	536.62
467.171	553.62
467.391	536.62
467.61	535.62
467.829	537.62
468.049	550.62
468.268	543.62
468.488	515.62
468.707	534.62
468.927	546.62
469.146	524.62
469.365	560.62
469.585	538.62
469.804	564.62
470.023	560.62
470.243	577.62
470.462	547.62
470.681	550.62
470.901	543.62
471.12	563.62
471.339	566.62
471.558	569.62
471.777	543.62
471.997	571.62
472.216	589.62
472.435	563.62
472.654	545.62
472.873	552.62
473.092	549.62
473.311	580.62
473.53	570.62
473.749	570.62
473.968	592.62
474.187	568.62
474.406	563.62
474.625	565.62
474.844	584.62
475.063	581.62
475.282	582.62
475.501	594.62
475.72	610.62
475.939	603.62
476.158	596.62
476.377	605.62
476.596	574.62
476.814	593.62
477.033	583.62
477.252	616.62
477.471	615.62
477.69	622.62
477.908	605.62
478.127	636.62
478.346	645.62
478.564	638.62
478.783	609.62
479.002	636.62
479.22	654.62
479.439	664.62
479.658	645.62
479.876	672.62
480.095	666.62
480.313	665.62
480.532	650.62
480.751	644.62
480.969	652.62
481.188	654.62
481.406	671.62
481.624	654.62
481.843	660.62
482.061	668.62
482.28	685.62
482.498	673.62
482.717	661.62
482.935	672.62
483.153	675.62
483.372	677.62
483.59	675.62
483.808	672.62
484.027	705.62
484.245	708.62
484.463	648.62
484.681	675.62
484.9	676.62
485.118	707.62
485.336	687.62
485.554	680.62
485.772	676.62
485.99	680.62
486.209	683.62
486.427	700.62
486.645	696.62
486.863	712.62
487.081	696.62
487.299	707.62
487.517	708.62
487.735	682.62
487.953	711.62
488.171	688.62
488.389	696.62
488.607	710.62
488.825	705.62
489.043	710.62
489.261	727.62
489.479	715.62
489.696	714.62
489.914	719.62
490.132	702.62
490.35	735.62
490.568	701.62
490.786	722.62
491.003	727.62
491.221	716.62
491.439	727.62
491.657	722.62
491.874	734.62
492.092	722.62
492.31	736.62
492.527	735.62
492.745	724.62
492.963	743.62
493.18	734.62
493.398	761.62
493.615	743.62
493.833	718.62
494.05	722.62
494.268	743.62
494.485	743.62
494.703	736.62
494.92	735.62
495.138	730.62
495.355	740.62
495.573	730.62
495.79	759.62
496.008	773.62
496.225	774.62
496.442	755.62
496.66	758.62
496.877	790.62
497.094	770.62
497.312	794.62
497.529	798.62
497.746	787.62
497.963	818.62
498.181	814.62
498.398	818.62
498.615	845.62
498.832	864.62
499.049	851.62
499.267	853.62
499.484	868.62
499.701	855.62
499.918	890.62
500.135	871.62
500.352	884.62
500.569	932.62
500.786	900.62
501.003	899.62
501.22	873.62
501.437	892.62
501.654	875.62
501.871	848.62
502.088	841.62
502.305	850.62
502.522	840.62
