Data from Fe(NO3)3@0.0125M.TitratingCurve.Agarose3%dH2O.NegLispCup.LampEnergy10.LIBS07252019_HRD10591_16-59-57-337.txt Node
Date: Thu Jul 25 16:59:57 EDT 2019
User: cochatt
Spectrometer: HR+D1059
Trigger mode: 1
Integration Time (sec): 1.000000E-1
Scans to average: 1
Electric dark correction enabled: true
Nonlinearity correction enabled: false
Boxcar width: 0
XAxis mode: Wavelengths
Number of Pixels in Spectrum: 2048
>>>>>Begin Spectral Data<<<<<
223.165	-9.69
223.4	-9.69
223.635	-9.69
223.869	-18.69
224.104	-23.69
224.338	-14.69
224.573	2.31
224.808	1.31
225.042	-20.69
225.277	1.31
225.511	-13.69
225.746	-0.69
225.98	10.31
226.215	9.31
226.449	5.31
226.683	26.31
226.918	23.31
227.152	22.31
227.387	21.31
227.621	27.31
227.856	37.31
228.09	49.31
228.324	59.31
228.559	64.31
228.793	53.31
229.027	83.31
229.262	77.31
229.496	85.31
229.73	93.31
229.964	90.31
230.199	82.31
230.433	103.31
230.667	107.31
230.901	103.31
231.136	120.31
231.37	111.31
231.604	99.31
231.838	108.31
232.072	104.31
232.306	118.31
232.541	88.31
232.775	106.31
233.009	104.31
233.243	104.31
233.477	109.31
233.711	119.31
233.945	116.31
234.179	122.31
234.413	105.31
234.647	127.31
234.881	120.31
235.115	95.31
235.349	117.31
235.583	100.31
235.817	108.31
236.051	120.31
236.285	119.31
236.519	123.31
236.753	130.31
236.987	125.31
237.221	113.31
237.455	117.31
237.689	107.31
237.922	107.31
238.156	126.31
238.39	131.31
238.624	130.31
238.858	143.31
239.091	141.31
239.325	123.31
239.559	131.31
239.793	131.31
240.027	123.31
240.26	125.31
240.494	131.31
240.728	132.31
240.961	129.31
241.195	127.31
241.429	128.31
241.662	150.31
241.896	129.31
242.13	131.31
242.363	127.31
242.597	132.31
242.83	118.31
243.064	129.31
243.298	131.31
243.531	136.31
243.765	141.31
243.998	135.31
244.232	137.31
244.465	130.31
244.699	133.31
244.932	126.31
245.166	137.31
245.399	148.31
245.633	141.31
245.866	147.31
246.099	136.31
246.333	165.31
246.566	148.31
246.8	155.31
247.033	147.31
247.266	136.31
247.5	127.31
247.733	148.31
247.966	146.31
248.2	145.31
248.433	151.31
248.666	162.31
248.899	157.31
249.133	141.31
249.366	157.31
249.599	169.31
249.832	156.31
250.066	165.31
250.299	147.31
250.532	165.31
250.765	149.31
250.998	172.31
251.231	147.31
251.465	159.31
251.698	151.31
251.931	164.31
252.164	151.31
252.397	170.31
252.63	170.31
252.863	164.31
253.096	176.31
253.329	159.31
253.562	182.31
253.795	173.31
254.028	184.31
254.261	176.31
254.494	164.31
254.727	158.31
254.96	174.31
255.193	163.31
255.426	188.31
255.659	185.31
255.892	196.31
256.124	166.31
256.357	160.31
256.59	186.31
256.823	172.31
257.056	183.31
257.289	185.31
257.521	178.31
257.754	181.31
257.987	193.31
258.22	199.31
258.452	185.31
258.685	188.31
258.918	184.31
259.151	185.31
259.383	173.31
259.616	191.31
259.849	210.31
260.081	218.31
260.314	221.31
260.547	209.31
260.779	203.31
261.012	213.31
261.244	201.31
261.477	209.31
261.71	211.31
261.942	191.31
262.175	194.31
262.407	207.31
262.64	199.31
262.872	219.31
263.105	210.31
263.337	220.31
263.57	213.31
263.802	210.31
264.035	220.31
264.267	209.31
264.499	201.31
264.732	197.31
264.964	204.31
265.197	202.31
265.429	192.31
265.661	218.31
265.894	204.31
266.126	208.31
266.358	212.31
266.591	226.31
266.823	208.31
267.055	235.31
267.287	216.31
267.52	233.31
267.752	204.31
267.984	218.31
268.216	221.31
268.448	215.31
268.681	207.31
268.913	220.31
269.145	209.31
269.377	222.31
269.609	200.31
269.841	241.31
270.073	225.31
270.306	227.31
270.538	236.31
270.77	230.31
271.002	241.31
271.234	225.31
271.466	220.31
271.698	231.31
271.93	240.31
272.162	234.31
272.394	237.31
272.626	241.31
272.858	231.31
273.09	221.31
273.322	248.31
273.553	259.31
273.785	257.31
274.017	246.31
274.249	277.31
274.481	271.31
274.713	297.31
274.945	278.31
275.176	283.31
275.408	279.31
275.64	260.31
275.872	262.31
276.104	268.31
276.335	260.31
276.567	260.31
276.799	257.31
277.031	263.31
277.262	254.31
277.494	256.31
277.726	264.31
277.957	252.31
278.189	246.31
278.421	260.31
278.652	270.31
278.884	263.31
279.115	243.31
279.347	263.31
279.579	271.31
279.81	272.31
280.042	277.31
280.273	263.31
280.505	287.31
280.736	274.31
280.968	274.31
281.199	278.31
281.431	266.31
281.662	279.31
281.894	263.31
282.125	282.31
282.356	274.31
282.588	280.31
282.819	274.31
283.051	280.31
283.282	291.31
283.513	287.31
283.745	285.31
283.976	291.31
284.207	285.31
284.439	288.31
284.67	287.31
284.901	296.31
285.132	305.31
285.364	275.31
285.595	277.31
285.826	287.31
286.057	296.31
286.288	284.31
286.52	289.31
286.751	305.31
286.982	303.31
287.213	284.31
287.444	313.31
287.675	298.31
287.906	298.31
288.138	320.31
288.369	306.31
288.6	300.31
288.831	291.31
289.062	307.31
289.293	309.31
289.524	304.31
289.755	317.31
289.986	307.31
290.217	315.31
290.448	320.31
290.679	310.31
290.91	313.31
291.141	321.31
291.371	308.31
291.602	321.31
291.833	315.31
292.064	324.31
292.295	324.31
292.526	325.31
292.757	329.31
292.987	310.31
293.218	316.31
293.449	332.31
293.68	328.31
293.91	322.31
294.141	311.31
294.372	312.31
294.603	326.31
294.833	340.31
295.064	317.31
295.295	315.31
295.525	316.31
295.756	328.31
295.987	324.31
296.217	313.31
296.448	317.31
296.679	332.31
296.909	326.31
297.14	331.31
297.37	343.31
297.601	347.31
297.831	345.31
298.062	315.31
298.292	352.31
298.523	344.31
298.753	354.31
298.984	375.31
299.214	339.31
299.445	352.31
299.675	356.31
299.905	344.31
300.136	344.31
300.366	364.31
300.597	352.31
300.827	355.31
301.057	357.31
301.288	356.31
301.518	356.31
301.748	369.31
301.979	359.31
302.209	377.31
302.439	361.31
302.669	351.31
302.9	372.31
303.13	342.31
303.36	361.31
303.59	383.31
303.82	369.31
304.051	367.31
304.281	377.31
304.511	377.31
304.741	365.31
304.971	373.31
305.201	376.31
305.431	396.31
305.661	367.31
305.891	350.31
306.121	378.31
306.352	362.31
306.582	364.31
306.812	348.31
307.042	356.31
307.272	365.31
307.502	385.31
307.731	367.31
307.961	378.31
308.191	385.31
308.421	381.31
308.651	364.31
308.881	379.31
309.111	367.31
309.341	371.31
309.571	374.31
309.8	380.31
310.03	401.31
310.26	389.31
310.49	395.31
310.72	380.31
310.949	414.31
311.179	391.31
311.409	390.31
311.639	409.31
311.868	401.31
312.098	384.31
312.328	401.31
312.557	387.31
312.787	394.31
313.017	392.31
313.246	390.31
313.476	401.31
313.706	423.31
313.935	437.31
314.165	393.31
314.394	417.31
314.624	409.31
314.853	406.31
315.083	402.31
315.312	422.31
315.542	424.31
315.771	408.31
316.001	427.31
316.23	421.31
316.46	411.31
316.689	431.31
316.919	392.31
317.148	402.31
317.377	419.31
317.607	392.31
317.836	411.31
318.065	402.31
318.295	413.31
318.524	413.31
318.753	428.31
318.983	431.31
319.212	435.31
319.441	423.31
319.67	431.31
319.9	428.31
320.129	426.31
320.358	435.31
320.587	415.31
320.816	418.31
321.046	440.31
321.275	431.31
321.504	424.31
321.733	457.31
321.962	433.31
322.191	460.31
322.42	455.31
322.649	435.31
322.878	434.31
323.108	439.31
323.337	439.31
323.566	452.31
323.795	445.31
324.024	465.31
324.253	456.31
324.482	461.31
324.71	435.31
324.939	471.31
325.168	449.31
325.397	441.31
325.626	474.31
325.855	448.31
326.084	443.31
326.313	476.31
326.542	453.31
326.77	469.31
326.999	457.31
327.228	462.31
327.457	457.31
327.686	469.31
327.914	484.31
328.143	483.31
328.372	450.31
328.6	454.31
328.829	465.31
329.058	453.31
329.287	471.31
329.515	464.31
329.744	459.31
329.972	465.31
330.201	462.31
330.43	465.31
330.658	465.31
330.887	451.31
331.115	481.31
331.344	468.31
331.572	502.31
331.801	503.31
332.03	508.31
332.258	490.31
332.486	485.31
332.715	481.31
332.943	481.31
333.172	501.31
333.4	503.31
333.629	491.31
333.857	499.31
334.085	498.31
334.314	514.31
334.542	499.31
334.771	523.31
334.999	517.31
335.227	499.31
335.455	527.31
335.684	513.31
335.912	537.31
336.14	508.31
336.369	518.31
336.597	540.31
336.825	520.31
337.053	517.31
337.281	520.31
337.51	499.31
337.738	519.31
337.966	495.31
338.194	509.31
338.422	500.31
338.65	499.31
338.878	523.31
339.106	513.31
339.334	503.31
339.562	507.31
339.79	501.31
340.018	497.31
340.246	489.31
340.474	498.31
340.702	516.31
340.93	491.31
341.158	498.31
341.386	489.31
341.614	535.31
341.842	491.31
342.07	496.31
342.298	524.31
342.526	492.31
342.754	486.31
342.981	504.31
343.209	497.31
343.437	515.31
343.665	517.31
343.893	514.31
344.12	577.31
344.348	528.31
344.576	541.31
344.804	509.31
345.031	531.31
345.259	522.31
345.487	503.31
345.714	521.31
345.942	500.31
346.17	515.31
346.397	483.31
346.625	492.31
346.853	493.31
347.08	515.31
347.308	497.31
347.535	501.31
347.763	496.31
347.99	481.31
348.218	470.31
348.445	500.31
348.673	478.31
348.9	492.31
349.128	496.31
349.355	496.31
349.583	492.31
349.81	501.31
350.037	489.31
350.265	483.31
350.492	488.31
350.72	493.31
350.947	518.31
351.174	501.31
351.402	491.31
351.629	488.31
351.856	498.31
352.083	488.31
352.311	482.31
352.538	472.31
352.765	471.31
352.992	504.31
353.22	481.31
353.447	487.31
353.674	491.31
353.901	494.31
354.128	511.31
354.355	495.31
354.583	490.31
354.81	505.31
355.037	497.31
355.264	503.31
355.491	501.31
355.718	504.31
355.945	499.31
356.172	505.31
356.399	481.31
356.626	491.31
356.853	513.31
357.08	515.31
357.307	521.31
357.534	497.31
357.761	504.31
357.988	516.31
358.215	501.31
358.441	510.31
358.668	492.31
358.895	489.31
359.122	490.31
359.349	491.31
359.576	486.31
359.802	502.31
360.029	498.31
360.256	479.31
360.483	498.31
360.709	514.31
360.936	490.31
361.163	508.31
361.39	502.31
361.616	505.31
361.843	531.31
362.07	525.31
362.296	502.31
362.523	513.31
362.749	524.31
362.976	520.31
363.203	521.31
363.429	505.31
363.656	504.31
363.882	503.31
364.109	515.31
364.335	503.31
364.562	503.31
364.788	507.31
365.015	517.31
365.241	527.31
365.468	518.31
365.694	502.31
365.92	499.31
366.147	513.31
366.373	532.31
366.599	516.31
366.826	520.31
367.052	511.31
367.278	538.31
367.505	538.31
367.731	546.31
367.957	499.31
368.184	528.31
368.41	534.31
368.636	524.31
368.862	548.31
369.089	539.31
369.315	527.31
369.541	535.31
369.767	537.31
369.993	538.31
370.219	537.31
370.445	542.31
370.672	546.31
370.898	532.31
371.124	567.31
371.35	561.31
371.576	528.31
371.802	554.31
372.028	559.31
372.254	556.31
372.48	537.31
372.706	539.31
372.932	556.31
373.158	529.31
373.384	546.31
373.61	595.31
373.835	546.31
374.061	536.31
374.287	553.31
374.513	551.31
374.739	561.31
374.965	570.31
375.191	604.31
375.416	566.31
375.642	554.31
375.868	561.31
376.094	551.31
376.319	541.31
376.545	543.31
376.771	568.31
376.997	565.31
377.222	550.31
377.448	541.31
377.674	540.31
377.899	547.31
378.125	533.31
378.35	537.31
378.576	541.31
378.802	552.31
379.027	565.31
379.253	537.31
379.478	536.31
379.704	547.31
379.929	556.31
380.155	537.31
380.38	542.31
380.606	539.31
380.831	525.31
381.057	561.31
381.282	540.31
381.507	553.31
381.733	582.31
381.958	569.31
382.184	568.31
382.409	580.31
382.634	592.31
382.86	579.31
383.085	572.31
383.31	560.31
383.535	587.31
383.761	577.31
383.986	575.31
384.211	587.31
384.436	585.31
384.662	586.31
384.887	585.31
385.112	579.31
385.337	588.31
385.562	593.31
385.787	587.31
386.013	636.31
386.238	611.31
386.463	590.31
386.688	604.31
386.913	594.31
387.138	600.31
387.363	607.31
387.588	621.31
387.813	621.31
388.038	614.31
388.263	607.31
388.488	603.31
388.713	618.31
388.938	615.31
389.163	588.31
389.387	638.31
389.612	599.31
389.837	634.31
390.062	616.31
390.287	615.31
390.512	628.31
390.736	634.31
390.961	596.31
391.186	626.31
391.411	615.31
391.636	633.31
391.86	630.31
392.085	637.31
392.31	635.31
392.534	639.31
392.759	641.31
392.984	664.31
393.208	625.31
393.433	653.31
393.658	666.31
393.882	631.31
394.107	646.31
394.331	620.31
394.556	628.31
394.78	615.31
395.005	626.31
395.229	658.31
395.454	654.31
395.678	647.31
395.903	634.31
396.127	636.31
396.352	605.31
396.576	657.31
396.801	658.31
397.025	667.31
397.249	660.31
397.474	642.31
397.698	638.31
397.922	668.31
398.147	679.31
398.371	678.31
398.595	684.31
398.82	682.31
399.044	676.31
399.268	693.31
399.492	746.31
399.717	760.31
399.941	762.31
400.165	765.31
400.389	732.31
400.613	723.31
400.837	704.31
401.062	731.31
401.286	721.31
401.51	672.31
401.734	661.31
401.958	683.31
402.182	692.31
402.406	693.31
402.63	672.31
402.854	714.31
403.078	688.31
403.302	716.31
403.526	695.31
403.75	699.31
403.974	702.31
404.198	714.31
404.422	716.31
404.645	709.31
404.869	707.31
405.093	705.31
405.317	729.31
405.541	743.31
405.765	703.31
405.988	720.31
406.212	727.31
406.436	718.31
406.66	758.31
406.883	752.31
407.107	755.31
407.331	765.31
407.555	767.31
407.778	753.31
408.002	757.31
408.226	747.31
408.449	767.31
408.673	740.31
408.896	743.31
409.12	756.31
409.344	731.31
409.567	722.31
409.791	745.31
410.014	732.31
410.238	748.31
410.461	743.31
410.685	751.31
410.908	735.31
411.132	711.31
411.355	699.31
411.578	735.31
411.802	696.31
412.025	703.31
412.249	719.31
412.472	731.31
412.695	729.31
412.919	699.31
413.142	707.31
413.365	701.31
413.589	698.31
413.812	674.31
414.035	708.31
414.258	709.31
414.482	710.31
414.705	703.31
414.928	677.31
415.151	693.31
415.374	701.31
415.597	708.31
415.821	686.31
416.044	687.31
416.267	677.31
416.49	649.31
416.713	667.31
416.936	663.31
417.159	680.31
417.382	652.31
417.605	692.31
417.828	672.31
418.051	683.31
418.274	684.31
418.497	675.31
418.72	679.31
418.943	658.31
419.166	713.31
419.389	729.31
419.611	724.31
419.834	697.31
420.057	667.31
420.28	688.31
420.503	665.31
420.726	659.31
420.948	675.31
421.171	676.31
421.394	677.31
421.617	664.31
421.839	646.31
422.062	693.31
422.285	657.31
422.507	671.31
422.73	680.31
422.953	680.31
423.175	659.31
423.398	678.31
423.621	646.31
423.843	669.31
424.066	660.31
424.288	665.31
424.511	677.31
424.733	663.31
424.956	667.31
425.178	631.31
425.401	657.31
425.623	659.31
425.846	637.31
426.068	657.31
426.291	643.31
426.513	660.31
426.735	666.31
426.958	646.31
427.18	662.31
427.402	684.31
427.625	648.31
427.847	632.31
428.069	645.31
428.292	646.31
428.514	637.31
428.736	659.31
428.958	672.31
429.181	644.31
429.403	643.31
429.625	673.31
429.847	661.31
430.069	661.31
430.292	651.31
430.514	657.31
430.736	645.31
430.958	681.31
431.18	654.31
431.402	665.31
431.624	645.31
431.846	653.31
432.068	673.31
432.29	665.31
432.512	658.31
432.734	643.31
432.956	667.31
433.178	644.31
433.4	671.31
433.622	670.31
433.844	668.31
434.066	688.31
434.287	651.31
434.509	649.31
434.731	663.31
434.953	668.31
435.175	688.31
435.397	699.31
435.618	664.31
435.84	669.31
436.062	652.31
436.284	654.31
436.505	663.31
436.727	651.31
436.949	651.31
437.17	646.31
437.392	640.31
437.614	662.31
437.835	652.31
438.057	638.31
438.278	656.31
438.5	617.31
438.721	639.31
438.943	639.31
439.165	644.31
439.386	643.31
439.608	672.31
439.829	627.31
440.05	662.31
440.272	666.31
440.493	645.31
440.715	647.31
440.936	667.31
441.158	637.31
441.379	659.31
441.6	664.31
441.822	653.31
442.043	693.31
442.264	678.31
442.486	653.31
442.707	660.31
442.928	655.31
443.149	661.31
443.371	666.31
443.592	657.31
443.813	647.31
444.034	669.31
444.255	672.31
444.476	667.31
444.698	673.31
444.919	683.31
445.14	755.31
445.361	704.31
445.582	643.31
445.803	662.31
446.024	649.31
446.245	649.31
446.466	660.31
446.687	645.31
446.908	649.31
447.129	632.31
447.35	646.31
447.571	626.31
447.792	626.31
448.013	611.31
448.234	612.31
448.455	601.31
448.675	616.31
448.896	624.31
449.117	631.31
449.338	623.31
449.559	599.31
449.779	597.31
450	617.31
450.221	648.31
450.442	608.31
450.662	601.31
450.883	619.31
451.104	587.31
451.324	611.31
451.545	604.31
451.766	603.31
451.986	611.31
452.207	608.31
452.428	604.31
452.648	596.31
452.869	594.31
453.089	573.31
453.31	599.31
453.53	578.31
453.751	600.31
453.971	602.31
454.192	611.31
454.412	600.31
454.633	602.31
454.853	583.31
455.073	591.31
455.294	587.31
455.514	605.31
455.734	590.31
455.955	607.31
456.175	602.31
456.395	601.31
456.616	599.31
456.836	590.31
457.056	586.31
457.276	587.31
457.497	615.31
457.717	621.31
457.937	619.31
458.157	600.31
458.377	601.31
458.598	623.31
458.818	588.31
459.038	616.31
459.258	609.31
459.478	643.31
459.698	656.31
459.918	643.31
460.138	643.31
460.358	658.31
460.578	656.31
460.798	699.31
461.018	674.31
461.238	697.31
461.458	683.31
461.678	659.31
461.898	665.31
462.118	691.31
462.338	711.31
462.558	693.31
462.777	718.31
462.997	727.31
463.217	710.31
463.437	757.31
463.657	735.31
463.876	743.31
464.096	731.31
464.316	718.31
464.536	718.31
464.755	692.31
464.975	714.31
465.195	683.31
465.414	684.31
465.634	691.31
465.854	653.31
466.073	675.31
466.293	652.31
466.512	650.31
466.732	644.31
466.951	650.31
467.171	643.31
467.391	659.31
467.61	631.31
467.829	627.31
468.049	668.31
468.268	635.31
468.488	666.31
468.707	632.31
468.927	652.31
469.146	653.31
469.365	625.31
469.585	632.31
469.804	636.31
470.023	640.31
470.243	633.31
470.462	646.31
470.681	647.31
470.901	667.31
471.12	660.31
471.339	654.31
471.558	664.31
471.777	654.31
471.997	660.31
472.216	661.31
472.435	672.31
472.654	667.31
472.873	706.31
473.092	650.31
473.311	658.31
473.53	645.31
473.749	655.31
473.968	663.31
474.187	646.31
474.406	652.31
474.625	683.31
474.844	681.31
475.063	678.31
475.282	707.31
475.501	677.31
475.72	699.31
475.939	675.31
476.158	689.31
476.377	717.31
476.596	698.31
476.814	717.31
477.033	697.31
477.252	690.31
477.471	709.31
477.69	735.31
477.908	740.31
478.127	752.31
478.346	745.31
478.564	748.31
478.783	743.31
479.002	774.31
479.22	737.31
479.439	778.31
479.658	791.31
479.876	778.31
480.095	785.31
480.313	812.31
480.532	768.31
480.751	769.31
480.969	774.31
481.188	782.31
481.406	807.31
481.624	781.31
481.843	773.31
482.061	776.31
482.28	787.31
482.498	785.31
482.717	785.31
482.935	796.31
483.153	792.31
483.372	804.31
483.59	799.31
483.808	790.31
484.027	804.31
484.245	807.31
484.463	815.31
484.681	786.31
484.9	795.31
485.118	849.31
485.336	820.31
485.554	797.31
485.772	816.31
485.99	831.31
486.209	827.31
486.427	820.31
486.645	821.31
486.863	811.31
487.081	819.31
487.299	795.31
487.517	831.31
487.735	813.31
487.953	838.31
488.171	840.31
488.389	833.31
488.607	826.31
488.825	824.31
489.043	817.31
489.261	847.31
489.479	847.31
489.696	826.31
489.914	825.31
490.132	831.31
490.35	845.31
490.568	800.31
490.786	841.31
491.003	847.31
491.221	819.31
491.439	835.31
491.657	838.31
491.874	814.31
492.092	860.31
492.31	849.31
492.527	859.31
492.745	872.31
492.963	875.31
493.18	880.31
493.398	871.31
493.615	872.31
493.833	864.31
494.05	852.31
494.268	835.31
494.485	833.31
494.703	860.31
494.92	881.31
495.138	881.31
495.355	884.31
495.573	851.31
495.79	872.31
496.008	897.31
496.225	865.31
496.442	893.31
496.66	899.31
496.877	891.31
497.094	913.31
497.312	909.31
497.529	915.31
497.746	924.31
497.963	957.31
498.181	965.31
498.398	999.31
498.615	961.31
498.832	984.31
499.049	1011.31
499.267	1044.31
499.484	1073.31
499.701	1114.31
499.918	1115.31
500.135	1169.31
500.352	1203.31
500.569	1159.31
500.786	1174.31
501.003	1160.31
501.22	1141.31
501.437	1129.31
501.654	1084.31
