Data from Fe(NO3)3@0.1M.TitratingCurve.Agarose3%dH2O.NegLispCup.LampEnergy10.LIBS07252019_HRD10591_16-38-14-332.txt Node
Date: Thu Jul 25 16:38:14 EDT 2019
User: cochatt
Spectrometer: HR+D1059
Trigger mode: 1
Integration Time (sec): 1.000000E-1
Scans to average: 1
Electric dark correction enabled: true
Nonlinearity correction enabled: false
Boxcar width: 0
XAxis mode: Wavelengths
Number of Pixels in Spectrum: 2048
>>>>>Begin Spectral Data<<<<<
223.165	-10.69
223.4	-10.69
223.635	-10.69
223.869	-13.69
224.104	-10.69
224.338	-22.69
224.573	-14.69
224.808	-17.69
225.042	-12.69
225.277	-8.69
225.511	-1.69
225.746	18.31
225.98	5.31
226.215	9.31
226.449	24.31
226.683	10.31
226.918	30.31
227.152	15.31
227.387	25.31
227.621	26.31
227.856	49.31
228.09	43.31
228.324	44.31
228.559	39.31
228.793	83.31
229.027	76.31
229.262	76.31
229.496	88.31
229.73	90.31
229.964	77.31
230.199	80.31
230.433	100.31
230.667	75.31
230.901	86.31
231.136	99.31
231.37	85.31
231.604	88.31
231.838	103.31
232.072	86.31
232.306	88.31
232.541	94.31
232.775	93.31
233.009	108.31
233.243	92.31
233.477	102.31
233.711	98.31
233.945	107.31
234.179	108.31
234.413	100.31
234.647	103.31
234.881	104.31
235.115	94.31
235.349	98.31
235.583	101.31
235.817	108.31
236.051	100.31
236.285	100.31
236.519	101.31
236.753	108.31
236.987	95.31
237.221	106.31
237.455	104.31
237.689	98.31
237.922	99.31
238.156	97.31
238.39	109.31
238.624	101.31
238.858	97.31
239.091	99.31
239.325	104.31
239.559	87.31
239.793	102.31
240.027	98.31
240.26	106.31
240.494	117.31
240.728	118.31
240.961	114.31
241.195	109.31
241.429	105.31
241.662	105.31
241.896	102.31
242.13	98.31
242.363	105.31
242.597	116.31
242.83	112.31
243.064	109.31
243.298	105.31
243.531	108.31
243.765	121.31
243.998	105.31
244.232	115.31
244.465	97.31
244.699	101.31
244.932	100.31
245.166	133.31
245.399	121.31
245.633	114.31
245.866	129.31
246.099	110.31
246.333	111.31
246.566	126.31
246.8	110.31
247.033	115.31
247.266	122.31
247.5	106.31
247.733	126.31
247.966	121.31
248.2	117.31
248.433	115.31
248.666	120.31
248.899	122.31
249.133	119.31
249.366	130.31
249.599	120.31
249.832	133.31
250.066	139.31
250.299	116.31
250.532	125.31
250.765	124.31
250.998	120.31
251.231	125.31
251.465	119.31
251.698	144.31
251.931	129.31
252.164	143.31
252.397	129.31
252.63	134.31
252.863	141.31
253.096	134.31
253.329	139.31
253.562	142.31
253.795	140.31
254.028	142.31
254.261	147.31
254.494	139.31
254.727	140.31
254.96	139.31
255.193	142.31
255.426	137.31
255.659	137.31
255.892	133.31
256.124	147.31
256.357	149.31
256.59	141.31
256.823	151.31
257.056	133.31
257.289	145.31
257.521	135.31
257.754	153.31
257.987	127.31
258.22	150.31
258.452	151.31
258.685	139.31
258.918	149.31
259.151	153.31
259.383	142.31
259.616	148.31
259.849	153.31
260.081	161.31
260.314	157.31
260.547	153.31
260.779	138.31
261.012	155.31
261.244	151.31
261.477	166.31
261.71	149.31
261.942	142.31
262.175	166.31
262.407	156.31
262.64	161.31
262.872	171.31
263.105	162.31
263.337	170.31
263.57	173.31
263.802	158.31
264.035	172.31
264.267	168.31
264.499	153.31
264.732	160.31
264.964	157.31
265.197	166.31
265.429	164.31
265.661	170.31
265.894	140.31
266.126	173.31
266.358	171.31
266.591	158.31
266.823	168.31
267.055	164.31
267.287	162.31
267.52	162.31
267.752	172.31
267.984	173.31
268.216	198.31
268.448	175.31
268.681	164.31
268.913	173.31
269.145	174.31
269.377	185.31
269.609	175.31
269.841	177.31
270.073	192.31
270.306	171.31
270.538	172.31
270.77	175.31
271.002	173.31
271.234	191.31
271.466	161.31
271.698	183.31
271.93	204.31
272.162	188.31
272.394	191.31
272.626	175.31
272.858	191.31
273.09	206.31
273.322	189.31
273.553	171.31
273.785	193.31
274.017	202.31
274.249	199.31
274.481	202.31
274.713	186.31
274.945	203.31
275.176	203.31
275.408	208.31
275.64	191.31
275.872	228.31
276.104	226.31
276.335	203.31
276.567	195.31
276.799	190.31
277.031	189.31
277.262	205.31
277.494	201.31
277.726	193.31
277.957	189.31
278.189	197.31
278.421	202.31
278.652	215.31
278.884	198.31
279.115	213.31
279.347	217.31
279.579	220.31
279.81	187.31
280.042	234.31
280.273	227.31
280.505	213.31
280.736	213.31
280.968	212.31
281.199	197.31
281.431	224.31
281.662	204.31
281.894	221.31
282.125	230.31
282.356	235.31
282.588	250.31
282.819	222.31
283.051	231.31
283.282	214.31
283.513	230.31
283.745	235.31
283.976	227.31
284.207	230.31
284.439	254.31
284.67	233.31
284.901	239.31
285.132	223.31
285.364	222.31
285.595	218.31
285.826	223.31
286.057	238.31
286.288	234.31
286.52	236.31
286.751	243.31
286.982	249.31
287.213	231.31
287.444	241.31
287.675	237.31
287.906	232.31
288.138	235.31
288.369	245.31
288.6	252.31
288.831	257.31
289.062	268.31
289.293	244.31
289.524	250.31
289.755	243.31
289.986	253.31
290.217	255.31
290.448	252.31
290.679	257.31
290.91	243.31
291.141	247.31
291.371	243.31
291.602	261.31
291.833	277.31
292.064	247.31
292.295	247.31
292.526	251.31
292.757	264.31
292.987	263.31
293.218	225.31
293.449	257.31
293.68	245.31
293.91	257.31
294.141	257.31
294.372	266.31
294.603	262.31
294.833	285.31
295.064	241.31
295.295	275.31
295.525	271.31
295.756	249.31
295.987	249.31
296.217	272.31
296.448	269.31
296.679	281.31
296.909	280.31
297.14	273.31
297.37	284.31
297.601	270.31
297.831	268.31
298.062	266.31
298.292	268.31
298.523	289.31
298.753	273.31
298.984	280.31
299.214	289.31
299.445	284.31
299.675	288.31
299.905	260.31
300.136	285.31
300.366	280.31
300.597	285.31
300.827	278.31
301.057	286.31
301.288	283.31
301.518	285.31
301.748	306.31
301.979	305.31
302.209	303.31
302.439	306.31
302.669	306.31
302.9	306.31
303.13	303.31
303.36	309.31
303.59	299.31
303.82	295.31
304.051	315.31
304.281	302.31
304.511	293.31
304.741	314.31
304.971	313.31
305.201	308.31
305.431	293.31
305.661	313.31
305.891	308.31
306.121	310.31
306.352	298.31
306.582	303.31
306.812	289.31
307.042	317.31
307.272	289.31
307.502	293.31
307.731	292.31
307.961	303.31
308.191	288.31
308.421	297.31
308.651	284.31
308.881	299.31
309.111	298.31
309.341	294.31
309.571	298.31
309.8	297.31
310.03	301.31
310.26	291.31
310.49	295.31
310.72	298.31
310.949	298.31
311.179	302.31
311.409	312.31
311.639	300.31
311.868	296.31
312.098	306.31
312.328	322.31
312.557	311.31
312.787	314.31
313.017	316.31
313.246	324.31
313.476	301.31
313.706	320.31
313.935	305.31
314.165	316.31
314.394	329.31
314.624	299.31
314.853	326.31
315.083	323.31
315.312	327.31
315.542	313.31
315.771	317.31
316.001	316.31
316.23	326.31
316.46	320.31
316.689	330.31
316.919	308.31
317.148	323.31
317.377	322.31
317.607	328.31
317.836	327.31
318.065	331.31
318.295	313.31
318.524	337.31
318.753	324.31
318.983	327.31
319.212	323.31
319.441	317.31
319.67	313.31
319.9	331.31
320.129	326.31
320.358	327.31
320.587	318.31
320.816	328.31
321.046	300.31
321.275	317.31
321.504	326.31
321.733	334.31
321.962	313.31
322.191	329.31
322.42	334.31
322.649	331.31
322.878	342.31
323.108	317.31
323.337	333.31
323.566	337.31
323.795	317.31
324.024	331.31
324.253	350.31
324.482	313.31
324.71	330.31
324.939	354.31
325.168	332.31
325.397	335.31
325.626	333.31
325.855	338.31
326.084	373.31
326.313	345.31
326.542	343.31
326.77	339.31
326.999	357.31
327.228	364.31
327.457	354.31
327.686	348.31
327.914	340.31
328.143	346.31
328.372	342.31
328.6	349.31
328.829	361.31
329.058	337.31
329.287	348.31
329.515	330.31
329.744	346.31
329.972	342.31
330.201	336.31
330.43	339.31
330.658	365.31
330.887	385.31
331.115	349.31
331.344	355.31
331.572	364.31
331.801	374.31
332.03	362.31
332.258	369.31
332.486	380.31
332.715	355.31
332.943	371.31
333.172	369.31
333.4	389.31
333.629	399.31
333.857	403.31
334.085	389.31
334.314	390.31
334.542	405.31
334.771	408.31
334.999	400.31
335.227	412.31
335.455	397.31
335.684	395.31
335.912	403.31
336.14	398.31
336.369	405.31
336.597	362.31
336.825	387.31
337.053	389.31
337.281	397.31
337.51	381.31
337.738	391.31
337.966	374.31
338.194	385.31
338.422	370.31
338.65	368.31
338.878	377.31
339.106	365.31
339.334	382.31
339.562	383.31
339.79	385.31
340.018	360.31
340.246	357.31
340.474	359.31
340.702	375.31
340.93	365.31
341.158	361.31
341.386	372.31
341.614	350.31
341.842	378.31
342.07	381.31
342.298	365.31
342.526	354.31
342.754	348.31
342.981	359.31
343.209	365.31
343.437	386.31
343.665	401.31
343.893	388.31
344.12	415.31
344.348	398.31
344.576	369.31
344.804	395.31
345.031	364.31
345.259	380.31
345.487	364.31
345.714	357.31
345.942	363.31
346.17	369.31
346.397	356.31
346.625	355.31
346.853	370.31
347.08	342.31
347.308	383.31
347.535	341.31
347.763	366.31
347.99	364.31
348.218	349.31
348.445	353.31
348.673	333.31
348.9	359.31
349.128	371.31
349.355	357.31
349.583	346.31
349.81	362.31
350.037	358.31
350.265	371.31
350.492	361.31
350.72	353.31
350.947	364.31
351.174	346.31
351.402	342.31
351.629	350.31
351.856	348.31
352.083	329.31
352.311	350.31
352.538	363.31
352.765	351.31
352.992	350.31
353.22	364.31
353.447	351.31
353.674	357.31
353.901	331.31
354.128	361.31
354.355	349.31
354.583	364.31
354.81	385.31
355.037	339.31
355.264	359.31
355.491	354.31
355.718	335.31
355.945	362.31
356.172	369.31
356.399	364.31
356.626	371.31
356.853	379.31
357.08	354.31
357.307	349.31
357.534	350.31
357.761	355.31
357.988	360.31
358.215	357.31
358.441	360.31
358.668	353.31
358.895	342.31
359.122	350.31
359.349	359.31
359.576	348.31
359.802	350.31
360.029	358.31
360.256	365.31
360.483	359.31
360.709	356.31
360.936	362.31
361.163	379.31
361.39	349.31
361.616	369.31
361.843	357.31
362.07	362.31
362.296	350.31
362.523	364.31
362.749	370.31
362.976	371.31
363.203	366.31
363.429	375.31
363.656	361.31
363.882	363.31
364.109	363.31
364.335	356.31
364.562	372.31
364.788	369.31
365.015	373.31
365.241	364.31
365.468	364.31
365.694	345.31
365.92	359.31
366.147	349.31
366.373	366.31
366.599	354.31
366.826	371.31
367.052	362.31
367.278	363.31
367.505	374.31
367.731	365.31
367.957	385.31
368.184	366.31
368.41	370.31
368.636	370.31
368.862	371.31
369.089	378.31
369.315	377.31
369.541	366.31
369.767	374.31
369.993	374.31
370.219	383.31
370.445	385.31
370.672	389.31
370.898	392.31
371.124	403.31
371.35	394.31
371.576	389.31
371.802	401.31
372.028	382.31
372.254	403.31
372.48	411.31
372.706	417.31
372.932	429.31
373.158	405.31
373.384	395.31
373.61	423.31
373.835	403.31
374.061	390.31
374.287	411.31
374.513	401.31
374.739	422.31
374.965	408.31
375.191	431.31
375.416	405.31
375.642	416.31
375.868	420.31
376.094	409.31
376.319	416.31
376.545	420.31
376.771	408.31
376.997	406.31
377.222	409.31
377.448	396.31
377.674	408.31
377.899	389.31
378.125	383.31
378.35	397.31
378.576	377.31
378.802	394.31
379.027	395.31
379.253	417.31
379.478	402.31
379.704	399.31
379.929	406.31
380.155	420.31
380.38	403.31
380.606	391.31
380.831	390.31
381.057	394.31
381.282	399.31
381.507	386.31
381.733	426.31
381.958	398.31
382.184	407.31
382.409	411.31
382.634	418.31
382.86	412.31
383.085	413.31
383.31	414.31
383.535	414.31
383.761	410.31
383.986	439.31
384.211	451.31
384.436	431.31
384.662	421.31
384.887	446.31
385.112	447.31
385.337	454.31
385.562	446.31
385.787	459.31
386.013	459.31
386.238	470.31
386.463	453.31
386.688	449.31
386.913	461.31
387.138	445.31
387.363	462.31
387.588	471.31
387.813	465.31
388.038	431.31
388.263	467.31
388.488	455.31
388.713	471.31
388.938	457.31
389.163	455.31
389.387	454.31
389.612	445.31
389.837	464.31
390.062	465.31
390.287	446.31
390.512	457.31
390.736	452.31
390.961	488.31
391.186	483.31
391.411	492.31
391.636	503.31
391.86	488.31
392.085	501.31
392.31	503.31
392.534	471.31
392.759	508.31
392.984	499.31
393.208	483.31
393.433	490.31
393.658	479.31
393.882	496.31
394.107	477.31
394.331	497.31
394.556	484.31
394.78	480.31
395.005	486.31
395.229	474.31
395.454	498.31
395.678	514.31
395.903	525.31
396.127	492.31
396.352	505.31
396.576	481.31
396.801	509.31
397.025	507.31
397.249	502.31
397.474	517.31
397.698	520.31
397.922	527.31
398.147	533.31
398.371	535.31
398.595	531.31
398.82	562.31
399.044	555.31
399.268	574.31
399.492	613.31
399.717	654.31
399.941	635.31
400.165	673.31
400.389	606.31
400.613	601.31
400.837	567.31
401.062	574.31
401.286	569.31
401.51	571.31
401.734	554.31
401.958	579.31
402.182	546.31
402.406	547.31
402.63	535.31
402.854	526.31
403.078	557.31
403.302	592.31
403.526	548.31
403.75	564.31
403.974	571.31
404.198	578.31
404.422	573.31
404.645	563.31
404.869	585.31
405.093	616.31
405.317	569.31
405.541	600.31
405.765	582.31
405.988	575.31
406.212	565.31
406.436	604.31
406.66	622.31
406.883	597.31
407.107	617.31
407.331	639.31
407.555	669.31
407.778	637.31
408.002	645.31
408.226	627.31
408.449	617.31
408.673	630.31
408.896	610.31
409.12	599.31
409.344	607.31
409.567	589.31
409.791	621.31
410.014	603.31
410.238	591.31
410.461	595.31
410.685	582.31
410.908	584.31
411.132	592.31
411.355	575.31
411.578	569.31
411.802	553.31
412.025	584.31
412.249	604.31
412.472	567.31
412.695	567.31
412.919	575.31
413.142	577.31
413.365	555.31
413.589	564.31
413.812	556.31
414.035	553.31
414.258	564.31
414.482	551.31
414.705	566.31
414.928	565.31
415.151	565.31
415.374	546.31
415.597	526.31
415.821	543.31
416.044	540.31
416.267	535.31
416.49	569.31
416.713	539.31
416.936	561.31
417.159	528.31
417.382	518.31
417.605	527.31
417.828	537.31
418.051	549.31
418.274	541.31
418.497	523.31
418.72	553.31
418.943	556.31
419.166	564.31
419.389	621.31
419.611	593.31
419.834	578.31
420.057	547.31
420.28	541.31
420.503	536.31
420.726	520.31
420.948	499.31
421.171	547.31
421.394	527.31
421.617	526.31
421.839	520.31
422.062	545.31
422.285	521.31
422.507	537.31
422.73	546.31
422.953	550.31
423.175	554.31
423.398	541.31
423.621	517.31
423.843	547.31
424.066	550.31
424.288	542.31
424.511	534.31
424.733	541.31
424.956	531.31
425.178	532.31
425.401	530.31
425.623	513.31
425.846	521.31
426.068	492.31
426.291	551.31
426.513	534.31
426.735	519.31
426.958	529.31
427.18	515.31
427.402	535.31
427.625	509.31
427.847	500.31
428.069	489.31
428.292	502.31
428.514	514.31
428.736	490.31
428.958	493.31
429.181	511.31
429.403	492.31
429.625	477.31
429.847	488.31
430.069	508.31
430.292	503.31
430.514	491.31
430.736	484.31
430.958	514.31
431.18	504.31
431.402	509.31
431.624	502.31
431.846	499.31
432.068	518.31
432.29	520.31
432.512	502.31
432.734	492.31
432.956	502.31
433.178	505.31
433.4	500.31
433.622	515.31
433.844	525.31
434.066	521.31
434.287	518.31
434.509	515.31
434.731	510.31
434.953	505.31
435.175	534.31
435.397	533.31
435.618	499.31
435.84	508.31
436.062	504.31
436.284	483.31
436.505	486.31
436.727	507.31
436.949	497.31
437.17	502.31
437.392	513.31
437.614	503.31
437.835	506.31
438.057	489.31
438.278	489.31
438.5	473.31
438.721	479.31
438.943	493.31
439.165	489.31
439.386	473.31
439.608	475.31
439.829	478.31
440.05	486.31
440.272	484.31
440.493	503.31
440.715	473.31
440.936	495.31
441.158	511.31
441.379	500.31
441.6	517.31
441.822	530.31
442.043	546.31
442.264	505.31
442.486	491.31
442.707	506.31
442.928	520.31
443.149	485.31
443.371	501.31
443.592	543.31
443.813	511.31
444.034	524.31
444.255	511.31
444.476	551.31
444.698	537.31
444.919	552.31
445.14	673.31
445.361	573.31
445.582	530.31
445.803	525.31
446.024	521.31
446.245	502.31
446.466	515.31
446.687	502.31
446.908	511.31
447.129	477.31
447.35	484.31
447.571	474.31
447.792	459.31
448.013	476.31
448.234	451.31
448.455	461.31
448.675	470.31
448.896	461.31
449.117	452.31
449.338	462.31
449.559	463.31
449.779	457.31
450	431.31
450.221	453.31
450.442	470.31
450.662	445.31
450.883	481.31
451.104	455.31
451.324	446.31
451.545	452.31
451.766	441.31
451.986	448.31
452.207	452.31
452.428	448.31
452.648	461.31
452.869	436.31
453.089	433.31
453.31	452.31
453.53	452.31
453.751	453.31
453.971	445.31
454.192	426.31
454.412	430.31
454.633	422.31
454.853	422.31
455.073	440.31
455.294	439.31
455.514	433.31
455.734	432.31
455.955	423.31
456.175	427.31
456.395	414.31
456.616	428.31
456.836	430.31
457.056	444.31
457.276	430.31
457.497	445.31
457.717	461.31
457.937	440.31
458.157	441.31
458.377	456.31
458.598	478.31
458.818	454.31
459.038	462.31
459.258	471.31
459.478	481.31
459.698	488.31
459.918	512.31
460.138	508.31
460.358	523.31
460.578	515.31
460.798	545.31
461.018	528.31
461.238	521.31
461.458	532.31
461.678	542.31
461.898	543.31
462.118	528.31
462.338	555.31
462.558	566.31
462.777	577.31
462.997	602.31
463.217	611.31
463.437	623.31
463.657	596.31
463.876	604.31
464.096	572.31
464.316	560.31
464.536	554.31
464.755	587.31
464.975	567.31
465.195	563.31
465.414	539.31
465.634	531.31
465.854	494.31
466.073	489.31
466.293	488.31
466.512	467.31
466.732	482.31
466.951	474.31
467.171	482.31
467.391	472.31
467.61	485.31
467.829	478.31
468.049	445.31
468.268	452.31
468.488	459.31
468.707	466.31
468.927	453.31
469.146	470.31
469.365	469.31
469.585	458.31
469.804	466.31
470.023	467.31
470.243	489.31
470.462	473.31
470.681	463.31
470.901	482.31
471.12	494.31
471.339	474.31
471.558	475.31
471.777	501.31
471.997	473.31
472.216	455.31
472.435	471.31
472.654	460.31
472.873	455.31
473.092	460.31
473.311	458.31
473.53	462.31
473.749	440.31
473.968	472.31
474.187	440.31
474.406	466.31
474.625	444.31
474.844	469.31
475.063	470.31
475.282	462.31
475.501	458.31
475.72	501.31
475.939	466.31
476.158	475.31
476.377	481.31
476.596	488.31
476.814	517.31
477.033	490.31
477.252	497.31
477.471	521.31
477.69	512.31
477.908	520.31
478.127	540.31
478.346	506.31
478.564	513.31
478.783	531.31
479.002	532.31
479.22	557.31
479.439	553.31
479.658	547.31
479.876	551.31
480.095	546.31
480.313	565.31
480.532	574.31
480.751	561.31
480.969	566.31
481.188	545.31
481.406	570.31
481.624	541.31
481.843	528.31
482.061	541.31
482.28	534.31
482.498	532.31
482.717	522.31
482.935	538.31
483.153	542.31
483.372	545.31
483.59	545.31
483.808	537.31
484.027	543.31
484.245	539.31
484.463	545.31
484.681	551.31
484.9	556.31
485.118	565.31
485.336	553.31
485.554	537.31
485.772	547.31
485.99	562.31
486.209	543.31
486.427	568.31
486.645	552.31
486.863	558.31
487.081	556.31
487.299	581.31
487.517	585.31
487.735	554.31
487.953	567.31
488.171	555.31
488.389	549.31
488.607	571.31
488.825	550.31
489.043	545.31
489.261	559.31
489.479	545.31
489.696	533.31
489.914	548.31
490.132	556.31
490.35	549.31
490.568	569.31
490.786	572.31
491.003	527.31
491.221	555.31
491.439	555.31
491.657	566.31
491.874	565.31
492.092	577.31
492.31	574.31
492.527	575.31
492.745	564.31
492.963	553.31
493.18	561.31
493.398	572.31
493.615	554.31
493.833	557.31
494.05	569.31
494.268	574.31
494.485	606.31
494.703	594.31
494.92	572.31
495.138	557.31
495.355	593.31
495.573	604.31
495.79	597.31
496.008	606.31
496.225	599.31
496.442	598.31
496.66	598.31
496.877	589.31
497.094	603.31
497.312	633.31
497.529	635.31
497.746	661.31
497.963	646.31
498.181	685.31
498.398	714.31
498.615	709.31
498.832	747.31
499.049	791.31
499.267	840.31
499.484	867.31
499.701	903.31
499.918	961.31
500.135	1065.31
500.352	1095.31
500.569	1095.31
500.786	1131.31
501.003	1079.31
501.22	1016.31
501.437	988.31
501.654	906.31
501.871	843.31
