Data from Fe(NO3)3@0.1M.TitratingCurve.Agarose3%dH2O.NegLispCup.LampEnergy10.LIBS07252019_HRD10591_16-39-13-333.txt Node
Date: Thu Jul 25 16:39:13 EDT 2019
User: cochatt
Spectrometer: HR+D1059
Trigger mode: 1
Integration Time (sec): 1.000000E-1
Scans to average: 1
Electric dark correction enabled: true
Nonlinearity correction enabled: false
Boxcar width: 0
XAxis mode: Wavelengths
Number of Pixels in Spectrum: 2048
>>>>>Begin Spectral Data<<<<<
223.165	-14.94
223.4	-14.94
223.635	-14.94
223.869	-18.94
224.104	-15.94
224.338	-24.94
224.573	-10.94
224.808	-16.94
225.042	-3.94
225.277	3.06
225.511	-5.94
225.746	1.06
225.98	-3.94
226.215	24.06
226.449	23.06
226.683	16.06
226.918	18.06
227.152	31.06
227.387	30.06
227.621	51.06
227.856	39.06
228.09	50.06
228.324	57.06
228.559	64.06
228.793	62.06
229.027	87.06
229.262	80.06
229.496	96.06
229.73	67.06
229.964	79.06
230.199	86.06
230.433	87.06
230.667	104.06
230.901	89.06
231.136	104.06
231.37	108.06
231.604	99.06
231.838	107.06
232.072	102.06
232.306	105.06
232.541	110.06
232.775	113.06
233.009	107.06
233.243	126.06
233.477	107.06
233.711	109.06
233.945	101.06
234.179	113.06
234.413	103.06
234.647	116.06
234.881	110.06
235.115	124.06
235.349	112.06
235.583	112.06
235.817	102.06
236.051	108.06
236.285	111.06
236.519	120.06
236.753	105.06
236.987	101.06
237.221	106.06
237.455	120.06
237.689	100.06
237.922	102.06
238.156	114.06
238.39	101.06
238.624	97.06
238.858	113.06
239.091	105.06
239.325	121.06
239.559	105.06
239.793	121.06
240.027	121.06
240.26	127.06
240.494	125.06
240.728	105.06
240.961	118.06
241.195	128.06
241.429	128.06
241.662	124.06
241.896	122.06
242.13	117.06
242.363	114.06
242.597	105.06
242.83	108.06
243.064	114.06
243.298	112.06
243.531	124.06
243.765	117.06
243.998	132.06
244.232	128.06
244.465	118.06
244.699	133.06
244.932	128.06
245.166	118.06
245.399	143.06
245.633	124.06
245.866	134.06
246.099	127.06
246.333	128.06
246.566	124.06
246.8	108.06
247.033	123.06
247.266	127.06
247.5	139.06
247.733	120.06
247.966	137.06
248.2	136.06
248.433	134.06
248.666	132.06
248.899	124.06
249.133	147.06
249.366	132.06
249.599	133.06
249.832	137.06
250.066	157.06
250.299	149.06
250.532	137.06
250.765	140.06
250.998	146.06
251.231	144.06
251.465	151.06
251.698	154.06
251.931	145.06
252.164	151.06
252.397	154.06
252.63	163.06
252.863	148.06
253.096	144.06
253.329	148.06
253.562	147.06
253.795	160.06
254.028	153.06
254.261	125.06
254.494	133.06
254.727	154.06
254.96	152.06
255.193	153.06
255.426	150.06
255.659	154.06
255.892	155.06
256.124	157.06
256.357	172.06
256.59	150.06
256.823	153.06
257.056	160.06
257.289	158.06
257.521	162.06
257.754	157.06
257.987	164.06
258.22	165.06
258.452	162.06
258.685	173.06
258.918	166.06
259.151	161.06
259.383	160.06
259.616	180.06
259.849	165.06
260.081	180.06
260.314	160.06
260.547	168.06
260.779	182.06
261.012	166.06
261.244	156.06
261.477	176.06
261.71	184.06
261.942	175.06
262.175	159.06
262.407	167.06
262.64	153.06
262.872	180.06
263.105	169.06
263.337	165.06
263.57	173.06
263.802	182.06
264.035	179.06
264.267	168.06
264.499	179.06
264.732	171.06
264.964	165.06
265.197	168.06
265.429	178.06
265.661	185.06
265.894	184.06
266.126	193.06
266.358	196.06
266.591	176.06
266.823	188.06
267.055	181.06
267.287	177.06
267.52	189.06
267.752	172.06
267.984	188.06
268.216	198.06
268.448	190.06
268.681	194.06
268.913	203.06
269.145	201.06
269.377	200.06
269.609	196.06
269.841	197.06
270.073	195.06
270.306	186.06
270.538	195.06
270.77	178.06
271.002	194.06
271.234	193.06
271.466	192.06
271.698	182.06
271.93	198.06
272.162	203.06
272.394	193.06
272.626	201.06
272.858	186.06
273.09	213.06
273.322	211.06
273.553	206.06
273.785	203.06
274.017	195.06
274.249	205.06
274.481	207.06
274.713	197.06
274.945	205.06
275.176	210.06
275.408	210.06
275.64	215.06
275.872	215.06
276.104	212.06
276.335	201.06
276.567	200.06
276.799	193.06
277.031	214.06
277.262	201.06
277.494	215.06
277.726	220.06
277.957	203.06
278.189	205.06
278.421	219.06
278.652	198.06
278.884	207.06
279.115	225.06
279.347	217.06
279.579	217.06
279.81	201.06
280.042	220.06
280.273	213.06
280.505	226.06
280.736	238.06
280.968	205.06
281.199	227.06
281.431	208.06
281.662	232.06
281.894	222.06
282.125	224.06
282.356	242.06
282.588	229.06
282.819	225.06
283.051	216.06
283.282	232.06
283.513	233.06
283.745	225.06
283.976	245.06
284.207	234.06
284.439	222.06
284.67	214.06
284.901	247.06
285.132	243.06
285.364	225.06
285.595	225.06
285.826	234.06
286.057	233.06
286.288	250.06
286.52	232.06
286.751	235.06
286.982	244.06
287.213	237.06
287.444	234.06
287.675	222.06
287.906	248.06
288.138	235.06
288.369	257.06
288.6	238.06
288.831	232.06
289.062	249.06
289.293	236.06
289.524	244.06
289.755	243.06
289.986	244.06
290.217	252.06
290.448	247.06
290.679	243.06
290.91	256.06
291.141	252.06
291.371	250.06
291.602	246.06
291.833	249.06
292.064	249.06
292.295	243.06
292.526	242.06
292.757	249.06
292.987	241.06
293.218	278.06
293.449	264.06
293.68	248.06
293.91	249.06
294.141	230.06
294.372	242.06
294.603	254.06
294.833	242.06
295.064	257.06
295.295	254.06
295.525	256.06
295.756	261.06
295.987	270.06
296.217	256.06
296.448	258.06
296.679	263.06
296.909	259.06
297.14	263.06
297.37	281.06
297.601	254.06
297.831	259.06
298.062	266.06
298.292	271.06
298.523	274.06
298.753	271.06
298.984	266.06
299.214	274.06
299.445	281.06
299.675	269.06
299.905	270.06
300.136	282.06
300.366	258.06
300.597	257.06
300.827	264.06
301.057	286.06
301.288	274.06
301.518	266.06
301.748	285.06
301.979	284.06
302.209	285.06
302.439	288.06
302.669	292.06
302.9	264.06
303.13	265.06
303.36	276.06
303.59	283.06
303.82	290.06
304.051	262.06
304.281	277.06
304.511	287.06
304.741	289.06
304.971	298.06
305.201	275.06
305.431	287.06
305.661	270.06
305.891	282.06
306.121	264.06
306.352	276.06
306.582	264.06
306.812	280.06
307.042	280.06
307.272	282.06
307.502	269.06
307.731	289.06
307.961	256.06
308.191	281.06
308.421	274.06
308.651	298.06
308.881	281.06
309.111	276.06
309.341	282.06
309.571	300.06
309.8	283.06
310.03	288.06
310.26	261.06
310.49	285.06
310.72	277.06
310.949	293.06
311.179	288.06
311.409	285.06
311.639	294.06
311.868	310.06
312.098	291.06
312.328	283.06
312.557	291.06
312.787	297.06
313.017	286.06
313.246	284.06
313.476	291.06
313.706	290.06
313.935	294.06
314.165	285.06
314.394	312.06
314.624	308.06
314.853	292.06
315.083	292.06
315.312	320.06
315.542	296.06
315.771	294.06
316.001	293.06
316.23	292.06
316.46	310.06
316.689	304.06
316.919	282.06
317.148	283.06
317.377	289.06
317.607	310.06
317.836	310.06
318.065	300.06
318.295	301.06
318.524	304.06
318.753	300.06
318.983	304.06
319.212	296.06
319.441	300.06
319.67	292.06
319.9	300.06
320.129	307.06
320.358	301.06
320.587	308.06
320.816	300.06
321.046	301.06
321.275	308.06
321.504	314.06
321.733	298.06
321.962	296.06
322.191	300.06
322.42	302.06
322.649	296.06
322.878	289.06
323.108	290.06
323.337	332.06
323.566	322.06
323.795	313.06
324.024	315.06
324.253	310.06
324.482	309.06
324.71	316.06
324.939	298.06
325.168	304.06
325.397	305.06
325.626	308.06
325.855	315.06
326.084	325.06
326.313	308.06
326.542	312.06
326.77	318.06
326.999	314.06
327.228	318.06
327.457	325.06
327.686	316.06
327.914	334.06
328.143	311.06
328.372	330.06
328.6	328.06
328.829	324.06
329.058	316.06
329.287	322.06
329.515	328.06
329.744	319.06
329.972	325.06
330.201	345.06
330.43	332.06
330.658	332.06
330.887	332.06
331.115	341.06
331.344	331.06
331.572	346.06
331.801	341.06
332.03	342.06
332.258	331.06
332.486	353.06
332.715	392.06
332.943	402.06
333.172	377.06
333.4	402.06
333.629	421.06
333.857	414.06
334.085	395.06
334.314	393.06
334.542	397.06
334.771	391.06
334.999	397.06
335.227	386.06
335.455	408.06
335.684	403.06
335.912	382.06
336.14	392.06
336.369	382.06
336.597	372.06
336.825	381.06
337.053	394.06
337.281	377.06
337.51	346.06
337.738	368.06
337.966	376.06
338.194	341.06
338.422	354.06
338.65	361.06
338.878	364.06
339.106	327.06
339.334	352.06
339.562	354.06
339.79	355.06
340.018	337.06
340.246	332.06
340.474	328.06
340.702	336.06
340.93	345.06
341.158	352.06
341.386	344.06
341.614	348.06
341.842	350.06
342.07	324.06
342.298	330.06
342.526	339.06
342.754	345.06
342.981	336.06
343.209	338.06
343.437	362.06
343.665	378.06
343.893	382.06
344.12	402.06
344.348	392.06
344.576	381.06
344.804	348.06
345.031	332.06
345.259	346.06
345.487	343.06
345.714	350.06
345.942	308.06
346.17	352.06
346.397	320.06
346.625	348.06
346.853	301.06
347.08	334.06
347.308	345.06
347.535	346.06
347.763	351.06
347.99	339.06
348.218	324.06
348.445	328.06
348.673	332.06
348.9	333.06
349.128	328.06
349.355	340.06
349.583	350.06
349.81	322.06
350.037	326.06
350.265	319.06
350.492	304.06
350.72	312.06
350.947	316.06
351.174	353.06
351.402	316.06
351.629	326.06
351.856	315.06
352.083	312.06
352.311	331.06
352.538	324.06
352.765	321.06
352.992	321.06
353.22	320.06
353.447	321.06
353.674	317.06
353.901	344.06
354.128	316.06
354.355	317.06
354.583	308.06
354.81	316.06
355.037	321.06
355.264	327.06
355.491	326.06
355.718	317.06
355.945	308.06
356.172	336.06
356.399	318.06
356.626	325.06
356.853	315.06
357.08	324.06
357.307	330.06
357.534	321.06
357.761	333.06
357.988	328.06
358.215	302.06
358.441	324.06
358.668	318.06
358.895	331.06
359.122	320.06
359.349	334.06
359.576	306.06
359.802	315.06
360.029	331.06
360.256	314.06
360.483	320.06
360.709	312.06
360.936	337.06
361.163	349.06
361.39	341.06
361.616	306.06
361.843	326.06
362.07	316.06
362.296	319.06
362.523	321.06
362.749	308.06
362.976	322.06
363.203	324.06
363.429	322.06
363.656	326.06
363.882	333.06
364.109	340.06
364.335	334.06
364.562	342.06
364.788	338.06
365.015	328.06
365.241	326.06
365.468	324.06
365.694	310.06
365.92	344.06
366.147	327.06
366.373	340.06
366.599	328.06
366.826	321.06
367.052	314.06
367.278	329.06
367.505	346.06
367.731	329.06
367.957	331.06
368.184	316.06
368.41	310.06
368.636	323.06
368.862	338.06
369.089	329.06
369.315	349.06
369.541	337.06
369.767	345.06
369.993	341.06
370.219	355.06
370.445	360.06
370.672	356.06
370.898	358.06
371.124	340.06
371.35	343.06
371.576	354.06
371.802	343.06
372.028	351.06
372.254	346.06
372.48	359.06
372.706	346.06
372.932	371.06
373.158	361.06
373.384	376.06
373.61	363.06
373.835	352.06
374.061	368.06
374.287	376.06
374.513	372.06
374.739	371.06
374.965	389.06
375.191	402.06
375.416	380.06
375.642	385.06
375.868	376.06
376.094	354.06
376.319	379.06
376.545	362.06
376.771	380.06
376.997	362.06
377.222	358.06
377.448	345.06
377.674	362.06
377.899	372.06
378.125	350.06
378.35	359.06
378.576	365.06
378.802	362.06
379.027	354.06
379.253	360.06
379.478	365.06
379.704	361.06
379.929	352.06
380.155	345.06
380.38	350.06
380.606	370.06
380.831	374.06
381.057	350.06
381.282	352.06
381.507	366.06
381.733	380.06
381.958	363.06
382.184	365.06
382.409	361.06
382.634	386.06
382.86	392.06
383.085	386.06
383.31	384.06
383.535	390.06
383.761	402.06
383.986	390.06
384.211	393.06
384.436	406.06
384.662	402.06
384.887	444.06
385.112	405.06
385.337	436.06
385.562	409.06
385.787	414.06
386.013	423.06
386.238	438.06
386.463	414.06
386.688	423.06
386.913	423.06
387.138	414.06
387.363	444.06
387.588	434.06
387.813	434.06
388.038	419.06
388.263	416.06
388.488	426.06
388.713	425.06
388.938	425.06
389.163	416.06
389.387	421.06
389.612	421.06
389.837	422.06
390.062	434.06
390.287	413.06
390.512	424.06
390.736	433.06
390.961	444.06
391.186	438.06
391.411	441.06
391.636	464.06
391.86	477.06
392.085	472.06
392.31	460.06
392.534	467.06
392.759	462.06
392.984	440.06
393.208	450.06
393.433	468.06
393.658	442.06
393.882	456.06
394.107	436.06
394.331	440.06
394.556	448.06
394.78	452.06
395.005	460.06
395.229	476.06
395.454	463.06
395.678	470.06
395.903	462.06
396.127	462.06
396.352	453.06
396.576	459.06
396.801	446.06
397.025	447.06
397.249	463.06
397.474	493.06
397.698	482.06
397.922	474.06
398.147	481.06
398.371	500.06
398.595	502.06
398.82	523.06
399.044	551.06
399.268	581.06
399.492	646.06
399.717	719.06
399.941	704.06
400.165	652.06
400.389	611.06
400.613	572.06
400.837	578.06
401.062	518.06
401.286	548.06
401.51	548.06
401.734	528.06
401.958	533.06
402.182	514.06
402.406	532.06
402.63	537.06
402.854	538.06
403.078	559.06
403.302	562.06
403.526	580.06
403.75	536.06
403.974	550.06
404.198	564.06
404.422	592.06
404.645	572.06
404.869	573.06
405.093	592.06
405.317	581.06
405.541	581.06
405.765	557.06
405.988	564.06
406.212	574.06
406.436	581.06
406.66	570.06
406.883	589.06
407.107	605.06
407.331	644.06
407.555	664.06
407.778	645.06
408.002	634.06
408.226	621.06
408.449	628.06
408.673	608.06
408.896	592.06
409.12	563.06
409.344	574.06
409.567	600.06
409.791	599.06
410.014	582.06
410.238	583.06
410.461	598.06
410.685	588.06
410.908	576.06
411.132	568.06
411.355	569.06
411.578	547.06
411.802	539.06
412.025	564.06
412.249	567.06
412.472	563.06
412.695	526.06
412.919	522.06
413.142	525.06
413.365	531.06
413.589	557.06
413.812	517.06
414.035	549.06
414.258	548.06
414.482	542.06
414.705	517.06
414.928	542.06
415.151	519.06
415.374	540.06
415.597	533.06
415.821	516.06
416.044	509.06
416.267	507.06
416.49	515.06
416.713	526.06
416.936	532.06
417.159	514.06
417.382	516.06
417.605	533.06
417.828	510.06
418.051	543.06
418.274	530.06
418.497	522.06
418.72	520.06
418.943	522.06
419.166	554.06
419.389	575.06
419.611	574.06
419.834	556.06
420.057	526.06
420.28	540.06
420.503	517.06
420.726	516.06
420.948	516.06
421.171	539.06
421.394	537.06
421.617	543.06
421.839	525.06
422.062	527.06
422.285	521.06
422.507	548.06
422.73	532.06
422.953	557.06
423.175	543.06
423.398	530.06
423.621	542.06
423.843	538.06
424.066	545.06
424.288	554.06
424.511	547.06
424.733	560.06
424.956	541.06
425.178	568.06
425.401	525.06
425.623	516.06
425.846	494.06
426.068	514.06
426.291	510.06
426.513	521.06
426.735	503.06
426.958	529.06
427.18	507.06
427.402	514.06
427.625	482.06
427.847	496.06
428.069	491.06
428.292	483.06
428.514	481.06
428.736	470.06
428.958	487.06
429.181	499.06
429.403	456.06
429.625	466.06
429.847	476.06
430.069	469.06
430.292	462.06
430.514	460.06
430.736	460.06
430.958	476.06
431.18	480.06
431.402	475.06
431.624	491.06
431.846	495.06
432.068	486.06
432.29	477.06
432.512	481.06
432.734	490.06
432.956	468.06
433.178	500.06
433.4	495.06
433.622	489.06
433.844	519.06
434.066	482.06
434.287	492.06
434.509	496.06
434.731	516.06
434.953	522.06
435.175	520.06
435.397	541.06
435.618	487.06
435.84	488.06
436.062	501.06
436.284	485.06
436.505	476.06
436.727	490.06
436.949	474.06
437.17	464.06
437.392	466.06
437.614	471.06
437.835	450.06
438.057	471.06
438.278	483.06
438.5	463.06
438.721	474.06
438.943	468.06
439.165	481.06
439.386	482.06
439.608	500.06
439.829	487.06
440.05	496.06
440.272	485.06
440.493	494.06
440.715	493.06
440.936	481.06
441.158	507.06
441.379	501.06
441.6	560.06
441.822	548.06
442.043	554.06
442.264	536.06
442.486	511.06
442.707	553.06
442.928	527.06
443.149	540.06
443.371	540.06
443.592	528.06
443.813	533.06
444.034	548.06
444.255	562.06
444.476	578.06
444.698	611.06
444.919	603.06
445.14	724.06
445.361	625.06
445.582	570.06
445.803	540.06
446.024	519.06
446.245	508.06
446.466	522.06
446.687	510.06
446.908	509.06
447.129	480.06
447.35	486.06
447.571	465.06
447.792	458.06
448.013	474.06
448.234	471.06
448.455	453.06
448.675	462.06
448.896	477.06
449.117	468.06
449.338	453.06
449.559	444.06
449.779	457.06
450	450.06
450.221	444.06
450.442	482.06
450.662	445.06
450.883	468.06
451.104	471.06
451.324	466.06
451.545	450.06
451.766	466.06
451.986	459.06
452.207	457.06
452.428	439.06
452.648	475.06
452.869	437.06
453.089	451.06
453.31	420.06
453.53	439.06
453.751	432.06
453.971	438.06
454.192	420.06
454.412	435.06
454.633	421.06
454.853	439.06
455.073	442.06
455.294	423.06
455.514	418.06
455.734	428.06
455.955	425.06
456.175	414.06
456.395	432.06
456.616	442.06
456.836	438.06
457.056	407.06
457.276	436.06
457.497	408.06
457.717	427.06
457.937	424.06
458.157	429.06
458.377	439.06
458.598	428.06
458.818	452.06
459.038	478.06
459.258	470.06
459.478	477.06
459.698	482.06
459.918	491.06
460.138	526.06
460.358	539.06
460.578	557.06
460.798	552.06
461.018	568.06
461.238	572.06
461.458	555.06
461.678	521.06
461.898	536.06
462.118	544.06
462.338	585.06
462.558	600.06
462.777	618.06
462.997	617.06
463.217	684.06
463.437	695.06
463.657	640.06
463.876	646.06
464.096	615.06
464.316	612.06
464.536	628.06
464.755	582.06
464.975	584.06
465.195	573.06
465.414	545.06
465.634	525.06
465.854	514.06
466.073	490.06
466.293	489.06
466.512	475.06
466.732	473.06
466.951	486.06
467.171	469.06
467.391	479.06
467.61	491.06
467.829	460.06
468.049	464.06
468.268	457.06
468.488	454.06
468.707	454.06
468.927	456.06
469.146	470.06
469.365	468.06
469.585	471.06
469.804	471.06
470.023	477.06
470.243	471.06
470.462	490.06
470.681	474.06
470.901	493.06
471.12	471.06
471.339	468.06
471.558	467.06
471.777	476.06
471.997	440.06
472.216	446.06
472.435	440.06
472.654	444.06
472.873	426.06
473.092	461.06
473.311	454.06
473.53	446.06
473.749	436.06
473.968	424.06
474.187	432.06
474.406	433.06
474.625	428.06
474.844	425.06
475.063	446.06
475.282	440.06
475.501	448.06
475.72	452.06
475.939	458.06
476.158	467.06
476.377	464.06
476.596	465.06
476.814	457.06
477.033	437.06
477.252	479.06
477.471	497.06
477.69	491.06
477.908	499.06
478.127	493.06
478.346	504.06
478.564	509.06
478.783	545.06
479.002	521.06
479.22	550.06
479.439	506.06
479.658	534.06
479.876	551.06
480.095	553.06
480.313	547.06
480.532	562.06
480.751	566.06
480.969	515.06
481.188	547.06
481.406	538.06
481.624	520.06
481.843	487.06
482.061	500.06
482.28	496.06
482.498	508.06
482.717	492.06
482.935	492.06
483.153	500.06
483.372	516.06
483.59	475.06
483.808	494.06
484.027	516.06
484.245	510.06
484.463	510.06
484.681	509.06
484.9	507.06
485.118	528.06
485.336	499.06
485.554	499.06
485.772	507.06
485.99	521.06
486.209	510.06
486.427	515.06
486.645	508.06
486.863	533.06
487.081	502.06
487.299	518.06
487.517	501.06
487.735	522.06
487.953	511.06
488.171	499.06
488.389	481.06
488.607	548.06
488.825	517.06
489.043	512.06
489.261	498.06
489.479	506.06
489.696	503.06
489.914	501.06
490.132	508.06
490.35	526.06
490.568	526.06
490.786	515.06
491.003	503.06
491.221	530.06
491.439	532.06
491.657	537.06
491.874	528.06
492.092	572.06
492.31	536.06
492.527	541.06
492.745	552.06
492.963	522.06
493.18	520.06
493.398	531.06
493.615	530.06
493.833	521.06
494.05	539.06
494.268	543.06
494.485	557.06
494.703	528.06
494.92	548.06
495.138	529.06
495.355	545.06
495.573	546.06
495.79	548.06
496.008	562.06
496.225	557.06
496.442	544.06
496.66	572.06
496.877	570.06
497.094	581.06
497.312	578.06
497.529	599.06
497.746	602.06
497.963	631.06
498.181	654.06
498.398	674.06
498.615	715.06
498.832	744.06
499.049	732.06
499.267	835.06
499.484	892.06
499.701	974.06
499.918	1038.06
500.135	1192.06
500.352	1293.06
500.569	1335.06
500.786	1324.06
501.003	1206.06
501.22	1128.06
501.437	1008.06
501.654	946.06
