Data from Fe(NO3)3@0.1M.TitratingCurve.Agarose3%dH2O.NegLispCup.LampEnergy10.LIBS07252019_HRD10591_16-41-24-332.txt Node
Date: Thu Jul 25 16:41:24 EDT 2019
User: cochatt
Spectrometer: HR+D1059
Trigger mode: 1
Integration Time (sec): 1.000000E-1
Scans to average: 1
Electric dark correction enabled: true
Nonlinearity correction enabled: false
Boxcar width: 0
XAxis mode: Wavelengths
Number of Pixels in Spectrum: 2048
>>>>>Begin Spectral Data<<<<<
223.165	-23.88
223.4	-23.88
223.635	-23.88
223.869	-19.88
224.104	-14.88
224.338	-2.88
224.573	-30.88
224.808	-4.88
225.042	0.12
225.277	7.12
225.511	3.12
225.746	1.12
225.98	-6.88
226.215	10.12
226.449	11.12
226.683	19.12
226.918	11.12
227.152	41.12
227.387	35.12
227.621	35.12
227.856	43.12
228.09	32.12
228.324	59.12
228.559	46.12
228.793	69.12
229.027	90.12
229.262	73.12
229.496	77.12
229.73	93.12
229.964	82.12
230.199	103.12
230.433	87.12
230.667	102.12
230.901	105.12
231.136	112.12
231.37	100.12
231.604	98.12
231.838	113.12
232.072	113.12
232.306	107.12
232.541	105.12
232.775	120.12
233.009	98.12
233.243	115.12
233.477	119.12
233.711	100.12
233.945	119.12
234.179	100.12
234.413	104.12
234.647	113.12
234.881	122.12
235.115	112.12
235.349	95.12
235.583	97.12
235.817	105.12
236.051	121.12
236.285	113.12
236.519	123.12
236.753	120.12
236.987	107.12
237.221	122.12
237.455	119.12
237.689	123.12
237.922	133.12
238.156	93.12
238.39	124.12
238.624	122.12
238.858	126.12
239.091	111.12
239.325	121.12
239.559	137.12
239.793	128.12
240.027	121.12
240.26	109.12
240.494	118.12
240.728	101.12
240.961	119.12
241.195	111.12
241.429	132.12
241.662	133.12
241.896	117.12
242.13	110.12
242.363	132.12
242.597	127.12
242.83	149.12
243.064	131.12
243.298	129.12
243.531	124.12
243.765	133.12
243.998	123.12
244.232	129.12
244.465	131.12
244.699	132.12
244.932	133.12
245.166	133.12
245.399	132.12
245.633	130.12
245.866	129.12
246.099	131.12
246.333	132.12
246.566	119.12
246.8	149.12
247.033	164.12
247.266	145.12
247.5	135.12
247.733	138.12
247.966	161.12
248.2	156.12
248.433	147.12
248.666	141.12
248.899	139.12
249.133	157.12
249.366	141.12
249.599	153.12
249.832	144.12
250.066	141.12
250.299	133.12
250.532	142.12
250.765	160.12
250.998	148.12
251.231	164.12
251.465	145.12
251.698	162.12
251.931	172.12
252.164	161.12
252.397	156.12
252.63	163.12
252.863	170.12
253.096	167.12
253.329	161.12
253.562	162.12
253.795	168.12
254.028	159.12
254.261	163.12
254.494	161.12
254.727	177.12
254.96	156.12
255.193	158.12
255.426	160.12
255.659	170.12
255.892	170.12
256.124	167.12
256.357	182.12
256.59	162.12
256.823	171.12
257.056	176.12
257.289	171.12
257.521	187.12
257.754	178.12
257.987	171.12
258.22	162.12
258.452	175.12
258.685	184.12
258.918	175.12
259.151	166.12
259.383	181.12
259.616	183.12
259.849	201.12
260.081	174.12
260.314	193.12
260.547	182.12
260.779	186.12
261.012	168.12
261.244	200.12
261.477	180.12
261.71	196.12
261.942	186.12
262.175	192.12
262.407	200.12
262.64	186.12
262.872	179.12
263.105	187.12
263.337	199.12
263.57	200.12
263.802	204.12
264.035	206.12
264.267	213.12
264.499	194.12
264.732	191.12
264.964	180.12
265.197	191.12
265.429	189.12
265.661	189.12
265.894	202.12
266.126	201.12
266.358	193.12
266.591	184.12
266.823	200.12
267.055	204.12
267.287	200.12
267.52	212.12
267.752	211.12
267.984	209.12
268.216	215.12
268.448	198.12
268.681	210.12
268.913	211.12
269.145	209.12
269.377	203.12
269.609	215.12
269.841	200.12
270.073	226.12
270.306	204.12
270.538	211.12
270.77	199.12
271.002	200.12
271.234	225.12
271.466	207.12
271.698	216.12
271.93	197.12
272.162	221.12
272.394	214.12
272.626	212.12
272.858	225.12
273.09	228.12
273.322	213.12
273.553	204.12
273.785	226.12
274.017	212.12
274.249	214.12
274.481	228.12
274.713	217.12
274.945	230.12
275.176	240.12
275.408	228.12
275.64	203.12
275.872	232.12
276.104	236.12
276.335	232.12
276.567	236.12
276.799	227.12
277.031	220.12
277.262	236.12
277.494	247.12
277.726	244.12
277.957	245.12
278.189	235.12
278.421	230.12
278.652	251.12
278.884	251.12
279.115	233.12
279.347	234.12
279.579	227.12
279.81	243.12
280.042	231.12
280.273	253.12
280.505	247.12
280.736	270.12
280.968	255.12
281.199	235.12
281.431	257.12
281.662	264.12
281.894	274.12
282.125	251.12
282.356	266.12
282.588	247.12
282.819	252.12
283.051	274.12
283.282	244.12
283.513	261.12
283.745	259.12
283.976	237.12
284.207	255.12
284.439	259.12
284.67	267.12
284.901	264.12
285.132	246.12
285.364	243.12
285.595	261.12
285.826	271.12
286.057	271.12
286.288	253.12
286.52	271.12
286.751	275.12
286.982	296.12
287.213	269.12
287.444	257.12
287.675	261.12
287.906	275.12
288.138	273.12
288.369	275.12
288.6	283.12
288.831	293.12
289.062	268.12
289.293	287.12
289.524	257.12
289.755	270.12
289.986	272.12
290.217	284.12
290.448	263.12
290.679	286.12
290.91	284.12
291.141	285.12
291.371	279.12
291.602	283.12
291.833	283.12
292.064	270.12
292.295	279.12
292.526	269.12
292.757	292.12
292.987	276.12
293.218	285.12
293.449	285.12
293.68	279.12
293.91	298.12
294.141	272.12
294.372	290.12
294.603	308.12
294.833	283.12
295.064	271.12
295.295	311.12
295.525	290.12
295.756	269.12
295.987	300.12
296.217	283.12
296.448	292.12
296.679	295.12
296.909	294.12
297.14	296.12
297.37	295.12
297.601	298.12
297.831	296.12
298.062	311.12
298.292	315.12
298.523	294.12
298.753	321.12
298.984	333.12
299.214	299.12
299.445	283.12
299.675	308.12
299.905	276.12
300.136	295.12
300.366	295.12
300.597	312.12
300.827	310.12
301.057	338.12
301.288	302.12
301.518	337.12
301.748	344.12
301.979	328.12
302.209	330.12
302.439	333.12
302.669	320.12
302.9	316.12
303.13	318.12
303.36	319.12
303.59	317.12
303.82	329.12
304.051	308.12
304.281	333.12
304.511	331.12
304.741	337.12
304.971	319.12
305.201	337.12
305.431	318.12
305.661	343.12
305.891	337.12
306.121	307.12
306.352	313.12
306.582	295.12
306.812	300.12
307.042	301.12
307.272	302.12
307.502	298.12
307.731	324.12
307.961	304.12
308.191	307.12
308.421	325.12
308.651	318.12
308.881	312.12
309.111	301.12
309.341	313.12
309.571	322.12
309.8	312.12
310.03	312.12
310.26	332.12
310.49	306.12
310.72	344.12
310.949	310.12
311.179	318.12
311.409	317.12
311.639	325.12
311.868	330.12
312.098	316.12
312.328	331.12
312.557	327.12
312.787	347.12
313.017	320.12
313.246	337.12
313.476	327.12
313.706	340.12
313.935	322.12
314.165	349.12
314.394	342.12
314.624	328.12
314.853	333.12
315.083	340.12
315.312	321.12
315.542	329.12
315.771	325.12
316.001	340.12
316.23	332.12
316.46	340.12
316.689	344.12
316.919	339.12
317.148	352.12
317.377	332.12
317.607	341.12
317.836	345.12
318.065	355.12
318.295	330.12
318.524	341.12
318.753	323.12
318.983	339.12
319.212	331.12
319.441	333.12
319.67	351.12
319.9	341.12
320.129	351.12
320.358	338.12
320.587	325.12
320.816	354.12
321.046	345.12
321.275	330.12
321.504	337.12
321.733	355.12
321.962	341.12
322.191	339.12
322.42	332.12
322.649	355.12
322.878	356.12
323.108	332.12
323.337	363.12
323.566	336.12
323.795	347.12
324.024	371.12
324.253	344.12
324.482	353.12
324.71	343.12
324.939	365.12
325.168	351.12
325.397	345.12
325.626	363.12
325.855	368.12
326.084	370.12
326.313	376.12
326.542	368.12
326.77	355.12
326.999	379.12
327.228	385.12
327.457	386.12
327.686	370.12
327.914	372.12
328.143	379.12
328.372	383.12
328.6	362.12
328.829	369.12
329.058	371.12
329.287	377.12
329.515	373.12
329.744	368.12
329.972	380.12
330.201	391.12
330.43	379.12
330.658	387.12
330.887	400.12
331.115	396.12
331.344	378.12
331.572	380.12
331.801	381.12
332.03	401.12
332.258	423.12
332.486	428.12
332.715	436.12
332.943	465.12
333.172	450.12
333.4	471.12
333.629	492.12
333.857	455.12
334.085	473.12
334.314	483.12
334.542	449.12
334.771	462.12
334.999	469.12
335.227	459.12
335.455	435.12
335.684	454.12
335.912	441.12
336.14	416.12
336.369	433.12
336.597	419.12
336.825	423.12
337.053	413.12
337.281	437.12
337.51	444.12
337.738	419.12
337.966	411.12
338.194	401.12
338.422	395.12
338.65	397.12
338.878	409.12
339.106	411.12
339.334	399.12
339.562	394.12
339.79	391.12
340.018	392.12
340.246	387.12
340.474	390.12
340.702	401.12
340.93	407.12
341.158	387.12
341.386	391.12
341.614	389.12
341.842	392.12
342.07	389.12
342.298	395.12
342.526	371.12
342.754	387.12
342.981	397.12
343.209	386.12
343.437	423.12
343.665	424.12
343.893	465.12
344.12	464.12
344.348	455.12
344.576	441.12
344.804	397.12
345.031	396.12
345.259	397.12
345.487	397.12
345.714	404.12
345.942	387.12
346.17	387.12
346.397	383.12
346.625	386.12
346.853	375.12
347.08	389.12
347.308	373.12
347.535	381.12
347.763	374.12
347.99	361.12
348.218	371.12
348.445	390.12
348.673	363.12
348.9	369.12
349.128	391.12
349.355	353.12
349.583	375.12
349.81	375.12
350.037	360.12
350.265	383.12
350.492	371.12
350.72	367.12
350.947	363.12
351.174	374.12
351.402	368.12
351.629	364.12
351.856	358.12
352.083	363.12
352.311	350.12
352.538	373.12
352.765	370.12
352.992	351.12
353.22	359.12
353.447	345.12
353.674	375.12
353.901	367.12
354.128	367.12
354.355	372.12
354.583	367.12
354.81	367.12
355.037	377.12
355.264	381.12
355.491	384.12
355.718	387.12
355.945	384.12
356.172	367.12
356.399	366.12
356.626	369.12
356.853	358.12
357.08	373.12
357.307	383.12
357.534	375.12
357.761	377.12
357.988	383.12
358.215	369.12
358.441	365.12
358.668	371.12
358.895	395.12
359.122	385.12
359.349	390.12
359.576	363.12
359.802	374.12
360.029	371.12
360.256	365.12
360.483	379.12
360.709	378.12
360.936	373.12
361.163	378.12
361.39	379.12
361.616	371.12
361.843	377.12
362.07	375.12
362.296	365.12
362.523	356.12
362.749	357.12
362.976	385.12
363.203	372.12
363.429	364.12
363.656	380.12
363.882	374.12
364.109	371.12
364.335	377.12
364.562	377.12
364.788	382.12
365.015	364.12
365.241	377.12
365.468	379.12
365.694	370.12
365.92	376.12
366.147	363.12
366.373	396.12
366.599	379.12
366.826	361.12
367.052	373.12
367.278	381.12
367.505	383.12
367.731	348.12
367.957	379.12
368.184	383.12
368.41	385.12
368.636	384.12
368.862	394.12
369.089	383.12
369.315	409.12
369.541	399.12
369.767	404.12
369.993	401.12
370.219	404.12
370.445	412.12
370.672	390.12
370.898	393.12
371.124	405.12
371.35	388.12
371.576	391.12
371.802	395.12
372.028	394.12
372.254	397.12
372.48	414.12
372.706	419.12
372.932	445.12
373.158	422.12
373.384	411.12
373.61	407.12
373.835	413.12
374.061	408.12
374.287	416.12
374.513	412.12
374.739	419.12
374.965	426.12
375.191	433.12
375.416	438.12
375.642	424.12
375.868	433.12
376.094	424.12
376.319	405.12
376.545	401.12
376.771	413.12
376.997	415.12
377.222	414.12
377.448	394.12
377.674	401.12
377.899	399.12
378.125	408.12
378.35	406.12
378.576	405.12
378.802	399.12
379.027	411.12
379.253	390.12
379.478	404.12
379.704	393.12
379.929	400.12
380.155	396.12
380.38	401.12
380.606	418.12
380.831	409.12
381.057	403.12
381.282	392.12
381.507	407.12
381.733	409.12
381.958	401.12
382.184	415.12
382.409	442.12
382.634	439.12
382.86	429.12
383.085	426.12
383.31	421.12
383.535	435.12
383.761	441.12
383.986	465.12
384.211	464.12
384.436	471.12
384.662	463.12
384.887	470.12
385.112	472.12
385.337	487.12
385.562	491.12
385.787	468.12
386.013	498.12
386.238	490.12
386.463	467.12
386.688	498.12
386.913	480.12
387.138	477.12
387.363	476.12
387.588	472.12
387.813	483.12
388.038	468.12
388.263	495.12
388.488	469.12
388.713	458.12
388.938	476.12
389.163	466.12
389.387	456.12
389.612	485.12
389.837	481.12
390.062	466.12
390.287	458.12
390.512	487.12
390.736	503.12
390.961	497.12
391.186	500.12
391.411	528.12
391.636	526.12
391.86	527.12
392.085	539.12
392.31	542.12
392.534	513.12
392.759	513.12
392.984	506.12
393.208	505.12
393.433	495.12
393.658	493.12
393.882	515.12
394.107	514.12
394.331	525.12
394.556	510.12
394.78	518.12
395.005	534.12
395.229	517.12
395.454	545.12
395.678	544.12
395.903	541.12
396.127	542.12
396.352	514.12
396.576	511.12
396.801	510.12
397.025	533.12
397.249	522.12
397.474	546.12
397.698	543.12
397.922	540.12
398.147	549.12
398.371	563.12
398.595	548.12
398.82	583.12
399.044	659.12
399.268	689.12
399.492	767.12
399.717	864.12
399.941	826.12
400.165	739.12
400.389	679.12
400.613	639.12
400.837	595.12
401.062	596.12
401.286	585.12
401.51	592.12
401.734	608.12
401.958	598.12
402.182	603.12
402.406	607.12
402.63	611.12
402.854	599.12
403.078	671.12
403.302	631.12
403.526	658.12
403.75	665.12
403.974	697.12
404.198	659.12
404.422	666.12
404.645	666.12
404.869	653.12
405.093	670.12
405.317	657.12
405.541	647.12
405.765	623.12
405.988	637.12
406.212	639.12
406.436	639.12
406.66	665.12
406.883	672.12
407.107	705.12
407.331	717.12
407.555	760.12
407.778	711.12
408.002	717.12
408.226	698.12
408.449	690.12
408.673	676.12
408.896	681.12
409.12	675.12
409.344	677.12
409.567	650.12
409.791	663.12
410.014	660.12
410.238	658.12
410.461	666.12
410.685	651.12
410.908	627.12
411.132	620.12
411.355	641.12
411.578	628.12
411.802	608.12
412.025	589.12
412.249	641.12
412.472	641.12
412.695	614.12
412.919	609.12
413.142	600.12
413.365	618.12
413.589	585.12
413.812	589.12
414.035	614.12
414.258	575.12
414.482	588.12
414.705	614.12
414.928	638.12
415.151	597.12
415.374	616.12
415.597	574.12
415.821	577.12
416.044	607.12
416.267	592.12
416.49	593.12
416.713	598.12
416.936	601.12
417.159	615.12
417.382	590.12
417.605	601.12
417.828	607.12
418.051	600.12
418.274	602.12
418.497	595.12
418.72	614.12
418.943	611.12
419.166	633.12
419.389	659.12
419.611	673.12
419.834	646.12
420.057	639.12
420.28	617.12
420.503	580.12
420.726	602.12
420.948	588.12
421.171	583.12
421.394	597.12
421.617	592.12
421.839	573.12
422.062	602.12
422.285	563.12
422.507	614.12
422.73	608.12
422.953	606.12
423.175	593.12
423.398	618.12
423.621	593.12
423.843	611.12
424.066	617.12
424.288	624.12
424.511	614.12
424.733	611.12
424.956	616.12
425.178	592.12
425.401	602.12
425.623	587.12
425.846	584.12
426.068	566.12
426.291	583.12
426.513	578.12
426.735	581.12
426.958	545.12
427.18	546.12
427.402	555.12
427.625	552.12
427.847	559.12
428.069	544.12
428.292	557.12
428.514	539.12
428.736	529.12
428.958	548.12
429.181	555.12
429.403	513.12
429.625	531.12
429.847	534.12
430.069	508.12
430.292	549.12
430.514	533.12
430.736	536.12
430.958	500.12
431.18	543.12
431.402	545.12
431.624	528.12
431.846	530.12
432.068	561.12
432.29	560.12
432.512	533.12
432.734	518.12
432.956	523.12
433.178	535.12
433.4	548.12
433.622	540.12
433.844	556.12
434.066	573.12
434.287	578.12
434.509	562.12
434.731	581.12
434.953	588.12
435.175	591.12
435.397	592.12
435.618	562.12
435.84	553.12
436.062	549.12
436.284	576.12
436.505	554.12
436.727	567.12
436.949	543.12
437.17	545.12
437.392	524.12
437.614	529.12
437.835	530.12
438.057	536.12
438.278	502.12
438.5	521.12
438.721	526.12
438.943	549.12
439.165	516.12
439.386	538.12
439.608	564.12
439.829	563.12
440.05	543.12
440.272	569.12
440.493	546.12
440.715	574.12
440.936	567.12
441.158	587.12
441.379	576.12
441.6	604.12
441.822	597.12
442.043	601.12
442.264	594.12
442.486	577.12
442.707	596.12
442.928	585.12
443.149	603.12
443.371	590.12
443.592	620.12
443.813	588.12
444.034	597.12
444.255	625.12
444.476	652.12
444.698	697.12
444.919	701.12
445.14	792.12
445.361	689.12
445.582	612.12
445.803	599.12
446.024	579.12
446.245	578.12
446.466	561.12
446.687	543.12
446.908	568.12
447.129	531.12
447.35	537.12
447.571	545.12
447.792	518.12
448.013	520.12
448.234	500.12
448.455	523.12
448.675	509.12
448.896	514.12
449.117	521.12
449.338	498.12
449.559	495.12
449.779	512.12
450	495.12
450.221	513.12
450.442	518.12
450.662	497.12
450.883	510.12
451.104	512.12
451.324	531.12
451.545	498.12
451.766	505.12
451.986	508.12
452.207	520.12
452.428	493.12
452.648	489.12
452.869	501.12
453.089	503.12
453.31	479.12
453.53	476.12
453.751	476.12
453.971	480.12
454.192	499.12
454.412	469.12
454.633	470.12
454.853	472.12
455.073	465.12
455.294	479.12
455.514	482.12
455.734	470.12
455.955	457.12
456.175	468.12
456.395	447.12
456.616	458.12
456.836	467.12
457.056	467.12
457.276	468.12
457.497	478.12
457.717	488.12
457.937	464.12
458.157	493.12
458.377	474.12
458.598	490.12
458.818	488.12
459.038	509.12
459.258	512.12
459.478	543.12
459.698	553.12
459.918	560.12
460.138	578.12
460.358	624.12
460.578	623.12
460.798	637.12
461.018	633.12
461.238	624.12
461.458	639.12
461.678	621.12
461.898	633.12
462.118	618.12
462.338	639.12
462.558	657.12
462.777	703.12
462.997	749.12
463.217	807.12
463.437	816.12
463.657	747.12
463.876	720.12
464.096	725.12
464.316	713.12
464.536	695.12
464.755	671.12
464.975	678.12
465.195	649.12
465.414	607.12
465.634	563.12
465.854	570.12
466.073	546.12
466.293	521.12
466.512	531.12
466.732	531.12
466.951	508.12
467.171	521.12
467.391	519.12
467.61	539.12
467.829	524.12
468.049	501.12
468.268	505.12
468.488	516.12
468.707	516.12
468.927	496.12
469.146	513.12
469.365	510.12
469.585	477.12
469.804	509.12
470.023	538.12
470.243	536.12
470.462	513.12
470.681	537.12
470.901	542.12
471.12	545.12
471.339	515.12
471.558	531.12
471.777	491.12
471.997	531.12
472.216	527.12
472.435	481.12
472.654	481.12
472.873	482.12
473.092	458.12
473.311	483.12
473.53	491.12
473.749	470.12
473.968	480.12
474.187	498.12
474.406	499.12
474.625	488.12
474.844	484.12
475.063	503.12
475.282	495.12
475.501	501.12
475.72	499.12
475.939	531.12
476.158	485.12
476.377	492.12
476.596	493.12
476.814	492.12
477.033	512.12
477.252	517.12
477.471	538.12
477.69	524.12
477.908	551.12
478.127	573.12
478.346	575.12
478.564	574.12
478.783	575.12
479.002	606.12
479.22	579.12
479.439	582.12
479.658	594.12
479.876	566.12
480.095	579.12
480.313	600.12
480.532	619.12
480.751	625.12
480.969	594.12
481.188	575.12
481.406	556.12
481.624	534.12
481.843	559.12
482.061	555.12
482.28	544.12
482.498	544.12
482.717	552.12
482.935	549.12
483.153	537.12
483.372	550.12
483.59	551.12
483.808	546.12
484.027	552.12
484.245	525.12
484.463	538.12
484.681	554.12
484.9	563.12
485.118	561.12
485.336	565.12
485.554	572.12
485.772	553.12
485.99	569.12
486.209	557.12
486.427	562.12
486.645	554.12
486.863	588.12
487.081	579.12
487.299	583.12
487.517	545.12
487.735	554.12
487.953	571.12
488.171	563.12
488.389	557.12
488.607	537.12
488.825	560.12
489.043	571.12
489.261	582.12
489.479	557.12
489.696	578.12
489.914	556.12
490.132	572.12
490.35	568.12
490.568	567.12
490.786	561.12
491.003	584.12
491.221	565.12
491.439	576.12
491.657	588.12
491.874	603.12
492.092	580.12
492.31	587.12
492.527	600.12
492.745	577.12
492.963	597.12
493.18	580.12
493.398	597.12
493.615	572.12
493.833	587.12
494.05	588.12
494.268	599.12
494.485	589.12
494.703	585.12
494.92	596.12
495.138	591.12
495.355	628.12
495.573	613.12
495.79	617.12
496.008	600.12
496.225	602.12
496.442	602.12
496.66	628.12
496.877	631.12
497.094	653.12
497.312	649.12
497.529	670.12
497.746	669.12
497.963	699.12
498.181	718.12
498.398	744.12
498.615	786.12
498.832	839.12
499.049	893.12
499.267	961.12
499.484	1041.12
499.701	1117.12
499.918	1245.12
500.135	1379.12
500.352	1567.12
500.569	1615.12
500.786	1568.12
501.003	1473.12
501.22	1312.12
501.437	1163.12
501.654	1074.12
