Data from Fe(NO3)3@0.05M.TitratingCurve.Agarose3%dH2O.NegLispCup.LampEnergy10.LIBS07252019_HRD10591_16-48-35-334.txt Node
Date: Thu Jul 25 16:48:35 EDT 2019
User: cochatt
Spectrometer: HR+D1059
Trigger mode: 1
Integration Time (sec): 1.000000E-1
Scans to average: 1
Electric dark correction enabled: true
Nonlinearity correction enabled: false
Boxcar width: 0
XAxis mode: Wavelengths
Number of Pixels in Spectrum: 2048
>>>>>Begin Spectral Data<<<<<
223.165	-4.56
223.4	-4.56
223.635	-4.56
223.869	-23.56
224.104	-26.56
224.338	-8.56
224.573	-15.56
224.808	-14.56
225.042	4.44
225.277	-2.56
225.511	-5.56
225.746	-2.56
225.98	-4.56
226.215	14.44
226.449	17.44
226.683	22.44
226.918	21.44
227.152	28.44
227.387	30.44
227.621	23.44
227.856	43.44
228.09	33.44
228.324	58.44
228.559	49.44
228.793	73.44
229.027	61.44
229.262	58.44
229.496	60.44
229.73	71.44
229.964	65.44
230.199	64.44
230.433	74.44
230.667	89.44
230.901	61.44
231.136	70.44
231.37	83.44
231.604	89.44
231.838	98.44
232.072	75.44
232.306	64.44
232.541	80.44
232.775	68.44
233.009	79.44
233.243	100.44
233.477	80.44
233.711	74.44
233.945	85.44
234.179	79.44
234.413	81.44
234.647	76.44
234.881	83.44
235.115	79.44
235.349	78.44
235.583	79.44
235.817	82.44
236.051	67.44
236.285	72.44
236.519	79.44
236.753	69.44
236.987	87.44
237.221	70.44
237.455	73.44
237.689	90.44
237.922	82.44
238.156	69.44
238.39	84.44
238.624	74.44
238.858	78.44
239.091	68.44
239.325	82.44
239.559	92.44
239.793	80.44
240.027	78.44
240.26	81.44
240.494	95.44
240.728	76.44
240.961	78.44
241.195	82.44
241.429	76.44
241.662	80.44
241.896	59.44
242.13	75.44
242.363	76.44
242.597	69.44
242.83	76.44
243.064	70.44
243.298	80.44
243.531	71.44
243.765	88.44
243.998	87.44
244.232	88.44
244.465	81.44
244.699	78.44
244.932	84.44
245.166	88.44
245.399	70.44
245.633	72.44
245.866	71.44
246.099	85.44
246.333	88.44
246.566	74.44
246.8	74.44
247.033	83.44
247.266	77.44
247.5	71.44
247.733	75.44
247.966	84.44
248.2	81.44
248.433	77.44
248.666	71.44
248.899	78.44
249.133	72.44
249.366	100.44
249.599	105.44
249.832	102.44
250.066	79.44
250.299	78.44
250.532	79.44
250.765	80.44
250.998	80.44
251.231	82.44
251.465	79.44
251.698	74.44
251.931	86.44
252.164	81.44
252.397	93.44
252.63	83.44
252.863	85.44
253.096	82.44
253.329	82.44
253.562	106.44
253.795	83.44
254.028	91.44
254.261	85.44
254.494	86.44
254.727	89.44
254.96	83.44
255.193	77.44
255.426	73.44
255.659	91.44
255.892	83.44
256.124	88.44
256.357	82.44
256.59	77.44
256.823	84.44
257.056	71.44
257.289	91.44
257.521	85.44
257.754	87.44
257.987	85.44
258.22	80.44
258.452	81.44
258.685	81.44
258.918	93.44
259.151	88.44
259.383	78.44
259.616	96.44
259.849	95.44
260.081	101.44
260.314	110.44
260.547	88.44
260.779	84.44
261.012	96.44
261.244	89.44
261.477	99.44
261.71	92.44
261.942	88.44
262.175	98.44
262.407	93.44
262.64	89.44
262.872	82.44
263.105	86.44
263.337	86.44
263.57	98.44
263.802	96.44
264.035	73.44
264.267	77.44
264.499	90.44
264.732	90.44
264.964	95.44
265.197	86.44
265.429	92.44
265.661	84.44
265.894	81.44
266.126	97.44
266.358	98.44
266.591	93.44
266.823	89.44
267.055	91.44
267.287	89.44
267.52	90.44
267.752	103.44
267.984	88.44
268.216	87.44
268.448	84.44
268.681	87.44
268.913	97.44
269.145	100.44
269.377	97.44
269.609	88.44
269.841	87.44
270.073	86.44
270.306	95.44
270.538	100.44
270.77	94.44
271.002	98.44
271.234	89.44
271.466	81.44
271.698	96.44
271.93	88.44
272.162	97.44
272.394	92.44
272.626	92.44
272.858	94.44
273.09	90.44
273.322	98.44
273.553	99.44
273.785	93.44
274.017	101.44
274.249	82.44
274.481	107.44
274.713	97.44
274.945	111.44
275.176	109.44
275.408	94.44
275.64	94.44
275.872	104.44
276.104	88.44
276.335	102.44
276.567	88.44
276.799	101.44
277.031	107.44
277.262	90.44
277.494	100.44
277.726	94.44
277.957	89.44
278.189	101.44
278.421	102.44
278.652	98.44
278.884	111.44
279.115	97.44
279.347	91.44
279.579	106.44
279.81	98.44
280.042	101.44
280.273	88.44
280.505	87.44
280.736	101.44
280.968	86.44
281.199	93.44
281.431	99.44
281.662	113.44
281.894	100.44
282.125	102.44
282.356	94.44
282.588	85.44
282.819	105.44
283.051	107.44
283.282	108.44
283.513	88.44
283.745	94.44
283.976	88.44
284.207	97.44
284.439	93.44
284.67	99.44
284.901	90.44
285.132	104.44
285.364	88.44
285.595	95.44
285.826	98.44
286.057	106.44
286.288	95.44
286.52	106.44
286.751	91.44
286.982	106.44
287.213	96.44
287.444	99.44
287.675	102.44
287.906	116.44
288.138	102.44
288.369	95.44
288.6	110.44
288.831	97.44
289.062	89.44
289.293	91.44
289.524	96.44
289.755	104.44
289.986	104.44
290.217	100.44
290.448	104.44
290.679	105.44
290.91	95.44
291.141	96.44
291.371	110.44
291.602	102.44
291.833	99.44
292.064	119.44
292.295	98.44
292.526	93.44
292.757	97.44
292.987	91.44
293.218	93.44
293.449	96.44
293.68	91.44
293.91	103.44
294.141	89.44
294.372	93.44
294.603	114.44
294.833	103.44
295.064	97.44
295.295	96.44
295.525	94.44
295.756	112.44
295.987	99.44
296.217	101.44
296.448	85.44
296.679	104.44
296.909	103.44
297.14	109.44
297.37	105.44
297.601	107.44
297.831	94.44
298.062	97.44
298.292	108.44
298.523	98.44
298.753	101.44
298.984	104.44
299.214	106.44
299.445	104.44
299.675	97.44
299.905	99.44
300.136	98.44
300.366	121.44
300.597	101.44
300.827	96.44
301.057	96.44
301.288	99.44
301.518	111.44
301.748	129.44
301.979	102.44
302.209	93.44
302.439	118.44
302.669	111.44
302.9	102.44
303.13	102.44
303.36	96.44
303.59	99.44
303.82	110.44
304.051	101.44
304.281	112.44
304.511	107.44
304.741	91.44
304.971	94.44
305.201	111.44
305.431	99.44
305.661	115.44
305.891	112.44
306.121	107.44
306.352	98.44
306.582	114.44
306.812	113.44
307.042	113.44
307.272	110.44
307.502	110.44
307.731	105.44
307.961	109.44
308.191	85.44
308.421	108.44
308.651	109.44
308.881	97.44
309.111	113.44
309.341	99.44
309.571	97.44
309.8	96.44
310.03	101.44
310.26	111.44
310.49	109.44
310.72	96.44
310.949	109.44
311.179	103.44
311.409	101.44
311.639	119.44
311.868	109.44
312.098	120.44
312.328	114.44
312.557	116.44
312.787	111.44
313.017	118.44
313.246	101.44
313.476	95.44
313.706	121.44
313.935	101.44
314.165	111.44
314.394	117.44
314.624	111.44
314.853	103.44
315.083	109.44
315.312	110.44
315.542	125.44
315.771	112.44
316.001	99.44
316.23	104.44
316.46	111.44
316.689	95.44
316.919	96.44
317.148	98.44
317.377	104.44
317.607	106.44
317.836	110.44
318.065	104.44
318.295	98.44
318.524	105.44
318.753	102.44
318.983	109.44
319.212	106.44
319.441	107.44
319.67	108.44
319.9	111.44
320.129	109.44
320.358	113.44
320.587	119.44
320.816	109.44
321.046	120.44
321.275	112.44
321.504	111.44
321.733	117.44
321.962	109.44
322.191	103.44
322.42	118.44
322.649	105.44
322.878	119.44
323.108	117.44
323.337	115.44
323.566	91.44
323.795	114.44
324.024	119.44
324.253	107.44
324.482	113.44
324.71	121.44
324.939	117.44
325.168	121.44
325.397	104.44
325.626	121.44
325.855	116.44
326.084	97.44
326.313	105.44
326.542	105.44
326.77	111.44
326.999	115.44
327.228	116.44
327.457	118.44
327.686	114.44
327.914	107.44
328.143	115.44
328.372	103.44
328.6	113.44
328.829	102.44
329.058	106.44
329.287	119.44
329.515	119.44
329.744	124.44
329.972	89.44
330.201	102.44
330.43	104.44
330.658	116.44
330.887	101.44
331.115	101.44
331.344	122.44
331.572	117.44
331.801	113.44
332.03	113.44
332.258	118.44
332.486	117.44
332.715	114.44
332.943	118.44
333.172	127.44
333.4	122.44
333.629	106.44
333.857	121.44
334.085	119.44
334.314	121.44
334.542	112.44
334.771	111.44
334.999	106.44
335.227	109.44
335.455	110.44
335.684	118.44
335.912	100.44
336.14	107.44
336.369	109.44
336.597	125.44
336.825	123.44
337.053	109.44
337.281	116.44
337.51	96.44
337.738	119.44
337.966	114.44
338.194	122.44
338.422	112.44
338.65	122.44
338.878	103.44
339.106	106.44
339.334	116.44
339.562	120.44
339.79	99.44
340.018	110.44
340.246	112.44
340.474	117.44
340.702	109.44
340.93	114.44
341.158	111.44
341.386	116.44
341.614	123.44
341.842	115.44
342.07	107.44
342.298	115.44
342.526	117.44
342.754	110.44
342.981	106.44
343.209	105.44
343.437	121.44
343.665	109.44
343.893	104.44
344.12	121.44
344.348	115.44
344.576	126.44
344.804	117.44
345.031	112.44
345.259	120.44
345.487	110.44
345.714	100.44
345.942	109.44
346.17	121.44
346.397	109.44
346.625	103.44
346.853	111.44
347.08	99.44
347.308	126.44
347.535	129.44
347.763	112.44
347.99	106.44
348.218	118.44
348.445	103.44
348.673	119.44
348.9	109.44
349.128	130.44
349.355	107.44
349.583	104.44
349.81	125.44
350.037	118.44
350.265	119.44
350.492	109.44
350.72	117.44
350.947	114.44
351.174	124.44
351.402	125.44
351.629	113.44
351.856	119.44
352.083	90.44
352.311	97.44
352.538	121.44
352.765	116.44
352.992	111.44
353.22	111.44
353.447	119.44
353.674	100.44
353.901	117.44
354.128	114.44
354.355	121.44
354.583	105.44
354.81	105.44
355.037	110.44
355.264	113.44
355.491	127.44
355.718	123.44
355.945	119.44
356.172	129.44
356.399	117.44
356.626	121.44
356.853	115.44
357.08	120.44
357.307	127.44
357.534	116.44
357.761	124.44
357.988	123.44
358.215	104.44
358.441	99.44
358.668	122.44
358.895	115.44
359.122	101.44
359.349	107.44
359.576	117.44
359.802	117.44
360.029	120.44
360.256	115.44
360.483	105.44
360.709	120.44
360.936	140.44
361.163	115.44
361.39	112.44
361.616	117.44
361.843	108.44
362.07	118.44
362.296	123.44
362.523	120.44
362.749	117.44
362.976	112.44
363.203	111.44
363.429	129.44
363.656	127.44
363.882	112.44
364.109	113.44
364.335	105.44
364.562	106.44
364.788	112.44
365.015	115.44
365.241	124.44
365.468	132.44
365.694	125.44
365.92	121.44
366.147	123.44
366.373	117.44
366.599	113.44
366.826	124.44
367.052	121.44
367.278	121.44
367.505	124.44
367.731	118.44
367.957	129.44
368.184	123.44
368.41	120.44
368.636	131.44
368.862	127.44
369.089	119.44
369.315	132.44
369.541	131.44
369.767	101.44
369.993	114.44
370.219	95.44
370.445	117.44
370.672	135.44
370.898	124.44
371.124	125.44
371.35	119.44
371.576	126.44
371.802	113.44
372.028	131.44
372.254	150.44
372.48	137.44
372.706	124.44
372.932	134.44
373.158	131.44
373.384	127.44
373.61	135.44
373.835	132.44
374.061	130.44
374.287	123.44
374.513	133.44
374.739	120.44
374.965	151.44
375.191	125.44
375.416	123.44
375.642	135.44
375.868	155.44
376.094	149.44
376.319	135.44
376.545	126.44
376.771	139.44
376.997	140.44
377.222	125.44
377.448	134.44
377.674	111.44
377.899	129.44
378.125	128.44
378.35	127.44
378.576	122.44
378.802	129.44
379.027	129.44
379.253	137.44
379.478	130.44
379.704	133.44
379.929	125.44
380.155	127.44
380.38	128.44
380.606	138.44
380.831	134.44
381.057	134.44
381.282	131.44
381.507	135.44
381.733	136.44
381.958	132.44
382.184	137.44
382.409	152.44
382.634	127.44
382.86	125.44
383.085	135.44
383.31	150.44
383.535	146.44
383.761	135.44
383.986	131.44
384.211	142.44
384.436	132.44
384.662	160.44
384.887	152.44
385.112	138.44
385.337	137.44
385.562	161.44
385.787	158.44
386.013	151.44
386.238	143.44
386.463	155.44
386.688	144.44
386.913	154.44
387.138	151.44
387.363	151.44
387.588	148.44
387.813	159.44
388.038	150.44
388.263	150.44
388.488	145.44
388.713	136.44
388.938	161.44
389.163	154.44
389.387	162.44
389.612	158.44
389.837	150.44
390.062	141.44
390.287	168.44
390.512	165.44
390.736	152.44
390.961	157.44
391.186	149.44
391.411	165.44
391.636	146.44
391.86	163.44
392.085	153.44
392.31	161.44
392.534	171.44
392.759	167.44
392.984	157.44
393.208	147.44
393.433	162.44
393.658	147.44
393.882	153.44
394.107	171.44
394.331	152.44
394.556	160.44
394.78	182.44
395.005	161.44
395.229	167.44
395.454	183.44
395.678	165.44
395.903	164.44
396.127	176.44
396.352	166.44
396.576	163.44
396.801	161.44
397.025	164.44
397.249	178.44
397.474	173.44
397.698	178.44
397.922	177.44
398.147	161.44
398.371	162.44
398.595	167.44
398.82	183.44
399.044	190.44
399.268	192.44
399.492	194.44
399.717	201.44
399.941	189.44
400.165	198.44
400.389	208.44
400.613	199.44
400.837	198.44
401.062	185.44
401.286	183.44
401.51	204.44
401.734	177.44
401.958	189.44
402.182	178.44
402.406	182.44
402.63	190.44
402.854	185.44
403.078	176.44
403.302	187.44
403.526	181.44
403.75	192.44
403.974	185.44
404.198	179.44
404.422	192.44
404.645	200.44
404.869	180.44
405.093	198.44
405.317	187.44
405.541	185.44
405.765	199.44
405.988	199.44
406.212	186.44
406.436	201.44
406.66	192.44
406.883	210.44
407.107	226.44
407.331	210.44
407.555	203.44
407.778	211.44
408.002	207.44
408.226	197.44
408.449	216.44
408.673	212.44
408.896	199.44
409.12	197.44
409.344	212.44
409.567	205.44
409.791	191.44
410.014	192.44
410.238	211.44
410.461	194.44
410.685	207.44
410.908	207.44
411.132	180.44
411.355	185.44
411.578	192.44
411.802	169.44
412.025	176.44
412.249	189.44
412.472	184.44
412.695	202.44
412.919	195.44
413.142	201.44
413.365	194.44
413.589	185.44
413.812	193.44
414.035	198.44
414.258	187.44
414.482	194.44
414.705	205.44
414.928	171.44
415.151	204.44
415.374	198.44
415.597	193.44
415.821	199.44
416.044	177.44
416.267	200.44
416.49	192.44
416.713	201.44
416.936	203.44
417.159	202.44
417.382	192.44
417.605	181.44
417.828	214.44
418.051	202.44
418.274	189.44
418.497	195.44
418.72	184.44
418.943	185.44
419.166	200.44
419.389	218.44
419.611	187.44
419.834	194.44
420.057	190.44
420.28	203.44
420.503	207.44
420.726	215.44
420.948	171.44
421.171	187.44
421.394	208.44
421.617	183.44
421.839	197.44
422.062	199.44
422.285	185.44
422.507	190.44
422.73	191.44
422.953	190.44
423.175	201.44
423.398	186.44
423.621	193.44
423.843	193.44
424.066	202.44
424.288	211.44
424.511	219.44
424.733	201.44
424.956	190.44
425.178	208.44
425.401	189.44
425.623	196.44
425.846	194.44
426.068	206.44
426.291	201.44
426.513	205.44
426.735	206.44
426.958	188.44
427.18	193.44
427.402	208.44
427.625	208.44
427.847	183.44
428.069	177.44
428.292	196.44
428.514	185.44
428.736	206.44
428.958	200.44
429.181	203.44
429.403	189.44
429.625	212.44
429.847	181.44
430.069	200.44
430.292	197.44
430.514	183.44
430.736	207.44
430.958	194.44
431.18	213.44
431.402	207.44
431.624	204.44
431.846	189.44
432.068	189.44
432.29	180.44
432.512	183.44
432.734	191.44
432.956	189.44
433.178	197.44
433.4	209.44
433.622	206.44
433.844	193.44
434.066	198.44
434.287	205.44
434.509	216.44
434.731	220.44
434.953	192.44
435.175	211.44
435.397	211.44
435.618	189.44
435.84	184.44
436.062	195.44
436.284	193.44
436.505	196.44
436.727	201.44
436.949	198.44
437.17	184.44
437.392	212.44
437.614	190.44
437.835	201.44
438.057	208.44
438.278	182.44
438.5	202.44
438.721	207.44
438.943	212.44
439.165	197.44
439.386	212.44
439.608	211.44
439.829	205.44
440.05	225.44
440.272	205.44
440.493	222.44
440.715	202.44
440.936	199.44
441.158	200.44
441.379	223.44
441.6	232.44
441.822	226.44
442.043	239.44
442.264	194.44
442.486	197.44
442.707	221.44
442.928	245.44
443.149	215.44
443.371	232.44
443.592	230.44
443.813	210.44
444.034	220.44
444.255	228.44
444.476	220.44
444.698	214.44
444.919	235.44
445.14	350.44
445.361	269.44
445.582	223.44
445.803	218.44
446.024	207.44
446.245	218.44
446.466	214.44
446.687	221.44
446.908	228.44
447.129	208.44
447.35	229.44
447.571	229.44
447.792	211.44
448.013	225.44
448.234	211.44
448.455	202.44
448.675	222.44
448.896	200.44
449.117	203.44
449.338	215.44
449.559	196.44
449.779	199.44
450	208.44
450.221	202.44
450.442	203.44
450.662	207.44
450.883	207.44
451.104	191.44
451.324	192.44
451.545	204.44
451.766	196.44
451.986	211.44
452.207	214.44
452.428	203.44
452.648	189.44
452.869	185.44
453.089	182.44
453.31	197.44
453.53	192.44
453.751	198.44
453.971	193.44
454.192	203.44
454.412	186.44
454.633	194.44
454.853	191.44
455.073	197.44
455.294	190.44
455.514	194.44
455.734	194.44
455.955	176.44
456.175	193.44
456.395	187.44
456.616	184.44
456.836	193.44
457.056	200.44
457.276	191.44
457.497	182.44
457.717	192.44
457.937	182.44
458.157	197.44
458.377	195.44
458.598	186.44
458.818	188.44
459.038	199.44
459.258	177.44
459.478	197.44
459.698	203.44
459.918	215.44
460.138	200.44
460.358	212.44
460.578	215.44
460.798	219.44
461.018	230.44
461.238	202.44
461.458	226.44
461.678	228.44
461.898	214.44
462.118	235.44
462.338	225.44
462.558	230.44
462.777	238.44
462.997	250.44
463.217	237.44
463.437	267.44
463.657	249.44
463.876	238.44
464.096	215.44
464.316	237.44
464.536	224.44
464.755	242.44
464.975	229.44
465.195	217.44
465.414	230.44
465.634	216.44
465.854	221.44
466.073	218.44
466.293	217.44
466.512	226.44
466.732	212.44
466.951	201.44
467.171	215.44
467.391	208.44
467.61	228.44
467.829	211.44
468.049	205.44
468.268	201.44
468.488	194.44
468.707	211.44
468.927	214.44
469.146	205.44
469.365	207.44
469.585	230.44
469.804	207.44
470.023	212.44
470.243	208.44
470.462	223.44
470.681	203.44
470.901	216.44
471.12	213.44
471.339	209.44
471.558	218.44
471.777	232.44
471.997	205.44
472.216	200.44
472.435	197.44
472.654	189.44
472.873	203.44
473.092	189.44
473.311	202.44
473.53	205.44
473.749	210.44
473.968	213.44
474.187	203.44
474.406	212.44
474.625	202.44
474.844	223.44
475.063	213.44
475.282	196.44
475.501	214.44
475.72	200.44
475.939	193.44
476.158	219.44
476.377	208.44
476.596	225.44
476.814	203.44
477.033	220.44
477.252	215.44
477.471	215.44
477.69	221.44
477.908	214.44
478.127	228.44
478.346	211.44
478.564	222.44
478.783	223.44
479.002	238.44
479.22	215.44
479.439	243.44
479.658	226.44
479.876	233.44
480.095	231.44
480.313	239.44
480.532	230.44
480.751	233.44
480.969	221.44
481.188	235.44
481.406	234.44
481.624	208.44
481.843	227.44
482.061	217.44
482.28	225.44
482.498	222.44
482.717	212.44
482.935	214.44
483.153	225.44
483.372	223.44
483.59	228.44
483.808	221.44
484.027	217.44
484.245	237.44
484.463	253.44
484.681	255.44
484.9	225.44
485.118	223.44
485.336	232.44
485.554	223.44
485.772	210.44
485.99	230.44
486.209	203.44
486.427	216.44
486.645	240.44
486.863	241.44
487.081	232.44
487.299	234.44
487.517	240.44
487.735	228.44
487.953	249.44
488.171	243.44
488.389	253.44
488.607	237.44
488.825	245.44
489.043	222.44
489.261	208.44
489.479	229.44
489.696	224.44
489.914	226.44
490.132	238.44
490.35	230.44
490.568	248.44
490.786	253.44
491.003	245.44
491.221	239.44
491.439	265.44
491.657	233.44
491.874	249.44
492.092	267.44
492.31	253.44
492.527	259.44
492.745	255.44
492.963	264.44
493.18	235.44
493.398	257.44
493.615	263.44
493.833	261.44
494.05	248.44
494.268	241.44
494.485	265.44
494.703	257.44
494.92	240.44
495.138	243.44
495.355	251.44
495.573	246.44
495.79	257.44
496.008	278.44
496.225	248.44
496.442	266.44
496.66	278.44
496.877	264.44
497.094	259.44
497.312	273.44
497.529	277.44
497.746	281.44
497.963	264.44
498.181	271.44
498.398	282.44
498.615	307.44
498.832	277.44
499.049	295.44
499.267	302.44
499.484	292.44
499.701	323.44
499.918	359.44
500.135	366.44
500.352	373.44
500.569	377.44
500.786	396.44
501.003	367.44
501.22	356.44
501.437	349.44
501.654	328.44
501.871	305.44
502.088	303.44
502.305	289.44
502.522	282.44
502.739	277.44
502.956	273.44
503.172	260.44
503.389	260.44
503.606	241.44
503.823	258.44
504.04	282.44
504.256	254.44
504.473	258.44
504.69	237.44
504.907	249.44
505.123	233.44
505.34	242.44
