Data from Fe(NO3)3@0.025M.TitratingCurve.Agarose3%dH2O.NegLispCup.LampEnergy10.LIBS07252019_HRD10591_16-56-48-336.txt Node
Date: Thu Jul 25 16:56:48 EDT 2019
User: cochatt
Spectrometer: HR+D1059
Trigger mode: 1
Integration Time (sec): 1.000000E-1
Scans to average: 1
Electric dark correction enabled: true
Nonlinearity correction enabled: false
Boxcar width: 0
XAxis mode: Wavelengths
Number of Pixels in Spectrum: 2048
>>>>>Begin Spectral Data<<<<<
223.165	-25.88
223.4	-25.88
223.635	-25.88
223.869	-16.88
224.104	-15.88
224.338	1.12
224.573	-22.88
224.808	-11.88
225.042	-3.88
225.277	7.12
225.511	8.12
225.746	-0.88
225.98	6.12
226.215	10.12
226.449	8.12
226.683	18.12
226.918	22.12
227.152	17.12
227.387	39.12
227.621	38.12
227.856	38.12
228.09	33.12
228.324	40.12
228.559	51.12
228.793	63.12
229.027	76.12
229.262	83.12
229.496	89.12
229.73	91.12
229.964	91.12
230.199	93.12
230.433	83.12
230.667	92.12
230.901	92.12
231.136	99.12
231.37	95.12
231.604	116.12
231.838	107.12
232.072	96.12
232.306	89.12
232.541	105.12
232.775	116.12
233.009	113.12
233.243	105.12
233.477	107.12
233.711	122.12
233.945	123.12
234.179	93.12
234.413	99.12
234.647	107.12
234.881	115.12
235.115	100.12
235.349	109.12
235.583	107.12
235.817	100.12
236.051	95.12
236.285	117.12
236.519	110.12
236.753	113.12
236.987	116.12
237.221	108.12
237.455	116.12
237.689	109.12
237.922	105.12
238.156	99.12
238.39	123.12
238.624	106.12
238.858	132.12
239.091	124.12
239.325	130.12
239.559	124.12
239.793	117.12
240.027	116.12
240.26	118.12
240.494	128.12
240.728	114.12
240.961	119.12
241.195	128.12
241.429	130.12
241.662	129.12
241.896	124.12
242.13	122.12
242.363	121.12
242.597	105.12
242.83	123.12
243.064	114.12
243.298	124.12
243.531	127.12
243.765	129.12
243.998	134.12
244.232	125.12
244.465	120.12
244.699	124.12
244.932	127.12
245.166	130.12
245.399	131.12
245.633	134.12
245.866	131.12
246.099	132.12
246.333	140.12
246.566	130.12
246.8	138.12
247.033	142.12
247.266	142.12
247.5	129.12
247.733	135.12
247.966	146.12
248.2	136.12
248.433	140.12
248.666	132.12
248.899	143.12
249.133	133.12
249.366	149.12
249.599	128.12
249.832	146.12
250.066	149.12
250.299	146.12
250.532	141.12
250.765	152.12
250.998	133.12
251.231	160.12
251.465	150.12
251.698	156.12
251.931	146.12
252.164	152.12
252.397	165.12
252.63	139.12
252.863	149.12
253.096	151.12
253.329	143.12
253.562	139.12
253.795	153.12
254.028	158.12
254.261	148.12
254.494	158.12
254.727	160.12
254.96	163.12
255.193	153.12
255.426	166.12
255.659	158.12
255.892	166.12
256.124	168.12
256.357	164.12
256.59	164.12
256.823	158.12
257.056	157.12
257.289	168.12
257.521	164.12
257.754	157.12
257.987	164.12
258.22	170.12
258.452	166.12
258.685	172.12
258.918	169.12
259.151	174.12
259.383	193.12
259.616	157.12
259.849	164.12
260.081	180.12
260.314	171.12
260.547	180.12
260.779	176.12
261.012	169.12
261.244	180.12
261.477	185.12
261.71	184.12
261.942	174.12
262.175	191.12
262.407	187.12
262.64	183.12
262.872	184.12
263.105	192.12
263.337	187.12
263.57	183.12
263.802	180.12
264.035	189.12
264.267	189.12
264.499	197.12
264.732	182.12
264.964	181.12
265.197	194.12
265.429	184.12
265.661	195.12
265.894	184.12
266.126	201.12
266.358	181.12
266.591	190.12
266.823	187.12
267.055	201.12
267.287	190.12
267.52	192.12
267.752	212.12
267.984	201.12
268.216	198.12
268.448	189.12
268.681	204.12
268.913	205.12
269.145	205.12
269.377	211.12
269.609	198.12
269.841	198.12
270.073	199.12
270.306	200.12
270.538	200.12
270.77	210.12
271.002	214.12
271.234	192.12
271.466	186.12
271.698	188.12
271.93	204.12
272.162	222.12
272.394	199.12
272.626	206.12
272.858	210.12
273.09	214.12
273.322	223.12
273.553	204.12
273.785	214.12
274.017	204.12
274.249	223.12
274.481	212.12
274.713	260.12
274.945	238.12
275.176	224.12
275.408	228.12
275.64	240.12
275.872	224.12
276.104	231.12
276.335	232.12
276.567	230.12
276.799	237.12
277.031	257.12
277.262	241.12
277.494	219.12
277.726	221.12
277.957	230.12
278.189	222.12
278.421	242.12
278.652	238.12
278.884	240.12
279.115	232.12
279.347	236.12
279.579	218.12
279.81	228.12
280.042	227.12
280.273	241.12
280.505	241.12
280.736	238.12
280.968	216.12
281.199	226.12
281.431	248.12
281.662	235.12
281.894	237.12
282.125	247.12
282.356	242.12
282.588	243.12
282.819	246.12
283.051	256.12
283.282	251.12
283.513	262.12
283.745	270.12
283.976	269.12
284.207	247.12
284.439	241.12
284.67	258.12
284.901	258.12
285.132	253.12
285.364	241.12
285.595	271.12
285.826	260.12
286.057	258.12
286.288	269.12
286.52	256.12
286.751	252.12
286.982	266.12
287.213	265.12
287.444	269.12
287.675	259.12
287.906	273.12
288.138	283.12
288.369	269.12
288.6	277.12
288.831	270.12
289.062	280.12
289.293	276.12
289.524	276.12
289.755	274.12
289.986	292.12
290.217	270.12
290.448	277.12
290.679	271.12
290.91	278.12
291.141	274.12
291.371	281.12
291.602	289.12
291.833	265.12
292.064	279.12
292.295	283.12
292.526	271.12
292.757	285.12
292.987	318.12
293.218	282.12
293.449	281.12
293.68	271.12
293.91	288.12
294.141	270.12
294.372	308.12
294.603	302.12
294.833	296.12
295.064	301.12
295.295	296.12
295.525	264.12
295.756	285.12
295.987	288.12
296.217	283.12
296.448	301.12
296.679	299.12
296.909	306.12
297.14	301.12
297.37	288.12
297.601	279.12
297.831	290.12
298.062	299.12
298.292	298.12
298.523	316.12
298.753	297.12
298.984	300.12
299.214	300.12
299.445	310.12
299.675	306.12
299.905	312.12
300.136	306.12
300.366	301.12
300.597	311.12
300.827	345.12
301.057	328.12
301.288	326.12
301.518	338.12
301.748	317.12
301.979	310.12
302.209	332.12
302.439	311.12
302.669	336.12
302.9	327.12
303.13	311.12
303.36	328.12
303.59	311.12
303.82	310.12
304.051	320.12
304.281	324.12
304.511	337.12
304.741	344.12
304.971	311.12
305.201	353.12
305.431	340.12
305.661	322.12
305.891	320.12
306.121	321.12
306.352	330.12
306.582	322.12
306.812	323.12
307.042	322.12
307.272	329.12
307.502	315.12
307.731	332.12
307.961	318.12
308.191	319.12
308.421	338.12
308.651	347.12
308.881	329.12
309.111	337.12
309.341	302.12
309.571	346.12
309.8	337.12
310.03	329.12
310.26	325.12
310.49	310.12
310.72	337.12
310.949	326.12
311.179	339.12
311.409	339.12
311.639	345.12
311.868	338.12
312.098	331.12
312.328	341.12
312.557	362.12
312.787	336.12
313.017	339.12
313.246	333.12
313.476	356.12
313.706	348.12
313.935	364.12
314.165	354.12
314.394	364.12
314.624	344.12
314.853	344.12
315.083	369.12
315.312	358.12
315.542	362.12
315.771	346.12
316.001	352.12
316.23	354.12
316.46	341.12
316.689	365.12
316.919	354.12
317.148	365.12
317.377	335.12
317.607	353.12
317.836	376.12
318.065	354.12
318.295	352.12
318.524	341.12
318.753	360.12
318.983	374.12
319.212	374.12
319.441	377.12
319.67	360.12
319.9	364.12
320.129	372.12
320.358	359.12
320.587	346.12
320.816	362.12
321.046	351.12
321.275	356.12
321.504	365.12
321.733	373.12
321.962	355.12
322.191	379.12
322.42	357.12
322.649	372.12
322.878	373.12
323.108	374.12
323.337	378.12
323.566	360.12
323.795	381.12
324.024	375.12
324.253	368.12
324.482	381.12
324.71	372.12
324.939	385.12
325.168	391.12
325.397	368.12
325.626	380.12
325.855	402.12
326.084	404.12
326.313	399.12
326.542	401.12
326.77	386.12
326.999	380.12
327.228	385.12
327.457	392.12
327.686	377.12
327.914	403.12
328.143	422.12
328.372	388.12
328.6	390.12
328.829	398.12
329.058	394.12
329.287	385.12
329.515	389.12
329.744	414.12
329.972	433.12
330.201	411.12
330.43	406.12
330.658	406.12
330.887	407.12
331.115	404.12
331.344	416.12
331.572	419.12
331.801	420.12
332.03	410.12
332.258	417.12
332.486	442.12
332.715	443.12
332.943	442.12
333.172	452.12
333.4	458.12
333.629	469.12
333.857	459.12
334.085	458.12
334.314	473.12
334.542	463.12
334.771	462.12
334.999	474.12
335.227	471.12
335.455	475.12
335.684	457.12
335.912	473.12
336.14	479.12
336.369	471.12
336.597	464.12
336.825	464.12
337.053	470.12
337.281	460.12
337.51	430.12
337.738	446.12
337.966	440.12
338.194	464.12
338.422	456.12
338.65	438.12
338.878	436.12
339.106	439.12
339.334	433.12
339.562	433.12
339.79	433.12
340.018	416.12
340.246	432.12
340.474	434.12
340.702	428.12
340.93	417.12
341.158	419.12
341.386	392.12
341.614	427.12
341.842	417.12
342.07	420.12
342.298	434.12
342.526	422.12
342.754	442.12
342.981	447.12
343.209	459.12
343.437	460.12
343.665	445.12
343.893	480.12
344.12	475.12
344.348	480.12
344.576	463.12
344.804	452.12
345.031	428.12
345.259	443.12
345.487	444.12
345.714	426.12
345.942	408.12
346.17	438.12
346.397	423.12
346.625	436.12
346.853	426.12
347.08	434.12
347.308	425.12
347.535	414.12
347.763	401.12
347.99	427.12
348.218	403.12
348.445	415.12
348.673	407.12
348.9	409.12
349.128	420.12
349.355	418.12
349.583	415.12
349.81	415.12
350.037	398.12
350.265	413.12
350.492	409.12
350.72	424.12
350.947	410.12
351.174	413.12
351.402	411.12
351.629	392.12
351.856	427.12
352.083	405.12
352.311	411.12
352.538	395.12
352.765	393.12
352.992	393.12
353.22	399.12
353.447	411.12
353.674	410.12
353.901	410.12
354.128	407.12
354.355	408.12
354.583	395.12
354.81	414.12
355.037	430.12
355.264	423.12
355.491	440.12
355.718	415.12
355.945	395.12
356.172	408.12
356.399	408.12
356.626	403.12
356.853	418.12
357.08	406.12
357.307	412.12
357.534	409.12
357.761	420.12
357.988	429.12
358.215	408.12
358.441	423.12
358.668	417.12
358.895	420.12
359.122	407.12
359.349	416.12
359.576	409.12
359.802	404.12
360.029	424.12
360.256	406.12
360.483	409.12
360.709	409.12
360.936	424.12
361.163	425.12
361.39	416.12
361.616	407.12
361.843	412.12
362.07	421.12
362.296	436.12
362.523	426.12
362.749	427.12
362.976	407.12
363.203	414.12
363.429	414.12
363.656	436.12
363.882	412.12
364.109	407.12
364.335	410.12
364.562	419.12
364.788	419.12
365.015	412.12
365.241	412.12
365.468	386.12
365.694	418.12
365.92	434.12
366.147	436.12
366.373	416.12
366.599	416.12
366.826	425.12
367.052	421.12
367.278	423.12
367.505	421.12
367.731	429.12
367.957	427.12
368.184	418.12
368.41	433.12
368.636	438.12
368.862	420.12
369.089	437.12
369.315	421.12
369.541	435.12
369.767	437.12
369.993	429.12
370.219	420.12
370.445	434.12
370.672	443.12
370.898	432.12
371.124	457.12
371.35	443.12
371.576	466.12
371.802	456.12
372.028	436.12
372.254	459.12
372.48	452.12
372.706	462.12
372.932	458.12
373.158	474.12
373.384	484.12
373.61	461.12
373.835	459.12
374.061	458.12
374.287	451.12
374.513	443.12
374.739	473.12
374.965	472.12
375.191	458.12
375.416	468.12
375.642	472.12
375.868	466.12
376.094	448.12
376.319	455.12
376.545	459.12
376.771	466.12
376.997	452.12
377.222	454.12
377.448	446.12
377.674	441.12
377.899	455.12
378.125	420.12
378.35	436.12
378.576	460.12
378.802	451.12
379.027	459.12
379.253	464.12
379.478	448.12
379.704	459.12
379.929	455.12
380.155	471.12
380.38	457.12
380.606	447.12
380.831	455.12
381.057	470.12
381.282	438.12
381.507	472.12
381.733	465.12
381.958	452.12
382.184	459.12
382.409	446.12
382.634	456.12
382.86	466.12
383.085	484.12
383.31	482.12
383.535	484.12
383.761	477.12
383.986	477.12
384.211	483.12
384.436	485.12
384.662	500.12
384.887	506.12
385.112	502.12
385.337	488.12
385.562	510.12
385.787	516.12
386.013	515.12
386.238	500.12
386.463	520.12
386.688	526.12
386.913	507.12
387.138	497.12
387.363	531.12
387.588	515.12
387.813	523.12
388.038	522.12
388.263	518.12
388.488	537.12
388.713	555.12
388.938	506.12
389.163	523.12
389.387	518.12
389.612	533.12
389.837	525.12
390.062	517.12
390.287	517.12
390.512	521.12
390.736	540.12
390.961	528.12
391.186	529.12
391.411	548.12
391.636	532.12
391.86	521.12
392.085	571.12
392.31	536.12
392.534	562.12
392.759	547.12
392.984	567.12
393.208	546.12
393.433	559.12
393.658	526.12
393.882	538.12
394.107	550.12
394.331	537.12
394.556	556.12
394.78	555.12
395.005	555.12
395.229	554.12
395.454	563.12
395.678	570.12
395.903	581.12
396.127	549.12
396.352	562.12
396.576	560.12
396.801	574.12
397.025	568.12
397.249	565.12
397.474	578.12
397.698	586.12
397.922	610.12
398.147	576.12
398.371	586.12
398.595	627.12
398.82	630.12
399.044	653.12
399.268	710.12
399.492	719.12
399.717	765.12
399.941	745.12
400.165	718.12
400.389	685.12
400.613	672.12
400.837	672.12
401.062	639.12
401.286	642.12
401.51	617.12
401.734	633.12
401.958	626.12
402.182	606.12
402.406	618.12
402.63	595.12
402.854	617.12
403.078	636.12
403.302	616.12
403.526	632.12
403.75	628.12
403.974	641.12
404.198	640.12
404.422	644.12
404.645	638.12
404.869	660.12
405.093	642.12
405.317	640.12
405.541	631.12
405.765	625.12
405.988	646.12
406.212	655.12
406.436	679.12
406.66	683.12
406.883	695.12
407.107	693.12
407.331	709.12
407.555	741.12
407.778	706.12
408.002	696.12
408.226	709.12
408.449	692.12
408.673	710.12
408.896	690.12
409.12	661.12
409.344	682.12
409.567	646.12
409.791	670.12
410.014	647.12
410.238	637.12
410.461	662.12
410.685	633.12
410.908	618.12
411.132	640.12
411.355	613.12
411.578	632.12
411.802	651.12
412.025	613.12
412.249	635.12
412.472	619.12
412.695	614.12
412.919	630.12
413.142	641.12
413.365	619.12
413.589	621.12
413.812	622.12
414.035	616.12
414.258	598.12
414.482	615.12
414.705	645.12
414.928	636.12
415.151	608.12
415.374	603.12
415.597	616.12
415.821	598.12
416.044	599.12
416.267	596.12
416.49	591.12
416.713	582.12
416.936	594.12
417.159	614.12
417.382	579.12
417.605	582.12
417.828	568.12
418.051	599.12
418.274	577.12
418.497	583.12
418.72	608.12
418.943	609.12
419.166	632.12
419.389	636.12
419.611	614.12
419.834	604.12
420.057	635.12
420.28	600.12
420.503	598.12
420.726	613.12
420.948	586.12
421.171	584.12
421.394	587.12
421.617	574.12
421.839	575.12
422.062	579.12
422.285	579.12
422.507	573.12
422.73	572.12
422.953	581.12
423.175	602.12
423.398	587.12
423.621	594.12
423.843	598.12
424.066	585.12
424.288	599.12
424.511	581.12
424.733	582.12
424.956	598.12
425.178	581.12
425.401	605.12
425.623	579.12
425.846	548.12
426.068	573.12
426.291	554.12
426.513	560.12
426.735	566.12
426.958	544.12
427.18	560.12
427.402	578.12
427.625	567.12
427.847	556.12
428.069	556.12
428.292	579.12
428.514	541.12
428.736	532.12
428.958	558.12
429.181	548.12
429.403	548.12
429.625	524.12
429.847	545.12
430.069	538.12
430.292	548.12
430.514	547.12
430.736	554.12
430.958	538.12
431.18	537.12
431.402	548.12
431.624	556.12
431.846	552.12
432.068	560.12
432.29	560.12
432.512	550.12
432.734	572.12
432.956	541.12
433.178	541.12
433.4	557.12
433.622	556.12
433.844	564.12
434.066	560.12
434.287	570.12
434.509	581.12
434.731	566.12
434.953	573.12
435.175	585.12
435.397	583.12
435.618	585.12
435.84	573.12
436.062	546.12
436.284	543.12
436.505	552.12
436.727	530.12
436.949	544.12
437.17	533.12
437.392	530.12
437.614	542.12
437.835	534.12
438.057	543.12
438.278	518.12
438.5	535.12
438.721	533.12
438.943	516.12
439.165	513.12
439.386	550.12
439.608	555.12
439.829	509.12
440.05	526.12
440.272	530.12
440.493	538.12
440.715	541.12
440.936	560.12
441.158	541.12
441.379	572.12
441.6	552.12
441.822	553.12
442.043	573.12
442.264	564.12
442.486	557.12
442.707	540.12
442.928	565.12
443.149	554.12
443.371	565.12
443.592	563.12
443.813	562.12
444.034	589.12
444.255	604.12
444.476	595.12
444.698	601.12
444.919	589.12
445.14	711.12
445.361	628.12
445.582	585.12
445.803	586.12
446.024	558.12
446.245	546.12
446.466	517.12
446.687	523.12
446.908	521.12
447.129	538.12
447.35	515.12
447.571	523.12
447.792	503.12
448.013	488.12
448.234	499.12
448.455	483.12
448.675	500.12
448.896	509.12
449.117	470.12
449.338	499.12
449.559	488.12
449.779	468.12
450	479.12
450.221	473.12
450.442	488.12
450.662	484.12
450.883	480.12
451.104	501.12
451.324	482.12
451.545	467.12
451.766	491.12
451.986	471.12
452.207	477.12
452.428	500.12
452.648	477.12
452.869	475.12
453.089	479.12
453.31	478.12
453.53	473.12
453.751	474.12
453.971	485.12
454.192	476.12
454.412	484.12
454.633	480.12
454.853	466.12
455.073	459.12
455.294	460.12
455.514	485.12
455.734	484.12
455.955	479.12
456.175	458.12
456.395	477.12
456.616	485.12
456.836	469.12
457.056	469.12
457.276	470.12
457.497	489.12
457.717	474.12
457.937	497.12
458.157	496.12
458.377	490.12
458.598	505.12
458.818	522.12
459.038	485.12
459.258	535.12
459.478	564.12
459.698	538.12
459.918	570.12
460.138	566.12
460.358	585.12
460.578	586.12
460.798	598.12
461.018	573.12
461.238	591.12
461.458	595.12
461.678	586.12
461.898	596.12
462.118	608.12
462.338	602.12
462.558	649.12
462.777	672.12
462.997	645.12
463.217	692.12
463.437	668.12
463.657	668.12
463.876	691.12
464.096	663.12
464.316	640.12
464.536	655.12
464.755	638.12
464.975	607.12
465.195	600.12
465.414	601.12
465.634	564.12
465.854	575.12
466.073	562.12
466.293	530.12
466.512	554.12
466.732	540.12
466.951	530.12
467.171	528.12
467.391	531.12
467.61	533.12
467.829	503.12
468.049	533.12
468.268	504.12
468.488	518.12
468.707	520.12
468.927	480.12
469.146	502.12
469.365	523.12
469.585	524.12
469.804	541.12
470.023	537.12
470.243	522.12
470.462	514.12
470.681	534.12
470.901	537.12
471.12	518.12
471.339	523.12
471.558	514.12
471.777	502.12
471.997	526.12
472.216	516.12
472.435	522.12
472.654	490.12
472.873	534.12
473.092	539.12
473.311	544.12
473.53	525.12
473.749	537.12
473.968	509.12
474.187	527.12
474.406	511.12
474.625	504.12
474.844	520.12
475.063	531.12
475.282	526.12
475.501	527.12
475.72	527.12
475.939	537.12
476.158	533.12
476.377	530.12
476.596	545.12
476.814	550.12
477.033	555.12
477.252	565.12
477.471	574.12
477.69	579.12
477.908	574.12
478.127	579.12
478.346	582.12
478.564	601.12
478.783	602.12
479.002	621.12
479.22	612.12
479.439	629.12
479.658	608.12
479.876	619.12
480.095	635.12
480.313	630.12
480.532	627.12
480.751	632.12
480.969	638.12
481.188	626.12
481.406	629.12
481.624	613.12
481.843	630.12
482.061	617.12
482.28	613.12
482.498	617.12
482.717	609.12
482.935	605.12
483.153	613.12
483.372	610.12
483.59	636.12
483.808	626.12
484.027	642.12
484.245	613.12
484.463	619.12
484.681	628.12
484.9	628.12
485.118	641.12
485.336	640.12
485.554	641.12
485.772	669.12
485.99	643.12
486.209	632.12
486.427	644.12
486.645	643.12
486.863	649.12
487.081	634.12
487.299	636.12
487.517	652.12
487.735	639.12
487.953	643.12
488.171	673.12
488.389	632.12
488.607	624.12
488.825	640.12
489.043	643.12
489.261	631.12
489.479	647.12
489.696	630.12
489.914	627.12
490.132	615.12
490.35	628.12
490.568	630.12
490.786	660.12
491.003	635.12
491.221	635.12
491.439	642.12
491.657	631.12
491.874	650.12
492.092	622.12
492.31	628.12
492.527	615.12
492.745	636.12
492.963	635.12
493.18	657.12
493.398	659.12
493.615	644.12
493.833	655.12
494.05	669.12
494.268	643.12
494.485	665.12
494.703	640.12
494.92	652.12
495.138	684.12
495.355	643.12
495.573	660.12
495.79	665.12
496.008	673.12
496.225	700.12
496.442	684.12
496.66	689.12
496.877	696.12
497.094	733.12
497.312	715.12
497.529	725.12
497.746	759.12
497.963	754.12
498.181	778.12
498.398	823.12
498.615	848.12
498.832	884.12
499.049	904.12
499.267	968.12
499.484	988.12
499.701	1081.12
499.918	1118.12
500.135	1189.12
500.352	1250.12
500.569	1269.12
500.786	1237.12
501.003	1224.12
501.22	1114.12
501.437	1082.12
501.654	1020.12
