Data from Fe(NO3)3@0.025M.TitratingCurve.Agarose3%dH2O.NegLispCup.LampEnergy10.LIBS07252019_HRD10591_16-56-45-336.txt Node
Date: Thu Jul 25 16:56:45 EDT 2019
User: cochatt
Spectrometer: HR+D1059
Trigger mode: 1
Integration Time (sec): 1.000000E-1
Scans to average: 1
Electric dark correction enabled: true
Nonlinearity correction enabled: false
Boxcar width: 0
XAxis mode: Wavelengths
Number of Pixels in Spectrum: 2048
>>>>>Begin Spectral Data<<<<<
223.165	-16.5
223.4	-16.5
223.635	-16.5
223.869	-23.5
224.104	-31.5
224.338	-29.5
224.573	-26.5
224.808	-2.5
225.042	-7.5
225.277	0.5
225.511	12.5
225.746	8.5
225.98	8.5
226.215	2.5
226.449	19.5
226.683	24.5
226.918	32.5
227.152	28.5
227.387	38.5
227.621	36.5
227.856	33.5
228.09	24.5
228.324	49.5
228.559	49.5
228.793	64.5
229.027	60.5
229.262	74.5
229.496	71.5
229.73	88.5
229.964	90.5
230.199	72.5
230.433	80.5
230.667	93.5
230.901	99.5
231.136	95.5
231.37	103.5
231.604	88.5
231.838	97.5
232.072	99.5
232.306	104.5
232.541	101.5
232.775	106.5
233.009	106.5
233.243	87.5
233.477	106.5
233.711	95.5
233.945	92.5
234.179	107.5
234.413	88.5
234.647	91.5
234.881	88.5
235.115	100.5
235.349	100.5
235.583	87.5
235.817	92.5
236.051	102.5
236.285	108.5
236.519	100.5
236.753	88.5
236.987	99.5
237.221	95.5
237.455	92.5
237.689	89.5
237.922	99.5
238.156	97.5
238.39	94.5
238.624	97.5
238.858	89.5
239.091	104.5
239.325	97.5
239.559	111.5
239.793	107.5
240.027	105.5
240.26	97.5
240.494	103.5
240.728	105.5
240.961	95.5
241.195	91.5
241.429	112.5
241.662	111.5
241.896	107.5
242.13	108.5
242.363	108.5
242.597	120.5
242.83	119.5
243.064	115.5
243.298	106.5
243.531	112.5
243.765	109.5
243.998	111.5
244.232	127.5
244.465	106.5
244.699	111.5
244.932	112.5
245.166	111.5
245.399	116.5
245.633	105.5
245.866	123.5
246.099	114.5
246.333	113.5
246.566	111.5
246.8	118.5
247.033	119.5
247.266	119.5
247.5	116.5
247.733	125.5
247.966	115.5
248.2	127.5
248.433	108.5
248.666	107.5
248.899	115.5
249.133	123.5
249.366	117.5
249.599	133.5
249.832	112.5
250.066	123.5
250.299	116.5
250.532	121.5
250.765	105.5
250.998	124.5
251.231	125.5
251.465	123.5
251.698	133.5
251.931	120.5
252.164	114.5
252.397	120.5
252.63	119.5
252.863	130.5
253.096	128.5
253.329	131.5
253.562	146.5
253.795	121.5
254.028	149.5
254.261	132.5
254.494	135.5
254.727	116.5
254.96	128.5
255.193	121.5
255.426	134.5
255.659	123.5
255.892	141.5
256.124	126.5
256.357	122.5
256.59	139.5
256.823	146.5
257.056	142.5
257.289	134.5
257.521	166.5
257.754	134.5
257.987	135.5
258.22	160.5
258.452	141.5
258.685	131.5
258.918	129.5
259.151	142.5
259.383	139.5
259.616	139.5
259.849	138.5
260.081	166.5
260.314	163.5
260.547	145.5
260.779	123.5
261.012	138.5
261.244	146.5
261.477	144.5
261.71	144.5
261.942	157.5
262.175	150.5
262.407	152.5
262.64	152.5
262.872	140.5
263.105	136.5
263.337	148.5
263.57	160.5
263.802	170.5
264.035	153.5
264.267	135.5
264.499	158.5
264.732	164.5
264.964	154.5
265.197	156.5
265.429	161.5
265.661	147.5
265.894	156.5
266.126	162.5
266.358	157.5
266.591	160.5
266.823	164.5
267.055	146.5
267.287	160.5
267.52	161.5
267.752	148.5
267.984	144.5
268.216	155.5
268.448	164.5
268.681	173.5
268.913	175.5
269.145	161.5
269.377	161.5
269.609	172.5
269.841	155.5
270.073	173.5
270.306	167.5
270.538	171.5
270.77	162.5
271.002	176.5
271.234	173.5
271.466	186.5
271.698	177.5
271.93	173.5
272.162	176.5
272.394	169.5
272.626	168.5
272.858	178.5
273.09	179.5
273.322	154.5
273.553	159.5
273.785	187.5
274.017	180.5
274.249	170.5
274.481	170.5
274.713	169.5
274.945	172.5
275.176	174.5
275.408	188.5
275.64	165.5
275.872	180.5
276.104	173.5
276.335	186.5
276.567	191.5
276.799	176.5
277.031	188.5
277.262	178.5
277.494	189.5
277.726	193.5
277.957	180.5
278.189	172.5
278.421	188.5
278.652	183.5
278.884	182.5
279.115	162.5
279.347	207.5
279.579	192.5
279.81	194.5
280.042	179.5
280.273	179.5
280.505	178.5
280.736	195.5
280.968	203.5
281.199	183.5
281.431	203.5
281.662	187.5
281.894	198.5
282.125	187.5
282.356	205.5
282.588	190.5
282.819	217.5
283.051	204.5
283.282	188.5
283.513	208.5
283.745	193.5
283.976	203.5
284.207	212.5
284.439	198.5
284.67	199.5
284.901	205.5
285.132	212.5
285.364	201.5
285.595	206.5
285.826	209.5
286.057	224.5
286.288	206.5
286.52	197.5
286.751	179.5
286.982	199.5
287.213	193.5
287.444	209.5
287.675	218.5
287.906	202.5
288.138	215.5
288.369	209.5
288.6	210.5
288.831	224.5
289.062	223.5
289.293	224.5
289.524	211.5
289.755	219.5
289.986	216.5
290.217	219.5
290.448	215.5
290.679	217.5
290.91	223.5
291.141	231.5
291.371	226.5
291.602	200.5
291.833	222.5
292.064	232.5
292.295	220.5
292.526	219.5
292.757	228.5
292.987	215.5
293.218	215.5
293.449	224.5
293.68	213.5
293.91	222.5
294.141	239.5
294.372	228.5
294.603	218.5
294.833	215.5
295.064	226.5
295.295	233.5
295.525	223.5
295.756	222.5
295.987	218.5
296.217	215.5
296.448	227.5
296.679	236.5
296.909	243.5
297.14	234.5
297.37	225.5
297.601	248.5
297.831	244.5
298.062	235.5
298.292	233.5
298.523	247.5
298.753	230.5
298.984	247.5
299.214	239.5
299.445	234.5
299.675	222.5
299.905	216.5
300.136	255.5
300.366	257.5
300.597	245.5
300.827	244.5
301.057	252.5
301.288	257.5
301.518	228.5
301.748	247.5
301.979	223.5
302.209	241.5
302.439	240.5
302.669	245.5
302.9	247.5
303.13	260.5
303.36	257.5
303.59	247.5
303.82	265.5
304.051	253.5
304.281	247.5
304.511	240.5
304.741	259.5
304.971	243.5
305.201	248.5
305.431	257.5
305.661	249.5
305.891	243.5
306.121	241.5
306.352	255.5
306.582	252.5
306.812	243.5
307.042	262.5
307.272	237.5
307.502	245.5
307.731	254.5
307.961	255.5
308.191	264.5
308.421	266.5
308.651	274.5
308.881	261.5
309.111	252.5
309.341	263.5
309.571	260.5
309.8	257.5
310.03	255.5
310.26	243.5
310.49	252.5
310.72	265.5
310.949	252.5
311.179	263.5
311.409	287.5
311.639	273.5
311.868	258.5
312.098	244.5
312.328	265.5
312.557	276.5
312.787	263.5
313.017	274.5
313.246	277.5
313.476	272.5
313.706	252.5
313.935	256.5
314.165	290.5
314.394	261.5
314.624	286.5
314.853	260.5
315.083	288.5
315.312	261.5
315.542	267.5
315.771	279.5
316.001	290.5
316.23	271.5
316.46	277.5
316.689	280.5
316.919	290.5
317.148	290.5
317.377	268.5
317.607	276.5
317.836	284.5
318.065	274.5
318.295	279.5
318.524	279.5
318.753	272.5
318.983	294.5
319.212	282.5
319.441	272.5
319.67	282.5
319.9	273.5
320.129	271.5
320.358	280.5
320.587	275.5
320.816	293.5
321.046	275.5
321.275	284.5
321.504	291.5
321.733	288.5
321.962	284.5
322.191	280.5
322.42	285.5
322.649	272.5
322.878	281.5
323.108	290.5
323.337	293.5
323.566	308.5
323.795	308.5
324.024	294.5
324.253	294.5
324.482	281.5
324.71	298.5
324.939	283.5
325.168	296.5
325.397	283.5
325.626	287.5
325.855	309.5
326.084	311.5
326.313	318.5
326.542	300.5
326.77	315.5
326.999	309.5
327.228	293.5
327.457	303.5
327.686	294.5
327.914	287.5
328.143	308.5
328.372	291.5
328.6	297.5
328.829	316.5
329.058	298.5
329.287	298.5
329.515	310.5
329.744	332.5
329.972	297.5
330.201	309.5
330.43	303.5
330.658	319.5
330.887	313.5
331.115	315.5
331.344	327.5
331.572	325.5
331.801	300.5
332.03	324.5
332.258	326.5
332.486	336.5
332.715	343.5
332.943	342.5
333.172	330.5
333.4	358.5
333.629	367.5
333.857	368.5
334.085	354.5
334.314	343.5
334.542	351.5
334.771	370.5
334.999	330.5
335.227	359.5
335.455	349.5
335.684	370.5
335.912	349.5
336.14	351.5
336.369	345.5
336.597	332.5
336.825	344.5
337.053	341.5
337.281	341.5
337.51	345.5
337.738	346.5
337.966	356.5
338.194	338.5
338.422	318.5
338.65	341.5
338.878	342.5
339.106	334.5
339.334	346.5
339.562	330.5
339.79	341.5
340.018	320.5
340.246	328.5
340.474	309.5
340.702	318.5
340.93	338.5
341.158	317.5
341.386	330.5
341.614	326.5
341.842	313.5
342.07	316.5
342.298	340.5
342.526	330.5
342.754	332.5
342.981	331.5
343.209	344.5
343.437	334.5
343.665	348.5
343.893	340.5
344.12	360.5
344.348	350.5
344.576	349.5
344.804	347.5
345.031	328.5
345.259	348.5
345.487	333.5
345.714	340.5
345.942	338.5
346.17	337.5
346.397	305.5
346.625	336.5
346.853	310.5
347.08	332.5
347.308	314.5
347.535	298.5
347.763	313.5
347.99	322.5
348.218	307.5
348.445	320.5
348.673	305.5
348.9	317.5
349.128	303.5
349.355	323.5
349.583	317.5
349.81	327.5
350.037	314.5
350.265	299.5
350.492	308.5
350.72	326.5
350.947	307.5
351.174	325.5
351.402	320.5
351.629	325.5
351.856	313.5
352.083	312.5
352.311	304.5
352.538	318.5
352.765	333.5
352.992	333.5
353.22	313.5
353.447	317.5
353.674	300.5
353.901	307.5
354.128	313.5
354.355	295.5
354.583	326.5
354.81	334.5
355.037	321.5
355.264	306.5
355.491	329.5
355.718	314.5
355.945	320.5
356.172	316.5
356.399	303.5
356.626	313.5
356.853	315.5
357.08	328.5
357.307	315.5
357.534	316.5
357.761	305.5
357.988	352.5
358.215	336.5
358.441	312.5
358.668	305.5
358.895	314.5
359.122	323.5
359.349	322.5
359.576	313.5
359.802	322.5
360.029	307.5
360.256	321.5
360.483	319.5
360.709	330.5
360.936	319.5
361.163	332.5
361.39	316.5
361.616	319.5
361.843	303.5
362.07	316.5
362.296	319.5
362.523	315.5
362.749	337.5
362.976	316.5
363.203	335.5
363.429	309.5
363.656	317.5
363.882	315.5
364.109	322.5
364.335	328.5
364.562	321.5
364.788	323.5
365.015	326.5
365.241	326.5
365.468	333.5
365.694	320.5
365.92	322.5
366.147	321.5
366.373	345.5
366.599	328.5
366.826	333.5
367.052	329.5
367.278	341.5
367.505	325.5
367.731	304.5
367.957	331.5
368.184	343.5
368.41	327.5
368.636	330.5
368.862	347.5
369.089	331.5
369.315	327.5
369.541	319.5
369.767	323.5
369.993	323.5
370.219	327.5
370.445	326.5
370.672	338.5
370.898	339.5
371.124	336.5
371.35	345.5
371.576	355.5
371.802	364.5
372.028	356.5
372.254	342.5
372.48	345.5
372.706	339.5
372.932	369.5
373.158	360.5
373.384	369.5
373.61	367.5
373.835	368.5
374.061	349.5
374.287	356.5
374.513	359.5
374.739	361.5
374.965	363.5
375.191	362.5
375.416	351.5
375.642	349.5
375.868	349.5
376.094	373.5
376.319	378.5
376.545	367.5
376.771	330.5
376.997	354.5
377.222	335.5
377.448	343.5
377.674	358.5
377.899	349.5
378.125	345.5
378.35	353.5
378.576	328.5
378.802	335.5
379.027	356.5
379.253	361.5
379.478	348.5
379.704	361.5
379.929	351.5
380.155	363.5
380.38	342.5
380.606	342.5
380.831	338.5
381.057	353.5
381.282	350.5
381.507	384.5
381.733	364.5
381.958	343.5
382.184	343.5
382.409	369.5
382.634	359.5
382.86	348.5
383.085	362.5
383.31	370.5
383.535	370.5
383.761	378.5
383.986	375.5
384.211	371.5
384.436	380.5
384.662	364.5
384.887	367.5
385.112	377.5
385.337	373.5
385.562	380.5
385.787	391.5
386.013	410.5
386.238	397.5
386.463	412.5
386.688	409.5
386.913	388.5
387.138	391.5
387.363	387.5
387.588	394.5
387.813	409.5
388.038	401.5
388.263	383.5
388.488	402.5
388.713	402.5
388.938	408.5
389.163	388.5
389.387	389.5
389.612	394.5
389.837	403.5
390.062	401.5
390.287	399.5
390.512	395.5
390.736	395.5
390.961	397.5
391.186	410.5
391.411	407.5
391.636	427.5
391.86	428.5
392.085	434.5
392.31	426.5
392.534	416.5
392.759	419.5
392.984	406.5
393.208	404.5
393.433	428.5
393.658	404.5
393.882	405.5
394.107	420.5
394.331	413.5
394.556	398.5
394.78	421.5
395.005	426.5
395.229	419.5
395.454	438.5
395.678	427.5
395.903	457.5
396.127	425.5
396.352	425.5
396.576	427.5
396.801	427.5
397.025	425.5
397.249	433.5
397.474	451.5
397.698	455.5
397.922	443.5
398.147	455.5
398.371	466.5
398.595	466.5
398.82	488.5
399.044	504.5
399.268	524.5
399.492	571.5
399.717	572.5
399.941	579.5
400.165	553.5
400.389	524.5
400.613	489.5
400.837	499.5
401.062	473.5
401.286	488.5
401.51	484.5
401.734	477.5
401.958	461.5
402.182	474.5
402.406	467.5
402.63	459.5
402.854	480.5
403.078	469.5
403.302	498.5
403.526	497.5
403.75	508.5
403.974	501.5
404.198	475.5
404.422	483.5
404.645	509.5
404.869	481.5
405.093	505.5
405.317	497.5
405.541	502.5
405.765	512.5
405.988	497.5
406.212	482.5
406.436	489.5
406.66	493.5
406.883	503.5
407.107	525.5
407.331	530.5
407.555	537.5
407.778	526.5
408.002	537.5
408.226	538.5
408.449	544.5
408.673	518.5
408.896	516.5
409.12	511.5
409.344	505.5
409.567	512.5
409.791	502.5
410.014	513.5
410.238	498.5
410.461	480.5
410.685	492.5
410.908	497.5
411.132	488.5
411.355	490.5
411.578	471.5
411.802	460.5
412.025	473.5
412.249	475.5
412.472	465.5
412.695	475.5
412.919	480.5
413.142	474.5
413.365	459.5
413.589	469.5
413.812	473.5
414.035	476.5
414.258	462.5
414.482	483.5
414.705	483.5
414.928	483.5
415.151	471.5
415.374	470.5
415.597	459.5
415.821	479.5
416.044	451.5
416.267	454.5
416.49	450.5
416.713	461.5
416.936	447.5
417.159	449.5
417.382	443.5
417.605	448.5
417.828	450.5
418.051	444.5
418.274	468.5
418.497	464.5
418.72	465.5
418.943	469.5
419.166	463.5
419.389	492.5
419.611	476.5
419.834	463.5
420.057	456.5
420.28	454.5
420.503	464.5
420.726	431.5
420.948	449.5
421.171	425.5
421.394	421.5
421.617	446.5
421.839	446.5
422.062	465.5
422.285	450.5
422.507	460.5
422.73	453.5
422.953	460.5
423.175	455.5
423.398	473.5
423.621	464.5
423.843	451.5
424.066	459.5
424.288	444.5
424.511	452.5
424.733	455.5
424.956	437.5
425.178	454.5
425.401	455.5
425.623	440.5
425.846	443.5
426.068	426.5
426.291	446.5
426.513	423.5
426.735	441.5
426.958	435.5
427.18	417.5
427.402	437.5
427.625	411.5
427.847	408.5
428.069	426.5
428.292	432.5
428.514	426.5
428.736	413.5
428.958	420.5
429.181	402.5
429.403	393.5
429.625	408.5
429.847	420.5
430.069	429.5
430.292	420.5
430.514	388.5
430.736	407.5
430.958	407.5
431.18	398.5
431.402	417.5
431.624	423.5
431.846	417.5
432.068	404.5
432.29	425.5
432.512	410.5
432.734	434.5
432.956	429.5
433.178	433.5
433.4	429.5
433.622	435.5
433.844	433.5
434.066	419.5
434.287	425.5
434.509	424.5
434.731	444.5
434.953	447.5
435.175	453.5
435.397	454.5
435.618	418.5
435.84	411.5
436.062	415.5
436.284	397.5
436.505	411.5
436.727	425.5
436.949	422.5
437.17	404.5
437.392	408.5
437.614	386.5
437.835	409.5
438.057	414.5
438.278	405.5
438.5	395.5
438.721	398.5
438.943	419.5
439.165	403.5
439.386	386.5
439.608	401.5
439.829	395.5
440.05	400.5
440.272	397.5
440.493	431.5
440.715	425.5
440.936	417.5
441.158	432.5
441.379	409.5
441.6	436.5
441.822	431.5
442.043	433.5
442.264	444.5
442.486	435.5
442.707	419.5
442.928	442.5
443.149	416.5
443.371	422.5
443.592	438.5
443.813	433.5
444.034	425.5
444.255	452.5
444.476	464.5
444.698	460.5
444.919	479.5
445.14	538.5
445.361	475.5
445.582	438.5
445.803	433.5
446.024	427.5
446.245	435.5
446.466	423.5
446.687	420.5
446.908	419.5
447.129	398.5
447.35	392.5
447.571	395.5
447.792	385.5
448.013	385.5
448.234	383.5
448.455	384.5
448.675	384.5
448.896	393.5
449.117	384.5
449.338	387.5
449.559	402.5
449.779	387.5
450	364.5
450.221	369.5
450.442	374.5
450.662	373.5
450.883	392.5
451.104	371.5
451.324	374.5
451.545	380.5
451.766	375.5
451.986	391.5
452.207	380.5
452.428	397.5
452.648	384.5
452.869	362.5
453.089	383.5
453.31	360.5
453.53	354.5
453.751	360.5
453.971	361.5
454.192	371.5
454.412	355.5
454.633	368.5
454.853	360.5
455.073	358.5
455.294	369.5
455.514	371.5
455.734	356.5
455.955	362.5
456.175	360.5
456.395	365.5
456.616	397.5
456.836	381.5
457.056	378.5
457.276	371.5
457.497	387.5
457.717	368.5
457.937	385.5
458.157	384.5
458.377	392.5
458.598	407.5
458.818	390.5
459.038	398.5
459.258	385.5
459.478	424.5
459.698	408.5
459.918	439.5
460.138	442.5
460.358	428.5
460.578	453.5
460.798	466.5
461.018	454.5
461.238	429.5
461.458	482.5
461.678	457.5
461.898	457.5
462.118	460.5
462.338	460.5
462.558	497.5
462.777	468.5
462.997	525.5
463.217	526.5
463.437	521.5
463.657	515.5
463.876	491.5
464.096	503.5
464.316	479.5
464.536	480.5
464.755	473.5
464.975	471.5
465.195	453.5
465.414	430.5
465.634	448.5
465.854	424.5
466.073	444.5
466.293	412.5
466.512	416.5
466.732	397.5
466.951	407.5
467.171	397.5
467.391	394.5
467.61	408.5
467.829	396.5
468.049	423.5
468.268	408.5
468.488	404.5
468.707	388.5
468.927	398.5
469.146	376.5
469.365	385.5
469.585	393.5
469.804	404.5
470.023	401.5
470.243	390.5
470.462	376.5
470.681	405.5
470.901	420.5
471.12	410.5
471.339	421.5
471.558	401.5
471.777	406.5
471.997	405.5
472.216	422.5
472.435	402.5
472.654	419.5
472.873	397.5
473.092	396.5
473.311	392.5
473.53	402.5
473.749	409.5
473.968	394.5
474.187	392.5
474.406	376.5
474.625	390.5
474.844	402.5
475.063	392.5
475.282	402.5
475.501	424.5
475.72	431.5
475.939	415.5
476.158	409.5
476.377	402.5
476.596	398.5
476.814	423.5
477.033	425.5
477.252	442.5
477.471	442.5
477.69	439.5
477.908	440.5
478.127	440.5
478.346	445.5
478.564	464.5
478.783	459.5
479.002	474.5
479.22	466.5
479.439	465.5
479.658	467.5
479.876	468.5
480.095	480.5
480.313	504.5
480.532	485.5
480.751	499.5
480.969	482.5
481.188	482.5
481.406	465.5
481.624	478.5
481.843	470.5
482.061	466.5
482.28	470.5
482.498	461.5
482.717	465.5
482.935	471.5
483.153	471.5
483.372	468.5
483.59	447.5
483.808	471.5
484.027	477.5
484.245	471.5
484.463	482.5
484.681	469.5
484.9	473.5
485.118	481.5
485.336	470.5
485.554	490.5
485.772	468.5
485.99	481.5
486.209	450.5
486.427	497.5
486.645	499.5
486.863	478.5
487.081	488.5
487.299	481.5
487.517	481.5
487.735	476.5
487.953	478.5
488.171	470.5
488.389	498.5
488.607	485.5
488.825	483.5
489.043	476.5
489.261	480.5
489.479	472.5
489.696	481.5
489.914	468.5
490.132	475.5
490.35	484.5
490.568	478.5
490.786	479.5
491.003	493.5
491.221	497.5
491.439	472.5
491.657	468.5
491.874	504.5
492.092	497.5
492.31	472.5
492.527	507.5
492.745	497.5
492.963	495.5
493.18	505.5
493.398	497.5
493.615	474.5
493.833	513.5
494.05	515.5
494.268	499.5
494.485	485.5
494.703	507.5
494.92	515.5
495.138	490.5
495.355	514.5
495.573	503.5
495.79	493.5
496.008	511.5
496.225	537.5
496.442	530.5
496.66	530.5
496.877	525.5
497.094	538.5
497.312	529.5
497.529	547.5
497.746	572.5
497.963	580.5
498.181	602.5
498.398	608.5
498.615	635.5
498.832	659.5
499.049	699.5
499.267	735.5
499.484	738.5
499.701	801.5
499.918	825.5
500.135	893.5
500.352	943.5
500.569	931.5
500.786	930.5
501.003	907.5
501.22	853.5
501.437	829.5
501.654	748.5
501.871	743.5
502.088	702.5
502.305	673.5
502.522	644.5
502.739	628.5
502.956	610.5
503.172	590.5
503.389	564.5
503.606	566.5
503.823	557.5
504.04	565.5
504.256	539.5
504.473	553.5
504.69	546.5
504.907	544.5
505.123	504.5
505.34	509.5
505.557	501.5
505.773	502.5
505.99	498.5
506.207	470.5
506.423	469.5
506.64	429.5
506.856	455.5
507.073	462.5
507.289	450.5
507.506	436.5
507.722	413.5
507.939	439.5
508.155	443.5
508.372	438.5
508.588	417.5
508.805	412.5
509.021	429.5
509.238	437.5
509.454	420.5
509.67	397.5
509.887	410.5
510.103	407.5
510.319	416.5
510.536	401.5
510.752	388.5
510.968	395.5
511.184	414.5
511.401	423.5
511.617	403.5
511.833	394.5
512.049	419.5
512.265	425.5
512.481	396.5
512.698	385.5
512.914	427.5
513.13	410.5
513.346	432.5
513.562	400.5
513.778	409.5
513.994	414.5
514.21	422.5
514.426	411.5
514.642	403.5
514.858	424.5
515.074	426.5
515.29	426.5
515.506	436.5
515.721	437.5
515.937	440.5
516.153	454.5
516.369	437.5
516.585	470.5
516.801	470.5
517.016	464.5
517.232	447.5
517.448	477.5
517.664	481.5
517.879	480.5
518.095	465.5
518.311	467.5
518.527	475.5
518.742	454.5
518.958	462.5
519.173	465.5
519.389	451.5
519.605	439.5
519.82	424.5
520.036	423.5
