Data from Fe(NO3)3@0.1M.TitratingCurve.Agarose3%dH2O.NegLispCup.LampEnergy10.LIBS07252019_HRD10591_16-38-32-331.txt Node
Date: Thu Jul 25 16:38:32 EDT 2019
User: cochatt
Spectrometer: HR+D1059
Trigger mode: 1
Integration Time (sec): 1.000000E-1
Scans to average: 1
Electric dark correction enabled: true
Nonlinearity correction enabled: false
Boxcar width: 0
XAxis mode: Wavelengths
Number of Pixels in Spectrum: 2048
>>>>>Begin Spectral Data<<<<<
223.165	-31.12
223.4	-31.12
223.635	-31.12
223.869	-13.12
224.104	-12.12
224.338	-5.12
224.573	-13.12
224.808	-21.12
225.042	-8.12
225.277	-9.12
225.511	-1.12
225.746	-3.12
225.98	2.88
226.215	9.88
226.449	13.88
226.683	33.88
226.918	29.88
227.152	26.88
227.387	27.88
227.621	26.88
227.856	52.88
228.09	37.88
228.324	43.88
228.559	48.88
228.793	67.88
229.027	78.88
229.262	76.88
229.496	82.88
229.73	84.88
229.964	83.88
230.199	79.88
230.433	75.88
230.667	87.88
230.901	94.88
231.136	98.88
231.37	103.88
231.604	99.88
231.838	87.88
232.072	89.88
232.306	95.88
232.541	94.88
232.775	101.88
233.009	102.88
233.243	101.88
233.477	94.88
233.711	117.88
233.945	81.88
234.179	94.88
234.413	94.88
234.647	104.88
234.881	103.88
235.115	106.88
235.349	93.88
235.583	95.88
235.817	94.88
236.051	99.88
236.285	99.88
236.519	106.88
236.753	101.88
236.987	91.88
237.221	86.88
237.455	91.88
237.689	111.88
237.922	91.88
238.156	94.88
238.39	88.88
238.624	107.88
238.858	106.88
239.091	88.88
239.325	87.88
239.559	106.88
239.793	106.88
240.027	114.88
240.26	96.88
240.494	103.88
240.728	121.88
240.961	103.88
241.195	102.88
241.429	98.88
241.662	115.88
241.896	113.88
242.13	107.88
242.363	105.88
242.597	92.88
242.83	109.88
243.064	98.88
243.298	110.88
243.531	121.88
243.765	101.88
243.998	109.88
244.232	112.88
244.465	105.88
244.699	105.88
244.932	95.88
245.166	110.88
245.399	116.88
245.633	111.88
245.866	107.88
246.099	117.88
246.333	113.88
246.566	119.88
246.8	121.88
247.033	113.88
247.266	110.88
247.5	111.88
247.733	110.88
247.966	120.88
248.2	103.88
248.433	107.88
248.666	121.88
248.899	123.88
249.133	107.88
249.366	142.88
249.599	125.88
249.832	121.88
250.066	126.88
250.299	115.88
250.532	129.88
250.765	114.88
250.998	126.88
251.231	122.88
251.465	126.88
251.698	114.88
251.931	113.88
252.164	125.88
252.397	140.88
252.63	118.88
252.863	117.88
253.096	119.88
253.329	120.88
253.562	111.88
253.795	137.88
254.028	127.88
254.261	132.88
254.494	129.88
254.727	129.88
254.96	136.88
255.193	129.88
255.426	125.88
255.659	130.88
255.892	129.88
256.124	126.88
256.357	124.88
256.59	132.88
256.823	129.88
257.056	131.88
257.289	126.88
257.521	131.88
257.754	126.88
257.987	131.88
258.22	116.88
258.452	126.88
258.685	124.88
258.918	141.88
259.151	131.88
259.383	135.88
259.616	144.88
259.849	144.88
260.081	139.88
260.314	149.88
260.547	135.88
260.779	139.88
261.012	131.88
261.244	139.88
261.477	148.88
261.71	148.88
261.942	136.88
262.175	152.88
262.407	134.88
262.64	151.88
262.872	135.88
263.105	139.88
263.337	157.88
263.57	151.88
263.802	140.88
264.035	134.88
264.267	129.88
264.499	137.88
264.732	131.88
264.964	139.88
265.197	158.88
265.429	143.88
265.661	141.88
265.894	158.88
266.126	166.88
266.358	152.88
266.591	151.88
266.823	154.88
267.055	141.88
267.287	145.88
267.52	136.88
267.752	162.88
267.984	142.88
268.216	157.88
268.448	126.88
268.681	157.88
268.913	145.88
269.145	154.88
269.377	149.88
269.609	136.88
269.841	137.88
270.073	140.88
270.306	146.88
270.538	159.88
270.77	141.88
271.002	160.88
271.234	156.88
271.466	150.88
271.698	163.88
271.93	165.88
272.162	151.88
272.394	158.88
272.626	165.88
272.858	157.88
273.09	151.88
273.322	162.88
273.553	144.88
273.785	142.88
274.017	170.88
274.249	188.88
274.481	183.88
274.713	167.88
274.945	187.88
275.176	166.88
275.408	178.88
275.64	159.88
275.872	155.88
276.104	173.88
276.335	153.88
276.567	146.88
276.799	168.88
277.031	163.88
277.262	155.88
277.494	159.88
277.726	157.88
277.957	173.88
278.189	172.88
278.421	189.88
278.652	189.88
278.884	175.88
279.115	158.88
279.347	174.88
279.579	182.88
279.81	154.88
280.042	175.88
280.273	162.88
280.505	173.88
280.736	177.88
280.968	173.88
281.199	173.88
281.431	177.88
281.662	170.88
281.894	164.88
282.125	185.88
282.356	183.88
282.588	172.88
282.819	174.88
283.051	191.88
283.282	171.88
283.513	185.88
283.745	178.88
283.976	186.88
284.207	185.88
284.439	168.88
284.67	184.88
284.901	169.88
285.132	179.88
285.364	198.88
285.595	191.88
285.826	185.88
286.057	199.88
286.288	169.88
286.52	183.88
286.751	187.88
286.982	187.88
287.213	186.88
287.444	183.88
287.675	183.88
287.906	201.88
288.138	193.88
288.369	186.88
288.6	196.88
288.831	193.88
289.062	172.88
289.293	194.88
289.524	169.88
289.755	185.88
289.986	182.88
290.217	202.88
290.448	188.88
290.679	185.88
290.91	192.88
291.141	191.88
291.371	199.88
291.602	189.88
291.833	209.88
292.064	191.88
292.295	187.88
292.526	197.88
292.757	207.88
292.987	191.88
293.218	191.88
293.449	193.88
293.68	186.88
293.91	175.88
294.141	187.88
294.372	204.88
294.603	187.88
294.833	197.88
295.064	200.88
295.295	207.88
295.525	205.88
295.756	202.88
295.987	211.88
296.217	198.88
296.448	199.88
296.679	192.88
296.909	203.88
297.14	195.88
297.37	212.88
297.601	202.88
297.831	201.88
298.062	201.88
298.292	200.88
298.523	223.88
298.753	207.88
298.984	195.88
299.214	219.88
299.445	202.88
299.675	198.88
299.905	209.88
300.136	202.88
300.366	204.88
300.597	217.88
300.827	211.88
301.057	206.88
301.288	223.88
301.518	219.88
301.748	189.88
301.979	204.88
302.209	212.88
302.439	203.88
302.669	221.88
302.9	218.88
303.13	216.88
303.36	199.88
303.59	218.88
303.82	221.88
304.051	222.88
304.281	217.88
304.511	216.88
304.741	222.88
304.971	207.88
305.201	212.88
305.431	214.88
305.661	203.88
305.891	207.88
306.121	231.88
306.352	212.88
306.582	205.88
306.812	222.88
307.042	208.88
307.272	201.88
307.502	211.88
307.731	200.88
307.961	218.88
308.191	214.88
308.421	223.88
308.651	215.88
308.881	205.88
309.111	206.88
309.341	200.88
309.571	206.88
309.8	224.88
310.03	225.88
310.26	228.88
310.49	220.88
310.72	221.88
310.949	214.88
311.179	201.88
311.409	206.88
311.639	231.88
311.868	218.88
312.098	232.88
312.328	227.88
312.557	230.88
312.787	222.88
313.017	215.88
313.246	230.88
313.476	223.88
313.706	244.88
313.935	232.88
314.165	229.88
314.394	242.88
314.624	232.88
314.853	241.88
315.083	213.88
315.312	214.88
315.542	224.88
315.771	225.88
316.001	238.88
316.23	221.88
316.46	247.88
316.689	234.88
316.919	241.88
317.148	221.88
317.377	244.88
317.607	233.88
317.836	227.88
318.065	231.88
318.295	234.88
318.524	227.88
318.753	248.88
318.983	228.88
319.212	233.88
319.441	236.88
319.67	218.88
319.9	228.88
320.129	234.88
320.358	218.88
320.587	218.88
320.816	226.88
321.046	230.88
321.275	219.88
321.504	235.88
321.733	237.88
321.962	253.88
322.191	231.88
322.42	236.88
322.649	219.88
322.878	233.88
323.108	242.88
323.337	234.88
323.566	255.88
323.795	230.88
324.024	250.88
324.253	255.88
324.482	234.88
324.71	236.88
324.939	255.88
325.168	235.88
325.397	236.88
325.626	238.88
325.855	237.88
326.084	251.88
326.313	241.88
326.542	231.88
326.77	243.88
326.999	260.88
327.228	232.88
327.457	249.88
327.686	251.88
327.914	246.88
328.143	244.88
328.372	245.88
328.6	250.88
328.829	254.88
329.058	254.88
329.287	242.88
329.515	243.88
329.744	247.88
329.972	250.88
330.201	248.88
330.43	270.88
330.658	248.88
330.887	268.88
331.115	247.88
331.344	255.88
331.572	240.88
331.801	252.88
332.03	266.88
332.258	282.88
332.486	272.88
332.715	274.88
332.943	277.88
333.172	283.88
333.4	299.88
333.629	306.88
333.857	305.88
334.085	297.88
334.314	322.88
334.542	296.88
334.771	302.88
334.999	291.88
335.227	291.88
335.455	296.88
335.684	300.88
335.912	271.88
336.14	287.88
336.369	287.88
336.597	274.88
336.825	283.88
337.053	287.88
337.281	274.88
337.51	294.88
337.738	271.88
337.966	281.88
338.194	266.88
338.422	258.88
338.65	252.88
338.878	284.88
339.106	248.88
339.334	264.88
339.562	270.88
339.79	246.88
340.018	260.88
340.246	267.88
340.474	251.88
340.702	277.88
340.93	271.88
341.158	267.88
341.386	265.88
341.614	246.88
341.842	257.88
342.07	249.88
342.298	265.88
342.526	277.88
342.754	262.88
342.981	271.88
343.209	268.88
343.437	294.88
343.665	295.88
343.893	294.88
344.12	311.88
344.348	293.88
344.576	281.88
344.804	269.88
345.031	275.88
345.259	270.88
345.487	251.88
345.714	261.88
345.942	259.88
346.17	257.88
346.397	242.88
346.625	248.88
346.853	249.88
347.08	251.88
347.308	253.88
347.535	261.88
347.763	264.88
347.99	244.88
348.218	271.88
348.445	264.88
348.673	243.88
348.9	248.88
349.128	263.88
349.355	249.88
349.583	255.88
349.81	248.88
350.037	265.88
350.265	254.88
350.492	261.88
350.72	251.88
350.947	260.88
351.174	274.88
351.402	243.88
351.629	242.88
351.856	249.88
352.083	250.88
352.311	247.88
352.538	251.88
352.765	265.88
352.992	258.88
353.22	261.88
353.447	252.88
353.674	242.88
353.901	254.88
354.128	259.88
354.355	267.88
354.583	258.88
354.81	259.88
355.037	250.88
355.264	236.88
355.491	253.88
355.718	256.88
355.945	237.88
356.172	253.88
356.399	283.88
356.626	258.88
356.853	268.88
357.08	247.88
357.307	242.88
357.534	267.88
357.761	261.88
357.988	270.88
358.215	262.88
358.441	246.88
358.668	257.88
358.895	255.88
359.122	261.88
359.349	270.88
359.576	235.88
359.802	247.88
360.029	240.88
360.256	265.88
360.483	263.88
360.709	263.88
360.936	264.88
361.163	267.88
361.39	249.88
361.616	241.88
361.843	251.88
362.07	250.88
362.296	255.88
362.523	238.88
362.749	254.88
362.976	248.88
363.203	265.88
363.429	254.88
363.656	251.88
363.882	263.88
364.109	254.88
364.335	268.88
364.562	261.88
364.788	252.88
365.015	265.88
365.241	268.88
365.468	266.88
365.694	251.88
365.92	268.88
366.147	244.88
366.373	281.88
366.599	259.88
366.826	262.88
367.052	246.88
367.278	257.88
367.505	251.88
367.731	274.88
367.957	265.88
368.184	252.88
368.41	249.88
368.636	281.88
368.862	289.88
369.089	263.88
369.315	276.88
369.541	265.88
369.767	269.88
369.993	254.88
370.219	274.88
370.445	267.88
370.672	280.88
370.898	269.88
371.124	273.88
371.35	269.88
371.576	275.88
371.802	293.88
372.028	275.88
372.254	277.88
372.48	277.88
372.706	292.88
372.932	285.88
373.158	275.88
373.384	287.88
373.61	281.88
373.835	282.88
374.061	280.88
374.287	298.88
374.513	305.88
374.739	311.88
374.965	297.88
375.191	309.88
375.416	311.88
375.642	282.88
375.868	293.88
376.094	290.88
376.319	291.88
376.545	292.88
376.771	271.88
376.997	286.88
377.222	283.88
377.448	275.88
377.674	276.88
377.899	288.88
378.125	278.88
378.35	273.88
378.576	280.88
378.802	270.88
379.027	274.88
379.253	286.88
379.478	277.88
379.704	285.88
379.929	283.88
380.155	286.88
380.38	292.88
380.606	290.88
380.831	294.88
381.057	280.88
381.282	277.88
381.507	272.88
381.733	278.88
381.958	300.88
382.184	294.88
382.409	279.88
382.634	302.88
382.86	283.88
383.085	298.88
383.31	322.88
383.535	301.88
383.761	307.88
383.986	309.88
384.211	302.88
384.436	324.88
384.662	317.88
384.887	309.88
385.112	323.88
385.337	344.88
385.562	313.88
385.787	316.88
386.013	326.88
386.238	329.88
386.463	314.88
386.688	325.88
386.913	321.88
387.138	300.88
387.363	334.88
387.588	331.88
387.813	332.88
388.038	351.88
388.263	327.88
388.488	306.88
388.713	329.88
388.938	346.88
389.163	335.88
389.387	302.88
389.612	312.88
389.837	326.88
390.062	324.88
390.287	330.88
390.512	334.88
390.736	322.88
390.961	331.88
391.186	339.88
391.411	346.88
391.636	338.88
391.86	349.88
392.085	365.88
392.31	357.88
392.534	338.88
392.759	365.88
392.984	343.88
393.208	339.88
393.433	338.88
393.658	358.88
393.882	348.88
394.107	347.88
394.331	344.88
394.556	329.88
394.78	354.88
395.005	336.88
395.229	340.88
395.454	369.88
395.678	351.88
395.903	335.88
396.127	341.88
396.352	341.88
396.576	353.88
396.801	349.88
397.025	347.88
397.249	348.88
397.474	340.88
397.698	362.88
397.922	355.88
398.147	348.88
398.371	355.88
398.595	389.88
398.82	382.88
399.044	407.88
399.268	420.88
399.492	490.88
399.717	512.88
399.941	483.88
400.165	439.88
400.389	419.88
400.613	420.88
400.837	393.88
401.062	391.88
401.286	380.88
401.51	390.88
401.734	404.88
401.958	395.88
402.182	405.88
402.406	414.88
402.63	399.88
402.854	394.88
403.078	415.88
403.302	418.88
403.526	418.88
403.75	404.88
403.974	414.88
404.198	429.88
404.422	418.88
404.645	417.88
404.869	423.88
405.093	426.88
405.317	409.88
405.541	397.88
405.765	396.88
405.988	413.88
406.212	405.88
406.436	423.88
406.66	422.88
406.883	422.88
407.107	452.88
407.331	450.88
407.555	427.88
407.778	462.88
408.002	445.88
408.226	421.88
408.449	423.88
408.673	436.88
408.896	414.88
409.12	436.88
409.344	409.88
409.567	410.88
409.791	414.88
410.014	435.88
410.238	409.88
410.461	418.88
410.685	405.88
410.908	396.88
411.132	403.88
411.355	394.88
411.578	379.88
411.802	411.88
412.025	389.88
412.249	409.88
412.472	415.88
412.695	387.88
412.919	395.88
413.142	381.88
413.365	403.88
413.589	412.88
413.812	388.88
414.035	391.88
414.258	397.88
414.482	396.88
414.705	411.88
414.928	378.88
415.151	377.88
415.374	387.88
415.597	383.88
415.821	366.88
416.044	389.88
416.267	377.88
416.49	380.88
416.713	365.88
416.936	369.88
417.159	370.88
417.382	376.88
417.605	387.88
417.828	393.88
418.051	393.88
418.274	388.88
418.497	369.88
418.72	390.88
418.943	384.88
419.166	400.88
419.389	405.88
419.611	391.88
419.834	391.88
420.057	381.88
420.28	381.88
420.503	393.88
420.726	362.88
420.948	369.88
421.171	381.88
421.394	381.88
421.617	387.88
421.839	374.88
422.062	390.88
422.285	401.88
422.507	385.88
422.73	400.88
422.953	392.88
423.175	395.88
423.398	392.88
423.621	393.88
423.843	408.88
424.066	401.88
424.288	403.88
424.511	381.88
424.733	400.88
424.956	372.88
425.178	366.88
425.401	369.88
425.623	387.88
425.846	360.88
426.068	355.88
426.291	364.88
426.513	372.88
426.735	357.88
426.958	377.88
427.18	360.88
427.402	356.88
427.625	355.88
427.847	349.88
428.069	351.88
428.292	347.88
428.514	356.88
428.736	355.88
428.958	337.88
429.181	345.88
429.403	347.88
429.625	327.88
429.847	343.88
430.069	348.88
430.292	337.88
430.514	356.88
430.736	357.88
430.958	347.88
431.18	346.88
431.402	333.88
431.624	356.88
431.846	339.88
432.068	355.88
432.29	354.88
432.512	339.88
432.734	363.88
432.956	345.88
433.178	362.88
433.4	346.88
433.622	356.88
433.844	341.88
434.066	345.88
434.287	368.88
434.509	371.88
434.731	373.88
434.953	373.88
435.175	373.88
435.397	388.88
435.618	356.88
435.84	359.88
436.062	348.88
436.284	357.88
436.505	342.88
436.727	345.88
436.949	356.88
437.17	339.88
437.392	347.88
437.614	338.88
437.835	343.88
438.057	360.88
438.278	351.88
438.5	326.88
438.721	339.88
438.943	343.88
439.165	338.88
439.386	354.88
439.608	347.88
439.829	367.88
440.05	361.88
440.272	361.88
440.493	346.88
440.715	342.88
440.936	380.88
441.158	369.88
441.379	370.88
441.6	365.88
441.822	371.88
442.043	381.88
442.264	377.88
442.486	375.88
442.707	366.88
442.928	398.88
443.149	382.88
443.371	379.88
443.592	379.88
443.813	381.88
444.034	391.88
444.255	397.88
444.476	420.88
444.698	437.88
444.919	418.88
445.14	536.88
445.361	431.88
445.582	393.88
445.803	366.88
446.024	375.88
446.245	368.88
446.466	343.88
446.687	356.88
446.908	355.88
447.129	351.88
447.35	356.88
447.571	360.88
447.792	338.88
448.013	339.88
448.234	324.88
448.455	346.88
448.675	318.88
448.896	347.88
449.117	337.88
449.338	324.88
449.559	332.88
449.779	324.88
450	326.88
450.221	343.88
450.442	335.88
450.662	330.88
450.883	341.88
451.104	313.88
451.324	317.88
451.545	335.88
451.766	334.88
451.986	332.88
452.207	329.88
452.428	339.88
452.648	330.88
452.869	331.88
453.089	307.88
453.31	315.88
453.53	333.88
453.751	327.88
453.971	336.88
454.192	314.88
454.412	301.88
454.633	307.88
454.853	331.88
455.073	294.88
455.294	321.88
455.514	309.88
455.734	306.88
455.955	316.88
456.175	317.88
456.395	318.88
456.616	326.88
456.836	298.88
457.056	308.88
457.276	293.88
457.497	311.88
457.717	297.88
457.937	312.88
458.157	295.88
458.377	312.88
458.598	321.88
458.818	321.88
459.038	340.88
459.258	334.88
459.478	356.88
459.698	374.88
459.918	360.88
460.138	381.88
460.358	391.88
460.578	398.88
460.798	373.88
461.018	383.88
461.238	400.88
461.458	396.88
461.678	376.88
461.898	412.88
462.118	401.88
462.338	412.88
462.558	414.88
462.777	435.88
462.997	458.88
463.217	492.88
463.437	477.88
463.657	424.88
463.876	428.88
464.096	426.88
464.316	443.88
464.536	430.88
464.755	434.88
464.975	406.88
465.195	409.88
465.414	393.88
465.634	374.88
465.854	358.88
466.073	356.88
466.293	339.88
466.512	347.88
466.732	340.88
466.951	342.88
467.171	353.88
467.391	338.88
467.61	350.88
467.829	338.88
468.049	329.88
468.268	343.88
468.488	318.88
468.707	335.88
468.927	326.88
469.146	345.88
469.365	342.88
469.585	327.88
469.804	349.88
470.023	358.88
470.243	347.88
470.462	351.88
470.681	354.88
470.901	360.88
471.12	334.88
471.339	353.88
471.558	364.88
471.777	357.88
471.997	356.88
472.216	331.88
472.435	332.88
472.654	335.88
472.873	309.88
473.092	321.88
473.311	330.88
473.53	329.88
473.749	321.88
473.968	335.88
474.187	311.88
474.406	330.88
474.625	349.88
474.844	347.88
475.063	337.88
475.282	346.88
475.501	341.88
475.72	343.88
475.939	342.88
476.158	338.88
476.377	344.88
476.596	351.88
476.814	354.88
477.033	333.88
477.252	350.88
477.471	360.88
477.69	365.88
477.908	373.88
478.127	366.88
478.346	390.88
478.564	395.88
478.783	377.88
479.002	391.88
479.22	397.88
479.439	391.88
479.658	410.88
479.876	377.88
480.095	412.88
480.313	423.88
480.532	396.88
480.751	415.88
480.969	395.88
481.188	395.88
481.406	400.88
481.624	385.88
481.843	383.88
482.061	379.88
482.28	370.88
482.498	377.88
482.717	370.88
482.935	351.88
483.153	373.88
483.372	365.88
483.59	373.88
483.808	362.88
484.027	381.88
484.245	389.88
484.463	382.88
484.681	381.88
484.9	370.88
485.118	366.88
485.336	373.88
485.554	387.88
485.772	389.88
485.99	371.88
486.209	391.88
486.427	386.88
486.645	402.88
486.863	404.88
487.081	376.88
487.299	376.88
487.517	385.88
487.735	400.88
487.953	381.88
488.171	381.88
488.389	376.88
488.607	392.88
488.825	392.88
489.043	373.88
489.261	380.88
489.479	383.88
489.696	392.88
489.914	398.88
490.132	376.88
490.35	381.88
490.568	383.88
490.786	399.88
491.003	394.88
491.221	390.88
491.439	382.88
491.657	407.88
491.874	407.88
492.092	388.88
492.31	411.88
492.527	397.88
492.745	401.88
492.963	397.88
493.18	420.88
493.398	407.88
493.615	404.88
493.833	400.88
494.05	408.88
494.268	405.88
494.485	399.88
494.703	393.88
494.92	402.88
495.138	393.88
495.355	399.88
495.573	391.88
495.79	407.88
496.008	400.88
496.225	418.88
496.442	420.88
496.66	425.88
496.877	425.88
497.094	439.88
497.312	438.88
497.529	446.88
497.746	430.88
497.963	454.88
498.181	461.88
498.398	490.88
498.615	497.88
498.832	526.88
499.049	552.88
499.267	616.88
499.484	638.88
499.701	659.88
499.918	711.88
500.135	798.88
500.352	900.88
500.569	903.88
500.786	889.88
501.003	846.88
501.22	758.88
501.437	664.88
501.654	656.88
501.871	582.88
502.088	554.88
