Data from Fe(NO3)3@0.1M.TitratingCurve.Agarose3%dH2O.NegLispCup.LampEnergy10.LIBS07252019_HRD10591_16-38-12-331.txt Node
Date: Thu Jul 25 16:38:12 EDT 2019
User: cochatt
Spectrometer: HR+D1059
Trigger mode: 1
Integration Time (sec): 1.000000E-1
Scans to average: 1
Electric dark correction enabled: true
Nonlinearity correction enabled: false
Boxcar width: 0
XAxis mode: Wavelengths
Number of Pixels in Spectrum: 2048
>>>>>Begin Spectral Data<<<<<
223.165	-6.75
223.4	-6.75
223.635	-6.75
223.869	-22.75
224.104	-19.75
224.338	-4.75
224.573	-24.75
224.808	-10.75
225.042	-22.75
225.277	6.25
225.511	-8.75
225.746	-4.75
225.98	18.25
226.215	7.25
226.449	22.25
226.683	18.25
226.918	17.25
227.152	36.25
227.387	28.25
227.621	38.25
227.856	51.25
228.09	37.25
228.324	36.25
228.559	61.25
228.793	50.25
229.027	77.25
229.262	75.25
229.496	80.25
229.73	85.25
229.964	88.25
230.199	100.25
230.433	91.25
230.667	92.25
230.901	96.25
231.136	109.25
231.37	101.25
231.604	111.25
231.838	99.25
232.072	81.25
232.306	95.25
232.541	98.25
232.775	92.25
233.009	98.25
233.243	116.25
233.477	96.25
233.711	93.25
233.945	110.25
234.179	100.25
234.413	115.25
234.647	106.25
234.881	106.25
235.115	106.25
235.349	102.25
235.583	122.25
235.817	104.25
236.051	83.25
236.285	108.25
236.519	103.25
236.753	106.25
236.987	107.25
237.221	115.25
237.455	120.25
237.689	98.25
237.922	113.25
238.156	103.25
238.39	105.25
238.624	92.25
238.858	106.25
239.091	106.25
239.325	88.25
239.559	113.25
239.793	92.25
240.027	111.25
240.26	115.25
240.494	119.25
240.728	113.25
240.961	107.25
241.195	104.25
241.429	108.25
241.662	108.25
241.896	113.25
242.13	111.25
242.363	123.25
242.597	101.25
242.83	117.25
243.064	123.25
243.298	105.25
243.531	109.25
243.765	112.25
243.998	127.25
244.232	111.25
244.465	117.25
244.699	131.25
244.932	118.25
245.166	126.25
245.399	127.25
245.633	125.25
245.866	121.25
246.099	108.25
246.333	112.25
246.566	136.25
246.8	125.25
247.033	123.25
247.266	98.25
247.5	138.25
247.733	137.25
247.966	136.25
248.2	134.25
248.433	134.25
248.666	123.25
248.899	136.25
249.133	150.25
249.366	134.25
249.599	136.25
249.832	137.25
250.066	134.25
250.299	132.25
250.532	129.25
250.765	154.25
250.998	147.25
251.231	142.25
251.465	149.25
251.698	163.25
251.931	135.25
252.164	149.25
252.397	139.25
252.63	147.25
252.863	159.25
253.096	153.25
253.329	131.25
253.562	123.25
253.795	149.25
254.028	151.25
254.261	156.25
254.494	149.25
254.727	150.25
254.96	159.25
255.193	158.25
255.426	139.25
255.659	151.25
255.892	153.25
256.124	147.25
256.357	148.25
256.59	164.25
256.823	160.25
257.056	151.25
257.289	148.25
257.521	151.25
257.754	150.25
257.987	134.25
258.22	167.25
258.452	154.25
258.685	147.25
258.918	159.25
259.151	153.25
259.383	167.25
259.616	153.25
259.849	158.25
260.081	160.25
260.314	179.25
260.547	165.25
260.779	159.25
261.012	177.25
261.244	161.25
261.477	179.25
261.71	160.25
261.942	155.25
262.175	165.25
262.407	154.25
262.64	181.25
262.872	180.25
263.105	169.25
263.337	183.25
263.57	166.25
263.802	177.25
264.035	155.25
264.267	177.25
264.499	173.25
264.732	169.25
264.964	172.25
265.197	168.25
265.429	161.25
265.661	173.25
265.894	164.25
266.126	170.25
266.358	160.25
266.591	180.25
266.823	178.25
267.055	171.25
267.287	187.25
267.52	181.25
267.752	176.25
267.984	160.25
268.216	196.25
268.448	193.25
268.681	184.25
268.913	179.25
269.145	191.25
269.377	192.25
269.609	182.25
269.841	177.25
270.073	177.25
270.306	195.25
270.538	176.25
270.77	172.25
271.002	180.25
271.234	173.25
271.466	201.25
271.698	186.25
271.93	186.25
272.162	179.25
272.394	189.25
272.626	197.25
272.858	197.25
273.09	200.25
273.322	199.25
273.553	190.25
273.785	192.25
274.017	207.25
274.249	214.25
274.481	208.25
274.713	203.25
274.945	199.25
275.176	216.25
275.408	200.25
275.64	204.25
275.872	204.25
276.104	198.25
276.335	195.25
276.567	201.25
276.799	194.25
277.031	209.25
277.262	198.25
277.494	212.25
277.726	221.25
277.957	208.25
278.189	210.25
278.421	213.25
278.652	187.25
278.884	216.25
279.115	203.25
279.347	208.25
279.579	228.25
279.81	213.25
280.042	208.25
280.273	218.25
280.505	212.25
280.736	217.25
280.968	216.25
281.199	222.25
281.431	232.25
281.662	206.25
281.894	207.25
282.125	223.25
282.356	219.25
282.588	222.25
282.819	227.25
283.051	232.25
283.282	220.25
283.513	227.25
283.745	218.25
283.976	230.25
284.207	237.25
284.439	225.25
284.67	212.25
284.901	228.25
285.132	215.25
285.364	227.25
285.595	221.25
285.826	226.25
286.057	221.25
286.288	222.25
286.52	213.25
286.751	236.25
286.982	233.25
287.213	236.25
287.444	239.25
287.675	239.25
287.906	229.25
288.138	245.25
288.369	239.25
288.6	234.25
288.831	246.25
289.062	258.25
289.293	249.25
289.524	234.25
289.755	241.25
289.986	234.25
290.217	227.25
290.448	232.25
290.679	240.25
290.91	248.25
291.141	226.25
291.371	239.25
291.602	259.25
291.833	231.25
292.064	248.25
292.295	219.25
292.526	244.25
292.757	249.25
292.987	243.25
293.218	258.25
293.449	243.25
293.68	253.25
293.91	240.25
294.141	232.25
294.372	247.25
294.603	232.25
294.833	234.25
295.064	236.25
295.295	256.25
295.525	253.25
295.756	241.25
295.987	255.25
296.217	259.25
296.448	243.25
296.679	243.25
296.909	250.25
297.14	259.25
297.37	263.25
297.601	248.25
297.831	254.25
298.062	274.25
298.292	255.25
298.523	243.25
298.753	255.25
298.984	261.25
299.214	246.25
299.445	264.25
299.675	266.25
299.905	274.25
300.136	260.25
300.366	252.25
300.597	257.25
300.827	268.25
301.057	276.25
301.288	250.25
301.518	263.25
301.748	261.25
301.979	263.25
302.209	265.25
302.439	278.25
302.669	298.25
302.9	278.25
303.13	284.25
303.36	287.25
303.59	286.25
303.82	294.25
304.051	275.25
304.281	287.25
304.511	288.25
304.741	284.25
304.971	275.25
305.201	283.25
305.431	283.25
305.661	298.25
305.891	281.25
306.121	283.25
306.352	262.25
306.582	292.25
306.812	299.25
307.042	265.25
307.272	274.25
307.502	275.25
307.731	268.25
307.961	291.25
308.191	287.25
308.421	280.25
308.651	293.25
308.881	275.25
309.111	266.25
309.341	273.25
309.571	271.25
309.8	285.25
310.03	280.25
310.26	280.25
310.49	267.25
310.72	284.25
310.949	275.25
311.179	280.25
311.409	289.25
311.639	306.25
311.868	277.25
312.098	288.25
312.328	293.25
312.557	286.25
312.787	285.25
313.017	268.25
313.246	297.25
313.476	283.25
313.706	287.25
313.935	295.25
314.165	302.25
314.394	279.25
314.624	293.25
314.853	306.25
315.083	299.25
315.312	297.25
315.542	299.25
315.771	310.25
316.001	294.25
316.23	303.25
316.46	304.25
316.689	279.25
316.919	269.25
317.148	310.25
317.377	288.25
317.607	299.25
317.836	309.25
318.065	294.25
318.295	298.25
318.524	292.25
318.753	297.25
318.983	296.25
319.212	275.25
319.441	294.25
319.67	285.25
319.9	297.25
320.129	293.25
320.358	293.25
320.587	305.25
320.816	291.25
321.046	295.25
321.275	315.25
321.504	306.25
321.733	307.25
321.962	307.25
322.191	310.25
322.42	311.25
322.649	295.25
322.878	319.25
323.108	301.25
323.337	301.25
323.566	316.25
323.795	298.25
324.024	323.25
324.253	308.25
324.482	320.25
324.71	305.25
324.939	308.25
325.168	310.25
325.397	320.25
325.626	315.25
325.855	324.25
326.084	330.25
326.313	323.25
326.542	319.25
326.77	317.25
326.999	311.25
327.228	315.25
327.457	319.25
327.686	320.25
327.914	299.25
328.143	332.25
328.372	322.25
328.6	323.25
328.829	326.25
329.058	322.25
329.287	306.25
329.515	333.25
329.744	328.25
329.972	337.25
330.201	336.25
330.43	329.25
330.658	318.25
330.887	356.25
331.115	337.25
331.344	333.25
331.572	343.25
331.801	340.25
332.03	323.25
332.258	333.25
332.486	354.25
332.715	375.25
332.943	371.25
333.172	362.25
333.4	397.25
333.629	388.25
333.857	404.25
334.085	388.25
334.314	411.25
334.542	397.25
334.771	390.25
334.999	387.25
335.227	372.25
335.455	369.25
335.684	379.25
335.912	381.25
336.14	367.25
336.369	393.25
336.597	372.25
336.825	378.25
337.053	361.25
337.281	358.25
337.51	357.25
337.738	382.25
337.966	355.25
338.194	367.25
338.422	345.25
338.65	352.25
338.878	364.25
339.106	335.25
339.334	347.25
339.562	349.25
339.79	361.25
340.018	353.25
340.246	327.25
340.474	338.25
340.702	336.25
340.93	333.25
341.158	343.25
341.386	329.25
341.614	343.25
341.842	357.25
342.07	329.25
342.298	343.25
342.526	359.25
342.754	325.25
342.981	343.25
343.209	328.25
343.437	365.25
343.665	384.25
343.893	387.25
344.12	375.25
344.348	371.25
344.576	371.25
344.804	371.25
345.031	368.25
345.259	351.25
345.487	342.25
345.714	333.25
345.942	334.25
346.17	345.25
346.397	332.25
346.625	328.25
346.853	332.25
347.08	340.25
347.308	351.25
347.535	338.25
347.763	347.25
347.99	346.25
348.218	337.25
348.445	323.25
348.673	343.25
348.9	329.25
349.128	325.25
349.355	339.25
349.583	335.25
349.81	334.25
350.037	336.25
350.265	340.25
350.492	317.25
350.72	302.25
350.947	317.25
351.174	340.25
351.402	306.25
351.629	347.25
351.856	339.25
352.083	315.25
352.311	325.25
352.538	311.25
352.765	327.25
352.992	336.25
353.22	321.25
353.447	328.25
353.674	322.25
353.901	316.25
354.128	321.25
354.355	340.25
354.583	328.25
354.81	309.25
355.037	325.25
355.264	329.25
355.491	319.25
355.718	324.25
355.945	341.25
356.172	320.25
356.399	323.25
356.626	327.25
356.853	339.25
357.08	339.25
357.307	320.25
357.534	342.25
357.761	339.25
357.988	326.25
358.215	353.25
358.441	345.25
358.668	328.25
358.895	320.25
359.122	333.25
359.349	330.25
359.576	332.25
359.802	317.25
360.029	342.25
360.256	323.25
360.483	319.25
360.709	324.25
360.936	337.25
361.163	336.25
361.39	328.25
361.616	331.25
361.843	346.25
362.07	325.25
362.296	343.25
362.523	322.25
362.749	343.25
362.976	344.25
363.203	332.25
363.429	337.25
363.656	328.25
363.882	327.25
364.109	349.25
364.335	333.25
364.562	327.25
364.788	329.25
365.015	332.25
365.241	316.25
365.468	324.25
365.694	338.25
365.92	352.25
366.147	338.25
366.373	310.25
366.599	331.25
366.826	339.25
367.052	319.25
367.278	336.25
367.505	333.25
367.731	347.25
367.957	331.25
368.184	337.25
368.41	340.25
368.636	342.25
368.862	332.25
369.089	340.25
369.315	339.25
369.541	348.25
369.767	336.25
369.993	349.25
370.219	349.25
370.445	348.25
370.672	361.25
370.898	354.25
371.124	342.25
371.35	348.25
371.576	361.25
371.802	356.25
372.028	354.25
372.254	360.25
372.48	344.25
372.706	359.25
372.932	376.25
373.158	354.25
373.384	374.25
373.61	357.25
373.835	367.25
374.061	375.25
374.287	341.25
374.513	389.25
374.739	371.25
374.965	384.25
375.191	399.25
375.416	383.25
375.642	364.25
375.868	385.25
376.094	367.25
376.319	367.25
376.545	381.25
376.771	356.25
376.997	363.25
377.222	349.25
377.448	383.25
377.674	357.25
377.899	357.25
378.125	364.25
378.35	370.25
378.576	364.25
378.802	361.25
379.027	356.25
379.253	362.25
379.478	364.25
379.704	351.25
379.929	361.25
380.155	368.25
380.38	371.25
380.606	346.25
380.831	374.25
381.057	381.25
381.282	339.25
381.507	362.25
381.733	380.25
381.958	383.25
382.184	383.25
382.409	379.25
382.634	398.25
382.86	387.25
383.085	387.25
383.31	386.25
383.535	390.25
383.761	385.25
383.986	393.25
384.211	406.25
384.436	407.25
384.662	398.25
384.887	404.25
385.112	424.25
385.337	424.25
385.562	417.25
385.787	419.25
386.013	425.25
386.238	441.25
386.463	408.25
386.688	420.25
386.913	414.25
387.138	413.25
387.363	428.25
387.588	439.25
387.813	444.25
388.038	438.25
388.263	435.25
388.488	435.25
388.713	435.25
388.938	432.25
389.163	441.25
389.387	439.25
389.612	428.25
389.837	442.25
390.062	426.25
390.287	442.25
390.512	437.25
390.736	415.25
390.961	454.25
391.186	421.25
391.411	443.25
391.636	460.25
391.86	469.25
392.085	468.25
392.31	459.25
392.534	441.25
392.759	444.25
392.984	452.25
393.208	472.25
393.433	448.25
393.658	440.25
393.882	453.25
394.107	441.25
394.331	463.25
394.556	466.25
394.78	450.25
395.005	470.25
395.229	464.25
395.454	467.25
395.678	455.25
395.903	473.25
396.127	483.25
396.352	454.25
396.576	477.25
396.801	448.25
397.025	468.25
397.249	476.25
397.474	461.25
397.698	480.25
397.922	493.25
398.147	488.25
398.371	506.25
398.595	495.25
398.82	535.25
399.044	553.25
399.268	582.25
399.492	644.25
399.717	659.25
399.941	657.25
400.165	638.25
400.389	607.25
400.613	567.25
400.837	560.25
401.062	539.25
401.286	513.25
401.51	529.25
401.734	492.25
401.958	508.25
402.182	532.25
402.406	515.25
402.63	527.25
402.854	542.25
403.078	544.25
403.302	559.25
403.526	534.25
403.75	546.25
403.974	537.25
404.198	557.25
404.422	584.25
404.645	547.25
404.869	531.25
405.093	571.25
405.317	557.25
405.541	572.25
405.765	545.25
405.988	547.25
406.212	581.25
406.436	586.25
406.66	573.25
406.883	575.25
407.107	606.25
407.331	610.25
407.555	605.25
407.778	615.25
408.002	623.25
408.226	631.25
408.449	592.25
408.673	587.25
408.896	567.25
409.12	588.25
409.344	588.25
409.567	564.25
409.791	591.25
410.014	581.25
410.238	567.25
410.461	575.25
410.685	565.25
410.908	556.25
411.132	554.25
411.355	564.25
411.578	534.25
411.802	543.25
412.025	531.25
412.249	563.25
412.472	582.25
412.695	554.25
412.919	542.25
413.142	523.25
413.365	529.25
413.589	535.25
413.812	504.25
414.035	538.25
414.258	552.25
414.482	520.25
414.705	541.25
414.928	516.25
415.151	552.25
415.374	566.25
415.597	531.25
415.821	511.25
416.044	519.25
416.267	519.25
416.49	500.25
416.713	524.25
416.936	521.25
417.159	504.25
417.382	497.25
417.605	512.25
417.828	492.25
418.051	508.25
418.274	535.25
418.497	516.25
418.72	522.25
418.943	535.25
419.166	557.25
419.389	572.25
419.611	553.25
419.834	571.25
420.057	525.25
420.28	506.25
420.503	502.25
420.726	527.25
420.948	517.25
421.171	497.25
421.394	523.25
421.617	500.25
421.839	517.25
422.062	531.25
422.285	499.25
422.507	536.25
422.73	531.25
422.953	518.25
423.175	508.25
423.398	522.25
423.621	528.25
423.843	525.25
424.066	508.25
424.288	520.25
424.511	514.25
424.733	526.25
424.956	509.25
425.178	528.25
425.401	514.25
425.623	494.25
425.846	504.25
426.068	490.25
426.291	491.25
426.513	485.25
426.735	502.25
426.958	503.25
427.18	471.25
427.402	487.25
427.625	492.25
427.847	486.25
428.069	489.25
428.292	484.25
428.514	509.25
428.736	460.25
428.958	464.25
429.181	477.25
429.403	458.25
429.625	469.25
429.847	449.25
430.069	460.25
430.292	481.25
430.514	473.25
430.736	456.25
430.958	477.25
431.18	465.25
431.402	476.25
431.624	469.25
431.846	462.25
432.068	479.25
432.29	472.25
432.512	488.25
432.734	486.25
432.956	476.25
433.178	461.25
433.4	492.25
433.622	484.25
433.844	495.25
434.066	489.25
434.287	483.25
434.509	467.25
434.731	491.25
434.953	525.25
435.175	524.25
435.397	494.25
435.618	492.25
435.84	481.25
436.062	478.25
436.284	470.25
436.505	483.25
436.727	496.25
436.949	492.25
437.17	479.25
437.392	461.25
437.614	456.25
437.835	443.25
438.057	471.25
438.278	456.25
438.5	460.25
438.721	440.25
438.943	468.25
439.165	461.25
439.386	460.25
439.608	483.25
439.829	447.25
440.05	490.25
440.272	469.25
440.493	473.25
440.715	483.25
440.936	503.25
441.158	498.25
441.379	476.25
441.6	490.25
441.822	511.25
442.043	512.25
442.264	474.25
442.486	495.25
442.707	490.25
442.928	497.25
443.149	505.25
443.371	501.25
443.592	515.25
443.813	505.25
444.034	516.25
444.255	516.25
444.476	533.25
444.698	533.25
444.919	540.25
445.14	663.25
445.361	581.25
445.582	513.25
445.803	495.25
446.024	479.25
446.245	485.25
446.466	481.25
446.687	474.25
446.908	510.25
447.129	500.25
447.35	481.25
447.571	458.25
447.792	459.25
448.013	433.25
448.234	446.25
448.455	444.25
448.675	438.25
448.896	451.25
449.117	431.25
449.338	460.25
449.559	436.25
449.779	443.25
450	442.25
450.221	454.25
450.442	450.25
450.662	433.25
450.883	455.25
451.104	443.25
451.324	415.25
451.545	443.25
451.766	432.25
451.986	446.25
452.207	435.25
452.428	432.25
452.648	442.25
452.869	412.25
453.089	435.25
453.31	422.25
453.53	426.25
453.751	412.25
453.971	418.25
454.192	436.25
454.412	413.25
454.633	419.25
454.853	396.25
455.073	412.25
455.294	390.25
455.514	429.25
455.734	421.25
455.955	427.25
456.175	411.25
456.395	421.25
456.616	415.25
456.836	410.25
457.056	412.25
457.276	424.25
457.497	422.25
457.717	408.25
457.937	420.25
458.157	422.25
458.377	429.25
458.598	431.25
458.818	441.25
459.038	447.25
459.258	453.25
459.478	477.25
459.698	481.25
459.918	468.25
460.138	492.25
460.358	511.25
460.578	508.25
460.798	527.25
461.018	521.25
461.238	512.25
461.458	531.25
461.678	549.25
461.898	523.25
462.118	535.25
462.338	565.25
462.558	568.25
462.777	595.25
462.997	625.25
463.217	618.25
463.437	659.25
463.657	617.25
463.876	604.25
464.096	564.25
464.316	586.25
464.536	579.25
464.755	578.25
464.975	561.25
465.195	541.25
465.414	496.25
465.634	491.25
465.854	480.25
466.073	492.25
466.293	466.25
466.512	471.25
466.732	455.25
466.951	464.25
467.171	445.25
467.391	455.25
467.61	440.25
467.829	457.25
468.049	451.25
468.268	448.25
468.488	455.25
468.707	439.25
468.927	440.25
469.146	432.25
469.365	443.25
469.585	419.25
469.804	456.25
470.023	471.25
470.243	458.25
470.462	456.25
470.681	454.25
470.901	451.25
471.12	457.25
471.339	440.25
471.558	444.25
471.777	454.25
471.997	445.25
472.216	448.25
472.435	447.25
472.654	425.25
472.873	441.25
473.092	422.25
473.311	416.25
473.53	445.25
473.749	457.25
473.968	454.25
474.187	421.25
474.406	426.25
474.625	447.25
474.844	431.25
475.063	429.25
475.282	459.25
475.501	442.25
475.72	452.25
475.939	442.25
476.158	463.25
476.377	453.25
476.596	460.25
476.814	450.25
477.033	471.25
477.252	475.25
477.471	434.25
477.69	477.25
477.908	480.25
478.127	488.25
478.346	503.25
478.564	505.25
478.783	515.25
479.002	523.25
479.22	511.25
479.439	486.25
479.658	505.25
479.876	496.25
480.095	519.25
480.313	541.25
480.532	542.25
480.751	522.25
480.969	519.25
481.188	522.25
481.406	503.25
481.624	507.25
481.843	502.25
482.061	483.25
482.28	488.25
482.498	479.25
482.717	503.25
482.935	492.25
483.153	507.25
483.372	474.25
483.59	475.25
483.808	500.25
484.027	484.25
484.245	486.25
484.463	511.25
484.681	500.25
484.9	507.25
485.118	519.25
485.336	507.25
485.554	513.25
485.772	487.25
485.99	515.25
486.209	501.25
486.427	498.25
486.645	487.25
486.863	507.25
487.081	549.25
487.299	500.25
487.517	523.25
487.735	518.25
487.953	517.25
488.171	526.25
488.389	518.25
488.607	484.25
488.825	498.25
489.043	492.25
489.261	484.25
489.479	513.25
489.696	516.25
489.914	498.25
490.132	510.25
490.35	503.25
490.568	512.25
490.786	523.25
491.003	510.25
491.221	525.25
491.439	519.25
491.657	515.25
491.874	553.25
492.092	513.25
492.31	539.25
492.527	531.25
492.745	522.25
492.963	519.25
493.18	533.25
493.398	543.25
493.615	547.25
493.833	569.25
494.05	555.25
494.268	556.25
494.485	566.25
494.703	533.25
494.92	560.25
495.138	552.25
495.355	543.25
495.573	552.25
495.79	549.25
496.008	557.25
496.225	582.25
496.442	561.25
496.66	554.25
496.877	572.25
497.094	599.25
497.312	569.25
497.529	625.25
497.746	623.25
497.963	638.25
498.181	660.25
498.398	668.25
498.615	726.25
498.832	764.25
499.049	771.25
499.267	819.25
499.484	870.25
499.701	945.25
499.918	983.25
500.135	1033.25
500.352	1123.25
500.569	1137.25
500.786	1118.25
501.003	1081.25
501.22	1051.25
501.437	945.25
501.654	891.25
501.871	828.25
