Data from Fe(NO3)3@0.0125M.TitratingCurve.Agarose3%dH2O.NegLispCup.LampEnergy10.LIBS07252019_HRD10591_17-00-54-349.txt Node
Date: Thu Jul 25 17:00:54 EDT 2019
User: cochatt
Spectrometer: HR+D1059
Trigger mode: 1
Integration Time (sec): 1.000000E-1
Scans to average: 1
Electric dark correction enabled: true
Nonlinearity correction enabled: false
Boxcar width: 0
XAxis mode: Wavelengths
Number of Pixels in Spectrum: 2048
>>>>>Begin Spectral Data<<<<<
223.165	-15.56
223.4	-15.56
223.635	-15.56
223.869	-13.56
224.104	-19.56
224.338	-6.56
224.573	-14.56
224.808	-20.56
225.042	11.44
225.277	-11.56
225.511	-8.56
225.746	3.44
225.98	3.44
226.215	4.44
226.449	19.44
226.683	17.44
226.918	23.44
227.152	27.44
227.387	30.44
227.621	35.44
227.856	55.44
228.09	57.44
228.324	49.44
228.559	59.44
228.793	48.44
229.027	70.44
229.262	74.44
229.496	91.44
229.73	90.44
229.964	93.44
230.199	93.44
230.433	95.44
230.667	96.44
230.901	111.44
231.136	98.44
231.37	108.44
231.604	100.44
231.838	88.44
232.072	106.44
232.306	114.44
232.541	103.44
232.775	112.44
233.009	97.44
233.243	115.44
233.477	107.44
233.711	111.44
233.945	113.44
234.179	115.44
234.413	105.44
234.647	94.44
234.881	112.44
235.115	121.44
235.349	107.44
235.583	95.44
235.817	122.44
236.051	113.44
236.285	105.44
236.519	98.44
236.753	103.44
236.987	103.44
237.221	99.44
237.455	112.44
237.689	112.44
237.922	106.44
238.156	107.44
238.39	122.44
238.624	114.44
238.858	120.44
239.091	123.44
239.325	108.44
239.559	114.44
239.793	122.44
240.027	138.44
240.26	134.44
240.494	118.44
240.728	122.44
240.961	121.44
241.195	108.44
241.429	107.44
241.662	109.44
241.896	122.44
242.13	127.44
242.363	118.44
242.597	129.44
242.83	108.44
243.064	126.44
243.298	115.44
243.531	103.44
243.765	134.44
243.998	122.44
244.232	131.44
244.465	122.44
244.699	122.44
244.932	139.44
245.166	132.44
245.399	127.44
245.633	129.44
245.866	139.44
246.099	129.44
246.333	138.44
246.566	140.44
246.8	137.44
247.033	122.44
247.266	143.44
247.5	126.44
247.733	117.44
247.966	135.44
248.2	161.44
248.433	136.44
248.666	153.44
248.899	137.44
249.133	137.44
249.366	153.44
249.599	146.44
249.832	137.44
250.066	153.44
250.299	135.44
250.532	148.44
250.765	143.44
250.998	139.44
251.231	147.44
251.465	136.44
251.698	154.44
251.931	151.44
252.164	151.44
252.397	148.44
252.63	165.44
252.863	161.44
253.096	151.44
253.329	151.44
253.562	144.44
253.795	142.44
254.028	157.44
254.261	175.44
254.494	162.44
254.727	159.44
254.96	160.44
255.193	160.44
255.426	154.44
255.659	153.44
255.892	145.44
256.124	153.44
256.357	173.44
256.59	159.44
256.823	147.44
257.056	162.44
257.289	166.44
257.521	173.44
257.754	179.44
257.987	153.44
258.22	175.44
258.452	165.44
258.685	165.44
258.918	172.44
259.151	177.44
259.383	184.44
259.616	162.44
259.849	175.44
260.081	174.44
260.314	178.44
260.547	169.44
260.779	177.44
261.012	169.44
261.244	177.44
261.477	195.44
261.71	183.44
261.942	164.44
262.175	167.44
262.407	164.44
262.64	179.44
262.872	187.44
263.105	194.44
263.337	184.44
263.57	178.44
263.802	183.44
264.035	154.44
264.267	167.44
264.499	181.44
264.732	192.44
264.964	195.44
265.197	187.44
265.429	180.44
265.661	184.44
265.894	182.44
266.126	180.44
266.358	184.44
266.591	195.44
266.823	186.44
267.055	187.44
267.287	175.44
267.52	176.44
267.752	179.44
267.984	163.44
268.216	183.44
268.448	186.44
268.681	177.44
268.913	187.44
269.145	193.44
269.377	187.44
269.609	203.44
269.841	196.44
270.073	207.44
270.306	197.44
270.538	176.44
270.77	191.44
271.002	188.44
271.234	198.44
271.466	209.44
271.698	197.44
271.93	189.44
272.162	202.44
272.394	204.44
272.626	195.44
272.858	202.44
273.09	211.44
273.322	201.44
273.553	209.44
273.785	221.44
274.017	215.44
274.249	222.44
274.481	226.44
274.713	231.44
274.945	228.44
275.176	236.44
275.408	225.44
275.64	225.44
275.872	223.44
276.104	222.44
276.335	206.44
276.567	210.44
276.799	207.44
277.031	213.44
277.262	219.44
277.494	221.44
277.726	225.44
277.957	229.44
278.189	216.44
278.421	218.44
278.652	217.44
278.884	227.44
279.115	228.44
279.347	227.44
279.579	233.44
279.81	224.44
280.042	214.44
280.273	220.44
280.505	209.44
280.736	225.44
280.968	232.44
281.199	236.44
281.431	237.44
281.662	253.44
281.894	217.44
282.125	241.44
282.356	228.44
282.588	235.44
282.819	258.44
283.051	251.44
283.282	243.44
283.513	231.44
283.745	236.44
283.976	229.44
284.207	224.44
284.439	241.44
284.67	239.44
284.901	233.44
285.132	236.44
285.364	243.44
285.595	262.44
285.826	241.44
286.057	243.44
286.288	248.44
286.52	247.44
286.751	242.44
286.982	229.44
287.213	232.44
287.444	246.44
287.675	256.44
287.906	249.44
288.138	242.44
288.369	251.44
288.6	265.44
288.831	256.44
289.062	247.44
289.293	263.44
289.524	254.44
289.755	248.44
289.986	229.44
290.217	274.44
290.448	234.44
290.679	269.44
290.91	260.44
291.141	280.44
291.371	268.44
291.602	261.44
291.833	247.44
292.064	255.44
292.295	258.44
292.526	264.44
292.757	275.44
292.987	272.44
293.218	237.44
293.449	253.44
293.68	261.44
293.91	280.44
294.141	265.44
294.372	251.44
294.603	262.44
294.833	256.44
295.064	257.44
295.295	268.44
295.525	273.44
295.756	263.44
295.987	250.44
296.217	269.44
296.448	264.44
296.679	276.44
296.909	263.44
297.14	263.44
297.37	283.44
297.601	277.44
297.831	272.44
298.062	279.44
298.292	279.44
298.523	284.44
298.753	260.44
298.984	288.44
299.214	295.44
299.445	292.44
299.675	273.44
299.905	274.44
300.136	273.44
300.366	289.44
300.597	295.44
300.827	268.44
301.057	298.44
301.288	292.44
301.518	288.44
301.748	292.44
301.979	309.44
302.209	290.44
302.439	291.44
302.669	297.44
302.9	291.44
303.13	287.44
303.36	294.44
303.59	288.44
303.82	283.44
304.051	298.44
304.281	316.44
304.511	288.44
304.741	309.44
304.971	284.44
305.201	311.44
305.431	279.44
305.661	297.44
305.891	303.44
306.121	305.44
306.352	299.44
306.582	289.44
306.812	287.44
307.042	312.44
307.272	280.44
307.502	296.44
307.731	300.44
307.961	297.44
308.191	299.44
308.421	300.44
308.651	309.44
308.881	311.44
309.111	297.44
309.341	295.44
309.571	306.44
309.8	312.44
310.03	295.44
310.26	315.44
310.49	313.44
310.72	310.44
310.949	301.44
311.179	300.44
311.409	301.44
311.639	318.44
311.868	323.44
312.098	334.44
312.328	300.44
312.557	318.44
312.787	299.44
313.017	320.44
313.246	300.44
313.476	306.44
313.706	327.44
313.935	306.44
314.165	327.44
314.394	331.44
314.624	330.44
314.853	315.44
315.083	329.44
315.312	322.44
315.542	335.44
315.771	351.44
316.001	337.44
316.23	329.44
316.46	320.44
316.689	335.44
316.919	322.44
317.148	314.44
317.377	333.44
317.607	328.44
317.836	330.44
318.065	325.44
318.295	327.44
318.524	324.44
318.753	336.44
318.983	323.44
319.212	332.44
319.441	339.44
319.67	341.44
319.9	308.44
320.129	320.44
320.358	328.44
320.587	326.44
320.816	318.44
321.046	327.44
321.275	328.44
321.504	334.44
321.733	350.44
321.962	359.44
322.191	329.44
322.42	328.44
322.649	344.44
322.878	341.44
323.108	345.44
323.337	351.44
323.566	341.44
323.795	338.44
324.024	339.44
324.253	347.44
324.482	352.44
324.71	359.44
324.939	358.44
325.168	363.44
325.397	343.44
325.626	338.44
325.855	343.44
326.084	361.44
326.313	360.44
326.542	357.44
326.77	363.44
326.999	341.44
327.228	357.44
327.457	349.44
327.686	349.44
327.914	352.44
328.143	355.44
328.372	341.44
328.6	360.44
328.829	373.44
329.058	364.44
329.287	382.44
329.515	362.44
329.744	362.44
329.972	368.44
330.201	354.44
330.43	380.44
330.658	348.44
330.887	359.44
331.115	371.44
331.344	397.44
331.572	371.44
331.801	385.44
332.03	388.44
332.258	382.44
332.486	386.44
332.715	380.44
332.943	392.44
333.172	395.44
333.4	404.44
333.629	385.44
333.857	407.44
334.085	425.44
334.314	416.44
334.542	418.44
334.771	398.44
334.999	403.44
335.227	403.44
335.455	394.44
335.684	407.44
335.912	410.44
336.14	418.44
336.369	389.44
336.597	423.44
336.825	404.44
337.053	402.44
337.281	388.44
337.51	389.44
337.738	413.44
337.966	405.44
338.194	376.44
338.422	385.44
338.65	400.44
338.878	392.44
339.106	401.44
339.334	407.44
339.562	402.44
339.79	373.44
340.018	382.44
340.246	374.44
340.474	374.44
340.702	381.44
340.93	383.44
341.158	382.44
341.386	374.44
341.614	376.44
341.842	387.44
342.07	383.44
342.298	416.44
342.526	394.44
342.754	405.44
342.981	390.44
343.209	393.44
343.437	382.44
343.665	412.44
343.893	425.44
344.12	411.44
344.348	429.44
344.576	397.44
344.804	387.44
345.031	386.44
345.259	406.44
345.487	384.44
345.714	385.44
345.942	390.44
346.17	389.44
346.397	377.44
346.625	384.44
346.853	397.44
347.08	377.44
347.308	371.44
347.535	365.44
347.763	367.44
347.99	365.44
348.218	375.44
348.445	360.44
348.673	370.44
348.9	379.44
349.128	378.44
349.355	382.44
349.583	391.44
349.81	372.44
350.037	357.44
350.265	368.44
350.492	384.44
350.72	380.44
350.947	359.44
351.174	371.44
351.402	369.44
351.629	361.44
351.856	369.44
352.083	365.44
352.311	373.44
352.538	375.44
352.765	374.44
352.992	384.44
353.22	363.44
353.447	363.44
353.674	372.44
353.901	371.44
354.128	362.44
354.355	364.44
354.583	362.44
354.81	367.44
355.037	379.44
355.264	365.44
355.491	377.44
355.718	365.44
355.945	381.44
356.172	373.44
356.399	387.44
356.626	379.44
356.853	378.44
357.08	392.44
357.307	374.44
357.534	381.44
357.761	381.44
357.988	399.44
358.215	375.44
358.441	386.44
358.668	384.44
358.895	379.44
359.122	363.44
359.349	370.44
359.576	355.44
359.802	377.44
360.029	387.44
360.256	378.44
360.483	379.44
360.709	373.44
360.936	373.44
361.163	375.44
361.39	370.44
361.616	380.44
361.843	380.44
362.07	388.44
362.296	369.44
362.523	380.44
362.749	379.44
362.976	399.44
363.203	378.44
363.429	375.44
363.656	386.44
363.882	376.44
364.109	403.44
364.335	384.44
364.562	378.44
364.788	397.44
365.015	389.44
365.241	374.44
365.468	401.44
365.694	377.44
365.92	365.44
366.147	362.44
366.373	367.44
366.599	375.44
366.826	385.44
367.052	387.44
367.278	379.44
367.505	374.44
367.731	387.44
367.957	385.44
368.184	392.44
368.41	394.44
368.636	394.44
368.862	397.44
369.089	367.44
369.315	391.44
369.541	400.44
369.767	403.44
369.993	376.44
370.219	380.44
370.445	408.44
370.672	408.44
370.898	401.44
371.124	391.44
371.35	413.44
371.576	402.44
371.802	422.44
372.028	403.44
372.254	394.44
372.48	422.44
372.706	406.44
372.932	419.44
373.158	421.44
373.384	397.44
373.61	439.44
373.835	403.44
374.061	426.44
374.287	416.44
374.513	427.44
374.739	412.44
374.965	425.44
375.191	420.44
375.416	438.44
375.642	422.44
375.868	412.44
376.094	410.44
376.319	424.44
376.545	421.44
376.771	419.44
376.997	394.44
377.222	412.44
377.448	408.44
377.674	416.44
377.899	407.44
378.125	418.44
378.35	416.44
378.576	412.44
378.802	402.44
379.027	395.44
379.253	399.44
379.478	413.44
379.704	427.44
379.929	426.44
380.155	410.44
380.38	411.44
380.606	392.44
380.831	407.44
381.057	403.44
381.282	381.44
381.507	403.44
381.733	445.44
381.958	430.44
382.184	407.44
382.409	424.44
382.634	413.44
382.86	422.44
383.085	433.44
383.31	432.44
383.535	433.44
383.761	430.44
383.986	453.44
384.211	445.44
384.436	441.44
384.662	455.44
384.887	440.44
385.112	433.44
385.337	446.44
385.562	438.44
385.787	456.44
386.013	484.44
386.238	457.44
386.463	458.44
386.688	473.44
386.913	461.44
387.138	457.44
387.363	460.44
387.588	465.44
387.813	452.44
388.038	448.44
388.263	456.44
388.488	452.44
388.713	468.44
388.938	442.44
389.163	455.44
389.387	464.44
389.612	470.44
389.837	441.44
390.062	451.44
390.287	449.44
390.512	466.44
390.736	442.44
390.961	466.44
391.186	468.44
391.411	477.44
391.636	490.44
391.86	488.44
392.085	491.44
392.31	465.44
392.534	476.44
392.759	491.44
392.984	461.44
393.208	485.44
393.433	501.44
393.658	462.44
393.882	462.44
394.107	480.44
394.331	486.44
394.556	477.44
394.78	483.44
395.005	475.44
395.229	460.44
395.454	487.44
395.678	508.44
395.903	506.44
396.127	508.44
396.352	512.44
396.576	472.44
396.801	486.44
397.025	495.44
397.249	507.44
397.474	499.44
397.698	506.44
397.922	507.44
398.147	513.44
398.371	539.44
398.595	532.44
398.82	544.44
399.044	552.44
399.268	585.44
399.492	600.44
399.717	601.44
399.941	626.44
400.165	586.44
400.389	573.44
400.613	551.44
400.837	552.44
401.062	540.44
401.286	539.44
401.51	529.44
401.734	515.44
401.958	543.44
402.182	506.44
402.406	533.44
402.63	535.44
402.854	530.44
403.078	544.44
403.302	545.44
403.526	547.44
403.75	569.44
403.974	557.44
404.198	556.44
404.422	571.44
404.645	561.44
404.869	561.44
405.093	536.44
405.317	544.44
405.541	548.44
405.765	575.44
405.988	559.44
406.212	573.44
406.436	583.44
406.66	593.44
406.883	574.44
407.107	605.44
407.331	588.44
407.555	629.44
407.778	601.44
408.002	614.44
408.226	599.44
408.449	570.44
408.673	587.44
408.896	554.44
409.12	564.44
409.344	567.44
409.567	577.44
409.791	581.44
410.014	587.44
410.238	561.44
410.461	565.44
410.685	572.44
410.908	552.44
411.132	569.44
411.355	538.44
411.578	547.44
411.802	548.44
412.025	568.44
412.249	577.44
412.472	529.44
412.695	521.44
412.919	525.44
413.142	538.44
413.365	539.44
413.589	565.44
413.812	512.44
414.035	521.44
414.258	520.44
414.482	531.44
414.705	539.44
414.928	547.44
415.151	540.44
415.374	539.44
415.597	523.44
415.821	498.44
416.044	516.44
416.267	520.44
416.49	525.44
416.713	519.44
416.936	491.44
417.159	529.44
417.382	505.44
417.605	505.44
417.828	515.44
418.051	512.44
418.274	502.44
418.497	513.44
418.72	527.44
418.943	523.44
419.166	547.44
419.389	554.44
419.611	556.44
419.834	540.44
420.057	535.44
420.28	522.44
420.503	512.44
420.726	496.44
420.948	498.44
421.171	504.44
421.394	507.44
421.617	515.44
421.839	505.44
422.062	511.44
422.285	489.44
422.507	519.44
422.73	519.44
422.953	507.44
423.175	508.44
423.398	516.44
423.621	516.44
423.843	512.44
424.066	532.44
424.288	523.44
424.511	497.44
424.733	511.44
424.956	499.44
425.178	518.44
425.401	514.44
425.623	502.44
425.846	511.44
426.068	529.44
426.291	518.44
426.513	486.44
426.735	480.44
426.958	502.44
427.18	503.44
427.402	508.44
427.625	517.44
427.847	510.44
428.069	500.44
428.292	487.44
428.514	480.44
428.736	501.44
428.958	490.44
429.181	478.44
429.403	478.44
429.625	473.44
429.847	489.44
430.069	474.44
430.292	475.44
430.514	474.44
430.736	480.44
430.958	481.44
431.18	500.44
431.402	489.44
431.624	489.44
431.846	486.44
432.068	484.44
432.29	492.44
432.512	512.44
432.734	501.44
432.956	481.44
433.178	471.44
433.4	492.44
433.622	497.44
433.844	525.44
434.066	513.44
434.287	484.44
434.509	475.44
434.731	496.44
434.953	497.44
435.175	532.44
435.397	521.44
435.618	489.44
435.84	501.44
436.062	491.44
436.284	479.44
436.505	461.44
436.727	496.44
436.949	491.44
437.17	484.44
437.392	498.44
437.614	472.44
437.835	460.44
438.057	465.44
438.278	472.44
438.5	477.44
438.721	465.44
438.943	480.44
439.165	469.44
439.386	484.44
439.608	470.44
439.829	462.44
440.05	486.44
440.272	483.44
440.493	469.44
440.715	493.44
440.936	491.44
441.158	492.44
441.379	488.44
441.6	506.44
441.822	512.44
442.043	502.44
442.264	490.44
442.486	477.44
442.707	484.44
442.928	500.44
443.149	485.44
443.371	508.44
443.592	498.44
443.813	496.44
444.034	508.44
444.255	475.44
444.476	517.44
444.698	530.44
444.919	544.44
445.14	625.44
445.361	549.44
445.582	515.44
445.803	511.44
446.024	485.44
446.245	500.44
446.466	479.44
446.687	486.44
446.908	470.44
447.129	454.44
447.35	466.44
447.571	457.44
447.792	455.44
448.013	453.44
448.234	461.44
448.455	457.44
448.675	458.44
448.896	443.44
449.117	444.44
449.338	441.44
449.559	437.44
449.779	459.44
450	445.44
450.221	451.44
450.442	435.44
450.662	441.44
450.883	436.44
451.104	457.44
451.324	437.44
451.545	449.44
451.766	452.44
451.986	444.44
452.207	431.44
452.428	447.44
452.648	423.44
452.869	432.44
453.089	433.44
453.31	434.44
453.53	431.44
453.751	434.44
453.971	436.44
454.192	440.44
454.412	417.44
454.633	443.44
454.853	435.44
455.073	453.44
455.294	429.44
455.514	445.44
455.734	434.44
455.955	421.44
456.175	455.44
456.395	414.44
456.616	434.44
456.836	435.44
457.056	433.44
457.276	418.44
457.497	450.44
457.717	460.44
457.937	425.44
458.157	416.44
458.377	426.44
458.598	459.44
458.818	447.44
459.038	466.44
459.258	460.44
459.478	499.44
459.698	481.44
459.918	478.44
460.138	500.44
460.358	488.44
460.578	493.44
460.798	510.44
461.018	515.44
461.238	532.44
461.458	524.44
461.678	523.44
461.898	520.44
462.118	510.44
462.338	538.44
462.558	551.44
462.777	559.44
462.997	559.44
463.217	578.44
463.437	581.44
463.657	558.44
463.876	546.44
464.096	568.44
464.316	535.44
464.536	530.44
464.755	571.44
464.975	539.44
465.195	518.44
465.414	517.44
465.634	473.44
465.854	499.44
466.073	476.44
466.293	478.44
466.512	485.44
466.732	489.44
466.951	488.44
467.171	491.44
467.391	476.44
467.61	465.44
467.829	454.44
468.049	469.44
468.268	474.44
468.488	474.44
468.707	485.44
468.927	472.44
469.146	466.44
469.365	480.44
469.585	447.44
469.804	473.44
470.023	497.44
470.243	477.44
470.462	478.44
470.681	481.44
470.901	471.44
471.12	487.44
471.339	456.44
471.558	475.44
471.777	467.44
471.997	470.44
472.216	491.44
472.435	468.44
472.654	478.44
472.873	478.44
473.092	477.44
473.311	462.44
473.53	492.44
473.749	453.44
473.968	466.44
474.187	476.44
474.406	470.44
474.625	477.44
474.844	472.44
475.063	495.44
475.282	479.44
475.501	494.44
475.72	485.44
475.939	486.44
476.158	475.44
476.377	504.44
476.596	497.44
476.814	497.44
477.033	513.44
477.252	517.44
477.471	518.44
477.69	515.44
477.908	525.44
478.127	531.44
478.346	541.44
478.564	541.44
478.783	534.44
479.002	546.44
479.22	531.44
479.439	570.44
479.658	544.44
479.876	571.44
480.095	569.44
480.313	602.44
480.532	578.44
480.751	587.44
480.969	573.44
481.188	582.44
481.406	571.44
481.624	562.44
481.843	549.44
482.061	568.44
482.28	559.44
482.498	565.44
482.717	582.44
482.935	567.44
483.153	567.44
483.372	589.44
483.59	572.44
483.808	575.44
484.027	588.44
484.245	582.44
484.463	595.44
484.681	593.44
484.9	601.44
485.118	591.44
485.336	585.44
485.554	590.44
485.772	593.44
485.99	601.44
486.209	586.44
486.427	586.44
486.645	600.44
486.863	596.44
487.081	610.44
487.299	601.44
487.517	605.44
487.735	611.44
487.953	609.44
488.171	630.44
488.389	606.44
488.607	570.44
488.825	562.44
489.043	582.44
489.261	605.44
489.479	583.44
489.696	577.44
489.914	595.44
490.132	586.44
490.35	575.44
490.568	579.44
490.786	604.44
491.003	577.44
491.221	601.44
491.439	589.44
491.657	610.44
491.874	584.44
492.092	619.44
492.31	609.44
492.527	603.44
492.745	594.44
492.963	577.44
493.18	594.44
493.398	573.44
493.615	610.44
493.833	587.44
494.05	580.44
494.268	595.44
494.485	597.44
494.703	607.44
494.92	608.44
495.138	604.44
495.355	608.44
495.573	625.44
495.79	600.44
496.008	619.44
496.225	610.44
496.442	612.44
496.66	628.44
496.877	604.44
497.094	644.44
497.312	620.44
497.529	632.44
497.746	672.44
497.963	698.44
498.181	675.44
498.398	696.44
498.615	730.44
498.832	772.44
499.049	774.44
499.267	777.44
499.484	834.44
499.701	871.44
499.918	920.44
500.135	945.44
500.352	991.44
500.569	1016.44
500.786	1021.44
501.003	970.44
501.22	911.44
501.437	862.44
501.654	808.44
