Data from Fe(NO3)3@0.025M.TitratingCurve.Agarose3%dH2O.NegLispCup.LampEnergy10.LIBS07252019_HRD10591_16-53-40-334.txt Node
Date: Thu Jul 25 16:53:40 EDT 2019
User: cochatt
Spectrometer: HR+D1059
Trigger mode: 1
Integration Time (sec): 1.000000E-1
Scans to average: 1
Electric dark correction enabled: true
Nonlinearity correction enabled: false
Boxcar width: 0
XAxis mode: Wavelengths
Number of Pixels in Spectrum: 2048
>>>>>Begin Spectral Data<<<<<
223.165	-14.94
223.4	-14.94
223.635	-14.94
223.869	-13.94
224.104	-30.94
224.338	-22.94
224.573	-13.94
224.808	-9.94
225.042	-11.94
225.277	-8.94
225.511	8.06
225.746	10.06
225.98	9.06
226.215	7.06
226.449	14.06
226.683	19.06
226.918	19.06
227.152	41.06
227.387	31.06
227.621	32.06
227.856	35.06
228.09	33.06
228.324	42.06
228.559	35.06
228.793	53.06
229.027	101.06
229.262	115.06
229.496	108.06
229.73	96.06
229.964	95.06
230.199	98.06
230.433	103.06
230.667	120.06
230.901	113.06
231.136	119.06
231.37	117.06
231.604	128.06
231.838	121.06
232.072	143.06
232.306	114.06
232.541	135.06
232.775	122.06
233.009	130.06
233.243	135.06
233.477	130.06
233.711	122.06
233.945	126.06
234.179	136.06
234.413	131.06
234.647	120.06
234.881	140.06
235.115	143.06
235.349	125.06
235.583	128.06
235.817	135.06
236.051	114.06
236.285	136.06
236.519	130.06
236.753	143.06
236.987	122.06
237.221	142.06
237.455	131.06
237.689	143.06
237.922	129.06
238.156	140.06
238.39	135.06
238.624	138.06
238.858	139.06
239.091	137.06
239.325	146.06
239.559	143.06
239.793	143.06
240.027	159.06
240.26	149.06
240.494	150.06
240.728	158.06
240.961	188.06
241.195	149.06
241.429	152.06
241.662	146.06
241.896	151.06
242.13	151.06
242.363	160.06
242.597	159.06
242.83	153.06
243.064	154.06
243.298	163.06
243.531	165.06
243.765	157.06
243.998	158.06
244.232	161.06
244.465	171.06
244.699	160.06
244.932	180.06
245.166	185.06
245.399	175.06
245.633	170.06
245.866	192.06
246.099	178.06
246.333	159.06
246.566	174.06
246.8	176.06
247.033	175.06
247.266	188.06
247.5	189.06
247.733	190.06
247.966	188.06
248.2	199.06
248.433	189.06
248.666	200.06
248.899	196.06
249.133	183.06
249.366	183.06
249.599	187.06
249.832	173.06
250.066	194.06
250.299	198.06
250.532	205.06
250.765	195.06
250.998	206.06
251.231	190.06
251.465	191.06
251.698	192.06
251.931	193.06
252.164	190.06
252.397	199.06
252.63	217.06
252.863	228.06
253.096	218.06
253.329	213.06
253.562	222.06
253.795	221.06
254.028	224.06
254.261	230.06
254.494	212.06
254.727	222.06
254.96	219.06
255.193	231.06
255.426	227.06
255.659	215.06
255.892	225.06
256.124	241.06
256.357	228.06
256.59	235.06
256.823	225.06
257.056	212.06
257.289	223.06
257.521	240.06
257.754	224.06
257.987	226.06
258.22	224.06
258.452	208.06
258.685	230.06
258.918	233.06
259.151	236.06
259.383	246.06
259.616	228.06
259.849	253.06
260.081	267.06
260.314	281.06
260.547	252.06
260.779	258.06
261.012	257.06
261.244	266.06
261.477	268.06
261.71	266.06
261.942	260.06
262.175	264.06
262.407	258.06
262.64	270.06
262.872	271.06
263.105	264.06
263.337	288.06
263.57	302.06
263.802	276.06
264.035	281.06
264.267	276.06
264.499	273.06
264.732	274.06
264.964	266.06
265.197	253.06
265.429	281.06
265.661	267.06
265.894	263.06
266.126	275.06
266.358	269.06
266.591	279.06
266.823	272.06
267.055	283.06
267.287	273.06
267.52	264.06
267.752	266.06
267.984	278.06
268.216	284.06
268.448	299.06
268.681	291.06
268.913	278.06
269.145	286.06
269.377	294.06
269.609	280.06
269.841	296.06
270.073	296.06
270.306	291.06
270.538	299.06
270.77	298.06
271.002	320.06
271.234	292.06
271.466	304.06
271.698	300.06
271.93	293.06
272.162	300.06
272.394	297.06
272.626	315.06
272.858	307.06
273.09	335.06
273.322	302.06
273.553	304.06
273.785	327.06
274.017	325.06
274.249	333.06
274.481	330.06
274.713	352.06
274.945	360.06
275.176	386.06
275.408	360.06
275.64	346.06
275.872	353.06
276.104	354.06
276.335	351.06
276.567	332.06
276.799	335.06
277.031	360.06
277.262	364.06
277.494	320.06
277.726	331.06
277.957	345.06
278.189	346.06
278.421	323.06
278.652	328.06
278.884	345.06
279.115	352.06
279.347	361.06
279.579	331.06
279.81	350.06
280.042	345.06
280.273	348.06
280.505	342.06
280.736	320.06
280.968	360.06
281.199	368.06
281.431	368.06
281.662	364.06
281.894	349.06
282.125	354.06
282.356	372.06
282.588	343.06
282.819	343.06
283.051	371.06
283.282	355.06
283.513	374.06
283.745	371.06
283.976	375.06
284.207	378.06
284.439	371.06
284.67	361.06
284.901	376.06
285.132	394.06
285.364	402.06
285.595	362.06
285.826	388.06
286.057	386.06
286.288	371.06
286.52	391.06
286.751	390.06
286.982	387.06
287.213	387.06
287.444	389.06
287.675	395.06
287.906	394.06
288.138	387.06
288.369	400.06
288.6	394.06
288.831	390.06
289.062	397.06
289.293	401.06
289.524	406.06
289.755	386.06
289.986	389.06
290.217	386.06
290.448	396.06
290.679	397.06
290.91	403.06
291.141	395.06
291.371	394.06
291.602	414.06
291.833	411.06
292.064	409.06
292.295	398.06
292.526	392.06
292.757	420.06
292.987	411.06
293.218	415.06
293.449	429.06
293.68	422.06
293.91	425.06
294.141	402.06
294.372	421.06
294.603	419.06
294.833	425.06
295.064	419.06
295.295	407.06
295.525	429.06
295.756	425.06
295.987	434.06
296.217	434.06
296.448	420.06
296.679	432.06
296.909	418.06
297.14	426.06
297.37	439.06
297.601	444.06
297.831	450.06
298.062	407.06
298.292	443.06
298.523	444.06
298.753	441.06
298.984	454.06
299.214	448.06
299.445	456.06
299.675	437.06
299.905	443.06
300.136	441.06
300.366	448.06
300.597	449.06
300.827	444.06
301.057	452.06
301.288	457.06
301.518	462.06
301.748	482.06
301.979	473.06
302.209	479.06
302.439	471.06
302.669	469.06
302.9	464.06
303.13	464.06
303.36	482.06
303.59	473.06
303.82	478.06
304.051	476.06
304.281	482.06
304.511	466.06
304.741	468.06
304.971	449.06
305.201	485.06
305.431	494.06
305.661	486.06
305.891	465.06
306.121	474.06
306.352	468.06
306.582	490.06
306.812	483.06
307.042	492.06
307.272	482.06
307.502	471.06
307.731	477.06
307.961	468.06
308.191	491.06
308.421	472.06
308.651	457.06
308.881	494.06
309.111	476.06
309.341	482.06
309.571	486.06
309.8	481.06
310.03	497.06
310.26	493.06
310.49	484.06
310.72	486.06
310.949	500.06
311.179	500.06
311.409	520.06
311.639	500.06
311.868	475.06
312.098	513.06
312.328	524.06
312.557	500.06
312.787	488.06
313.017	500.06
313.246	492.06
313.476	506.06
313.706	507.06
313.935	526.06
314.165	493.06
314.394	528.06
314.624	516.06
314.853	509.06
315.083	513.06
315.312	524.06
315.542	534.06
315.771	524.06
316.001	515.06
316.23	479.06
316.46	505.06
316.689	522.06
316.919	527.06
317.148	521.06
317.377	538.06
317.607	530.06
317.836	518.06
318.065	536.06
318.295	520.06
318.524	521.06
318.753	532.06
318.983	516.06
319.212	513.06
319.441	530.06
319.67	539.06
319.9	545.06
320.129	544.06
320.358	547.06
320.587	533.06
320.816	536.06
321.046	560.06
321.275	563.06
321.504	521.06
321.733	548.06
321.962	537.06
322.191	548.06
322.42	546.06
322.649	558.06
322.878	545.06
323.108	539.06
323.337	534.06
323.566	550.06
323.795	546.06
324.024	553.06
324.253	549.06
324.482	552.06
324.71	551.06
324.939	553.06
325.168	550.06
325.397	546.06
325.626	573.06
325.855	578.06
326.084	574.06
326.313	572.06
326.542	564.06
326.77	571.06
326.999	574.06
327.228	590.06
327.457	570.06
327.686	574.06
327.914	594.06
328.143	595.06
328.372	589.06
328.6	574.06
328.829	565.06
329.058	585.06
329.287	584.06
329.515	589.06
329.744	589.06
329.972	593.06
330.201	586.06
330.43	601.06
330.658	601.06
330.887	617.06
331.115	593.06
331.344	599.06
331.572	605.06
331.801	594.06
332.03	605.06
332.258	590.06
332.486	625.06
332.715	628.06
332.943	631.06
333.172	625.06
333.4	627.06
333.629	628.06
333.857	653.06
334.085	666.06
334.314	665.06
334.542	654.06
334.771	682.06
334.999	650.06
335.227	675.06
335.455	678.06
335.684	691.06
335.912	664.06
336.14	666.06
336.369	645.06
336.597	642.06
336.825	662.06
337.053	664.06
337.281	650.06
337.51	660.06
337.738	654.06
337.966	646.06
338.194	645.06
338.422	645.06
338.65	662.06
338.878	626.06
339.106	636.06
339.334	634.06
339.562	630.06
339.79	644.06
340.018	637.06
340.246	617.06
340.474	638.06
340.702	650.06
340.93	634.06
341.158	614.06
341.386	640.06
341.614	649.06
341.842	632.06
342.07	619.06
342.298	634.06
342.526	638.06
342.754	622.06
342.981	631.06
343.209	625.06
343.437	633.06
343.665	646.06
343.893	650.06
344.12	640.06
344.348	678.06
344.576	681.06
344.804	669.06
345.031	658.06
345.259	644.06
345.487	628.06
345.714	625.06
345.942	633.06
346.17	628.06
346.397	621.06
346.625	638.06
346.853	601.06
347.08	632.06
347.308	610.06
347.535	621.06
347.763	618.06
347.99	601.06
348.218	596.06
348.445	586.06
348.673	608.06
348.9	628.06
349.128	591.06
349.355	600.06
349.583	589.06
349.81	608.06
350.037	599.06
350.265	578.06
350.492	600.06
350.72	621.06
350.947	617.06
351.174	605.06
351.402	583.06
351.629	607.06
351.856	597.06
352.083	593.06
352.311	613.06
352.538	610.06
352.765	590.06
352.992	604.06
353.22	584.06
353.447	590.06
353.674	583.06
353.901	596.06
354.128	594.06
354.355	594.06
354.583	597.06
354.81	617.06
355.037	584.06
355.264	599.06
355.491	619.06
355.718	610.06
355.945	609.06
356.172	603.06
356.399	594.06
356.626	592.06
356.853	605.06
357.08	600.06
357.307	622.06
357.534	593.06
357.761	587.06
357.988	620.06
358.215	613.06
358.441	639.06
358.668	599.06
358.895	604.06
359.122	603.06
359.349	602.06
359.576	609.06
359.802	595.06
360.029	590.06
360.256	598.06
360.483	600.06
360.709	618.06
360.936	629.06
361.163	607.06
361.39	620.06
361.616	611.06
361.843	614.06
362.07	603.06
362.296	615.06
362.523	617.06
362.749	596.06
362.976	626.06
363.203	606.06
363.429	613.06
363.656	620.06
363.882	640.06
364.109	638.06
364.335	630.06
364.562	633.06
364.788	612.06
365.015	628.06
365.241	618.06
365.468	619.06
365.694	623.06
365.92	617.06
366.147	615.06
366.373	617.06
366.599	629.06
366.826	612.06
367.052	619.06
367.278	614.06
367.505	627.06
367.731	625.06
367.957	614.06
368.184	634.06
368.41	656.06
368.636	630.06
368.862	625.06
369.089	634.06
369.315	612.06
369.541	640.06
369.767	637.06
369.993	640.06
370.219	645.06
370.445	656.06
370.672	658.06
370.898	642.06
371.124	655.06
371.35	674.06
371.576	640.06
371.802	665.06
372.028	658.06
372.254	644.06
372.48	692.06
372.706	666.06
372.932	679.06
373.158	664.06
373.384	688.06
373.61	680.06
373.835	702.06
374.061	677.06
374.287	680.06
374.513	676.06
374.739	690.06
374.965	713.06
375.191	714.06
375.416	698.06
375.642	648.06
375.868	679.06
376.094	662.06
376.319	683.06
376.545	683.06
376.771	664.06
376.997	648.06
377.222	650.06
377.448	657.06
377.674	645.06
377.899	655.06
378.125	681.06
378.35	644.06
378.576	657.06
378.802	669.06
379.027	645.06
379.253	686.06
379.478	668.06
379.704	657.06
379.929	652.06
380.155	666.06
380.38	648.06
380.606	662.06
380.831	653.06
381.057	678.06
381.282	703.06
381.507	684.06
381.733	675.06
381.958	675.06
382.184	682.06
382.409	706.06
382.634	684.06
382.86	683.06
383.085	714.06
383.31	688.06
383.535	694.06
383.761	688.06
383.986	676.06
384.211	706.06
384.436	704.06
384.662	706.06
384.887	705.06
385.112	739.06
385.337	718.06
385.562	735.06
385.787	753.06
386.013	750.06
386.238	766.06
386.463	747.06
386.688	760.06
386.913	734.06
387.138	757.06
387.363	749.06
387.588	752.06
387.813	772.06
388.038	785.06
388.263	748.06
388.488	773.06
388.713	764.06
388.938	757.06
389.163	745.06
389.387	782.06
389.612	774.06
389.837	753.06
390.062	761.06
390.287	767.06
390.512	756.06
390.736	737.06
390.961	788.06
391.186	782.06
391.411	776.06
391.636	780.06
391.86	791.06
392.085	807.06
392.31	784.06
392.534	779.06
392.759	826.06
392.984	816.06
393.208	807.06
393.433	825.06
393.658	838.06
393.882	806.06
394.107	781.06
394.331	782.06
394.556	781.06
394.78	807.06
395.005	798.06
395.229	804.06
395.454	806.06
395.678	805.06
395.903	809.06
396.127	810.06
396.352	812.06
396.576	816.06
396.801	805.06
397.025	849.06
397.249	844.06
397.474	844.06
397.698	830.06
397.922	830.06
398.147	846.06
398.371	861.06
398.595	857.06
398.82	872.06
399.044	912.06
399.268	946.06
399.492	966.06
399.717	997.06
399.941	1024.06
400.165	995.06
400.389	978.06
400.613	966.06
400.837	937.06
401.062	906.06
401.286	914.06
401.51	906.06
401.734	908.06
401.958	882.06
402.182	906.06
402.406	875.06
402.63	881.06
402.854	905.06
403.078	870.06
403.302	884.06
403.526	868.06
403.75	896.06
403.974	942.06
404.198	907.06
404.422	874.06
404.645	883.06
404.869	896.06
405.093	910.06
405.317	896.06
405.541	925.06
405.765	893.06
405.988	906.06
406.212	950.06
406.436	938.06
406.66	972.06
406.883	964.06
407.107	961.06
407.331	946.06
407.555	1034.06
407.778	977.06
408.002	984.06
408.226	986.06
408.449	963.06
408.673	964.06
408.896	955.06
409.12	973.06
409.344	972.06
409.567	956.06
409.791	949.06
410.014	934.06
410.238	936.06
410.461	937.06
410.685	917.06
410.908	926.06
411.132	904.06
411.355	909.06
411.578	924.06
411.802	897.06
412.025	861.06
412.249	933.06
412.472	937.06
412.695	909.06
412.919	898.06
413.142	893.06
413.365	892.06
413.589	899.06
413.812	882.06
414.035	885.06
414.258	888.06
414.482	877.06
414.705	894.06
414.928	874.06
415.151	877.06
415.374	899.06
415.597	851.06
415.821	834.06
416.044	846.06
416.267	834.06
416.49	874.06
416.713	869.06
416.936	867.06
417.159	853.06
417.382	854.06
417.605	837.06
417.828	836.06
418.051	844.06
418.274	844.06
418.497	826.06
418.72	817.06
418.943	835.06
419.166	876.06
419.389	953.06
419.611	924.06
419.834	883.06
420.057	871.06
420.28	830.06
420.503	852.06
420.726	823.06
420.948	836.06
421.171	816.06
421.394	837.06
421.617	859.06
421.839	824.06
422.062	836.06
422.285	800.06
422.507	836.06
422.73	827.06
422.953	825.06
423.175	817.06
423.398	853.06
423.621	817.06
423.843	844.06
424.066	812.06
424.288	818.06
424.511	816.06
424.733	817.06
424.956	792.06
425.178	814.06
425.401	841.06
425.623	844.06
425.846	790.06
426.068	813.06
426.291	819.06
426.513	835.06
426.735	804.06
426.958	832.06
427.18	821.06
427.402	795.06
427.625	820.06
427.847	806.06
428.069	790.06
428.292	813.06
428.514	822.06
428.736	803.06
428.958	818.06
429.181	803.06
429.403	769.06
429.625	793.06
429.847	777.06
430.069	789.06
430.292	804.06
430.514	786.06
430.736	804.06
430.958	819.06
431.18	816.06
431.402	810.06
431.624	782.06
431.846	778.06
432.068	817.06
432.29	818.06
432.512	779.06
432.734	802.06
432.956	797.06
433.178	813.06
433.4	779.06
433.622	819.06
433.844	806.06
434.066	828.06
434.287	807.06
434.509	826.06
434.731	837.06
434.953	799.06
435.175	803.06
435.397	836.06
435.618	801.06
435.84	799.06
436.062	798.06
436.284	817.06
436.505	782.06
436.727	782.06
436.949	811.06
437.17	806.06
437.392	798.06
437.614	793.06
437.835	776.06
438.057	776.06
438.278	765.06
438.5	762.06
438.721	782.06
438.943	761.06
439.165	756.06
439.386	743.06
439.608	774.06
439.829	763.06
440.05	762.06
440.272	748.06
440.493	762.06
440.715	775.06
440.936	786.06
441.158	780.06
441.379	779.06
441.6	812.06
441.822	827.06
442.043	790.06
442.264	796.06
442.486	789.06
442.707	805.06
442.928	806.06
443.149	818.06
443.371	812.06
443.592	810.06
443.813	806.06
444.034	801.06
444.255	814.06
444.476	802.06
444.698	861.06
444.919	850.06
445.14	946.06
445.361	858.06
445.582	834.06
445.803	818.06
446.024	797.06
446.245	800.06
446.466	782.06
446.687	800.06
446.908	790.06
447.129	771.06
447.35	747.06
447.571	753.06
447.792	755.06
448.013	768.06
448.234	767.06
448.455	763.06
448.675	736.06
448.896	756.06
449.117	731.06
449.338	713.06
449.559	713.06
449.779	726.06
450	734.06
450.221	706.06
450.442	701.06
450.662	728.06
450.883	716.06
451.104	728.06
451.324	697.06
451.545	723.06
451.766	733.06
451.986	694.06
452.207	696.06
452.428	716.06
452.648	723.06
452.869	696.06
453.089	681.06
453.31	722.06
453.53	699.06
453.751	701.06
453.971	698.06
454.192	714.06
454.412	686.06
454.633	682.06
454.853	696.06
455.073	690.06
455.294	694.06
455.514	683.06
455.734	701.06
455.955	665.06
456.175	685.06
456.395	675.06
456.616	693.06
456.836	701.06
457.056	704.06
457.276	690.06
457.497	713.06
457.717	717.06
457.937	725.06
458.157	738.06
458.377	709.06
458.598	738.06
458.818	731.06
459.038	739.06
459.258	761.06
459.478	758.06
459.698	790.06
459.918	780.06
460.138	770.06
460.358	790.06
460.578	851.06
460.798	831.06
461.018	836.06
461.238	825.06
461.458	854.06
461.678	830.06
461.898	861.06
462.118	867.06
462.338	846.06
462.558	880.06
462.777	904.06
462.997	894.06
463.217	928.06
463.437	938.06
463.657	909.06
463.876	915.06
464.096	928.06
464.316	905.06
464.536	906.06
464.755	861.06
464.975	879.06
465.195	845.06
465.414	857.06
465.634	798.06
465.854	805.06
466.073	804.06
466.293	806.06
466.512	772.06
466.732	783.06
466.951	786.06
467.171	786.06
467.391	766.06
467.61	765.06
467.829	785.06
468.049	760.06
468.268	757.06
468.488	728.06
468.707	761.06
468.927	752.06
469.146	764.06
469.365	753.06
469.585	733.06
469.804	761.06
470.023	758.06
470.243	772.06
470.462	762.06
470.681	761.06
470.901	775.06
471.12	779.06
471.339	778.06
471.558	788.06
471.777	759.06
471.997	752.06
472.216	748.06
472.435	770.06
472.654	758.06
472.873	740.06
473.092	768.06
473.311	779.06
473.53	755.06
473.749	765.06
473.968	772.06
474.187	775.06
474.406	777.06
474.625	785.06
474.844	788.06
475.063	809.06
475.282	794.06
475.501	782.06
475.72	794.06
475.939	798.06
476.158	823.06
476.377	832.06
476.596	832.06
476.814	859.06
477.033	854.06
477.252	827.06
477.471	840.06
477.69	845.06
477.908	846.06
478.127	858.06
478.346	855.06
478.564	884.06
478.783	885.06
479.002	873.06
479.22	911.06
479.439	906.06
479.658	888.06
479.876	893.06
480.095	910.06
480.313	922.06
480.532	937.06
480.751	929.06
480.969	899.06
481.188	918.06
481.406	916.06
481.624	916.06
481.843	915.06
482.061	906.06
482.28	936.06
482.498	900.06
482.717	904.06
482.935	889.06
483.153	900.06
483.372	882.06
483.59	908.06
483.808	912.06
484.027	910.06
484.245	900.06
484.463	911.06
484.681	892.06
484.9	922.06
485.118	931.06
485.336	919.06
485.554	944.06
485.772	941.06
485.99	936.06
486.209	918.06
486.427	904.06
486.645	956.06
486.863	930.06
487.081	926.06
487.299	934.06
487.517	937.06
487.735	903.06
487.953	930.06
488.171	941.06
488.389	953.06
488.607	906.06
488.825	945.06
489.043	910.06
489.261	943.06
489.479	960.06
489.696	943.06
489.914	957.06
490.132	934.06
490.35	956.06
490.568	925.06
490.786	935.06
491.003	938.06
491.221	945.06
491.439	942.06
491.657	942.06
491.874	954.06
492.092	955.06
492.31	970.06
492.527	931.06
492.745	936.06
492.963	965.06
493.18	945.06
493.398	977.06
493.615	967.06
493.833	972.06
494.05	947.06
494.268	979.06
494.485	962.06
494.703	1002.06
494.92	973.06
495.138	995.06
495.355	1005.06
495.573	986.06
495.79	1001.06
496.008	1027.06
496.225	996.06
496.442	1012.06
496.66	1057.06
496.877	1044.06
497.094	1070.06
497.312	1076.06
497.529	1084.06
497.746	1096.06
497.963	1129.06
498.181	1176.06
498.398	1185.06
498.615	1241.06
498.832	1222.06
499.049	1272.06
499.267	1261.06
499.484	1338.06
499.701	1413.06
499.918	1442.06
500.135	1470.06
500.352	1572.06
500.569	1552.06
500.786	1579.06
501.003	1545.06
501.22	1488.06
