Data from Fe(NO3)3@0.025M.TitratingCurve.Agarose3%dH2O.NegLispCup.LampEnergy10.LIBS07252019_HRD10591_16-56-07-335.txt Node
Date: Thu Jul 25 16:56:07 EDT 2019
User: cochatt
Spectrometer: HR+D1059
Trigger mode: 1
Integration Time (sec): 1.000000E-1
Scans to average: 1
Electric dark correction enabled: true
Nonlinearity correction enabled: false
Boxcar width: 0
XAxis mode: Wavelengths
Number of Pixels in Spectrum: 2048
>>>>>Begin Spectral Data<<<<<
223.165	-6.38
223.4	-6.38
223.635	-6.38
223.869	-32.38
224.104	-23.38
224.338	-8.38
224.573	-21.38
224.808	-8.38
225.042	1.62
225.277	-9.38
225.511	-9.38
225.746	7.62
225.98	17.62
226.215	16.62
226.449	17.62
226.683	14.62
226.918	12.62
227.152	30.62
227.387	37.62
227.621	27.62
227.856	46.62
228.09	48.62
228.324	34.62
228.559	43.62
228.793	73.62
229.027	84.62
229.262	83.62
229.496	84.62
229.73	80.62
229.964	74.62
230.199	92.62
230.433	70.62
230.667	93.62
230.901	99.62
231.136	86.62
231.37	89.62
231.604	90.62
231.838	103.62
232.072	90.62
232.306	92.62
232.541	90.62
232.775	87.62
233.009	93.62
233.243	102.62
233.477	92.62
233.711	113.62
233.945	88.62
234.179	98.62
234.413	97.62
234.647	97.62
234.881	100.62
235.115	96.62
235.349	77.62
235.583	97.62
235.817	98.62
236.051	99.62
236.285	102.62
236.519	91.62
236.753	100.62
236.987	100.62
237.221	86.62
237.455	95.62
237.689	98.62
237.922	99.62
238.156	90.62
238.39	104.62
238.624	107.62
238.858	100.62
239.091	105.62
239.325	104.62
239.559	90.62
239.793	98.62
240.027	110.62
240.26	104.62
240.494	102.62
240.728	83.62
240.961	102.62
241.195	93.62
241.429	110.62
241.662	93.62
241.896	108.62
242.13	101.62
242.363	107.62
242.597	103.62
242.83	107.62
243.064	105.62
243.298	99.62
243.531	111.62
243.765	102.62
243.998	119.62
244.232	101.62
244.465	103.62
244.699	97.62
244.932	96.62
245.166	102.62
245.399	107.62
245.633	118.62
245.866	126.62
246.099	122.62
246.333	112.62
246.566	117.62
246.8	122.62
247.033	120.62
247.266	111.62
247.5	112.62
247.733	127.62
247.966	116.62
248.2	113.62
248.433	108.62
248.666	116.62
248.899	124.62
249.133	113.62
249.366	124.62
249.599	113.62
249.832	110.62
250.066	122.62
250.299	111.62
250.532	126.62
250.765	114.62
250.998	134.62
251.231	122.62
251.465	119.62
251.698	122.62
251.931	140.62
252.164	122.62
252.397	120.62
252.63	111.62
252.863	130.62
253.096	135.62
253.329	130.62
253.562	130.62
253.795	133.62
254.028	139.62
254.261	131.62
254.494	128.62
254.727	129.62
254.96	116.62
255.193	124.62
255.426	129.62
255.659	122.62
255.892	138.62
256.124	128.62
256.357	131.62
256.59	128.62
256.823	137.62
257.056	122.62
257.289	145.62
257.521	145.62
257.754	125.62
257.987	135.62
258.22	140.62
258.452	123.62
258.685	137.62
258.918	146.62
259.151	137.62
259.383	133.62
259.616	124.62
259.849	154.62
260.081	125.62
260.314	148.62
260.547	143.62
260.779	139.62
261.012	134.62
261.244	133.62
261.477	150.62
261.71	131.62
261.942	143.62
262.175	138.62
262.407	146.62
262.64	155.62
262.872	145.62
263.105	148.62
263.337	144.62
263.57	131.62
263.802	147.62
264.035	149.62
264.267	132.62
264.499	149.62
264.732	151.62
264.964	148.62
265.197	131.62
265.429	144.62
265.661	148.62
265.894	162.62
266.126	141.62
266.358	161.62
266.591	158.62
266.823	166.62
267.055	159.62
267.287	150.62
267.52	148.62
267.752	142.62
267.984	161.62
268.216	153.62
268.448	149.62
268.681	154.62
268.913	152.62
269.145	137.62
269.377	152.62
269.609	158.62
269.841	154.62
270.073	147.62
270.306	134.62
270.538	152.62
270.77	160.62
271.002	165.62
271.234	176.62
271.466	164.62
271.698	151.62
271.93	137.62
272.162	170.62
272.394	155.62
272.626	156.62
272.858	153.62
273.09	165.62
273.322	156.62
273.553	170.62
273.785	161.62
274.017	173.62
274.249	173.62
274.481	164.62
274.713	185.62
274.945	178.62
275.176	178.62
275.408	168.62
275.64	164.62
275.872	174.62
276.104	169.62
276.335	179.62
276.567	170.62
276.799	176.62
277.031	177.62
277.262	178.62
277.494	183.62
277.726	185.62
277.957	174.62
278.189	167.62
278.421	170.62
278.652	183.62
278.884	180.62
279.115	176.62
279.347	192.62
279.579	186.62
279.81	170.62
280.042	180.62
280.273	176.62
280.505	169.62
280.736	192.62
280.968	197.62
281.199	204.62
281.431	197.62
281.662	176.62
281.894	195.62
282.125	177.62
282.356	204.62
282.588	209.62
282.819	205.62
283.051	190.62
283.282	191.62
283.513	202.62
283.745	189.62
283.976	184.62
284.207	188.62
284.439	191.62
284.67	202.62
284.901	188.62
285.132	201.62
285.364	195.62
285.595	205.62
285.826	193.62
286.057	196.62
286.288	203.62
286.52	181.62
286.751	200.62
286.982	216.62
287.213	204.62
287.444	199.62
287.675	209.62
287.906	186.62
288.138	186.62
288.369	219.62
288.6	207.62
288.831	199.62
289.062	199.62
289.293	196.62
289.524	206.62
289.755	213.62
289.986	207.62
290.217	217.62
290.448	213.62
290.679	199.62
290.91	211.62
291.141	200.62
291.371	198.62
291.602	210.62
291.833	220.62
292.064	209.62
292.295	201.62
292.526	203.62
292.757	201.62
292.987	212.62
293.218	195.62
293.449	209.62
293.68	198.62
293.91	204.62
294.141	209.62
294.372	216.62
294.603	222.62
294.833	208.62
295.064	211.62
295.295	216.62
295.525	210.62
295.756	208.62
295.987	225.62
296.217	219.62
296.448	230.62
296.679	217.62
296.909	216.62
297.14	211.62
297.37	225.62
297.601	207.62
297.831	228.62
298.062	223.62
298.292	234.62
298.523	219.62
298.753	207.62
298.984	224.62
299.214	226.62
299.445	241.62
299.675	232.62
299.905	240.62
300.136	214.62
300.366	224.62
300.597	232.62
300.827	234.62
301.057	240.62
301.288	257.62
301.518	244.62
301.748	227.62
301.979	238.62
302.209	223.62
302.439	231.62
302.669	237.62
302.9	241.62
303.13	237.62
303.36	243.62
303.59	246.62
303.82	243.62
304.051	239.62
304.281	243.62
304.511	228.62
304.741	242.62
304.971	233.62
305.201	248.62
305.431	251.62
305.661	231.62
305.891	238.62
306.121	259.62
306.352	235.62
306.582	258.62
306.812	254.62
307.042	258.62
307.272	247.62
307.502	256.62
307.731	242.62
307.961	240.62
308.191	247.62
308.421	238.62
308.651	246.62
308.881	232.62
309.111	227.62
309.341	229.62
309.571	255.62
309.8	253.62
310.03	259.62
310.26	255.62
310.49	232.62
310.72	260.62
310.949	246.62
311.179	251.62
311.409	254.62
311.639	256.62
311.868	271.62
312.098	251.62
312.328	244.62
312.557	233.62
312.787	268.62
313.017	278.62
313.246	261.62
313.476	259.62
313.706	246.62
313.935	257.62
314.165	273.62
314.394	255.62
314.624	266.62
314.853	256.62
315.083	288.62
315.312	270.62
315.542	278.62
315.771	255.62
316.001	259.62
316.23	265.62
316.46	270.62
316.689	250.62
316.919	276.62
317.148	259.62
317.377	262.62
317.607	267.62
317.836	248.62
318.065	282.62
318.295	259.62
318.524	273.62
318.753	260.62
318.983	264.62
319.212	274.62
319.441	262.62
319.67	258.62
319.9	263.62
320.129	270.62
320.358	265.62
320.587	279.62
320.816	264.62
321.046	295.62
321.275	278.62
321.504	280.62
321.733	269.62
321.962	275.62
322.191	240.62
322.42	270.62
322.649	284.62
322.878	262.62
323.108	270.62
323.337	274.62
323.566	289.62
323.795	279.62
324.024	283.62
324.253	297.62
324.482	292.62
324.71	283.62
324.939	274.62
325.168	290.62
325.397	293.62
325.626	288.62
325.855	286.62
326.084	310.62
326.313	272.62
326.542	285.62
326.77	283.62
326.999	269.62
327.228	281.62
327.457	300.62
327.686	289.62
327.914	268.62
328.143	296.62
328.372	294.62
328.6	296.62
328.829	290.62
329.058	291.62
329.287	284.62
329.515	306.62
329.744	314.62
329.972	319.62
330.201	314.62
330.43	312.62
330.658	301.62
330.887	295.62
331.115	293.62
331.344	319.62
331.572	309.62
331.801	313.62
332.03	321.62
332.258	318.62
332.486	310.62
332.715	334.62
332.943	330.62
333.172	339.62
333.4	350.62
333.629	339.62
333.857	351.62
334.085	339.62
334.314	342.62
334.542	347.62
334.771	346.62
334.999	339.62
335.227	351.62
335.455	342.62
335.684	330.62
335.912	374.62
336.14	337.62
336.369	335.62
336.597	345.62
336.825	324.62
337.053	340.62
337.281	344.62
337.51	339.62
337.738	325.62
337.966	332.62
338.194	320.62
338.422	315.62
338.65	310.62
338.878	313.62
339.106	327.62
339.334	322.62
339.562	322.62
339.79	314.62
340.018	321.62
340.246	306.62
340.474	318.62
340.702	308.62
340.93	311.62
341.158	317.62
341.386	324.62
341.614	317.62
341.842	312.62
342.07	336.62
342.298	309.62
342.526	334.62
342.754	329.62
342.981	330.62
343.209	315.62
343.437	330.62
343.665	343.62
343.893	347.62
344.12	358.62
344.348	349.62
344.576	339.62
344.804	319.62
345.031	327.62
345.259	328.62
345.487	322.62
345.714	314.62
345.942	333.62
346.17	303.62
346.397	302.62
346.625	309.62
346.853	309.62
347.08	298.62
347.308	311.62
347.535	300.62
347.763	306.62
347.99	299.62
348.218	316.62
348.445	315.62
348.673	310.62
348.9	293.62
349.128	321.62
349.355	318.62
349.583	313.62
349.81	321.62
350.037	318.62
350.265	326.62
350.492	287.62
350.72	308.62
350.947	315.62
351.174	312.62
351.402	284.62
351.629	316.62
351.856	304.62
352.083	306.62
352.311	308.62
352.538	298.62
352.765	304.62
352.992	303.62
353.22	291.62
353.447	295.62
353.674	314.62
353.901	304.62
354.128	303.62
354.355	299.62
354.583	319.62
354.81	304.62
355.037	321.62
355.264	281.62
355.491	296.62
355.718	325.62
355.945	318.62
356.172	304.62
356.399	301.62
356.626	311.62
356.853	319.62
357.08	315.62
357.307	306.62
357.534	306.62
357.761	308.62
357.988	316.62
358.215	303.62
358.441	298.62
358.668	308.62
358.895	313.62
359.122	320.62
359.349	304.62
359.576	316.62
359.802	329.62
360.029	314.62
360.256	327.62
360.483	316.62
360.709	321.62
360.936	308.62
361.163	318.62
361.39	309.62
361.616	319.62
361.843	309.62
362.07	307.62
362.296	321.62
362.523	291.62
362.749	324.62
362.976	296.62
363.203	312.62
363.429	300.62
363.656	328.62
363.882	320.62
364.109	319.62
364.335	322.62
364.562	314.62
364.788	315.62
365.015	336.62
365.241	310.62
365.468	327.62
365.694	329.62
365.92	307.62
366.147	296.62
366.373	324.62
366.599	316.62
366.826	320.62
367.052	311.62
367.278	312.62
367.505	306.62
367.731	329.62
367.957	315.62
368.184	329.62
368.41	323.62
368.636	318.62
368.862	317.62
369.089	337.62
369.315	330.62
369.541	329.62
369.767	316.62
369.993	312.62
370.219	319.62
370.445	338.62
370.672	314.62
370.898	334.62
371.124	322.62
371.35	342.62
371.576	330.62
371.802	334.62
372.028	327.62
372.254	347.62
372.48	350.62
372.706	344.62
372.932	335.62
373.158	311.62
373.384	344.62
373.61	338.62
373.835	348.62
374.061	339.62
374.287	355.62
374.513	339.62
374.739	361.62
374.965	348.62
375.191	329.62
375.416	364.62
375.642	339.62
375.868	361.62
376.094	336.62
376.319	338.62
376.545	332.62
376.771	340.62
376.997	332.62
377.222	331.62
377.448	329.62
377.674	345.62
377.899	327.62
378.125	318.62
378.35	319.62
378.576	363.62
378.802	328.62
379.027	334.62
379.253	335.62
379.478	339.62
379.704	347.62
379.929	334.62
380.155	338.62
380.38	342.62
380.606	354.62
380.831	342.62
381.057	354.62
381.282	353.62
381.507	344.62
381.733	351.62
381.958	352.62
382.184	368.62
382.409	349.62
382.634	358.62
382.86	361.62
383.085	346.62
383.31	364.62
383.535	359.62
383.761	375.62
383.986	368.62
384.211	370.62
384.436	374.62
384.662	361.62
384.887	383.62
385.112	388.62
385.337	372.62
385.562	385.62
385.787	400.62
386.013	378.62
386.238	387.62
386.463	367.62
386.688	400.62
386.913	374.62
387.138	374.62
387.363	390.62
387.588	408.62
387.813	393.62
388.038	382.62
388.263	398.62
388.488	419.62
388.713	398.62
388.938	407.62
389.163	403.62
389.387	397.62
389.612	395.62
389.837	391.62
390.062	390.62
390.287	397.62
390.512	386.62
390.736	401.62
390.961	413.62
391.186	405.62
391.411	408.62
391.636	433.62
391.86	417.62
392.085	411.62
392.31	414.62
392.534	423.62
392.759	395.62
392.984	399.62
393.208	428.62
393.433	404.62
393.658	411.62
393.882	399.62
394.107	404.62
394.331	404.62
394.556	397.62
394.78	391.62
395.005	410.62
395.229	412.62
395.454	419.62
395.678	434.62
395.903	416.62
396.127	410.62
396.352	426.62
396.576	417.62
396.801	427.62
397.025	435.62
397.249	405.62
397.474	434.62
397.698	446.62
397.922	422.62
398.147	447.62
398.371	469.62
398.595	464.62
398.82	469.62
399.044	494.62
399.268	514.62
399.492	548.62
399.717	569.62
399.941	546.62
400.165	537.62
400.389	535.62
400.613	511.62
400.837	513.62
401.062	468.62
401.286	475.62
401.51	465.62
401.734	472.62
401.958	482.62
402.182	459.62
402.406	467.62
402.63	463.62
402.854	468.62
403.078	455.62
403.302	470.62
403.526	472.62
403.75	494.62
403.974	504.62
404.198	467.62
404.422	475.62
404.645	473.62
404.869	496.62
405.093	480.62
405.317	480.62
405.541	503.62
405.765	481.62
405.988	470.62
406.212	489.62
406.436	479.62
406.66	486.62
406.883	497.62
407.107	506.62
407.331	539.62
407.555	535.62
407.778	551.62
408.002	523.62
408.226	547.62
408.449	536.62
408.673	486.62
408.896	510.62
409.12	509.62
409.344	516.62
409.567	489.62
409.791	500.62
410.014	485.62
410.238	494.62
410.461	480.62
410.685	466.62
410.908	469.62
411.132	496.62
411.355	489.62
411.578	467.62
411.802	470.62
412.025	468.62
412.249	472.62
412.472	484.62
412.695	455.62
412.919	451.62
413.142	475.62
413.365	457.62
413.589	474.62
413.812	454.62
414.035	439.62
414.258	460.62
414.482	455.62
414.705	461.62
414.928	469.62
415.151	446.62
415.374	482.62
415.597	460.62
415.821	464.62
416.044	452.62
416.267	440.62
416.49	450.62
416.713	455.62
416.936	441.62
417.159	451.62
417.382	460.62
417.605	445.62
417.828	448.62
418.051	455.62
418.274	463.62
418.497	446.62
418.72	454.62
418.943	465.62
419.166	460.62
419.389	491.62
419.611	460.62
419.834	470.62
420.057	458.62
420.28	465.62
420.503	434.62
420.726	428.62
420.948	439.62
421.171	447.62
421.394	455.62
421.617	424.62
421.839	452.62
422.062	436.62
422.285	445.62
422.507	441.62
422.73	435.62
422.953	438.62
423.175	443.62
423.398	449.62
423.621	439.62
423.843	430.62
424.066	426.62
424.288	431.62
424.511	422.62
424.733	425.62
424.956	456.62
425.178	456.62
425.401	450.62
425.623	447.62
425.846	432.62
426.068	428.62
426.291	422.62
426.513	425.62
426.735	410.62
426.958	423.62
427.18	414.62
427.402	410.62
427.625	420.62
427.847	406.62
428.069	432.62
428.292	417.62
428.514	407.62
428.736	424.62
428.958	432.62
429.181	396.62
429.403	387.62
429.625	415.62
429.847	391.62
430.069	404.62
430.292	401.62
430.514	404.62
430.736	399.62
430.958	395.62
431.18	402.62
431.402	406.62
431.624	411.62
431.846	408.62
432.068	405.62
432.29	402.62
432.512	402.62
432.734	407.62
432.956	409.62
433.178	402.62
433.4	427.62
433.622	414.62
433.844	408.62
434.066	444.62
434.287	416.62
434.509	416.62
434.731	447.62
434.953	436.62
435.175	430.62
435.397	445.62
435.618	419.62
435.84	424.62
436.062	429.62
436.284	386.62
436.505	406.62
436.727	394.62
436.949	399.62
437.17	410.62
437.392	407.62
437.614	408.62
437.835	417.62
438.057	414.62
438.278	378.62
438.5	375.62
438.721	393.62
438.943	390.62
439.165	410.62
439.386	418.62
439.608	411.62
439.829	398.62
440.05	387.62
440.272	403.62
440.493	405.62
440.715	404.62
440.936	428.62
441.158	433.62
441.379	418.62
441.6	444.62
441.822	437.62
442.043	424.62
442.264	410.62
442.486	433.62
442.707	438.62
442.928	426.62
443.149	426.62
443.371	410.62
443.592	433.62
443.813	442.62
444.034	439.62
444.255	442.62
444.476	447.62
444.698	470.62
444.919	470.62
445.14	540.62
445.361	464.62
445.582	426.62
445.803	425.62
446.024	440.62
446.245	421.62
446.466	426.62
446.687	415.62
446.908	426.62
447.129	407.62
447.35	418.62
447.571	394.62
447.792	387.62
448.013	381.62
448.234	393.62
448.455	370.62
448.675	395.62
448.896	389.62
449.117	411.62
449.338	385.62
449.559	364.62
449.779	377.62
450	391.62
450.221	379.62
450.442	364.62
450.662	370.62
450.883	373.62
451.104	390.62
451.324	369.62
451.545	368.62
451.766	371.62
451.986	367.62
452.207	376.62
452.428	374.62
452.648	385.62
452.869	400.62
453.089	362.62
453.31	378.62
453.53	358.62
453.751	356.62
453.971	368.62
454.192	358.62
454.412	356.62
454.633	357.62
454.853	363.62
455.073	370.62
455.294	346.62
455.514	357.62
455.734	338.62
455.955	349.62
456.175	348.62
456.395	374.62
456.616	356.62
456.836	371.62
457.056	352.62
457.276	361.62
457.497	366.62
457.717	359.62
457.937	372.62
458.157	362.62
458.377	376.62
458.598	381.62
458.818	389.62
459.038	393.62
459.258	377.62
459.478	412.62
459.698	394.62
459.918	425.62
460.138	409.62
460.358	449.62
460.578	454.62
460.798	456.62
461.018	457.62
461.238	456.62
461.458	449.62
461.678	446.62
461.898	478.62
462.118	467.62
462.338	485.62
462.558	484.62
462.777	485.62
462.997	523.62
463.217	507.62
463.437	514.62
463.657	533.62
463.876	503.62
464.096	490.62
464.316	488.62
464.536	510.62
464.755	480.62
464.975	469.62
465.195	466.62
465.414	455.62
465.634	430.62
465.854	422.62
466.073	424.62
466.293	396.62
466.512	417.62
466.732	406.62
466.951	394.62
467.171	387.62
467.391	392.62
467.61	391.62
467.829	402.62
468.049	404.62
468.268	398.62
468.488	410.62
468.707	404.62
468.927	378.62
469.146	390.62
469.365	409.62
469.585	402.62
469.804	381.62
470.023	406.62
470.243	389.62
470.462	414.62
470.681	397.62
470.901	422.62
471.12	406.62
471.339	393.62
471.558	402.62
471.777	395.62
471.997	382.62
472.216	387.62
472.435	396.62
472.654	410.62
472.873	357.62
473.092	378.62
473.311	394.62
473.53	396.62
473.749	396.62
473.968	392.62
474.187	407.62
474.406	398.62
474.625	410.62
474.844	394.62
475.063	387.62
475.282	394.62
475.501	398.62
475.72	401.62
475.939	405.62
476.158	430.62
476.377	427.62
476.596	423.62
476.814	423.62
477.033	408.62
477.252	403.62
477.471	415.62
477.69	448.62
477.908	447.62
478.127	455.62
478.346	464.62
478.564	468.62
478.783	439.62
479.002	471.62
479.22	466.62
479.439	468.62
479.658	461.62
479.876	457.62
480.095	479.62
480.313	486.62
480.532	475.62
480.751	504.62
480.969	479.62
481.188	471.62
481.406	456.62
481.624	457.62
481.843	444.62
482.061	451.62
482.28	460.62
482.498	460.62
482.717	473.62
482.935	465.62
483.153	435.62
483.372	451.62
483.59	455.62
483.808	465.62
484.027	469.62
484.245	471.62
484.463	475.62
484.681	472.62
484.9	443.62
485.118	464.62
485.336	438.62
485.554	470.62
485.772	478.62
485.99	462.62
486.209	451.62
486.427	469.62
486.645	460.62
486.863	457.62
487.081	446.62
487.299	458.62
487.517	472.62
487.735	445.62
487.953	460.62
488.171	475.62
488.389	462.62
488.607	444.62
488.825	456.62
489.043	483.62
489.261	480.62
489.479	462.62
489.696	468.62
489.914	470.62
490.132	451.62
490.35	474.62
490.568	458.62
490.786	465.62
491.003	484.62
491.221	472.62
491.439	487.62
491.657	474.62
491.874	481.62
492.092	464.62
492.31	475.62
492.527	470.62
492.745	474.62
492.963	489.62
493.18	510.62
493.398	469.62
493.615	473.62
493.833	489.62
494.05	493.62
494.268	512.62
494.485	497.62
494.703	500.62
494.92	494.62
495.138	489.62
495.355	515.62
495.573	492.62
495.79	500.62
496.008	528.62
496.225	525.62
496.442	511.62
496.66	524.62
496.877	538.62
497.094	554.62
497.312	531.62
497.529	579.62
497.746	575.62
497.963	582.62
498.181	606.62
498.398	644.62
498.615	632.62
498.832	678.62
499.049	693.62
499.267	724.62
499.484	789.62
499.701	820.62
499.918	828.62
500.135	883.62
500.352	938.62
500.569	926.62
500.786	906.62
501.003	901.62
501.22	887.62
501.437	835.62
501.654	788.62
501.871	752.62
502.088	711.62
