Data from Fe(NO3)3@0.025M.TitratingCurve.Agarose3%dH2O.NegLispCup.LampEnergy10.LIBS07252019_HRD10591_16-55-19-335.txt Node
Date: Thu Jul 25 16:55:19 EDT 2019
User: cochatt
Spectrometer: HR+D1059
Trigger mode: 1
Integration Time (sec): 1.000000E-1
Scans to average: 1
Electric dark correction enabled: true
Nonlinearity correction enabled: false
Boxcar width: 0
XAxis mode: Wavelengths
Number of Pixels in Spectrum: 2048
>>>>>Begin Spectral Data<<<<<
223.165	-22.5
223.4	-22.5
223.635	-22.5
223.869	-11.5
224.104	-13.5
224.338	-10.5
224.573	-5.5
224.808	-18.5
225.042	-7.5
225.277	-8.5
225.511	5.5
225.746	12.5
225.98	0.5
226.215	8.5
226.449	12.5
226.683	7.5
226.918	25.5
227.152	25.5
227.387	44.5
227.621	30.5
227.856	49.5
228.09	46.5
228.324	50.5
228.559	67.5
228.793	73.5
229.027	66.5
229.262	78.5
229.496	77.5
229.73	82.5
229.964	99.5
230.199	77.5
230.433	87.5
230.667	89.5
230.901	93.5
231.136	90.5
231.37	97.5
231.604	97.5
231.838	98.5
232.072	99.5
232.306	103.5
232.541	91.5
232.775	93.5
233.009	90.5
233.243	95.5
233.477	104.5
233.711	91.5
233.945	103.5
234.179	86.5
234.413	98.5
234.647	102.5
234.881	99.5
235.115	109.5
235.349	98.5
235.583	121.5
235.817	104.5
236.051	95.5
236.285	83.5
236.519	110.5
236.753	115.5
236.987	108.5
237.221	92.5
237.455	109.5
237.689	95.5
237.922	104.5
238.156	80.5
238.39	97.5
238.624	93.5
238.858	109.5
239.091	99.5
239.325	103.5
239.559	102.5
239.793	96.5
240.027	106.5
240.26	105.5
240.494	92.5
240.728	92.5
240.961	103.5
241.195	113.5
241.429	108.5
241.662	102.5
241.896	93.5
242.13	107.5
242.363	97.5
242.597	96.5
242.83	116.5
243.064	106.5
243.298	101.5
243.531	116.5
243.765	113.5
243.998	100.5
244.232	94.5
244.465	103.5
244.699	100.5
244.932	117.5
245.166	124.5
245.399	100.5
245.633	121.5
245.866	104.5
246.099	112.5
246.333	117.5
246.566	101.5
246.8	113.5
247.033	115.5
247.266	121.5
247.5	115.5
247.733	106.5
247.966	115.5
248.2	123.5
248.433	123.5
248.666	118.5
248.899	138.5
249.133	130.5
249.366	126.5
249.599	128.5
249.832	122.5
250.066	115.5
250.299	117.5
250.532	102.5
250.765	130.5
250.998	108.5
251.231	120.5
251.465	113.5
251.698	123.5
251.931	123.5
252.164	121.5
252.397	122.5
252.63	129.5
252.863	118.5
253.096	119.5
253.329	139.5
253.562	123.5
253.795	113.5
254.028	132.5
254.261	132.5
254.494	129.5
254.727	129.5
254.96	114.5
255.193	124.5
255.426	142.5
255.659	144.5
255.892	134.5
256.124	116.5
256.357	128.5
256.59	129.5
256.823	133.5
257.056	142.5
257.289	134.5
257.521	129.5
257.754	135.5
257.987	128.5
258.22	133.5
258.452	130.5
258.685	124.5
258.918	141.5
259.151	128.5
259.383	139.5
259.616	146.5
259.849	153.5
260.081	139.5
260.314	138.5
260.547	148.5
260.779	135.5
261.012	120.5
261.244	137.5
261.477	140.5
261.71	150.5
261.942	143.5
262.175	140.5
262.407	137.5
262.64	136.5
262.872	137.5
263.105	148.5
263.337	160.5
263.57	162.5
263.802	144.5
264.035	161.5
264.267	147.5
264.499	128.5
264.732	128.5
264.964	149.5
265.197	136.5
265.429	133.5
265.661	152.5
265.894	152.5
266.126	153.5
266.358	142.5
266.591	154.5
266.823	142.5
267.055	157.5
267.287	167.5
267.52	140.5
267.752	125.5
267.984	149.5
268.216	160.5
268.448	161.5
268.681	143.5
268.913	153.5
269.145	157.5
269.377	156.5
269.609	145.5
269.841	143.5
270.073	149.5
270.306	150.5
270.538	156.5
270.77	166.5
271.002	150.5
271.234	155.5
271.466	154.5
271.698	164.5
271.93	152.5
272.162	160.5
272.394	166.5
272.626	161.5
272.858	158.5
273.09	153.5
273.322	165.5
273.553	146.5
273.785	160.5
274.017	158.5
274.249	169.5
274.481	171.5
274.713	195.5
274.945	172.5
275.176	164.5
275.408	181.5
275.64	176.5
275.872	177.5
276.104	173.5
276.335	162.5
276.567	176.5
276.799	157.5
277.031	171.5
277.262	158.5
277.494	162.5
277.726	171.5
277.957	172.5
278.189	156.5
278.421	168.5
278.652	177.5
278.884	174.5
279.115	185.5
279.347	178.5
279.579	169.5
279.81	177.5
280.042	183.5
280.273	180.5
280.505	172.5
280.736	196.5
280.968	179.5
281.199	173.5
281.431	176.5
281.662	176.5
281.894	183.5
282.125	180.5
282.356	190.5
282.588	166.5
282.819	180.5
283.051	181.5
283.282	184.5
283.513	174.5
283.745	185.5
283.976	175.5
284.207	169.5
284.439	194.5
284.67	196.5
284.901	184.5
285.132	198.5
285.364	168.5
285.595	160.5
285.826	195.5
286.057	185.5
286.288	185.5
286.52	194.5
286.751	199.5
286.982	203.5
287.213	197.5
287.444	185.5
287.675	193.5
287.906	204.5
288.138	182.5
288.369	195.5
288.6	200.5
288.831	189.5
289.062	199.5
289.293	206.5
289.524	197.5
289.755	198.5
289.986	192.5
290.217	178.5
290.448	202.5
290.679	206.5
290.91	208.5
291.141	195.5
291.371	205.5
291.602	187.5
291.833	206.5
292.064	198.5
292.295	204.5
292.526	194.5
292.757	212.5
292.987	199.5
293.218	194.5
293.449	212.5
293.68	202.5
293.91	200.5
294.141	213.5
294.372	205.5
294.603	189.5
294.833	202.5
295.064	191.5
295.295	208.5
295.525	206.5
295.756	190.5
295.987	216.5
296.217	203.5
296.448	214.5
296.679	218.5
296.909	208.5
297.14	205.5
297.37	201.5
297.601	216.5
297.831	201.5
298.062	229.5
298.292	231.5
298.523	226.5
298.753	212.5
298.984	209.5
299.214	209.5
299.445	214.5
299.675	225.5
299.905	219.5
300.136	221.5
300.366	194.5
300.597	237.5
300.827	217.5
301.057	214.5
301.288	218.5
301.518	230.5
301.748	197.5
301.979	218.5
302.209	224.5
302.439	225.5
302.669	222.5
302.9	214.5
303.13	218.5
303.36	226.5
303.59	231.5
303.82	219.5
304.051	240.5
304.281	235.5
304.511	206.5
304.741	224.5
304.971	241.5
305.201	231.5
305.431	210.5
305.661	227.5
305.891	232.5
306.121	222.5
306.352	222.5
306.582	216.5
306.812	224.5
307.042	221.5
307.272	216.5
307.502	228.5
307.731	244.5
307.961	226.5
308.191	224.5
308.421	223.5
308.651	222.5
308.881	218.5
309.111	243.5
309.341	228.5
309.571	235.5
309.8	230.5
310.03	254.5
310.26	233.5
310.49	254.5
310.72	231.5
310.949	235.5
311.179	235.5
311.409	246.5
311.639	231.5
311.868	237.5
312.098	235.5
312.328	249.5
312.557	244.5
312.787	262.5
313.017	244.5
313.246	241.5
313.476	258.5
313.706	237.5
313.935	248.5
314.165	244.5
314.394	249.5
314.624	230.5
314.853	243.5
315.083	255.5
315.312	244.5
315.542	244.5
315.771	237.5
316.001	247.5
316.23	265.5
316.46	258.5
316.689	242.5
316.919	263.5
317.148	264.5
317.377	258.5
317.607	244.5
317.836	251.5
318.065	244.5
318.295	243.5
318.524	252.5
318.753	253.5
318.983	254.5
319.212	252.5
319.441	257.5
319.67	237.5
319.9	260.5
320.129	251.5
320.358	250.5
320.587	263.5
320.816	244.5
321.046	254.5
321.275	257.5
321.504	247.5
321.733	251.5
321.962	261.5
322.191	270.5
322.42	265.5
322.649	277.5
322.878	266.5
323.108	248.5
323.337	265.5
323.566	260.5
323.795	267.5
324.024	262.5
324.253	262.5
324.482	250.5
324.71	246.5
324.939	268.5
325.168	237.5
325.397	251.5
325.626	266.5
325.855	254.5
326.084	266.5
326.313	286.5
326.542	283.5
326.77	268.5
326.999	265.5
327.228	260.5
327.457	282.5
327.686	263.5
327.914	278.5
328.143	272.5
328.372	274.5
328.6	282.5
328.829	269.5
329.058	267.5
329.287	269.5
329.515	270.5
329.744	268.5
329.972	273.5
330.201	273.5
330.43	277.5
330.658	283.5
330.887	277.5
331.115	274.5
331.344	253.5
331.572	290.5
331.801	283.5
332.03	300.5
332.258	294.5
332.486	313.5
332.715	300.5
332.943	304.5
333.172	297.5
333.4	317.5
333.629	325.5
333.857	332.5
334.085	353.5
334.314	321.5
334.542	325.5
334.771	316.5
334.999	330.5
335.227	313.5
335.455	317.5
335.684	326.5
335.912	318.5
336.14	312.5
336.369	325.5
336.597	342.5
336.825	314.5
337.053	332.5
337.281	300.5
337.51	317.5
337.738	312.5
337.966	306.5
338.194	306.5
338.422	310.5
338.65	317.5
338.878	313.5
339.106	298.5
339.334	307.5
339.562	297.5
339.79	288.5
340.018	310.5
340.246	310.5
340.474	305.5
340.702	294.5
340.93	309.5
341.158	297.5
341.386	296.5
341.614	280.5
341.842	292.5
342.07	279.5
342.298	291.5
342.526	297.5
342.754	284.5
342.981	289.5
343.209	300.5
343.437	312.5
343.665	299.5
343.893	337.5
344.12	340.5
344.348	299.5
344.576	309.5
344.804	310.5
345.031	318.5
345.259	310.5
345.487	293.5
345.714	287.5
345.942	303.5
346.17	281.5
346.397	294.5
346.625	295.5
346.853	285.5
347.08	297.5
347.308	299.5
347.535	302.5
347.763	305.5
347.99	292.5
348.218	293.5
348.445	282.5
348.673	283.5
348.9	282.5
349.128	262.5
349.355	277.5
349.583	286.5
349.81	287.5
350.037	285.5
350.265	282.5
350.492	280.5
350.72	278.5
350.947	297.5
351.174	270.5
351.402	303.5
351.629	294.5
351.856	281.5
352.083	265.5
352.311	285.5
352.538	278.5
352.765	280.5
352.992	288.5
353.22	281.5
353.447	268.5
353.674	291.5
353.901	279.5
354.128	288.5
354.355	291.5
354.583	294.5
354.81	290.5
355.037	293.5
355.264	291.5
355.491	292.5
355.718	283.5
355.945	268.5
356.172	285.5
356.399	281.5
356.626	288.5
356.853	267.5
357.08	275.5
357.307	293.5
357.534	289.5
357.761	291.5
357.988	301.5
358.215	299.5
358.441	284.5
358.668	275.5
358.895	291.5
359.122	297.5
359.349	289.5
359.576	275.5
359.802	265.5
360.029	278.5
360.256	285.5
360.483	284.5
360.709	290.5
360.936	294.5
361.163	299.5
361.39	291.5
361.616	287.5
361.843	291.5
362.07	278.5
362.296	274.5
362.523	280.5
362.749	296.5
362.976	296.5
363.203	294.5
363.429	261.5
363.656	288.5
363.882	301.5
364.109	286.5
364.335	282.5
364.562	304.5
364.788	299.5
365.015	301.5
365.241	297.5
365.468	297.5
365.694	280.5
365.92	278.5
366.147	277.5
366.373	287.5
366.599	296.5
366.826	295.5
367.052	281.5
367.278	293.5
367.505	302.5
367.731	311.5
367.957	298.5
368.184	302.5
368.41	293.5
368.636	273.5
368.862	287.5
369.089	297.5
369.315	293.5
369.541	297.5
369.767	291.5
369.993	297.5
370.219	306.5
370.445	296.5
370.672	304.5
370.898	295.5
371.124	319.5
371.35	308.5
371.576	308.5
371.802	314.5
372.028	309.5
372.254	299.5
372.48	320.5
372.706	317.5
372.932	343.5
373.158	325.5
373.384	316.5
373.61	321.5
373.835	301.5
374.061	318.5
374.287	313.5
374.513	317.5
374.739	337.5
374.965	340.5
375.191	324.5
375.416	337.5
375.642	344.5
375.868	330.5
376.094	316.5
376.319	308.5
376.545	290.5
376.771	310.5
376.997	325.5
377.222	310.5
377.448	311.5
377.674	315.5
377.899	320.5
378.125	325.5
378.35	324.5
378.576	288.5
378.802	313.5
379.027	309.5
379.253	317.5
379.478	301.5
379.704	296.5
379.929	314.5
380.155	314.5
380.38	345.5
380.606	314.5
380.831	328.5
381.057	317.5
381.282	310.5
381.507	332.5
381.733	322.5
381.958	333.5
382.184	313.5
382.409	325.5
382.634	342.5
382.86	315.5
383.085	346.5
383.31	326.5
383.535	340.5
383.761	340.5
383.986	334.5
384.211	341.5
384.436	345.5
384.662	356.5
384.887	368.5
385.112	363.5
385.337	375.5
385.562	371.5
385.787	352.5
386.013	360.5
386.238	364.5
386.463	382.5
386.688	358.5
386.913	377.5
387.138	361.5
387.363	355.5
387.588	365.5
387.813	377.5
388.038	369.5
388.263	358.5
388.488	375.5
388.713	380.5
388.938	368.5
389.163	365.5
389.387	349.5
389.612	352.5
389.837	362.5
390.062	373.5
390.287	361.5
390.512	373.5
390.736	379.5
390.961	373.5
391.186	394.5
391.411	384.5
391.636	395.5
391.86	404.5
392.085	389.5
392.31	376.5
392.534	393.5
392.759	398.5
392.984	399.5
393.208	383.5
393.433	380.5
393.658	386.5
393.882	394.5
394.107	384.5
394.331	361.5
394.556	390.5
394.78	388.5
395.005	372.5
395.229	387.5
395.454	431.5
395.678	411.5
395.903	406.5
396.127	395.5
396.352	386.5
396.576	420.5
396.801	374.5
397.025	405.5
397.249	421.5
397.474	413.5
397.698	410.5
397.922	405.5
398.147	428.5
398.371	423.5
398.595	427.5
398.82	433.5
399.044	466.5
399.268	465.5
399.492	540.5
399.717	534.5
399.941	550.5
400.165	515.5
400.389	480.5
400.613	504.5
400.837	466.5
401.062	459.5
401.286	449.5
401.51	443.5
401.734	438.5
401.958	429.5
402.182	430.5
402.406	421.5
402.63	446.5
402.854	459.5
403.078	465.5
403.302	460.5
403.526	454.5
403.75	453.5
403.974	465.5
404.198	468.5
404.422	473.5
404.645	468.5
404.869	477.5
405.093	464.5
405.317	469.5
405.541	460.5
405.765	472.5
405.988	457.5
406.212	466.5
406.436	448.5
406.66	481.5
406.883	479.5
407.107	488.5
407.331	516.5
407.555	530.5
407.778	515.5
408.002	512.5
408.226	503.5
408.449	501.5
408.673	474.5
408.896	487.5
409.12	490.5
409.344	473.5
409.567	490.5
409.791	486.5
410.014	479.5
410.238	456.5
410.461	480.5
410.685	479.5
410.908	458.5
411.132	448.5
411.355	466.5
411.578	469.5
411.802	434.5
412.025	432.5
412.249	469.5
412.472	452.5
412.695	447.5
412.919	449.5
413.142	470.5
413.365	457.5
413.589	456.5
413.812	431.5
414.035	428.5
414.258	428.5
414.482	436.5
414.705	458.5
414.928	436.5
415.151	441.5
415.374	442.5
415.597	444.5
415.821	440.5
416.044	427.5
416.267	426.5
416.49	415.5
416.713	429.5
416.936	425.5
417.159	406.5
417.382	411.5
417.605	420.5
417.828	403.5
418.051	423.5
418.274	437.5
418.497	428.5
418.72	440.5
418.943	445.5
419.166	457.5
419.389	463.5
419.611	452.5
419.834	448.5
420.057	422.5
420.28	436.5
420.503	448.5
420.726	420.5
420.948	440.5
421.171	425.5
421.394	437.5
421.617	442.5
421.839	422.5
422.062	434.5
422.285	412.5
422.507	408.5
422.73	423.5
422.953	445.5
423.175	434.5
423.398	429.5
423.621	418.5
423.843	416.5
424.066	453.5
424.288	442.5
424.511	426.5
424.733	418.5
424.956	421.5
425.178	416.5
425.401	433.5
425.623	407.5
425.846	412.5
426.068	397.5
426.291	400.5
426.513	405.5
426.735	406.5
426.958	416.5
427.18	399.5
427.402	410.5
427.625	409.5
427.847	400.5
428.069	369.5
428.292	381.5
428.514	394.5
428.736	387.5
428.958	402.5
429.181	393.5
429.403	376.5
429.625	402.5
429.847	379.5
430.069	395.5
430.292	399.5
430.514	389.5
430.736	400.5
430.958	395.5
431.18	407.5
431.402	380.5
431.624	395.5
431.846	403.5
432.068	391.5
432.29	404.5
432.512	395.5
432.734	388.5
432.956	381.5
433.178	400.5
433.4	417.5
433.622	386.5
433.844	392.5
434.066	410.5
434.287	390.5
434.509	417.5
434.731	423.5
434.953	420.5
435.175	408.5
435.397	414.5
435.618	410.5
435.84	414.5
436.062	373.5
436.284	385.5
436.505	399.5
436.727	388.5
436.949	387.5
437.17	395.5
437.392	372.5
437.614	363.5
437.835	376.5
438.057	401.5
438.278	388.5
438.5	375.5
438.721	387.5
438.943	403.5
439.165	375.5
439.386	380.5
439.608	388.5
439.829	370.5
440.05	386.5
440.272	382.5
440.493	408.5
440.715	391.5
440.936	396.5
441.158	405.5
441.379	402.5
441.6	403.5
441.822	422.5
442.043	415.5
442.264	437.5
442.486	420.5
442.707	414.5
442.928	416.5
443.149	420.5
443.371	414.5
443.592	392.5
443.813	405.5
444.034	418.5
444.255	440.5
444.476	447.5
444.698	415.5
444.919	456.5
445.14	520.5
445.361	444.5
445.582	437.5
445.803	435.5
446.024	422.5
446.245	397.5
446.466	406.5
446.687	381.5
446.908	400.5
447.129	379.5
447.35	378.5
447.571	396.5
447.792	370.5
448.013	379.5
448.234	365.5
448.455	355.5
448.675	395.5
448.896	358.5
449.117	349.5
449.338	348.5
449.559	369.5
449.779	376.5
450	353.5
450.221	358.5
450.442	372.5
450.662	358.5
450.883	346.5
451.104	370.5
451.324	368.5
451.545	376.5
451.766	339.5
451.986	354.5
452.207	369.5
452.428	339.5
452.648	360.5
452.869	348.5
453.089	354.5
453.31	364.5
453.53	346.5
453.751	337.5
453.971	340.5
454.192	361.5
454.412	353.5
454.633	333.5
454.853	352.5
455.073	346.5
455.294	353.5
455.514	354.5
455.734	345.5
455.955	334.5
456.175	358.5
456.395	344.5
456.616	341.5
456.836	352.5
457.056	358.5
457.276	339.5
457.497	356.5
457.717	342.5
457.937	361.5
458.157	352.5
458.377	360.5
458.598	340.5
458.818	371.5
459.038	371.5
459.258	382.5
459.478	419.5
459.698	401.5
459.918	412.5
460.138	411.5
460.358	417.5
460.578	430.5
460.798	448.5
461.018	438.5
461.238	435.5
461.458	449.5
461.678	449.5
461.898	449.5
462.118	454.5
462.338	455.5
462.558	485.5
462.777	460.5
462.997	496.5
463.217	522.5
463.437	515.5
463.657	502.5
463.876	485.5
464.096	499.5
464.316	485.5
464.536	471.5
464.755	485.5
464.975	450.5
465.195	442.5
465.414	450.5
465.634	428.5
465.854	400.5
466.073	405.5
466.293	407.5
466.512	390.5
466.732	394.5
466.951	377.5
467.171	371.5
467.391	411.5
467.61	387.5
467.829	385.5
468.049	404.5
468.268	384.5
468.488	385.5
468.707	363.5
468.927	366.5
469.146	371.5
469.365	363.5
469.585	357.5
469.804	379.5
470.023	385.5
470.243	395.5
470.462	382.5
470.681	378.5
470.901	382.5
471.12	377.5
471.339	392.5
471.558	393.5
471.777	397.5
471.997	378.5
472.216	400.5
472.435	384.5
472.654	378.5
472.873	381.5
473.092	368.5
473.311	376.5
473.53	373.5
473.749	379.5
473.968	384.5
474.187	364.5
474.406	365.5
474.625	366.5
474.844	388.5
475.063	396.5
475.282	386.5
475.501	361.5
475.72	384.5
475.939	384.5
476.158	377.5
476.377	375.5
476.596	390.5
476.814	391.5
477.033	400.5
477.252	390.5
477.471	420.5
477.69	408.5
477.908	415.5
478.127	418.5
478.346	411.5
478.564	432.5
478.783	434.5
479.002	453.5
479.22	434.5
479.439	441.5
479.658	432.5
479.876	442.5
480.095	450.5
480.313	445.5
480.532	452.5
480.751	461.5
480.969	437.5
481.188	446.5
481.406	438.5
481.624	424.5
481.843	416.5
482.061	439.5
482.28	425.5
482.498	430.5
482.717	426.5
482.935	417.5
483.153	422.5
483.372	428.5
483.59	421.5
483.808	437.5
484.027	424.5
484.245	440.5
484.463	459.5
484.681	457.5
484.9	429.5
485.118	429.5
485.336	448.5
485.554	426.5
485.772	449.5
485.99	435.5
486.209	432.5
486.427	432.5
486.645	434.5
486.863	438.5
487.081	432.5
487.299	451.5
487.517	417.5
487.735	456.5
487.953	447.5
488.171	446.5
488.389	441.5
488.607	436.5
488.825	434.5
489.043	445.5
489.261	444.5
489.479	441.5
489.696	442.5
489.914	435.5
490.132	440.5
490.35	456.5
490.568	452.5
490.786	445.5
491.003	432.5
491.221	429.5
491.439	454.5
491.657	444.5
491.874	444.5
492.092	459.5
492.31	445.5
492.527	460.5
492.745	451.5
492.963	448.5
493.18	453.5
493.398	446.5
493.615	484.5
493.833	488.5
494.05	455.5
494.268	460.5
494.485	472.5
494.703	482.5
494.92	479.5
495.138	452.5
495.355	464.5
495.573	470.5
495.79	465.5
496.008	506.5
496.225	484.5
496.442	492.5
496.66	515.5
496.877	514.5
497.094	513.5
497.312	523.5
497.529	528.5
497.746	554.5
497.963	561.5
498.181	580.5
498.398	569.5
498.615	618.5
498.832	651.5
499.049	682.5
499.267	703.5
499.484	716.5
499.701	766.5
499.918	820.5
500.135	893.5
500.352	962.5
500.569	988.5
500.786	961.5
501.003	900.5
501.22	865.5
501.437	817.5
501.654	785.5
501.871	712.5
502.088	692.5
502.305	649.5
502.522	643.5
502.739	602.5
502.956	606.5
503.172	579.5
503.389	526.5
503.606	541.5
503.823	527.5
504.04	552.5
504.256	530.5
504.473	519.5
504.69	512.5
504.907	499.5
505.123	492.5
505.34	476.5
505.557	487.5
505.773	460.5
505.99	467.5
506.207	453.5
506.423	454.5
506.64	421.5
506.856	424.5
507.073	425.5
507.289	427.5
507.506	431.5
507.722	426.5
507.939	421.5
508.155	417.5
508.372	414.5
508.588	432.5
508.805	402.5
509.021	406.5
509.238	400.5
509.454	403.5
509.67	390.5
509.887	397.5
510.103	401.5
510.319	408.5
510.536	411.5
510.752	409.5
510.968	408.5
511.184	374.5
511.401	400.5
511.617	388.5
511.833	388.5
512.049	391.5
512.265	373.5
512.481	378.5
512.698	386.5
512.914	382.5
513.13	387.5
513.346	382.5
513.562	388.5
513.778	394.5
513.994	377.5
514.21	401.5
514.426	397.5
514.642	403.5
514.858	397.5
515.074	405.5
515.29	409.5
515.506	409.5
515.721	410.5
515.937	425.5
516.153	435.5
516.369	451.5
516.585	429.5
516.801	426.5
517.016	433.5
517.232	445.5
517.448	470.5
517.664	493.5
517.879	493.5
518.095	468.5
518.311	467.5
518.527	446.5
518.742	457.5
518.958	430.5
519.173	427.5
519.389	405.5
519.605	422.5
519.82	415.5
520.036	406.5
