Data from Fe(NO3)3@0.1M.TitratingCurve.Agarose3%dH2O.NegLispCup.LampEnergy10.LIBS07252019_HRD10591_16-39-58-332.txt Node
Date: Thu Jul 25 16:39:58 EDT 2019
User: cochatt
Spectrometer: HR+D1059
Trigger mode: 1
Integration Time (sec): 1.000000E-1
Scans to average: 1
Electric dark correction enabled: true
Nonlinearity correction enabled: false
Boxcar width: 0
XAxis mode: Wavelengths
Number of Pixels in Spectrum: 2048
>>>>>Begin Spectral Data<<<<<
223.165	-22.44
223.4	-22.44
223.635	-22.44
223.869	-19.44
224.104	-6.44
224.338	-10.44
224.573	-13.44
224.808	-10.44
225.042	-11.44
225.277	-11.44
225.511	-12.44
225.746	11.56
225.98	-10.44
226.215	7.56
226.449	10.56
226.683	36.56
226.918	26.56
227.152	35.56
227.387	36.56
227.621	22.56
227.856	38.56
228.09	34.56
228.324	36.56
228.559	51.56
228.793	61.56
229.027	53.56
229.262	64.56
229.496	81.56
229.73	67.56
229.964	89.56
230.199	85.56
230.433	73.56
230.667	85.56
230.901	98.56
231.136	101.56
231.37	83.56
231.604	96.56
231.838	99.56
232.072	97.56
232.306	102.56
232.541	90.56
232.775	104.56
233.009	100.56
233.243	91.56
233.477	113.56
233.711	95.56
233.945	92.56
234.179	93.56
234.413	101.56
234.647	100.56
234.881	95.56
235.115	101.56
235.349	96.56
235.583	80.56
235.817	108.56
236.051	94.56
236.285	90.56
236.519	89.56
236.753	101.56
236.987	103.56
237.221	94.56
237.455	112.56
237.689	104.56
237.922	82.56
238.156	102.56
238.39	96.56
238.624	103.56
238.858	90.56
239.091	99.56
239.325	106.56
239.559	104.56
239.793	89.56
240.027	88.56
240.26	103.56
240.494	93.56
240.728	101.56
240.961	97.56
241.195	94.56
241.429	98.56
241.662	106.56
241.896	101.56
242.13	87.56
242.363	93.56
242.597	112.56
242.83	101.56
243.064	101.56
243.298	104.56
243.531	98.56
243.765	100.56
243.998	96.56
244.232	102.56
244.465	96.56
244.699	121.56
244.932	114.56
245.166	108.56
245.399	114.56
245.633	120.56
245.866	116.56
246.099	104.56
246.333	91.56
246.566	104.56
246.8	106.56
247.033	120.56
247.266	106.56
247.5	112.56
247.733	110.56
247.966	120.56
248.2	128.56
248.433	107.56
248.666	117.56
248.899	113.56
249.133	125.56
249.366	122.56
249.599	114.56
249.832	116.56
250.066	122.56
250.299	112.56
250.532	125.56
250.765	114.56
250.998	104.56
251.231	113.56
251.465	112.56
251.698	114.56
251.931	109.56
252.164	128.56
252.397	120.56
252.63	122.56
252.863	113.56
253.096	123.56
253.329	126.56
253.562	125.56
253.795	134.56
254.028	133.56
254.261	132.56
254.494	118.56
254.727	131.56
254.96	123.56
255.193	117.56
255.426	126.56
255.659	126.56
255.892	130.56
256.124	133.56
256.357	119.56
256.59	132.56
256.823	120.56
257.056	115.56
257.289	128.56
257.521	126.56
257.754	121.56
257.987	123.56
258.22	129.56
258.452	120.56
258.685	137.56
258.918	114.56
259.151	125.56
259.383	132.56
259.616	118.56
259.849	125.56
260.081	136.56
260.314	131.56
260.547	132.56
260.779	135.56
261.012	142.56
261.244	135.56
261.477	129.56
261.71	129.56
261.942	148.56
262.175	138.56
262.407	141.56
262.64	140.56
262.872	129.56
263.105	132.56
263.337	142.56
263.57	131.56
263.802	139.56
264.035	126.56
264.267	128.56
264.499	130.56
264.732	140.56
264.964	122.56
265.197	145.56
265.429	129.56
265.661	141.56
265.894	141.56
266.126	148.56
266.358	150.56
266.591	157.56
266.823	135.56
267.055	144.56
267.287	153.56
267.52	146.56
267.752	141.56
267.984	155.56
268.216	156.56
268.448	134.56
268.681	139.56
268.913	167.56
269.145	134.56
269.377	144.56
269.609	157.56
269.841	146.56
270.073	150.56
270.306	141.56
270.538	144.56
270.77	143.56
271.002	162.56
271.234	159.56
271.466	140.56
271.698	147.56
271.93	165.56
272.162	146.56
272.394	132.56
272.626	161.56
272.858	145.56
273.09	172.56
273.322	145.56
273.553	142.56
273.785	162.56
274.017	162.56
274.249	160.56
274.481	181.56
274.713	162.56
274.945	164.56
275.176	161.56
275.408	162.56
275.64	156.56
275.872	157.56
276.104	176.56
276.335	152.56
276.567	157.56
276.799	161.56
277.031	144.56
277.262	151.56
277.494	161.56
277.726	153.56
277.957	164.56
278.189	178.56
278.421	167.56
278.652	170.56
278.884	169.56
279.115	162.56
279.347	166.56
279.579	173.56
279.81	160.56
280.042	181.56
280.273	168.56
280.505	174.56
280.736	176.56
280.968	176.56
281.199	166.56
281.431	160.56
281.662	173.56
281.894	172.56
282.125	170.56
282.356	166.56
282.588	158.56
282.819	167.56
283.051	176.56
283.282	193.56
283.513	173.56
283.745	188.56
283.976	171.56
284.207	168.56
284.439	179.56
284.67	184.56
284.901	173.56
285.132	181.56
285.364	166.56
285.595	170.56
285.826	166.56
286.057	187.56
286.288	180.56
286.52	165.56
286.751	186.56
286.982	175.56
287.213	184.56
287.444	188.56
287.675	178.56
287.906	196.56
288.138	192.56
288.369	188.56
288.6	185.56
288.831	188.56
289.062	192.56
289.293	199.56
289.524	180.56
289.755	184.56
289.986	194.56
290.217	187.56
290.448	187.56
290.679	182.56
290.91	190.56
291.141	190.56
291.371	192.56
291.602	180.56
291.833	178.56
292.064	196.56
292.295	191.56
292.526	169.56
292.757	184.56
292.987	196.56
293.218	186.56
293.449	198.56
293.68	189.56
293.91	184.56
294.141	204.56
294.372	188.56
294.603	201.56
294.833	201.56
295.064	190.56
295.295	185.56
295.525	191.56
295.756	206.56
295.987	202.56
296.217	202.56
296.448	210.56
296.679	208.56
296.909	189.56
297.14	192.56
297.37	183.56
297.601	195.56
297.831	190.56
298.062	196.56
298.292	195.56
298.523	213.56
298.753	210.56
298.984	197.56
299.214	206.56
299.445	213.56
299.675	208.56
299.905	201.56
300.136	194.56
300.366	200.56
300.597	199.56
300.827	195.56
301.057	207.56
301.288	216.56
301.518	210.56
301.748	214.56
301.979	217.56
302.209	202.56
302.439	218.56
302.669	211.56
302.9	208.56
303.13	198.56
303.36	216.56
303.59	190.56
303.82	212.56
304.051	204.56
304.281	212.56
304.511	220.56
304.741	212.56
304.971	210.56
305.201	209.56
305.431	217.56
305.661	197.56
305.891	193.56
306.121	206.56
306.352	220.56
306.582	216.56
306.812	204.56
307.042	211.56
307.272	206.56
307.502	194.56
307.731	197.56
307.961	228.56
308.191	208.56
308.421	207.56
308.651	202.56
308.881	212.56
309.111	227.56
309.341	201.56
309.571	199.56
309.8	187.56
310.03	214.56
310.26	219.56
310.49	203.56
310.72	227.56
310.949	219.56
311.179	234.56
311.409	231.56
311.639	219.56
311.868	212.56
312.098	209.56
312.328	217.56
312.557	218.56
312.787	219.56
313.017	229.56
313.246	212.56
313.476	232.56
313.706	253.56
313.935	222.56
314.165	231.56
314.394	241.56
314.624	228.56
314.853	214.56
315.083	228.56
315.312	213.56
315.542	200.56
315.771	233.56
316.001	227.56
316.23	222.56
316.46	228.56
316.689	218.56
316.919	221.56
317.148	230.56
317.377	215.56
317.607	223.56
317.836	215.56
318.065	231.56
318.295	230.56
318.524	229.56
318.753	208.56
318.983	227.56
319.212	224.56
319.441	233.56
319.67	222.56
319.9	225.56
320.129	199.56
320.358	229.56
320.587	235.56
320.816	231.56
321.046	220.56
321.275	227.56
321.504	202.56
321.733	213.56
321.962	223.56
322.191	238.56
322.42	223.56
322.649	212.56
322.878	230.56
323.108	248.56
323.337	234.56
323.566	237.56
323.795	215.56
324.024	209.56
324.253	230.56
324.482	222.56
324.71	215.56
324.939	226.56
325.168	240.56
325.397	240.56
325.626	249.56
325.855	232.56
326.084	250.56
326.313	246.56
326.542	243.56
326.77	249.56
326.999	229.56
327.228	241.56
327.457	242.56
327.686	228.56
327.914	252.56
328.143	248.56
328.372	232.56
328.6	244.56
328.829	257.56
329.058	243.56
329.287	260.56
329.515	262.56
329.744	238.56
329.972	234.56
330.201	230.56
330.43	243.56
330.658	244.56
330.887	251.56
331.115	249.56
331.344	245.56
331.572	262.56
331.801	256.56
332.03	264.56
332.258	277.56
332.486	270.56
332.715	263.56
332.943	288.56
333.172	288.56
333.4	313.56
333.629	305.56
333.857	320.56
334.085	289.56
334.314	299.56
334.542	312.56
334.771	282.56
334.999	286.56
335.227	284.56
335.455	291.56
335.684	292.56
335.912	285.56
336.14	284.56
336.369	289.56
336.597	282.56
336.825	285.56
337.053	265.56
337.281	297.56
337.51	280.56
337.738	280.56
337.966	273.56
338.194	285.56
338.422	272.56
338.65	278.56
338.878	276.56
339.106	274.56
339.334	276.56
339.562	265.56
339.79	254.56
340.018	236.56
340.246	260.56
340.474	260.56
340.702	256.56
340.93	262.56
341.158	260.56
341.386	261.56
341.614	260.56
341.842	260.56
342.07	255.56
342.298	261.56
342.526	261.56
342.754	258.56
342.981	262.56
343.209	266.56
343.437	289.56
343.665	275.56
343.893	273.56
344.12	306.56
344.348	294.56
344.576	294.56
344.804	273.56
345.031	267.56
345.259	275.56
345.487	263.56
345.714	247.56
345.942	250.56
346.17	270.56
346.397	251.56
346.625	234.56
346.853	251.56
347.08	239.56
347.308	244.56
347.535	258.56
347.763	234.56
347.99	260.56
348.218	264.56
348.445	249.56
348.673	246.56
348.9	269.56
349.128	249.56
349.355	235.56
349.583	236.56
349.81	251.56
350.037	256.56
350.265	246.56
350.492	260.56
350.72	217.56
350.947	258.56
351.174	234.56
351.402	261.56
351.629	256.56
351.856	238.56
352.083	228.56
352.311	241.56
352.538	257.56
352.765	257.56
352.992	245.56
353.22	243.56
353.447	244.56
353.674	270.56
353.901	256.56
354.128	242.56
354.355	242.56
354.583	251.56
354.81	253.56
355.037	253.56
355.264	259.56
355.491	252.56
355.718	247.56
355.945	249.56
356.172	240.56
356.399	237.56
356.626	256.56
356.853	275.56
357.08	259.56
357.307	252.56
357.534	256.56
357.761	243.56
357.988	260.56
358.215	244.56
358.441	262.56
358.668	243.56
358.895	245.56
359.122	243.56
359.349	244.56
359.576	245.56
359.802	242.56
360.029	248.56
360.256	248.56
360.483	243.56
360.709	258.56
360.936	259.56
361.163	257.56
361.39	247.56
361.616	256.56
361.843	250.56
362.07	257.56
362.296	245.56
362.523	256.56
362.749	252.56
362.976	244.56
363.203	265.56
363.429	237.56
363.656	249.56
363.882	252.56
364.109	241.56
364.335	251.56
364.562	246.56
364.788	271.56
365.015	235.56
365.241	262.56
365.468	265.56
365.694	235.56
365.92	254.56
366.147	252.56
366.373	246.56
366.599	260.56
366.826	258.56
367.052	242.56
367.278	258.56
367.505	258.56
367.731	236.56
367.957	260.56
368.184	276.56
368.41	267.56
368.636	242.56
368.862	255.56
369.089	259.56
369.315	260.56
369.541	262.56
369.767	275.56
369.993	270.56
370.219	256.56
370.445	266.56
370.672	275.56
370.898	274.56
371.124	251.56
371.35	280.56
371.576	274.56
371.802	270.56
372.028	281.56
372.254	268.56
372.48	298.56
372.706	290.56
372.932	280.56
373.158	282.56
373.384	277.56
373.61	270.56
373.835	284.56
374.061	286.56
374.287	288.56
374.513	287.56
374.739	278.56
374.965	307.56
375.191	309.56
375.416	305.56
375.642	288.56
375.868	278.56
376.094	287.56
376.319	284.56
376.545	288.56
376.771	272.56
376.997	293.56
377.222	262.56
377.448	272.56
377.674	276.56
377.899	272.56
378.125	290.56
378.35	273.56
378.576	263.56
378.802	281.56
379.027	292.56
379.253	268.56
379.478	283.56
379.704	271.56
379.929	277.56
380.155	264.56
380.38	258.56
380.606	286.56
380.831	270.56
381.057	268.56
381.282	277.56
381.507	259.56
381.733	276.56
381.958	271.56
382.184	278.56
382.409	277.56
382.634	283.56
382.86	315.56
383.085	303.56
383.31	306.56
383.535	308.56
383.761	301.56
383.986	306.56
384.211	314.56
384.436	321.56
384.662	327.56
384.887	328.56
385.112	321.56
385.337	321.56
385.562	337.56
385.787	321.56
386.013	339.56
386.238	326.56
386.463	324.56
386.688	296.56
386.913	313.56
387.138	322.56
387.363	325.56
387.588	320.56
387.813	331.56
388.038	313.56
388.263	337.56
388.488	333.56
388.713	324.56
388.938	334.56
389.163	313.56
389.387	317.56
389.612	308.56
389.837	311.56
390.062	323.56
390.287	326.56
390.512	318.56
390.736	319.56
390.961	334.56
391.186	340.56
391.411	340.56
391.636	332.56
391.86	356.56
392.085	350.56
392.31	343.56
392.534	352.56
392.759	343.56
392.984	350.56
393.208	341.56
393.433	329.56
393.658	353.56
393.882	354.56
394.107	348.56
394.331	326.56
394.556	328.56
394.78	343.56
395.005	327.56
395.229	357.56
395.454	358.56
395.678	347.56
395.903	359.56
396.127	350.56
396.352	338.56
396.576	333.56
396.801	347.56
397.025	345.56
397.249	357.56
397.474	370.56
397.698	357.56
397.922	360.56
398.147	366.56
398.371	369.56
398.595	388.56
398.82	404.56
399.044	422.56
399.268	466.56
399.492	522.56
399.717	569.56
399.941	523.56
400.165	471.56
400.389	459.56
400.613	440.56
400.837	420.56
401.062	414.56
401.286	408.56
401.51	384.56
401.734	390.56
401.958	404.56
402.182	413.56
402.406	396.56
402.63	386.56
402.854	432.56
403.078	419.56
403.302	435.56
403.526	425.56
403.75	430.56
403.974	419.56
404.198	431.56
404.422	438.56
404.645	440.56
404.869	438.56
405.093	455.56
405.317	423.56
405.541	429.56
405.765	415.56
405.988	424.56
406.212	425.56
406.436	422.56
406.66	437.56
406.883	453.56
407.107	457.56
407.331	497.56
407.555	493.56
407.778	494.56
408.002	460.56
408.226	473.56
408.449	461.56
408.673	453.56
408.896	465.56
409.12	414.56
409.344	430.56
409.567	450.56
409.791	430.56
410.014	449.56
410.238	433.56
410.461	448.56
410.685	421.56
410.908	420.56
411.132	421.56
411.355	421.56
411.578	421.56
411.802	412.56
412.025	418.56
412.249	424.56
412.472	405.56
412.695	405.56
412.919	403.56
413.142	395.56
413.365	405.56
413.589	414.56
413.812	416.56
414.035	395.56
414.258	395.56
414.482	422.56
414.705	424.56
414.928	406.56
415.151	386.56
415.374	432.56
415.597	398.56
415.821	397.56
416.044	402.56
416.267	393.56
416.49	388.56
416.713	404.56
416.936	414.56
417.159	397.56
417.382	398.56
417.605	394.56
417.828	391.56
418.051	395.56
418.274	389.56
418.497	412.56
418.72	392.56
418.943	397.56
419.166	422.56
419.389	455.56
419.611	416.56
419.834	430.56
420.057	413.56
420.28	402.56
420.503	376.56
420.726	404.56
420.948	402.56
421.171	412.56
421.394	413.56
421.617	399.56
421.839	398.56
422.062	410.56
422.285	400.56
422.507	389.56
422.73	407.56
422.953	406.56
423.175	390.56
423.398	416.56
423.621	392.56
423.843	442.56
424.066	421.56
424.288	414.56
424.511	436.56
424.733	411.56
424.956	407.56
425.178	413.56
425.401	381.56
425.623	406.56
425.846	397.56
426.068	396.56
426.291	377.56
426.513	392.56
426.735	404.56
426.958	372.56
427.18	379.56
427.402	373.56
427.625	371.56
427.847	380.56
428.069	390.56
428.292	360.56
428.514	382.56
428.736	356.56
428.958	375.56
429.181	362.56
429.403	352.56
429.625	348.56
429.847	344.56
430.069	348.56
430.292	363.56
430.514	366.56
430.736	364.56
430.958	350.56
431.18	361.56
431.402	367.56
431.624	366.56
431.846	390.56
432.068	370.56
432.29	350.56
432.512	374.56
432.734	362.56
432.956	362.56
433.178	380.56
433.4	368.56
433.622	384.56
433.844	403.56
434.066	378.56
434.287	372.56
434.509	371.56
434.731	384.56
434.953	417.56
435.175	400.56
435.397	391.56
435.618	384.56
435.84	379.56
436.062	376.56
436.284	362.56
436.505	365.56
436.727	391.56
436.949	359.56
437.17	374.56
437.392	362.56
437.614	374.56
437.835	361.56
438.057	353.56
438.278	359.56
438.5	357.56
438.721	370.56
438.943	356.56
439.165	376.56
439.386	364.56
439.608	353.56
439.829	390.56
440.05	392.56
440.272	395.56
440.493	390.56
440.715	385.56
440.936	397.56
441.158	414.56
441.379	391.56
441.6	429.56
441.822	436.56
442.043	419.56
442.264	417.56
442.486	421.56
442.707	420.56
442.928	390.56
443.149	396.56
443.371	412.56
443.592	410.56
443.813	409.56
444.034	414.56
444.255	427.56
444.476	453.56
444.698	451.56
444.919	490.56
445.14	566.56
445.361	478.56
445.582	434.56
445.803	424.56
446.024	415.56
446.245	394.56
446.466	389.56
446.687	404.56
446.908	400.56
447.129	372.56
447.35	369.56
447.571	384.56
447.792	380.56
448.013	372.56
448.234	363.56
448.455	349.56
448.675	366.56
448.896	349.56
449.117	364.56
449.338	374.56
449.559	377.56
449.779	358.56
450	359.56
450.221	361.56
450.442	378.56
450.662	352.56
450.883	377.56
451.104	360.56
451.324	364.56
451.545	370.56
451.766	365.56
451.986	356.56
452.207	345.56
452.428	368.56
452.648	350.56
452.869	349.56
453.089	335.56
453.31	348.56
453.53	332.56
453.751	339.56
453.971	339.56
454.192	365.56
454.412	331.56
454.633	338.56
454.853	335.56
455.073	334.56
455.294	340.56
455.514	327.56
455.734	352.56
455.955	335.56
456.175	337.56
456.395	335.56
456.616	321.56
456.836	317.56
457.056	344.56
457.276	334.56
457.497	316.56
457.717	332.56
457.937	345.56
458.157	325.56
458.377	334.56
458.598	366.56
458.818	353.56
459.038	364.56
459.258	361.56
459.478	372.56
459.698	376.56
459.918	386.56
460.138	411.56
460.358	422.56
460.578	417.56
460.798	433.56
461.018	422.56
461.238	412.56
461.458	436.56
461.678	429.56
461.898	433.56
462.118	444.56
462.338	448.56
462.558	452.56
462.777	467.56
462.997	518.56
463.217	544.56
463.437	512.56
463.657	482.56
463.876	475.56
464.096	494.56
464.316	491.56
464.536	456.56
464.755	460.56
464.975	438.56
465.195	441.56
465.414	421.56
465.634	398.56
465.854	400.56
466.073	396.56
466.293	390.56
466.512	400.56
466.732	368.56
466.951	370.56
467.171	376.56
467.391	386.56
467.61	360.56
467.829	368.56
468.049	356.56
468.268	334.56
468.488	356.56
468.707	349.56
468.927	336.56
469.146	352.56
469.365	349.56
469.585	359.56
469.804	363.56
470.023	372.56
470.243	363.56
470.462	352.56
470.681	359.56
470.901	373.56
471.12	376.56
471.339	372.56
471.558	378.56
471.777	366.56
471.997	354.56
472.216	363.56
472.435	339.56
472.654	332.56
472.873	338.56
473.092	347.56
473.311	353.56
473.53	341.56
473.749	346.56
473.968	345.56
474.187	347.56
474.406	341.56
474.625	347.56
474.844	344.56
475.063	353.56
475.282	337.56
475.501	344.56
475.72	344.56
475.939	363.56
476.158	346.56
476.377	354.56
476.596	354.56
476.814	363.56
477.033	376.56
477.252	356.56
477.471	378.56
477.69	376.56
477.908	389.56
478.127	398.56
478.346	397.56
478.564	394.56
478.783	388.56
479.002	416.56
479.22	400.56
479.439	423.56
479.658	378.56
479.876	395.56
480.095	404.56
480.313	408.56
480.532	408.56
480.751	415.56
480.969	424.56
481.188	408.56
481.406	389.56
481.624	361.56
481.843	376.56
482.061	390.56
482.28	392.56
482.498	382.56
482.717	378.56
482.935	363.56
483.153	380.56
483.372	369.56
483.59	382.56
483.808	382.56
484.027	395.56
484.245	383.56
484.463	373.56
484.681	386.56
484.9	390.56
485.118	395.56
485.336	369.56
485.554	374.56
485.772	380.56
485.99	386.56
486.209	387.56
486.427	377.56
486.645	390.56
486.863	394.56
487.081	374.56
487.299	384.56
487.517	380.56
487.735	397.56
487.953	384.56
488.171	397.56
488.389	394.56
488.607	368.56
488.825	390.56
489.043	381.56
489.261	402.56
489.479	384.56
489.696	399.56
489.914	391.56
490.132	400.56
490.35	384.56
490.568	396.56
490.786	402.56
491.003	406.56
491.221	394.56
491.439	415.56
491.657	401.56
491.874	427.56
492.092	392.56
492.31	409.56
492.527	405.56
492.745	415.56
492.963	424.56
493.18	414.56
493.398	411.56
493.615	415.56
493.833	400.56
494.05	404.56
494.268	418.56
494.485	420.56
494.703	430.56
494.92	405.56
495.138	425.56
495.355	428.56
495.573	415.56
495.79	422.56
496.008	420.56
496.225	409.56
496.442	421.56
496.66	450.56
496.877	444.56
497.094	450.56
497.312	457.56
497.529	429.56
497.746	469.56
497.963	459.56
498.181	500.56
498.398	521.56
498.615	542.56
498.832	552.56
499.049	602.56
499.267	619.56
499.484	690.56
499.701	732.56
499.918	815.56
500.135	902.56
500.352	1001.56
500.569	1026.56
500.786	1039.56
501.003	948.56
501.22	872.56
501.437	772.56
501.654	698.56
501.871	632.56
502.088	604.56
