Data from Fe(NO3)3@0.05M.TitratingCurve.Agarose3%dH2O.NegLispCup.LampEnergy10.LIBS07252019_HRD10591_16-48-11-334.txt Node
Date: Thu Jul 25 16:48:11 EDT 2019
User: cochatt
Spectrometer: HR+D1059
Trigger mode: 1
Integration Time (sec): 1.000000E-1
Scans to average: 1
Electric dark correction enabled: true
Nonlinearity correction enabled: false
Boxcar width: 0
XAxis mode: Wavelengths
Number of Pixels in Spectrum: 2048
>>>>>Begin Spectral Data<<<<<
223.165	-28.06
223.4	-28.06
223.635	-28.06
223.869	-25.06
224.104	-18.06
224.338	-11.06
224.573	-11.06
224.808	-16.06
225.042	-26.06
225.277	-10.06
225.511	9.94
225.746	2.94
225.98	1.94
226.215	7.94
226.449	18.94
226.683	45.94
226.918	34.94
227.152	22.94
227.387	44.94
227.621	31.94
227.856	46.94
228.09	40.94
228.324	57.94
228.559	60.94
228.793	83.94
229.027	85.94
229.262	85.94
229.496	93.94
229.73	81.94
229.964	94.94
230.199	89.94
230.433	87.94
230.667	106.94
230.901	111.94
231.136	103.94
231.37	99.94
231.604	104.94
231.838	91.94
232.072	95.94
232.306	103.94
232.541	90.94
232.775	99.94
233.009	95.94
233.243	113.94
233.477	108.94
233.711	121.94
233.945	108.94
234.179	94.94
234.413	93.94
234.647	102.94
234.881	106.94
235.115	117.94
235.349	122.94
235.583	109.94
235.817	99.94
236.051	103.94
236.285	101.94
236.519	102.94
236.753	103.94
236.987	103.94
237.221	105.94
237.455	116.94
237.689	95.94
237.922	106.94
238.156	118.94
238.39	113.94
238.624	118.94
238.858	126.94
239.091	116.94
239.325	121.94
239.559	99.94
239.793	116.94
240.027	116.94
240.26	106.94
240.494	117.94
240.728	121.94
240.961	115.94
241.195	132.94
241.429	127.94
241.662	123.94
241.896	102.94
242.13	124.94
242.363	123.94
242.597	117.94
242.83	118.94
243.064	118.94
243.298	117.94
243.531	142.94
243.765	129.94
243.998	125.94
244.232	130.94
244.465	129.94
244.699	126.94
244.932	129.94
245.166	131.94
245.399	125.94
245.633	151.94
245.866	144.94
246.099	125.94
246.333	129.94
246.566	127.94
246.8	125.94
247.033	143.94
247.266	126.94
247.5	125.94
247.733	134.94
247.966	146.94
248.2	125.94
248.433	139.94
248.666	135.94
248.899	144.94
249.133	131.94
249.366	150.94
249.599	153.94
249.832	157.94
250.066	138.94
250.299	140.94
250.532	140.94
250.765	154.94
250.998	141.94
251.231	149.94
251.465	147.94
251.698	142.94
251.931	155.94
252.164	149.94
252.397	143.94
252.63	155.94
252.863	157.94
253.096	156.94
253.329	153.94
253.562	136.94
253.795	157.94
254.028	143.94
254.261	178.94
254.494	157.94
254.727	155.94
254.96	160.94
255.193	171.94
255.426	169.94
255.659	132.94
255.892	151.94
256.124	143.94
256.357	165.94
256.59	174.94
256.823	157.94
257.056	131.94
257.289	160.94
257.521	174.94
257.754	169.94
257.987	149.94
258.22	166.94
258.452	185.94
258.685	183.94
258.918	173.94
259.151	177.94
259.383	161.94
259.616	177.94
259.849	173.94
260.081	182.94
260.314	185.94
260.547	188.94
260.779	156.94
261.012	194.94
261.244	201.94
261.477	187.94
261.71	172.94
261.942	196.94
262.175	183.94
262.407	181.94
262.64	181.94
262.872	192.94
263.105	154.94
263.337	185.94
263.57	190.94
263.802	187.94
264.035	178.94
264.267	169.94
264.499	181.94
264.732	185.94
264.964	179.94
265.197	189.94
265.429	200.94
265.661	187.94
265.894	193.94
266.126	174.94
266.358	187.94
266.591	180.94
266.823	188.94
267.055	187.94
267.287	177.94
267.52	189.94
267.752	189.94
267.984	188.94
268.216	188.94
268.448	190.94
268.681	179.94
268.913	195.94
269.145	193.94
269.377	201.94
269.609	186.94
269.841	203.94
270.073	201.94
270.306	194.94
270.538	188.94
270.77	201.94
271.002	198.94
271.234	196.94
271.466	195.94
271.698	205.94
271.93	217.94
272.162	205.94
272.394	218.94
272.626	201.94
272.858	195.94
273.09	202.94
273.322	186.94
273.553	205.94
273.785	202.94
274.017	208.94
274.249	219.94
274.481	213.94
274.713	214.94
274.945	219.94
275.176	226.94
275.408	211.94
275.64	218.94
275.872	229.94
276.104	225.94
276.335	223.94
276.567	209.94
276.799	215.94
277.031	207.94
277.262	209.94
277.494	230.94
277.726	214.94
277.957	206.94
278.189	217.94
278.421	227.94
278.652	223.94
278.884	199.94
279.115	220.94
279.347	219.94
279.579	227.94
279.81	223.94
280.042	209.94
280.273	225.94
280.505	227.94
280.736	224.94
280.968	215.94
281.199	210.94
281.431	225.94
281.662	227.94
281.894	251.94
282.125	234.94
282.356	247.94
282.588	245.94
282.819	241.94
283.051	241.94
283.282	227.94
283.513	227.94
283.745	228.94
283.976	230.94
284.207	235.94
284.439	234.94
284.67	242.94
284.901	227.94
285.132	236.94
285.364	230.94
285.595	253.94
285.826	259.94
286.057	222.94
286.288	235.94
286.52	239.94
286.751	228.94
286.982	235.94
287.213	254.94
287.444	253.94
287.675	225.94
287.906	247.94
288.138	235.94
288.369	237.94
288.6	254.94
288.831	246.94
289.062	257.94
289.293	246.94
289.524	249.94
289.755	244.94
289.986	246.94
290.217	235.94
290.448	251.94
290.679	252.94
290.91	248.94
291.141	254.94
291.371	260.94
291.602	261.94
291.833	257.94
292.064	257.94
292.295	272.94
292.526	262.94
292.757	257.94
292.987	255.94
293.218	243.94
293.449	252.94
293.68	246.94
293.91	253.94
294.141	263.94
294.372	253.94
294.603	235.94
294.833	258.94
295.064	257.94
295.295	265.94
295.525	253.94
295.756	251.94
295.987	260.94
296.217	268.94
296.448	270.94
296.679	275.94
296.909	281.94
297.14	264.94
297.37	270.94
297.601	267.94
297.831	255.94
298.062	280.94
298.292	271.94
298.523	279.94
298.753	259.94
298.984	257.94
299.214	271.94
299.445	268.94
299.675	264.94
299.905	286.94
300.136	270.94
300.366	272.94
300.597	285.94
300.827	268.94
301.057	282.94
301.288	260.94
301.518	275.94
301.748	287.94
301.979	288.94
302.209	283.94
302.439	274.94
302.669	277.94
302.9	283.94
303.13	272.94
303.36	277.94
303.59	275.94
303.82	279.94
304.051	284.94
304.281	266.94
304.511	287.94
304.741	276.94
304.971	287.94
305.201	272.94
305.431	294.94
305.661	296.94
305.891	295.94
306.121	296.94
306.352	275.94
306.582	271.94
306.812	275.94
307.042	270.94
307.272	272.94
307.502	277.94
307.731	278.94
307.961	269.94
308.191	278.94
308.421	275.94
308.651	273.94
308.881	271.94
309.111	282.94
309.341	262.94
309.571	293.94
309.8	287.94
310.03	274.94
310.26	276.94
310.49	271.94
310.72	297.94
310.949	284.94
311.179	299.94
311.409	285.94
311.639	274.94
311.868	292.94
312.098	306.94
312.328	288.94
312.557	287.94
312.787	295.94
313.017	318.94
313.246	294.94
313.476	296.94
313.706	292.94
313.935	281.94
314.165	281.94
314.394	306.94
314.624	315.94
314.853	285.94
315.083	299.94
315.312	311.94
315.542	285.94
315.771	306.94
316.001	326.94
316.23	305.94
316.46	281.94
316.689	295.94
316.919	303.94
317.148	305.94
317.377	302.94
317.607	297.94
317.836	295.94
318.065	293.94
318.295	318.94
318.524	296.94
318.753	301.94
318.983	307.94
319.212	299.94
319.441	298.94
319.67	281.94
319.9	306.94
320.129	302.94
320.358	294.94
320.587	282.94
320.816	301.94
321.046	299.94
321.275	309.94
321.504	317.94
321.733	303.94
321.962	317.94
322.191	316.94
322.42	301.94
322.649	316.94
322.878	298.94
323.108	318.94
323.337	294.94
323.566	306.94
323.795	303.94
324.024	310.94
324.253	309.94
324.482	302.94
324.71	312.94
324.939	321.94
325.168	329.94
325.397	300.94
325.626	303.94
325.855	301.94
326.084	332.94
326.313	327.94
326.542	322.94
326.77	341.94
326.999	307.94
327.228	317.94
327.457	301.94
327.686	342.94
327.914	327.94
328.143	324.94
328.372	313.94
328.6	329.94
328.829	326.94
329.058	326.94
329.287	326.94
329.515	336.94
329.744	315.94
329.972	326.94
330.201	325.94
330.43	325.94
330.658	324.94
330.887	331.94
331.115	334.94
331.344	344.94
331.572	339.94
331.801	346.94
332.03	364.94
332.258	376.94
332.486	342.94
332.715	348.94
332.943	369.94
333.172	371.94
333.4	397.94
333.629	404.94
333.857	389.94
334.085	409.94
334.314	407.94
334.542	389.94
334.771	393.94
334.999	392.94
335.227	378.94
335.455	404.94
335.684	404.94
335.912	390.94
336.14	388.94
336.369	382.94
336.597	371.94
336.825	386.94
337.053	375.94
337.281	380.94
337.51	378.94
337.738	364.94
337.966	371.94
338.194	352.94
338.422	356.94
338.65	354.94
338.878	372.94
339.106	369.94
339.334	369.94
339.562	346.94
339.79	342.94
340.018	344.94
340.246	326.94
340.474	339.94
340.702	355.94
340.93	341.94
341.158	339.94
341.386	346.94
341.614	339.94
341.842	337.94
342.07	334.94
342.298	328.94
342.526	357.94
342.754	347.94
342.981	341.94
343.209	347.94
343.437	354.94
343.665	359.94
343.893	387.94
344.12	393.94
344.348	392.94
344.576	377.94
344.804	353.94
345.031	332.94
345.259	354.94
345.487	335.94
345.714	317.94
345.942	330.94
346.17	323.94
346.397	347.94
346.625	350.94
346.853	339.94
347.08	339.94
347.308	331.94
347.535	330.94
347.763	330.94
347.99	335.94
348.218	344.94
348.445	327.94
348.673	311.94
348.9	339.94
349.128	332.94
349.355	351.94
349.583	330.94
349.81	342.94
350.037	337.94
350.265	337.94
350.492	322.94
350.72	337.94
350.947	318.94
351.174	327.94
351.402	327.94
351.629	322.94
351.856	309.94
352.083	329.94
352.311	316.94
352.538	342.94
352.765	325.94
352.992	330.94
353.22	317.94
353.447	347.94
353.674	334.94
353.901	333.94
354.128	322.94
354.355	323.94
354.583	329.94
354.81	339.94
355.037	327.94
355.264	331.94
355.491	326.94
355.718	323.94
355.945	324.94
356.172	339.94
356.399	323.94
356.626	337.94
356.853	331.94
357.08	350.94
357.307	343.94
357.534	330.94
357.761	323.94
357.988	310.94
358.215	355.94
358.441	325.94
358.668	329.94
358.895	336.94
359.122	321.94
359.349	327.94
359.576	340.94
359.802	328.94
360.029	331.94
360.256	344.94
360.483	339.94
360.709	334.94
360.936	340.94
361.163	335.94
361.39	324.94
361.616	336.94
361.843	335.94
362.07	345.94
362.296	344.94
362.523	327.94
362.749	342.94
362.976	319.94
363.203	324.94
363.429	327.94
363.656	331.94
363.882	332.94
364.109	319.94
364.335	312.94
364.562	344.94
364.788	326.94
365.015	330.94
365.241	333.94
365.468	326.94
365.694	340.94
365.92	337.94
366.147	350.94
366.373	335.94
366.599	334.94
366.826	335.94
367.052	325.94
367.278	337.94
367.505	335.94
367.731	339.94
367.957	331.94
368.184	342.94
368.41	353.94
368.636	354.94
368.862	322.94
369.089	340.94
369.315	362.94
369.541	340.94
369.767	348.94
369.993	359.94
370.219	350.94
370.445	364.94
370.672	353.94
370.898	350.94
371.124	356.94
371.35	363.94
371.576	362.94
371.802	382.94
372.028	372.94
372.254	378.94
372.48	364.94
372.706	358.94
372.932	387.94
373.158	381.94
373.384	378.94
373.61	386.94
373.835	390.94
374.061	380.94
374.287	373.94
374.513	388.94
374.739	388.94
374.965	411.94
375.191	403.94
375.416	385.94
375.642	377.94
375.868	379.94
376.094	398.94
376.319	377.94
376.545	382.94
376.771	367.94
376.997	356.94
377.222	369.94
377.448	349.94
377.674	367.94
377.899	369.94
378.125	366.94
378.35	360.94
378.576	372.94
378.802	362.94
379.027	379.94
379.253	360.94
379.478	368.94
379.704	377.94
379.929	355.94
380.155	362.94
380.38	360.94
380.606	373.94
380.831	361.94
381.057	344.94
381.282	382.94
381.507	379.94
381.733	386.94
381.958	380.94
382.184	399.94
382.409	412.94
382.634	388.94
382.86	379.94
383.085	400.94
383.31	379.94
383.535	418.94
383.761	415.94
383.986	402.94
384.211	427.94
384.436	396.94
384.662	411.94
384.887	423.94
385.112	421.94
385.337	430.94
385.562	427.94
385.787	429.94
386.013	438.94
386.238	423.94
386.463	428.94
386.688	429.94
386.913	413.94
387.138	425.94
387.363	442.94
387.588	436.94
387.813	417.94
388.038	426.94
388.263	435.94
388.488	451.94
388.713	435.94
388.938	424.94
389.163	437.94
389.387	426.94
389.612	429.94
389.837	437.94
390.062	431.94
390.287	453.94
390.512	450.94
390.736	452.94
390.961	451.94
391.186	446.94
391.411	462.94
391.636	463.94
391.86	467.94
392.085	466.94
392.31	453.94
392.534	465.94
392.759	473.94
392.984	473.94
393.208	472.94
393.433	455.94
393.658	474.94
393.882	464.94
394.107	460.94
394.331	477.94
394.556	468.94
394.78	450.94
395.005	464.94
395.229	449.94
395.454	479.94
395.678	471.94
395.903	489.94
396.127	478.94
396.352	482.94
396.576	492.94
396.801	481.94
397.025	457.94
397.249	474.94
397.474	482.94
397.698	489.94
397.922	493.94
398.147	490.94
398.371	512.94
398.595	524.94
398.82	517.94
399.044	561.94
399.268	612.94
399.492	643.94
399.717	718.94
399.941	675.94
400.165	661.94
400.389	627.94
400.613	597.94
400.837	579.94
401.062	565.94
401.286	550.94
401.51	540.94
401.734	517.94
401.958	556.94
402.182	531.94
402.406	549.94
402.63	543.94
402.854	532.94
403.078	553.94
403.302	532.94
403.526	549.94
403.75	563.94
403.974	566.94
404.198	567.94
404.422	582.94
404.645	595.94
404.869	602.94
405.093	565.94
405.317	571.94
405.541	573.94
405.765	570.94
405.988	561.94
406.212	580.94
406.436	566.94
406.66	601.94
406.883	602.94
407.107	622.94
407.331	629.94
407.555	646.94
407.778	623.94
408.002	637.94
408.226	629.94
408.449	620.94
408.673	616.94
408.896	603.94
409.12	581.94
409.344	623.94
409.567	601.94
409.791	616.94
410.014	602.94
410.238	583.94
410.461	582.94
410.685	587.94
410.908	581.94
411.132	594.94
411.355	555.94
411.578	583.94
411.802	559.94
412.025	546.94
412.249	574.94
412.472	571.94
412.695	555.94
412.919	552.94
413.142	531.94
413.365	557.94
413.589	575.94
413.812	574.94
414.035	542.94
414.258	554.94
414.482	535.94
414.705	553.94
414.928	567.94
415.151	545.94
415.374	569.94
415.597	534.94
415.821	528.94
416.044	556.94
416.267	558.94
416.49	531.94
416.713	532.94
416.936	545.94
417.159	555.94
417.382	538.94
417.605	539.94
417.828	527.94
418.051	535.94
418.274	527.94
418.497	510.94
418.72	542.94
418.943	534.94
419.166	558.94
419.389	591.94
419.611	593.94
419.834	577.94
420.057	567.94
420.28	542.94
420.503	518.94
420.726	525.94
420.948	540.94
421.171	510.94
421.394	534.94
421.617	536.94
421.839	539.94
422.062	541.94
422.285	516.94
422.507	515.94
422.73	519.94
422.953	537.94
423.175	549.94
423.398	541.94
423.621	552.94
423.843	530.94
424.066	535.94
424.288	536.94
424.511	531.94
424.733	550.94
424.956	561.94
425.178	549.94
425.401	535.94
425.623	545.94
425.846	513.94
426.068	538.94
426.291	520.94
426.513	537.94
426.735	497.94
426.958	515.94
427.18	522.94
427.402	525.94
427.625	509.94
427.847	494.94
428.069	499.94
428.292	506.94
428.514	486.94
428.736	503.94
428.958	483.94
429.181	477.94
429.403	517.94
429.625	494.94
429.847	481.94
430.069	494.94
430.292	470.94
430.514	454.94
430.736	493.94
430.958	489.94
431.18	489.94
431.402	504.94
431.624	508.94
431.846	495.94
432.068	493.94
432.29	502.94
432.512	493.94
432.734	502.94
432.956	523.94
433.178	505.94
433.4	495.94
433.622	523.94
433.844	509.94
434.066	506.94
434.287	511.94
434.509	509.94
434.731	540.94
434.953	532.94
435.175	524.94
435.397	548.94
435.618	525.94
435.84	506.94
436.062	475.94
436.284	515.94
436.505	513.94
436.727	508.94
436.949	494.94
437.17	479.94
437.392	490.94
437.614	484.94
437.835	491.94
438.057	486.94
438.278	480.94
438.5	493.94
438.721	515.94
438.943	511.94
439.165	493.94
439.386	523.94
439.608	505.94
439.829	522.94
440.05	503.94
440.272	489.94
440.493	525.94
440.715	515.94
440.936	506.94
441.158	529.94
441.379	533.94
441.6	522.94
441.822	524.94
442.043	566.94
442.264	533.94
442.486	539.94
442.707	536.94
442.928	542.94
443.149	545.94
443.371	567.94
443.592	545.94
443.813	549.94
444.034	554.94
444.255	549.94
444.476	567.94
444.698	579.94
444.919	615.94
445.14	712.94
445.361	608.94
445.582	568.94
445.803	527.94
446.024	502.94
446.245	546.94
446.466	542.94
446.687	515.94
446.908	527.94
447.129	509.94
447.35	486.94
447.571	508.94
447.792	490.94
448.013	500.94
448.234	491.94
448.455	478.94
448.675	480.94
448.896	481.94
449.117	462.94
449.338	477.94
449.559	494.94
449.779	478.94
450	465.94
450.221	481.94
450.442	483.94
450.662	464.94
450.883	459.94
451.104	450.94
451.324	481.94
451.545	476.94
451.766	469.94
451.986	476.94
452.207	464.94
452.428	469.94
452.648	449.94
452.869	459.94
453.089	465.94
453.31	452.94
453.53	446.94
453.751	456.94
453.971	458.94
454.192	473.94
454.412	441.94
454.633	448.94
454.853	472.94
455.073	455.94
455.294	456.94
455.514	446.94
455.734	452.94
455.955	455.94
456.175	430.94
456.395	433.94
456.616	455.94
456.836	436.94
457.056	442.94
457.276	443.94
457.497	449.94
457.717	414.94
457.937	450.94
458.157	455.94
458.377	441.94
458.598	466.94
458.818	485.94
459.038	474.94
459.258	482.94
459.478	500.94
459.698	523.94
459.918	521.94
460.138	533.94
460.358	549.94
460.578	554.94
460.798	555.94
461.018	571.94
461.238	549.94
461.458	555.94
461.678	534.94
461.898	601.94
462.118	581.94
462.338	622.94
462.558	598.94
462.777	633.94
462.997	657.94
463.217	682.94
463.437	689.94
463.657	651.94
463.876	653.94
464.096	664.94
464.316	631.94
464.536	623.94
464.755	632.94
464.975	606.94
465.195	575.94
465.414	570.94
465.634	527.94
465.854	520.94
466.073	504.94
466.293	524.94
466.512	506.94
466.732	511.94
466.951	530.94
467.171	489.94
467.391	493.94
467.61	501.94
467.829	493.94
468.049	495.94
468.268	484.94
468.488	473.94
468.707	458.94
468.927	458.94
469.146	485.94
469.365	469.94
469.585	503.94
469.804	487.94
470.023	500.94
470.243	490.94
470.462	493.94
470.681	499.94
470.901	488.94
471.12	497.94
471.339	486.94
471.558	501.94
471.777	490.94
471.997	481.94
472.216	490.94
472.435	461.94
472.654	464.94
472.873	483.94
473.092	480.94
473.311	469.94
473.53	476.94
473.749	469.94
473.968	456.94
474.187	471.94
474.406	489.94
474.625	483.94
474.844	462.94
475.063	482.94
475.282	468.94
475.501	475.94
475.72	473.94
475.939	475.94
476.158	472.94
476.377	502.94
476.596	528.94
476.814	483.94
477.033	507.94
477.252	497.94
477.471	518.94
477.69	518.94
477.908	517.94
478.127	538.94
478.346	521.94
478.564	538.94
478.783	528.94
479.002	565.94
479.22	562.94
479.439	568.94
479.658	572.94
479.876	566.94
480.095	553.94
480.313	577.94
480.532	590.94
480.751	581.94
480.969	573.94
481.188	566.94
481.406	539.94
481.624	549.94
481.843	526.94
482.061	562.94
482.28	531.94
482.498	514.94
482.717	526.94
482.935	546.94
483.153	526.94
483.372	533.94
483.59	538.94
483.808	542.94
484.027	522.94
484.245	545.94
484.463	541.94
484.681	557.94
484.9	539.94
485.118	550.94
485.336	541.94
485.554	539.94
485.772	564.94
485.99	546.94
486.209	564.94
486.427	548.94
486.645	564.94
486.863	548.94
487.081	553.94
487.299	516.94
487.517	536.94
487.735	559.94
487.953	567.94
488.171	565.94
488.389	566.94
488.607	558.94
488.825	548.94
489.043	547.94
489.261	539.94
489.479	545.94
489.696	535.94
489.914	542.94
490.132	557.94
490.35	574.94
490.568	548.94
490.786	540.94
491.003	572.94
491.221	552.94
491.439	573.94
491.657	540.94
491.874	584.94
492.092	585.94
492.31	584.94
492.527	578.94
492.745	584.94
492.963	576.94
493.18	574.94
493.398	586.94
493.615	589.94
493.833	595.94
494.05	598.94
494.268	611.94
494.485	577.94
494.703	590.94
494.92	608.94
495.138	591.94
495.355	593.94
495.573	595.94
495.79	602.94
496.008	595.94
496.225	600.94
496.442	611.94
496.66	623.94
496.877	613.94
497.094	613.94
497.312	626.94
497.529	650.94
497.746	647.94
497.963	679.94
498.181	693.94
498.398	717.94
498.615	722.94
498.832	775.94
499.049	799.94
499.267	839.94
499.484	911.94
499.701	996.94
499.918	1042.94
500.135	1169.94
500.352	1257.94
500.569	1289.94
500.786	1239.94
501.003	1188.94
501.22	1138.94
501.437	1048.94
501.654	975.94
