Data from Fe(NO3)3@0.1M.TitratingCurve.Agarose3%dH2O.NegLispCup.LampEnergy10.LIBS07252019_HRD10591_16-40-27-332.txt Node
Date: Thu Jul 25 16:40:27 EDT 2019
User: cochatt
Spectrometer: HR+D1059
Trigger mode: 1
Integration Time (sec): 1.000000E-1
Scans to average: 1
Electric dark correction enabled: true
Nonlinearity correction enabled: false
Boxcar width: 0
XAxis mode: Wavelengths
Number of Pixels in Spectrum: 2048
>>>>>Begin Spectral Data<<<<<
223.165	-8.5
223.4	-8.5
223.635	-8.5
223.869	-17.5
224.104	-13.5
224.338	-13.5
224.573	-24.5
224.808	-21.5
225.042	-7.5
225.277	-8.5
225.511	3.5
225.746	-1.5
225.98	14.5
226.215	7.5
226.449	26.5
226.683	20.5
226.918	17.5
227.152	26.5
227.387	18.5
227.621	27.5
227.856	52.5
228.09	57.5
228.324	56.5
228.559	50.5
228.793	71.5
229.027	59.5
229.262	75.5
229.496	76.5
229.73	87.5
229.964	91.5
230.199	89.5
230.433	91.5
230.667	96.5
230.901	110.5
231.136	85.5
231.37	104.5
231.604	101.5
231.838	84.5
232.072	73.5
232.306	91.5
232.541	98.5
232.775	82.5
233.009	95.5
233.243	76.5
233.477	95.5
233.711	88.5
233.945	92.5
234.179	108.5
234.413	107.5
234.647	91.5
234.881	103.5
235.115	113.5
235.349	100.5
235.583	99.5
235.817	105.5
236.051	93.5
236.285	97.5
236.519	118.5
236.753	100.5
236.987	90.5
237.221	88.5
237.455	117.5
237.689	93.5
237.922	88.5
238.156	81.5
238.39	93.5
238.624	111.5
238.858	99.5
239.091	100.5
239.325	104.5
239.559	97.5
239.793	97.5
240.027	110.5
240.26	114.5
240.494	83.5
240.728	86.5
240.961	90.5
241.195	108.5
241.429	95.5
241.662	106.5
241.896	103.5
242.13	86.5
242.363	119.5
242.597	100.5
242.83	104.5
243.064	102.5
243.298	108.5
243.531	106.5
243.765	117.5
243.998	103.5
244.232	99.5
244.465	97.5
244.699	101.5
244.932	105.5
245.166	115.5
245.399	102.5
245.633	103.5
245.866	104.5
246.099	120.5
246.333	118.5
246.566	106.5
246.8	100.5
247.033	100.5
247.266	116.5
247.5	112.5
247.733	118.5
247.966	112.5
248.2	113.5
248.433	109.5
248.666	122.5
248.899	116.5
249.133	117.5
249.366	116.5
249.599	109.5
249.832	124.5
250.066	116.5
250.299	122.5
250.532	116.5
250.765	118.5
250.998	115.5
251.231	124.5
251.465	113.5
251.698	102.5
251.931	120.5
252.164	120.5
252.397	119.5
252.63	121.5
252.863	128.5
253.096	124.5
253.329	114.5
253.562	120.5
253.795	120.5
254.028	132.5
254.261	121.5
254.494	116.5
254.727	118.5
254.96	124.5
255.193	122.5
255.426	118.5
255.659	129.5
255.892	126.5
256.124	132.5
256.357	121.5
256.59	114.5
256.823	124.5
257.056	133.5
257.289	123.5
257.521	118.5
257.754	142.5
257.987	113.5
258.22	134.5
258.452	137.5
258.685	123.5
258.918	132.5
259.151	125.5
259.383	135.5
259.616	121.5
259.849	133.5
260.081	141.5
260.314	135.5
260.547	134.5
260.779	135.5
261.012	138.5
261.244	127.5
261.477	123.5
261.71	139.5
261.942	140.5
262.175	123.5
262.407	132.5
262.64	140.5
262.872	138.5
263.105	136.5
263.337	125.5
263.57	136.5
263.802	136.5
264.035	129.5
264.267	142.5
264.499	146.5
264.732	135.5
264.964	138.5
265.197	137.5
265.429	116.5
265.661	136.5
265.894	136.5
266.126	150.5
266.358	140.5
266.591	142.5
266.823	141.5
267.055	154.5
267.287	142.5
267.52	140.5
267.752	139.5
267.984	143.5
268.216	150.5
268.448	142.5
268.681	140.5
268.913	141.5
269.145	152.5
269.377	141.5
269.609	133.5
269.841	147.5
270.073	144.5
270.306	158.5
270.538	151.5
270.77	144.5
271.002	140.5
271.234	156.5
271.466	140.5
271.698	135.5
271.93	155.5
272.162	153.5
272.394	158.5
272.626	153.5
272.858	160.5
273.09	160.5
273.322	166.5
273.553	141.5
273.785	153.5
274.017	155.5
274.249	156.5
274.481	162.5
274.713	154.5
274.945	164.5
275.176	160.5
275.408	162.5
275.64	167.5
275.872	148.5
276.104	154.5
276.335	136.5
276.567	164.5
276.799	156.5
277.031	168.5
277.262	158.5
277.494	158.5
277.726	148.5
277.957	154.5
278.189	164.5
278.421	167.5
278.652	161.5
278.884	154.5
279.115	167.5
279.347	163.5
279.579	159.5
279.81	165.5
280.042	165.5
280.273	154.5
280.505	156.5
280.736	169.5
280.968	160.5
281.199	160.5
281.431	166.5
281.662	173.5
281.894	164.5
282.125	158.5
282.356	162.5
282.588	163.5
282.819	190.5
283.051	178.5
283.282	170.5
283.513	164.5
283.745	158.5
283.976	162.5
284.207	161.5
284.439	171.5
284.67	170.5
284.901	185.5
285.132	174.5
285.364	165.5
285.595	162.5
285.826	172.5
286.057	180.5
286.288	176.5
286.52	172.5
286.751	181.5
286.982	178.5
287.213	168.5
287.444	174.5
287.675	176.5
287.906	183.5
288.138	183.5
288.369	179.5
288.6	164.5
288.831	179.5
289.062	188.5
289.293	167.5
289.524	179.5
289.755	194.5
289.986	170.5
290.217	177.5
290.448	168.5
290.679	184.5
290.91	173.5
291.141	164.5
291.371	184.5
291.602	176.5
291.833	201.5
292.064	178.5
292.295	188.5
292.526	190.5
292.757	177.5
292.987	190.5
293.218	188.5
293.449	181.5
293.68	196.5
293.91	181.5
294.141	201.5
294.372	202.5
294.603	203.5
294.833	185.5
295.064	190.5
295.295	189.5
295.525	185.5
295.756	197.5
295.987	178.5
296.217	182.5
296.448	181.5
296.679	191.5
296.909	193.5
297.14	179.5
297.37	193.5
297.601	216.5
297.831	184.5
298.062	196.5
298.292	193.5
298.523	206.5
298.753	198.5
298.984	197.5
299.214	187.5
299.445	199.5
299.675	195.5
299.905	184.5
300.136	190.5
300.366	182.5
300.597	190.5
300.827	182.5
301.057	189.5
301.288	203.5
301.518	200.5
301.748	199.5
301.979	202.5
302.209	204.5
302.439	211.5
302.669	209.5
302.9	203.5
303.13	208.5
303.36	208.5
303.59	218.5
303.82	207.5
304.051	190.5
304.281	199.5
304.511	210.5
304.741	201.5
304.971	195.5
305.201	205.5
305.431	195.5
305.661	192.5
305.891	185.5
306.121	188.5
306.352	197.5
306.582	209.5
306.812	200.5
307.042	209.5
307.272	199.5
307.502	214.5
307.731	196.5
307.961	204.5
308.191	209.5
308.421	200.5
308.651	186.5
308.881	197.5
309.111	191.5
309.341	191.5
309.571	191.5
309.8	198.5
310.03	200.5
310.26	204.5
310.49	206.5
310.72	186.5
310.949	209.5
311.179	231.5
311.409	194.5
311.639	206.5
311.868	212.5
312.098	215.5
312.328	208.5
312.557	210.5
312.787	205.5
313.017	194.5
313.246	205.5
313.476	212.5
313.706	216.5
313.935	227.5
314.165	224.5
314.394	204.5
314.624	210.5
314.853	204.5
315.083	219.5
315.312	214.5
315.542	218.5
315.771	212.5
316.001	210.5
316.23	204.5
316.46	197.5
316.689	213.5
316.919	217.5
317.148	215.5
317.377	207.5
317.607	218.5
317.836	217.5
318.065	204.5
318.295	210.5
318.524	188.5
318.753	212.5
318.983	213.5
319.212	211.5
319.441	217.5
319.67	230.5
319.9	201.5
320.129	225.5
320.358	213.5
320.587	204.5
320.816	226.5
321.046	219.5
321.275	213.5
321.504	203.5
321.733	217.5
321.962	197.5
322.191	212.5
322.42	212.5
322.649	211.5
322.878	203.5
323.108	202.5
323.337	216.5
323.566	213.5
323.795	213.5
324.024	206.5
324.253	196.5
324.482	219.5
324.71	219.5
324.939	212.5
325.168	208.5
325.397	206.5
325.626	220.5
325.855	216.5
326.084	236.5
326.313	225.5
326.542	213.5
326.77	217.5
326.999	228.5
327.228	231.5
327.457	226.5
327.686	235.5
327.914	217.5
328.143	244.5
328.372	240.5
328.6	214.5
328.829	224.5
329.058	213.5
329.287	221.5
329.515	214.5
329.744	228.5
329.972	252.5
330.201	242.5
330.43	231.5
330.658	240.5
330.887	241.5
331.115	232.5
331.344	245.5
331.572	228.5
331.801	237.5
332.03	243.5
332.258	264.5
332.486	256.5
332.715	255.5
332.943	266.5
333.172	267.5
333.4	285.5
333.629	277.5
333.857	288.5
334.085	299.5
334.314	274.5
334.542	270.5
334.771	272.5
334.999	292.5
335.227	268.5
335.455	268.5
335.684	266.5
335.912	268.5
336.14	263.5
336.369	269.5
336.597	258.5
336.825	261.5
337.053	264.5
337.281	266.5
337.51	238.5
337.738	278.5
337.966	264.5
338.194	238.5
338.422	247.5
338.65	244.5
338.878	252.5
339.106	240.5
339.334	240.5
339.562	234.5
339.79	225.5
340.018	247.5
340.246	238.5
340.474	226.5
340.702	233.5
340.93	244.5
341.158	230.5
341.386	236.5
341.614	233.5
341.842	237.5
342.07	236.5
342.298	229.5
342.526	235.5
342.754	242.5
342.981	240.5
343.209	243.5
343.437	258.5
343.665	268.5
343.893	261.5
344.12	298.5
344.348	268.5
344.576	250.5
344.804	248.5
345.031	252.5
345.259	258.5
345.487	245.5
345.714	231.5
345.942	217.5
346.17	239.5
346.397	226.5
346.625	232.5
346.853	226.5
347.08	232.5
347.308	253.5
347.535	232.5
347.763	242.5
347.99	234.5
348.218	246.5
348.445	215.5
348.673	227.5
348.9	216.5
349.128	238.5
349.355	237.5
349.583	232.5
349.81	235.5
350.037	216.5
350.265	224.5
350.492	233.5
350.72	237.5
350.947	217.5
351.174	233.5
351.402	245.5
351.629	216.5
351.856	220.5
352.083	212.5
352.311	234.5
352.538	217.5
352.765	233.5
352.992	198.5
353.22	238.5
353.447	231.5
353.674	234.5
353.901	230.5
354.128	232.5
354.355	221.5
354.583	219.5
354.81	205.5
355.037	222.5
355.264	220.5
355.491	234.5
355.718	234.5
355.945	236.5
356.172	239.5
356.399	244.5
356.626	225.5
356.853	235.5
357.08	209.5
357.307	232.5
357.534	235.5
357.761	235.5
357.988	231.5
358.215	236.5
358.441	231.5
358.668	214.5
358.895	210.5
359.122	235.5
359.349	227.5
359.576	230.5
359.802	230.5
360.029	218.5
360.256	234.5
360.483	228.5
360.709	249.5
360.936	240.5
361.163	227.5
361.39	230.5
361.616	214.5
361.843	221.5
362.07	230.5
362.296	225.5
362.523	213.5
362.749	224.5
362.976	225.5
363.203	215.5
363.429	229.5
363.656	240.5
363.882	250.5
364.109	219.5
364.335	224.5
364.562	243.5
364.788	229.5
365.015	229.5
365.241	230.5
365.468	228.5
365.694	217.5
365.92	212.5
366.147	230.5
366.373	229.5
366.599	219.5
366.826	224.5
367.052	231.5
367.278	231.5
367.505	235.5
367.731	232.5
367.957	236.5
368.184	238.5
368.41	237.5
368.636	229.5
368.862	247.5
369.089	230.5
369.315	227.5
369.541	242.5
369.767	217.5
369.993	245.5
370.219	229.5
370.445	242.5
370.672	248.5
370.898	237.5
371.124	237.5
371.35	243.5
371.576	260.5
371.802	243.5
372.028	247.5
372.254	249.5
372.48	261.5
372.706	253.5
372.932	266.5
373.158	268.5
373.384	243.5
373.61	270.5
373.835	271.5
374.061	252.5
374.287	259.5
374.513	269.5
374.739	266.5
374.965	279.5
375.191	274.5
375.416	268.5
375.642	262.5
375.868	251.5
376.094	234.5
376.319	248.5
376.545	255.5
376.771	260.5
376.997	242.5
377.222	254.5
377.448	265.5
377.674	250.5
377.899	265.5
378.125	236.5
378.35	266.5
378.576	243.5
378.802	231.5
379.027	228.5
379.253	258.5
379.478	250.5
379.704	270.5
379.929	253.5
380.155	245.5
380.38	234.5
380.606	253.5
380.831	240.5
381.057	253.5
381.282	250.5
381.507	238.5
381.733	258.5
381.958	260.5
382.184	236.5
382.409	265.5
382.634	269.5
382.86	260.5
383.085	247.5
383.31	264.5
383.535	274.5
383.761	280.5
383.986	265.5
384.211	278.5
384.436	291.5
384.662	275.5
384.887	294.5
385.112	280.5
385.337	295.5
385.562	285.5
385.787	294.5
386.013	293.5
386.238	305.5
386.463	299.5
386.688	271.5
386.913	274.5
387.138	274.5
387.363	292.5
387.588	288.5
387.813	322.5
388.038	283.5
388.263	297.5
388.488	318.5
388.713	312.5
388.938	297.5
389.163	274.5
389.387	273.5
389.612	287.5
389.837	283.5
390.062	276.5
390.287	298.5
390.512	276.5
390.736	281.5
390.961	295.5
391.186	292.5
391.411	296.5
391.636	306.5
391.86	326.5
392.085	353.5
392.31	322.5
392.534	306.5
392.759	320.5
392.984	312.5
393.208	310.5
393.433	316.5
393.658	302.5
393.882	310.5
394.107	294.5
394.331	317.5
394.556	301.5
394.78	308.5
395.005	324.5
395.229	309.5
395.454	307.5
395.678	317.5
395.903	328.5
396.127	316.5
396.352	304.5
396.576	313.5
396.801	300.5
397.025	290.5
397.249	317.5
397.474	305.5
397.698	323.5
397.922	320.5
398.147	334.5
398.371	324.5
398.595	332.5
398.82	344.5
399.044	376.5
399.268	414.5
399.492	466.5
399.717	491.5
399.941	479.5
400.165	419.5
400.389	398.5
400.613	372.5
400.837	347.5
401.062	383.5
401.286	358.5
401.51	351.5
401.734	378.5
401.958	355.5
402.182	372.5
402.406	364.5
402.63	373.5
402.854	386.5
403.078	400.5
403.302	395.5
403.526	375.5
403.75	398.5
403.974	408.5
404.198	426.5
404.422	410.5
404.645	374.5
404.869	400.5
405.093	382.5
405.317	382.5
405.541	389.5
405.765	388.5
405.988	394.5
406.212	395.5
406.436	382.5
406.66	401.5
406.883	395.5
407.107	432.5
407.331	420.5
407.555	456.5
407.778	454.5
408.002	436.5
408.226	427.5
408.449	420.5
408.673	430.5
408.896	395.5
409.12	405.5
409.344	399.5
409.567	404.5
409.791	385.5
410.014	419.5
410.238	393.5
410.461	394.5
410.685	402.5
410.908	390.5
411.132	395.5
411.355	378.5
411.578	391.5
411.802	370.5
412.025	392.5
412.249	377.5
412.472	378.5
412.695	374.5
412.919	380.5
413.142	375.5
413.365	362.5
413.589	374.5
413.812	364.5
414.035	358.5
414.258	385.5
414.482	365.5
414.705	375.5
414.928	380.5
415.151	381.5
415.374	376.5
415.597	374.5
415.821	356.5
416.044	362.5
416.267	365.5
416.49	361.5
416.713	365.5
416.936	370.5
417.159	346.5
417.382	379.5
417.605	349.5
417.828	371.5
418.051	372.5
418.274	353.5
418.497	355.5
418.72	374.5
418.943	372.5
419.166	401.5
419.389	410.5
419.611	390.5
419.834	386.5
420.057	377.5
420.28	370.5
420.503	370.5
420.726	379.5
420.948	346.5
421.171	350.5
421.394	371.5
421.617	379.5
421.839	383.5
422.062	370.5
422.285	368.5
422.507	352.5
422.73	376.5
422.953	357.5
423.175	405.5
423.398	392.5
423.621	381.5
423.843	392.5
424.066	368.5
424.288	380.5
424.511	387.5
424.733	384.5
424.956	380.5
425.178	364.5
425.401	361.5
425.623	373.5
425.846	349.5
426.068	358.5
426.291	376.5
426.513	356.5
426.735	348.5
426.958	345.5
427.18	347.5
427.402	355.5
427.625	345.5
427.847	333.5
428.069	338.5
428.292	342.5
428.514	321.5
428.736	341.5
428.958	324.5
429.181	320.5
429.403	350.5
429.625	341.5
429.847	342.5
430.069	309.5
430.292	308.5
430.514	313.5
430.736	314.5
430.958	328.5
431.18	324.5
431.402	344.5
431.624	339.5
431.846	337.5
432.068	340.5
432.29	331.5
432.512	346.5
432.734	340.5
432.956	338.5
433.178	349.5
433.4	353.5
433.622	363.5
433.844	341.5
434.066	336.5
434.287	345.5
434.509	363.5
434.731	350.5
434.953	372.5
435.175	363.5
435.397	376.5
435.618	370.5
435.84	355.5
436.062	338.5
436.284	357.5
436.505	344.5
436.727	360.5
436.949	347.5
437.17	347.5
437.392	330.5
437.614	308.5
437.835	337.5
438.057	326.5
438.278	334.5
438.5	325.5
438.721	318.5
438.943	343.5
439.165	365.5
439.386	358.5
439.608	354.5
439.829	366.5
440.05	346.5
440.272	343.5
440.493	361.5
440.715	376.5
440.936	366.5
441.158	354.5
441.379	366.5
441.6	386.5
441.822	404.5
442.043	373.5
442.264	394.5
442.486	379.5
442.707	374.5
442.928	376.5
443.149	379.5
443.371	373.5
443.592	376.5
443.813	369.5
444.034	370.5
444.255	398.5
444.476	414.5
444.698	438.5
444.919	449.5
445.14	508.5
445.361	440.5
445.582	390.5
445.803	380.5
446.024	377.5
446.245	371.5
446.466	362.5
446.687	348.5
446.908	352.5
447.129	364.5
447.35	354.5
447.571	348.5
447.792	350.5
448.013	317.5
448.234	333.5
448.455	325.5
448.675	325.5
448.896	325.5
449.117	338.5
449.338	332.5
449.559	314.5
449.779	301.5
450	326.5
450.221	336.5
450.442	336.5
450.662	305.5
450.883	344.5
451.104	343.5
451.324	321.5
451.545	348.5
451.766	312.5
451.986	316.5
452.207	329.5
452.428	312.5
452.648	337.5
452.869	333.5
453.089	317.5
453.31	318.5
453.53	322.5
453.751	312.5
453.971	321.5
454.192	325.5
454.412	304.5
454.633	311.5
454.853	311.5
455.073	296.5
455.294	301.5
455.514	306.5
455.734	324.5
455.955	294.5
456.175	298.5
456.395	324.5
456.616	308.5
456.836	314.5
457.056	307.5
457.276	292.5
457.497	304.5
457.717	309.5
457.937	304.5
458.157	307.5
458.377	321.5
458.598	315.5
458.818	331.5
459.038	321.5
459.258	321.5
459.478	347.5
459.698	345.5
459.918	332.5
460.138	362.5
460.358	360.5
460.578	391.5
460.798	371.5
461.018	386.5
461.238	378.5
461.458	386.5
461.678	383.5
461.898	394.5
462.118	388.5
462.338	430.5
462.558	427.5
462.777	418.5
462.997	467.5
463.217	475.5
463.437	492.5
463.657	451.5
463.876	456.5
464.096	458.5
464.316	442.5
464.536	442.5
464.755	423.5
464.975	416.5
465.195	392.5
465.414	363.5
465.634	372.5
465.854	345.5
466.073	352.5
466.293	334.5
466.512	355.5
466.732	332.5
466.951	344.5
467.171	347.5
467.391	356.5
467.61	333.5
467.829	329.5
468.049	323.5
468.268	320.5
468.488	304.5
468.707	329.5
468.927	325.5
469.146	314.5
469.365	329.5
469.585	328.5
469.804	324.5
470.023	329.5
470.243	348.5
470.462	330.5
470.681	341.5
470.901	339.5
471.12	329.5
471.339	325.5
471.558	351.5
471.777	320.5
471.997	315.5
472.216	318.5
472.435	307.5
472.654	325.5
472.873	315.5
473.092	307.5
473.311	294.5
473.53	312.5
473.749	312.5
473.968	323.5
474.187	318.5
474.406	328.5
474.625	313.5
474.844	290.5
475.063	326.5
475.282	326.5
475.501	317.5
475.72	322.5
475.939	296.5
476.158	334.5
476.377	323.5
476.596	314.5
476.814	326.5
477.033	336.5
477.252	346.5
477.471	350.5
477.69	342.5
477.908	358.5
478.127	381.5
478.346	377.5
478.564	363.5
478.783	348.5
479.002	351.5
479.22	370.5
479.439	368.5
479.658	378.5
479.876	380.5
480.095	377.5
480.313	398.5
480.532	370.5
480.751	408.5
480.969	368.5
481.188	355.5
481.406	347.5
481.624	356.5
481.843	350.5
482.061	338.5
482.28	354.5
482.498	345.5
482.717	337.5
482.935	340.5
483.153	342.5
483.372	331.5
483.59	352.5
483.808	347.5
484.027	353.5
484.245	345.5
484.463	338.5
484.681	356.5
484.9	342.5
485.118	353.5
485.336	354.5
485.554	370.5
485.772	346.5
485.99	356.5
486.209	353.5
486.427	327.5
486.645	366.5
486.863	354.5
487.081	369.5
487.299	372.5
487.517	371.5
487.735	369.5
487.953	368.5
488.171	369.5
488.389	359.5
488.607	347.5
488.825	355.5
489.043	356.5
489.261	353.5
489.479	363.5
489.696	364.5
489.914	362.5
490.132	368.5
490.35	365.5
490.568	352.5
490.786	364.5
491.003	378.5
491.221	379.5
491.439	351.5
491.657	378.5
491.874	370.5
492.092	384.5
492.31	378.5
492.527	372.5
492.745	365.5
492.963	380.5
493.18	386.5
493.398	368.5
493.615	381.5
493.833	386.5
494.05	377.5
494.268	384.5
494.485	365.5
494.703	370.5
494.92	371.5
495.138	358.5
495.355	396.5
495.573	384.5
495.79	370.5
496.008	390.5
496.225	373.5
496.442	370.5
496.66	381.5
496.877	406.5
497.094	397.5
497.312	412.5
497.529	420.5
497.746	426.5
497.963	427.5
498.181	429.5
498.398	466.5
498.615	482.5
498.832	514.5
499.049	530.5
499.267	593.5
499.484	628.5
499.701	679.5
499.918	716.5
500.135	822.5
500.352	928.5
500.569	948.5
500.786	920.5
501.003	866.5
501.22	795.5
501.437	727.5
501.654	661.5
501.871	588.5
502.088	574.5
502.305	532.5
502.522	521.5
502.739	489.5
502.956	462.5
503.172	453.5
503.389	428.5
503.606	422.5
503.823	408.5
504.04	416.5
504.256	422.5
504.473	418.5
504.69	438.5
504.907	435.5
505.123	401.5
505.34	388.5
505.557	374.5
505.773	368.5
505.99	369.5
506.207	361.5
506.423	357.5
506.64	374.5
506.856	355.5
507.073	339.5
507.289	340.5
507.506	340.5
507.722	324.5
507.939	328.5
508.155	329.5
508.372	317.5
508.588	298.5
508.805	333.5
509.021	313.5
509.238	326.5
509.454	320.5
509.67	327.5
509.887	337.5
510.103	301.5
510.319	304.5
510.536	311.5
510.752	306.5
510.968	339.5
511.184	299.5
511.401	310.5
511.617	286.5
511.833	304.5
512.049	315.5
512.265	292.5
512.481	305.5
512.698	308.5
512.914	308.5
513.13	299.5
513.346	324.5
513.562	328.5
513.778	319.5
513.994	325.5
514.21	324.5
514.426	322.5
514.642	304.5
514.858	334.5
515.074	331.5
515.29	308.5
515.506	317.5
515.721	313.5
515.937	333.5
516.153	326.5
516.369	331.5
516.585	355.5
516.801	372.5
517.016	361.5
517.232	378.5
517.448	400.5
517.664	419.5
517.879	406.5
518.095	417.5
518.311	408.5
518.527	373.5
518.742	383.5
518.958	352.5
519.173	359.5
519.389	351.5
519.605	345.5
519.82	322.5
520.036	330.5
