Data from Fe(NO3)3@0.0125M.TitratingCurve.Agarose3%dH2O.NegLispCup.LampEnergy10.LIBS07252019_HRD10591_17-01-21-339.txt Node
Date: Thu Jul 25 17:01:21 EDT 2019
User: cochatt
Spectrometer: HR+D1059
Trigger mode: 1
Integration Time (sec): 1.000000E-1
Scans to average: 1
Electric dark correction enabled: true
Nonlinearity correction enabled: false
Boxcar width: 0
XAxis mode: Wavelengths
Number of Pixels in Spectrum: 2048
>>>>>Begin Spectral Data<<<<<
223.165	-14.94
223.4	-14.94
223.635	-14.94
223.869	-12.94
224.104	-21.94
224.338	-4.94
224.573	-37.94
224.808	-11.94
225.042	-6.94
225.277	-7.94
225.511	-3.94
225.746	-1.94
225.98	9.06
226.215	15.06
226.449	21.06
226.683	9.06
226.918	43.06
227.152	28.06
227.387	38.06
227.621	33.06
227.856	36.06
228.09	49.06
228.324	57.06
228.559	61.06
228.793	73.06
229.027	67.06
229.262	71.06
229.496	78.06
229.73	87.06
229.964	85.06
230.199	88.06
230.433	83.06
230.667	94.06
230.901	95.06
231.136	93.06
231.37	106.06
231.604	111.06
231.838	105.06
232.072	89.06
232.306	111.06
232.541	94.06
232.775	99.06
233.009	102.06
233.243	99.06
233.477	94.06
233.711	100.06
233.945	108.06
234.179	100.06
234.413	111.06
234.647	107.06
234.881	112.06
235.115	103.06
235.349	114.06
235.583	103.06
235.817	110.06
236.051	99.06
236.285	109.06
236.519	107.06
236.753	99.06
236.987	100.06
237.221	101.06
237.455	115.06
237.689	101.06
237.922	89.06
238.156	101.06
238.39	108.06
238.624	91.06
238.858	104.06
239.091	111.06
239.325	109.06
239.559	122.06
239.793	99.06
240.027	101.06
240.26	97.06
240.494	104.06
240.728	119.06
240.961	113.06
241.195	119.06
241.429	107.06
241.662	104.06
241.896	94.06
242.13	116.06
242.363	110.06
242.597	117.06
242.83	117.06
243.064	105.06
243.298	116.06
243.531	110.06
243.765	108.06
243.998	120.06
244.232	124.06
244.465	122.06
244.699	124.06
244.932	120.06
245.166	124.06
245.399	117.06
245.633	114.06
245.866	115.06
246.099	111.06
246.333	111.06
246.566	113.06
246.8	139.06
247.033	122.06
247.266	132.06
247.5	123.06
247.733	115.06
247.966	123.06
248.2	130.06
248.433	120.06
248.666	136.06
248.899	123.06
249.133	131.06
249.366	136.06
249.599	142.06
249.832	121.06
250.066	137.06
250.299	126.06
250.532	129.06
250.765	118.06
250.998	122.06
251.231	123.06
251.465	146.06
251.698	131.06
251.931	133.06
252.164	134.06
252.397	140.06
252.63	127.06
252.863	139.06
253.096	124.06
253.329	137.06
253.562	139.06
253.795	147.06
254.028	144.06
254.261	143.06
254.494	126.06
254.727	125.06
254.96	143.06
255.193	134.06
255.426	137.06
255.659	146.06
255.892	147.06
256.124	138.06
256.357	147.06
256.59	131.06
256.823	143.06
257.056	144.06
257.289	161.06
257.521	144.06
257.754	146.06
257.987	131.06
258.22	145.06
258.452	142.06
258.685	143.06
258.918	144.06
259.151	139.06
259.383	145.06
259.616	138.06
259.849	138.06
260.081	143.06
260.314	162.06
260.547	152.06
260.779	149.06
261.012	154.06
261.244	162.06
261.477	157.06
261.71	149.06
261.942	150.06
262.175	161.06
262.407	156.06
262.64	154.06
262.872	157.06
263.105	169.06
263.337	164.06
263.57	177.06
263.802	154.06
264.035	156.06
264.267	168.06
264.499	151.06
264.732	165.06
264.964	165.06
265.197	177.06
265.429	145.06
265.661	169.06
265.894	156.06
266.126	155.06
266.358	159.06
266.591	170.06
266.823	170.06
267.055	164.06
267.287	155.06
267.52	159.06
267.752	166.06
267.984	165.06
268.216	163.06
268.448	168.06
268.681	143.06
268.913	157.06
269.145	168.06
269.377	164.06
269.609	169.06
269.841	170.06
270.073	174.06
270.306	167.06
270.538	159.06
270.77	170.06
271.002	178.06
271.234	188.06
271.466	177.06
271.698	173.06
271.93	184.06
272.162	194.06
272.394	194.06
272.626	173.06
272.858	184.06
273.09	183.06
273.322	184.06
273.553	189.06
273.785	189.06
274.017	194.06
274.249	193.06
274.481	189.06
274.713	196.06
274.945	202.06
275.176	185.06
275.408	201.06
275.64	203.06
275.872	195.06
276.104	192.06
276.335	181.06
276.567	177.06
276.799	189.06
277.031	185.06
277.262	187.06
277.494	185.06
277.726	207.06
277.957	191.06
278.189	203.06
278.421	181.06
278.652	192.06
278.884	205.06
279.115	182.06
279.347	196.06
279.579	184.06
279.81	203.06
280.042	189.06
280.273	207.06
280.505	203.06
280.736	194.06
280.968	205.06
281.199	199.06
281.431	194.06
281.662	204.06
281.894	202.06
282.125	193.06
282.356	206.06
282.588	206.06
282.819	212.06
283.051	207.06
283.282	197.06
283.513	197.06
283.745	222.06
283.976	209.06
284.207	212.06
284.439	203.06
284.67	220.06
284.901	215.06
285.132	213.06
285.364	213.06
285.595	214.06
285.826	215.06
286.057	220.06
286.288	207.06
286.52	206.06
286.751	222.06
286.982	225.06
287.213	218.06
287.444	230.06
287.675	206.06
287.906	215.06
288.138	222.06
288.369	230.06
288.6	221.06
288.831	220.06
289.062	235.06
289.293	234.06
289.524	226.06
289.755	214.06
289.986	220.06
290.217	221.06
290.448	236.06
290.679	221.06
290.91	226.06
291.141	235.06
291.371	204.06
291.602	228.06
291.833	210.06
292.064	229.06
292.295	233.06
292.526	227.06
292.757	221.06
292.987	228.06
293.218	222.06
293.449	236.06
293.68	210.06
293.91	205.06
294.141	224.06
294.372	226.06
294.603	226.06
294.833	222.06
295.064	223.06
295.295	230.06
295.525	217.06
295.756	222.06
295.987	215.06
296.217	231.06
296.448	245.06
296.679	222.06
296.909	244.06
297.14	232.06
297.37	222.06
297.601	246.06
297.831	242.06
298.062	239.06
298.292	220.06
298.523	230.06
298.753	261.06
298.984	236.06
299.214	261.06
299.445	246.06
299.675	231.06
299.905	234.06
300.136	244.06
300.366	250.06
300.597	247.06
300.827	239.06
301.057	254.06
301.288	264.06
301.518	237.06
301.748	253.06
301.979	255.06
302.209	264.06
302.439	251.06
302.669	265.06
302.9	276.06
303.13	229.06
303.36	251.06
303.59	250.06
303.82	255.06
304.051	252.06
304.281	263.06
304.511	264.06
304.741	267.06
304.971	243.06
305.201	269.06
305.431	271.06
305.661	258.06
305.891	264.06
306.121	271.06
306.352	254.06
306.582	252.06
306.812	223.06
307.042	275.06
307.272	269.06
307.502	257.06
307.731	270.06
307.961	265.06
308.191	255.06
308.421	263.06
308.651	262.06
308.881	263.06
309.111	271.06
309.341	251.06
309.571	257.06
309.8	253.06
310.03	284.06
310.26	278.06
310.49	266.06
310.72	251.06
310.949	251.06
311.179	267.06
311.409	274.06
311.639	285.06
311.868	267.06
312.098	257.06
312.328	273.06
312.557	274.06
312.787	267.06
313.017	282.06
313.246	285.06
313.476	269.06
313.706	269.06
313.935	292.06
314.165	288.06
314.394	270.06
314.624	274.06
314.853	286.06
315.083	286.06
315.312	289.06
315.542	275.06
315.771	283.06
316.001	271.06
316.23	284.06
316.46	302.06
316.689	290.06
316.919	298.06
317.148	266.06
317.377	278.06
317.607	303.06
317.836	301.06
318.065	284.06
318.295	270.06
318.524	272.06
318.753	283.06
318.983	292.06
319.212	267.06
319.441	279.06
319.67	261.06
319.9	265.06
320.129	277.06
320.358	306.06
320.587	299.06
320.816	273.06
321.046	274.06
321.275	281.06
321.504	300.06
321.733	293.06
321.962	277.06
322.191	309.06
322.42	285.06
322.649	308.06
322.878	297.06
323.108	293.06
323.337	286.06
323.566	301.06
323.795	289.06
324.024	296.06
324.253	302.06
324.482	295.06
324.71	288.06
324.939	314.06
325.168	300.06
325.397	293.06
325.626	309.06
325.855	324.06
326.084	315.06
326.313	324.06
326.542	305.06
326.77	314.06
326.999	304.06
327.228	298.06
327.457	281.06
327.686	297.06
327.914	283.06
328.143	286.06
328.372	316.06
328.6	285.06
328.829	310.06
329.058	312.06
329.287	317.06
329.515	299.06
329.744	329.06
329.972	300.06
330.201	312.06
330.43	311.06
330.658	323.06
330.887	313.06
331.115	347.06
331.344	330.06
331.572	319.06
331.801	316.06
332.03	339.06
332.258	338.06
332.486	348.06
332.715	319.06
332.943	334.06
333.172	365.06
333.4	355.06
333.629	368.06
333.857	374.06
334.085	378.06
334.314	368.06
334.542	352.06
334.771	363.06
334.999	348.06
335.227	362.06
335.455	356.06
335.684	348.06
335.912	385.06
336.14	356.06
336.369	352.06
336.597	360.06
336.825	339.06
337.053	362.06
337.281	359.06
337.51	345.06
337.738	334.06
337.966	344.06
338.194	334.06
338.422	352.06
338.65	332.06
338.878	344.06
339.106	339.06
339.334	329.06
339.562	338.06
339.79	323.06
340.018	326.06
340.246	326.06
340.474	324.06
340.702	340.06
340.93	322.06
341.158	346.06
341.386	318.06
341.614	340.06
341.842	318.06
342.07	305.06
342.298	335.06
342.526	337.06
342.754	326.06
342.981	328.06
343.209	321.06
343.437	340.06
343.665	356.06
343.893	368.06
344.12	369.06
344.348	356.06
344.576	356.06
344.804	371.06
345.031	341.06
345.259	341.06
345.487	302.06
345.714	349.06
345.942	316.06
346.17	338.06
346.397	343.06
346.625	337.06
346.853	326.06
347.08	321.06
347.308	321.06
347.535	339.06
347.763	342.06
347.99	339.06
348.218	325.06
348.445	326.06
348.673	318.06
348.9	331.06
349.128	330.06
349.355	305.06
349.583	309.06
349.81	319.06
350.037	311.06
350.265	312.06
350.492	315.06
350.72	335.06
350.947	311.06
351.174	328.06
351.402	309.06
351.629	319.06
351.856	321.06
352.083	317.06
352.311	318.06
352.538	308.06
352.765	322.06
352.992	325.06
353.22	309.06
353.447	310.06
353.674	299.06
353.901	335.06
354.128	314.06
354.355	306.06
354.583	322.06
354.81	306.06
355.037	316.06
355.264	310.06
355.491	324.06
355.718	305.06
355.945	314.06
356.172	335.06
356.399	299.06
356.626	314.06
356.853	312.06
357.08	316.06
357.307	322.06
357.534	305.06
357.761	300.06
357.988	312.06
358.215	323.06
358.441	330.06
358.668	313.06
358.895	313.06
359.122	330.06
359.349	311.06
359.576	323.06
359.802	310.06
360.029	330.06
360.256	314.06
360.483	319.06
360.709	324.06
360.936	311.06
361.163	329.06
361.39	334.06
361.616	337.06
361.843	327.06
362.07	319.06
362.296	336.06
362.523	326.06
362.749	327.06
362.976	317.06
363.203	324.06
363.429	324.06
363.656	332.06
363.882	310.06
364.109	314.06
364.335	314.06
364.562	312.06
364.788	309.06
365.015	314.06
365.241	335.06
365.468	330.06
365.694	329.06
365.92	313.06
366.147	334.06
366.373	318.06
366.599	318.06
366.826	347.06
367.052	328.06
367.278	333.06
367.505	318.06
367.731	319.06
367.957	332.06
368.184	325.06
368.41	330.06
368.636	339.06
368.862	331.06
369.089	333.06
369.315	341.06
369.541	345.06
369.767	341.06
369.993	342.06
370.219	316.06
370.445	339.06
370.672	334.06
370.898	354.06
371.124	334.06
371.35	321.06
371.576	330.06
371.802	360.06
372.028	364.06
372.254	341.06
372.48	364.06
372.706	339.06
372.932	364.06
373.158	346.06
373.384	345.06
373.61	351.06
373.835	357.06
374.061	348.06
374.287	361.06
374.513	364.06
374.739	360.06
374.965	378.06
375.191	363.06
375.416	366.06
375.642	364.06
375.868	365.06
376.094	360.06
376.319	371.06
376.545	349.06
376.771	357.06
376.997	343.06
377.222	331.06
377.448	357.06
377.674	349.06
377.899	334.06
378.125	331.06
378.35	349.06
378.576	344.06
378.802	345.06
379.027	352.06
379.253	307.06
379.478	341.06
379.704	341.06
379.929	342.06
380.155	329.06
380.38	364.06
380.606	353.06
380.831	332.06
381.057	363.06
381.282	345.06
381.507	346.06
381.733	355.06
381.958	371.06
382.184	354.06
382.409	367.06
382.634	357.06
382.86	379.06
383.085	374.06
383.31	363.06
383.535	369.06
383.761	377.06
383.986	375.06
384.211	387.06
384.436	375.06
384.662	370.06
384.887	382.06
385.112	396.06
385.337	405.06
385.562	388.06
385.787	381.06
386.013	388.06
386.238	403.06
386.463	380.06
386.688	422.06
386.913	387.06
387.138	378.06
387.363	391.06
387.588	406.06
387.813	399.06
388.038	409.06
388.263	388.06
388.488	397.06
388.713	388.06
388.938	388.06
389.163	402.06
389.387	385.06
389.612	389.06
389.837	395.06
390.062	395.06
390.287	410.06
390.512	408.06
390.736	410.06
390.961	382.06
391.186	408.06
391.411	395.06
391.636	442.06
391.86	417.06
392.085	420.06
392.31	420.06
392.534	448.06
392.759	433.06
392.984	439.06
393.208	430.06
393.433	429.06
393.658	414.06
393.882	420.06
394.107	425.06
394.331	419.06
394.556	422.06
394.78	427.06
395.005	434.06
395.229	430.06
395.454	432.06
395.678	429.06
395.903	448.06
396.127	447.06
396.352	435.06
396.576	445.06
396.801	422.06
397.025	436.06
397.249	439.06
397.474	437.06
397.698	449.06
397.922	446.06
398.147	460.06
398.371	472.06
398.595	476.06
398.82	483.06
399.044	486.06
399.268	511.06
399.492	559.06
399.717	577.06
399.941	586.06
400.165	555.06
400.389	516.06
400.613	538.06
400.837	501.06
401.062	494.06
401.286	476.06
401.51	485.06
401.734	473.06
401.958	488.06
402.182	498.06
402.406	482.06
402.63	476.06
402.854	485.06
403.078	490.06
403.302	515.06
403.526	504.06
403.75	493.06
403.974	498.06
404.198	503.06
404.422	488.06
404.645	490.06
404.869	485.06
405.093	497.06
405.317	469.06
405.541	477.06
405.765	506.06
405.988	502.06
406.212	532.06
406.436	507.06
406.66	526.06
406.883	521.06
407.107	549.06
407.331	547.06
407.555	558.06
407.778	546.06
408.002	541.06
408.226	547.06
408.449	552.06
408.673	526.06
408.896	487.06
409.12	511.06
409.344	547.06
409.567	499.06
409.791	510.06
410.014	521.06
410.238	500.06
410.461	499.06
410.685	491.06
410.908	509.06
411.132	486.06
411.355	479.06
411.578	475.06
411.802	479.06
412.025	486.06
412.249	487.06
412.472	476.06
412.695	510.06
412.919	490.06
413.142	483.06
413.365	474.06
413.589	473.06
413.812	477.06
414.035	487.06
414.258	470.06
414.482	476.06
414.705	467.06
414.928	475.06
415.151	478.06
415.374	474.06
415.597	454.06
415.821	474.06
416.044	472.06
416.267	463.06
416.49	463.06
416.713	430.06
416.936	456.06
417.159	462.06
417.382	466.06
417.605	459.06
417.828	462.06
418.051	485.06
418.274	463.06
418.497	477.06
418.72	475.06
418.943	474.06
419.166	474.06
419.389	489.06
419.611	501.06
419.834	479.06
420.057	485.06
420.28	463.06
420.503	444.06
420.726	460.06
420.948	438.06
421.171	455.06
421.394	453.06
421.617	469.06
421.839	460.06
422.062	438.06
422.285	448.06
422.507	461.06
422.73	459.06
422.953	451.06
423.175	460.06
423.398	463.06
423.621	466.06
423.843	459.06
424.066	467.06
424.288	487.06
424.511	446.06
424.733	462.06
424.956	440.06
425.178	445.06
425.401	455.06
425.623	455.06
425.846	444.06
426.068	437.06
426.291	442.06
426.513	426.06
426.735	450.06
426.958	441.06
427.18	435.06
427.402	439.06
427.625	413.06
427.847	435.06
428.069	430.06
428.292	441.06
428.514	425.06
428.736	441.06
428.958	413.06
429.181	407.06
429.403	428.06
429.625	423.06
429.847	439.06
430.069	409.06
430.292	445.06
430.514	430.06
430.736	427.06
430.958	430.06
431.18	441.06
431.402	423.06
431.624	433.06
431.846	410.06
432.068	433.06
432.29	443.06
432.512	441.06
432.734	441.06
432.956	438.06
433.178	445.06
433.4	430.06
433.622	429.06
433.844	422.06
434.066	429.06
434.287	422.06
434.509	443.06
434.731	459.06
434.953	451.06
435.175	445.06
435.397	437.06
435.618	458.06
435.84	437.06
436.062	431.06
436.284	421.06
436.505	443.06
436.727	449.06
436.949	426.06
437.17	445.06
437.392	409.06
437.614	429.06
437.835	415.06
438.057	385.06
438.278	405.06
438.5	413.06
438.721	427.06
438.943	421.06
439.165	422.06
439.386	408.06
439.608	427.06
439.829	415.06
440.05	413.06
440.272	414.06
440.493	434.06
440.715	421.06
440.936	435.06
441.158	413.06
441.379	446.06
441.6	453.06
441.822	460.06
442.043	460.06
442.264	472.06
442.486	436.06
442.707	459.06
442.928	457.06
443.149	446.06
443.371	453.06
443.592	449.06
443.813	452.06
444.034	464.06
444.255	455.06
444.476	459.06
444.698	495.06
444.919	460.06
445.14	556.06
445.361	495.06
445.582	468.06
445.803	447.06
446.024	449.06
446.245	411.06
446.466	425.06
446.687	416.06
446.908	426.06
447.129	428.06
447.35	416.06
447.571	405.06
447.792	394.06
448.013	415.06
448.234	399.06
448.455	411.06
448.675	392.06
448.896	389.06
449.117	398.06
449.338	399.06
449.559	387.06
449.779	390.06
450	389.06
450.221	381.06
450.442	405.06
450.662	380.06
450.883	420.06
451.104	397.06
451.324	391.06
451.545	391.06
451.766	391.06
451.986	399.06
452.207	371.06
452.428	390.06
452.648	395.06
452.869	398.06
453.089	384.06
453.31	378.06
453.53	391.06
453.751	383.06
453.971	381.06
454.192	378.06
454.412	371.06
454.633	371.06
454.853	384.06
455.073	376.06
455.294	397.06
455.514	381.06
455.734	372.06
455.955	343.06
456.175	363.06
456.395	381.06
456.616	385.06
456.836	360.06
457.056	373.06
457.276	364.06
457.497	379.06
457.717	382.06
457.937	412.06
458.157	398.06
458.377	410.06
458.598	399.06
458.818	394.06
459.038	435.06
459.258	411.06
459.478	446.06
459.698	427.06
459.918	443.06
460.138	426.06
460.358	468.06
460.578	469.06
460.798	477.06
461.018	474.06
461.238	481.06
461.458	475.06
461.678	456.06
461.898	481.06
462.118	463.06
462.338	500.06
462.558	516.06
462.777	493.06
462.997	541.06
463.217	546.06
463.437	553.06
463.657	499.06
463.876	547.06
464.096	527.06
464.316	514.06
464.536	509.06
464.755	504.06
464.975	500.06
465.195	492.06
465.414	449.06
465.634	445.06
465.854	449.06
466.073	429.06
466.293	425.06
466.512	430.06
466.732	423.06
466.951	417.06
467.171	427.06
467.391	421.06
467.61	412.06
467.829	405.06
468.049	413.06
468.268	405.06
468.488	378.06
468.707	381.06
468.927	424.06
469.146	426.06
469.365	415.06
469.585	400.06
469.804	421.06
470.023	427.06
470.243	408.06
470.462	422.06
470.681	422.06
470.901	433.06
471.12	420.06
471.339	415.06
471.558	417.06
471.777	409.06
471.997	419.06
472.216	413.06
472.435	423.06
472.654	403.06
472.873	433.06
473.092	409.06
473.311	415.06
473.53	414.06
473.749	397.06
473.968	432.06
474.187	405.06
474.406	421.06
474.625	397.06
474.844	391.06
475.063	428.06
475.282	407.06
475.501	419.06
475.72	395.06
475.939	416.06
476.158	434.06
476.377	435.06
476.596	433.06
476.814	430.06
477.033	433.06
477.252	439.06
477.471	424.06
477.69	466.06
477.908	478.06
478.127	467.06
478.346	467.06
478.564	481.06
478.783	476.06
479.002	472.06
479.22	489.06
479.439	482.06
479.658	458.06
479.876	478.06
480.095	490.06
480.313	483.06
480.532	496.06
480.751	498.06
480.969	492.06
481.188	477.06
481.406	477.06
481.624	477.06
481.843	483.06
482.061	487.06
482.28	484.06
482.498	480.06
482.717	457.06
482.935	475.06
483.153	487.06
483.372	473.06
483.59	446.06
483.808	485.06
484.027	510.06
484.245	475.06
484.463	523.06
484.681	497.06
484.9	481.06
485.118	504.06
485.336	481.06
485.554	481.06
485.772	500.06
485.99	491.06
486.209	507.06
486.427	507.06
486.645	473.06
486.863	492.06
487.081	487.06
487.299	475.06
487.517	486.06
487.735	506.06
487.953	513.06
488.171	502.06
488.389	509.06
488.607	487.06
488.825	505.06
489.043	498.06
489.261	485.06
489.479	486.06
489.696	460.06
489.914	478.06
490.132	486.06
490.35	485.06
490.568	506.06
490.786	529.06
491.003	480.06
491.221	492.06
491.439	500.06
491.657	498.06
491.874	512.06
492.092	534.06
492.31	515.06
492.527	504.06
492.745	507.06
492.963	511.06
493.18	503.06
493.398	498.06
493.615	519.06
493.833	508.06
494.05	513.06
494.268	546.06
494.485	515.06
494.703	505.06
494.92	519.06
495.138	495.06
495.355	523.06
495.573	511.06
495.79	537.06
496.008	519.06
496.225	513.06
496.442	542.06
496.66	547.06
496.877	546.06
497.094	545.06
497.312	561.06
497.529	574.06
497.746	595.06
497.963	615.06
498.181	641.06
498.398	628.06
498.615	627.06
498.832	680.06
499.049	698.06
499.267	722.06
499.484	774.06
499.701	802.06
499.918	862.06
500.135	940.06
500.352	986.06
500.569	985.06
500.786	994.06
501.003	974.06
501.22	895.06
501.437	837.06
501.654	802.06
501.871	760.06
