Data from Fe(NO3)3@0.025M.TitratingCurve.Agarose3%dH2O.NegLispCup.LampEnergy10.LIBS07252019_HRD10591_16-55-05-335.txt Node
Date: Thu Jul 25 16:55:05 EDT 2019
User: cochatt
Spectrometer: HR+D1059
Trigger mode: 1
Integration Time (sec): 1.000000E-1
Scans to average: 1
Electric dark correction enabled: true
Nonlinearity correction enabled: false
Boxcar width: 0
XAxis mode: Wavelengths
Number of Pixels in Spectrum: 2048
>>>>>Begin Spectral Data<<<<<
223.165	-11.5
223.4	-11.5
223.635	-11.5
223.869	-18.5
224.104	-10.5
224.338	-1.5
224.573	0.5
224.808	-13.5
225.042	-16.5
225.277	-13.5
225.511	-2.5
225.746	1.5
225.98	-0.5
226.215	11.5
226.449	-3.5
226.683	27.5
226.918	24.5
227.152	26.5
227.387	36.5
227.621	38.5
227.856	47.5
228.09	50.5
228.324	42.5
228.559	49.5
228.793	61.5
229.027	63.5
229.262	60.5
229.496	67.5
229.73	71.5
229.964	80.5
230.199	62.5
230.433	74.5
230.667	87.5
230.901	89.5
231.136	72.5
231.37	93.5
231.604	80.5
231.838	93.5
232.072	88.5
232.306	99.5
232.541	103.5
232.775	95.5
233.009	89.5
233.243	87.5
233.477	88.5
233.711	94.5
233.945	90.5
234.179	81.5
234.413	97.5
234.647	88.5
234.881	84.5
235.115	96.5
235.349	68.5
235.583	77.5
235.817	89.5
236.051	90.5
236.285	94.5
236.519	86.5
236.753	88.5
236.987	96.5
237.221	101.5
237.455	75.5
237.689	88.5
237.922	95.5
238.156	71.5
238.39	84.5
238.624	83.5
238.858	77.5
239.091	85.5
239.325	89.5
239.559	92.5
239.793	86.5
240.027	94.5
240.26	90.5
240.494	82.5
240.728	73.5
240.961	82.5
241.195	87.5
241.429	96.5
241.662	71.5
241.896	86.5
242.13	90.5
242.363	93.5
242.597	92.5
242.83	86.5
243.064	81.5
243.298	91.5
243.531	78.5
243.765	93.5
243.998	85.5
244.232	103.5
244.465	90.5
244.699	99.5
244.932	96.5
245.166	89.5
245.399	111.5
245.633	104.5
245.866	68.5
246.099	94.5
246.333	103.5
246.566	94.5
246.8	86.5
247.033	105.5
247.266	105.5
247.5	93.5
247.733	83.5
247.966	112.5
248.2	107.5
248.433	109.5
248.666	103.5
248.899	101.5
249.133	102.5
249.366	90.5
249.599	105.5
249.832	95.5
250.066	89.5
250.299	92.5
250.532	88.5
250.765	105.5
250.998	107.5
251.231	98.5
251.465	88.5
251.698	101.5
251.931	96.5
252.164	100.5
252.397	108.5
252.63	105.5
252.863	102.5
253.096	104.5
253.329	96.5
253.562	115.5
253.795	95.5
254.028	114.5
254.261	103.5
254.494	92.5
254.727	112.5
254.96	109.5
255.193	113.5
255.426	108.5
255.659	104.5
255.892	112.5
256.124	95.5
256.357	99.5
256.59	98.5
256.823	111.5
257.056	94.5
257.289	97.5
257.521	118.5
257.754	102.5
257.987	101.5
258.22	116.5
258.452	120.5
258.685	123.5
258.918	99.5
259.151	117.5
259.383	128.5
259.616	120.5
259.849	109.5
260.081	105.5
260.314	108.5
260.547	100.5
260.779	118.5
261.012	120.5
261.244	118.5
261.477	127.5
261.71	108.5
261.942	119.5
262.175	127.5
262.407	126.5
262.64	118.5
262.872	115.5
263.105	119.5
263.337	129.5
263.57	119.5
263.802	110.5
264.035	110.5
264.267	122.5
264.499	108.5
264.732	131.5
264.964	112.5
265.197	135.5
265.429	116.5
265.661	109.5
265.894	131.5
266.126	120.5
266.358	113.5
266.591	126.5
266.823	132.5
267.055	117.5
267.287	136.5
267.52	113.5
267.752	142.5
267.984	128.5
268.216	117.5
268.448	122.5
268.681	121.5
268.913	124.5
269.145	124.5
269.377	118.5
269.609	121.5
269.841	128.5
270.073	122.5
270.306	144.5
270.538	138.5
270.77	125.5
271.002	130.5
271.234	128.5
271.466	132.5
271.698	118.5
271.93	115.5
272.162	130.5
272.394	121.5
272.626	129.5
272.858	130.5
273.09	133.5
273.322	129.5
273.553	134.5
273.785	127.5
274.017	143.5
274.249	129.5
274.481	132.5
274.713	128.5
274.945	128.5
275.176	124.5
275.408	140.5
275.64	140.5
275.872	141.5
276.104	128.5
276.335	136.5
276.567	144.5
276.799	134.5
277.031	140.5
277.262	140.5
277.494	132.5
277.726	134.5
277.957	138.5
278.189	123.5
278.421	128.5
278.652	139.5
278.884	144.5
279.115	144.5
279.347	144.5
279.579	124.5
279.81	144.5
280.042	154.5
280.273	147.5
280.505	142.5
280.736	133.5
280.968	129.5
281.199	141.5
281.431	156.5
281.662	160.5
281.894	146.5
282.125	149.5
282.356	138.5
282.588	146.5
282.819	126.5
283.051	139.5
283.282	153.5
283.513	153.5
283.745	146.5
283.976	135.5
284.207	159.5
284.439	132.5
284.67	141.5
284.901	153.5
285.132	152.5
285.364	137.5
285.595	150.5
285.826	138.5
286.057	158.5
286.288	160.5
286.52	150.5
286.751	157.5
286.982	147.5
287.213	163.5
287.444	144.5
287.675	148.5
287.906	160.5
288.138	148.5
288.369	144.5
288.6	159.5
288.831	167.5
289.062	170.5
289.293	156.5
289.524	155.5
289.755	169.5
289.986	150.5
290.217	178.5
290.448	156.5
290.679	142.5
290.91	160.5
291.141	172.5
291.371	157.5
291.602	148.5
291.833	170.5
292.064	144.5
292.295	157.5
292.526	169.5
292.757	151.5
292.987	160.5
293.218	163.5
293.449	156.5
293.68	167.5
293.91	162.5
294.141	169.5
294.372	162.5
294.603	170.5
294.833	160.5
295.064	160.5
295.295	163.5
295.525	172.5
295.756	166.5
295.987	157.5
296.217	168.5
296.448	161.5
296.679	160.5
296.909	168.5
297.14	159.5
297.37	179.5
297.601	174.5
297.831	187.5
298.062	167.5
298.292	168.5
298.523	182.5
298.753	139.5
298.984	166.5
299.214	172.5
299.445	170.5
299.675	188.5
299.905	188.5
300.136	173.5
300.366	172.5
300.597	169.5
300.827	189.5
301.057	178.5
301.288	180.5
301.518	184.5
301.748	174.5
301.979	190.5
302.209	174.5
302.439	189.5
302.669	169.5
302.9	185.5
303.13	178.5
303.36	184.5
303.59	175.5
303.82	174.5
304.051	185.5
304.281	180.5
304.511	192.5
304.741	174.5
304.971	180.5
305.201	185.5
305.431	166.5
305.661	184.5
305.891	178.5
306.121	161.5
306.352	163.5
306.582	181.5
306.812	176.5
307.042	176.5
307.272	186.5
307.502	189.5
307.731	169.5
307.961	172.5
308.191	188.5
308.421	183.5
308.651	197.5
308.881	195.5
309.111	180.5
309.341	176.5
309.571	186.5
309.8	203.5
310.03	170.5
310.26	179.5
310.49	182.5
310.72	179.5
310.949	185.5
311.179	178.5
311.409	194.5
311.639	198.5
311.868	197.5
312.098	192.5
312.328	181.5
312.557	200.5
312.787	191.5
313.017	201.5
313.246	188.5
313.476	193.5
313.706	192.5
313.935	189.5
314.165	186.5
314.394	189.5
314.624	205.5
314.853	201.5
315.083	207.5
315.312	199.5
315.542	200.5
315.771	198.5
316.001	205.5
316.23	192.5
316.46	176.5
316.689	203.5
316.919	190.5
317.148	207.5
317.377	184.5
317.607	177.5
317.836	195.5
318.065	212.5
318.295	193.5
318.524	208.5
318.753	199.5
318.983	191.5
319.212	198.5
319.441	200.5
319.67	194.5
319.9	216.5
320.129	205.5
320.358	197.5
320.587	208.5
320.816	208.5
321.046	205.5
321.275	211.5
321.504	209.5
321.733	194.5
321.962	194.5
322.191	209.5
322.42	200.5
322.649	205.5
322.878	192.5
323.108	204.5
323.337	218.5
323.566	211.5
323.795	214.5
324.024	218.5
324.253	213.5
324.482	208.5
324.71	220.5
324.939	202.5
325.168	223.5
325.397	218.5
325.626	201.5
325.855	223.5
326.084	224.5
326.313	228.5
326.542	207.5
326.77	232.5
326.999	229.5
327.228	206.5
327.457	229.5
327.686	223.5
327.914	222.5
328.143	205.5
328.372	214.5
328.6	214.5
328.829	216.5
329.058	217.5
329.287	231.5
329.515	219.5
329.744	215.5
329.972	220.5
330.201	229.5
330.43	207.5
330.658	231.5
330.887	239.5
331.115	234.5
331.344	231.5
331.572	220.5
331.801	221.5
332.03	217.5
332.258	218.5
332.486	247.5
332.715	228.5
332.943	241.5
333.172	242.5
333.4	238.5
333.629	257.5
333.857	262.5
334.085	244.5
334.314	256.5
334.542	257.5
334.771	260.5
334.999	260.5
335.227	264.5
335.455	250.5
335.684	255.5
335.912	267.5
336.14	249.5
336.369	248.5
336.597	252.5
336.825	243.5
337.053	262.5
337.281	239.5
337.51	256.5
337.738	249.5
337.966	245.5
338.194	236.5
338.422	243.5
338.65	244.5
338.878	224.5
339.106	232.5
339.334	229.5
339.562	252.5
339.79	247.5
340.018	212.5
340.246	228.5
340.474	234.5
340.702	244.5
340.93	233.5
341.158	243.5
341.386	246.5
341.614	233.5
341.842	233.5
342.07	247.5
342.298	236.5
342.526	223.5
342.754	224.5
342.981	226.5
343.209	240.5
343.437	265.5
343.665	252.5
343.893	240.5
344.12	255.5
344.348	268.5
344.576	248.5
344.804	245.5
345.031	228.5
345.259	242.5
345.487	249.5
345.714	241.5
345.942	230.5
346.17	233.5
346.397	232.5
346.625	233.5
346.853	224.5
347.08	205.5
347.308	233.5
347.535	237.5
347.763	219.5
347.99	231.5
348.218	242.5
348.445	224.5
348.673	220.5
348.9	232.5
349.128	229.5
349.355	222.5
349.583	226.5
349.81	236.5
350.037	236.5
350.265	238.5
350.492	225.5
350.72	242.5
350.947	238.5
351.174	223.5
351.402	217.5
351.629	244.5
351.856	229.5
352.083	225.5
352.311	221.5
352.538	224.5
352.765	232.5
352.992	241.5
353.22	224.5
353.447	217.5
353.674	219.5
353.901	236.5
354.128	226.5
354.355	226.5
354.583	234.5
354.81	217.5
355.037	221.5
355.264	216.5
355.491	228.5
355.718	239.5
355.945	236.5
356.172	245.5
356.399	233.5
356.626	231.5
356.853	236.5
357.08	249.5
357.307	240.5
357.534	218.5
357.761	217.5
357.988	237.5
358.215	241.5
358.441	228.5
358.668	238.5
358.895	231.5
359.122	228.5
359.349	234.5
359.576	222.5
359.802	231.5
360.029	238.5
360.256	237.5
360.483	234.5
360.709	224.5
360.936	225.5
361.163	227.5
361.39	232.5
361.616	233.5
361.843	232.5
362.07	233.5
362.296	218.5
362.523	225.5
362.749	241.5
362.976	233.5
363.203	237.5
363.429	241.5
363.656	225.5
363.882	229.5
364.109	223.5
364.335	247.5
364.562	255.5
364.788	245.5
365.015	248.5
365.241	233.5
365.468	240.5
365.694	234.5
365.92	232.5
366.147	240.5
366.373	221.5
366.599	234.5
366.826	232.5
367.052	224.5
367.278	237.5
367.505	240.5
367.731	249.5
367.957	230.5
368.184	252.5
368.41	260.5
368.636	241.5
368.862	257.5
369.089	249.5
369.315	239.5
369.541	238.5
369.767	242.5
369.993	241.5
370.219	243.5
370.445	243.5
370.672	245.5
370.898	245.5
371.124	250.5
371.35	230.5
371.576	238.5
371.802	246.5
372.028	250.5
372.254	253.5
372.48	261.5
372.706	247.5
372.932	265.5
373.158	266.5
373.384	241.5
373.61	238.5
373.835	264.5
374.061	252.5
374.287	262.5
374.513	278.5
374.739	269.5
374.965	238.5
375.191	263.5
375.416	273.5
375.642	269.5
375.868	267.5
376.094	282.5
376.319	263.5
376.545	261.5
376.771	263.5
376.997	253.5
377.222	250.5
377.448	264.5
377.674	271.5
377.899	238.5
378.125	244.5
378.35	246.5
378.576	256.5
378.802	259.5
379.027	264.5
379.253	245.5
379.478	246.5
379.704	250.5
379.929	261.5
380.155	252.5
380.38	255.5
380.606	260.5
380.831	245.5
381.057	262.5
381.282	268.5
381.507	233.5
381.733	266.5
381.958	260.5
382.184	254.5
382.409	257.5
382.634	264.5
382.86	267.5
383.085	276.5
383.31	257.5
383.535	270.5
383.761	285.5
383.986	264.5
384.211	271.5
384.436	276.5
384.662	265.5
384.887	278.5
385.112	277.5
385.337	278.5
385.562	288.5
385.787	294.5
386.013	288.5
386.238	287.5
386.463	306.5
386.688	300.5
386.913	305.5
387.138	285.5
387.363	299.5
387.588	311.5
387.813	313.5
388.038	291.5
388.263	289.5
388.488	288.5
388.713	277.5
388.938	292.5
389.163	295.5
389.387	288.5
389.612	285.5
389.837	258.5
390.062	276.5
390.287	294.5
390.512	281.5
390.736	285.5
390.961	312.5
391.186	297.5
391.411	303.5
391.636	290.5
391.86	325.5
392.085	300.5
392.31	322.5
392.534	296.5
392.759	301.5
392.984	296.5
393.208	317.5
393.433	321.5
393.658	308.5
393.882	309.5
394.107	303.5
394.331	289.5
394.556	304.5
394.78	309.5
395.005	313.5
395.229	306.5
395.454	296.5
395.678	313.5
395.903	319.5
396.127	322.5
396.352	318.5
396.576	285.5
396.801	302.5
397.025	332.5
397.249	313.5
397.474	309.5
397.698	303.5
397.922	324.5
398.147	329.5
398.371	324.5
398.595	326.5
398.82	351.5
399.044	343.5
399.268	380.5
399.492	406.5
399.717	418.5
399.941	414.5
400.165	415.5
400.389	399.5
400.613	384.5
400.837	361.5
401.062	361.5
401.286	350.5
401.51	373.5
401.734	355.5
401.958	330.5
402.182	339.5
402.406	365.5
402.63	374.5
402.854	354.5
403.078	345.5
403.302	351.5
403.526	372.5
403.75	339.5
403.974	344.5
404.198	366.5
404.422	352.5
404.645	376.5
404.869	347.5
405.093	358.5
405.317	344.5
405.541	375.5
405.765	356.5
405.988	364.5
406.212	371.5
406.436	356.5
406.66	380.5
406.883	375.5
407.107	386.5
407.331	390.5
407.555	393.5
407.778	397.5
408.002	383.5
408.226	380.5
408.449	364.5
408.673	378.5
408.896	367.5
409.12	359.5
409.344	346.5
409.567	373.5
409.791	358.5
410.014	364.5
410.238	361.5
410.461	347.5
410.685	360.5
410.908	380.5
411.132	347.5
411.355	355.5
411.578	352.5
411.802	348.5
412.025	342.5
412.249	353.5
412.472	350.5
412.695	337.5
412.919	332.5
413.142	339.5
413.365	352.5
413.589	356.5
413.812	344.5
414.035	364.5
414.258	334.5
414.482	336.5
414.705	360.5
414.928	331.5
415.151	339.5
415.374	325.5
415.597	345.5
415.821	341.5
416.044	327.5
416.267	336.5
416.49	336.5
416.713	330.5
416.936	324.5
417.159	332.5
417.382	324.5
417.605	339.5
417.828	319.5
418.051	338.5
418.274	345.5
418.497	342.5
418.72	324.5
418.943	333.5
419.166	353.5
419.389	372.5
419.611	334.5
419.834	344.5
420.057	346.5
420.28	333.5
420.503	336.5
420.726	341.5
420.948	336.5
421.171	334.5
421.394	337.5
421.617	303.5
421.839	316.5
422.062	342.5
422.285	340.5
422.507	329.5
422.73	332.5
422.953	334.5
423.175	346.5
423.398	342.5
423.621	342.5
423.843	340.5
424.066	317.5
424.288	308.5
424.511	330.5
424.733	328.5
424.956	320.5
425.178	325.5
425.401	343.5
425.623	311.5
425.846	323.5
426.068	342.5
426.291	337.5
426.513	312.5
426.735	320.5
426.958	309.5
427.18	340.5
427.402	325.5
427.625	303.5
427.847	305.5
428.069	305.5
428.292	302.5
428.514	302.5
428.736	312.5
428.958	310.5
429.181	318.5
429.403	309.5
429.625	297.5
429.847	293.5
430.069	297.5
430.292	317.5
430.514	308.5
430.736	324.5
430.958	311.5
431.18	303.5
431.402	308.5
431.624	304.5
431.846	303.5
432.068	310.5
432.29	323.5
432.512	326.5
432.734	313.5
432.956	286.5
433.178	312.5
433.4	317.5
433.622	306.5
433.844	332.5
434.066	328.5
434.287	319.5
434.509	337.5
434.731	325.5
434.953	315.5
435.175	331.5
435.397	340.5
435.618	328.5
435.84	312.5
436.062	321.5
436.284	308.5
436.505	330.5
436.727	310.5
436.949	321.5
437.17	305.5
437.392	309.5
437.614	295.5
437.835	294.5
438.057	297.5
438.278	300.5
438.5	294.5
438.721	310.5
438.943	303.5
439.165	299.5
439.386	304.5
439.608	310.5
439.829	315.5
440.05	311.5
440.272	317.5
440.493	321.5
440.715	317.5
440.936	308.5
441.158	304.5
441.379	318.5
441.6	319.5
441.822	322.5
442.043	340.5
442.264	330.5
442.486	334.5
442.707	345.5
442.928	316.5
443.149	305.5
443.371	321.5
443.592	346.5
443.813	336.5
444.034	330.5
444.255	329.5
444.476	330.5
444.698	346.5
444.919	360.5
445.14	414.5
445.361	366.5
445.582	333.5
445.803	325.5
446.024	325.5
446.245	339.5
446.466	323.5
446.687	317.5
446.908	306.5
447.129	297.5
447.35	302.5
447.571	310.5
447.792	300.5
448.013	306.5
448.234	293.5
448.455	287.5
448.675	281.5
448.896	309.5
449.117	266.5
449.338	284.5
449.559	283.5
449.779	277.5
450	291.5
450.221	289.5
450.442	287.5
450.662	304.5
450.883	273.5
451.104	301.5
451.324	310.5
451.545	286.5
451.766	283.5
451.986	289.5
452.207	280.5
452.428	260.5
452.648	285.5
452.869	264.5
453.089	253.5
453.31	286.5
453.53	273.5
453.751	292.5
453.971	272.5
454.192	291.5
454.412	283.5
454.633	289.5
454.853	286.5
455.073	291.5
455.294	283.5
455.514	289.5
455.734	275.5
455.955	297.5
456.175	290.5
456.395	269.5
456.616	288.5
456.836	280.5
457.056	275.5
457.276	279.5
457.497	295.5
457.717	295.5
457.937	282.5
458.157	294.5
458.377	285.5
458.598	286.5
458.818	312.5
459.038	312.5
459.258	314.5
459.478	327.5
459.698	315.5
459.918	326.5
460.138	325.5
460.358	333.5
460.578	348.5
460.798	351.5
461.018	345.5
461.238	358.5
461.458	326.5
461.678	341.5
461.898	339.5
462.118	382.5
462.338	357.5
462.558	386.5
462.777	388.5
462.997	394.5
463.217	386.5
463.437	406.5
463.657	377.5
463.876	383.5
464.096	396.5
464.316	375.5
464.536	368.5
464.755	380.5
464.975	350.5
465.195	337.5
465.414	341.5
465.634	326.5
465.854	319.5
466.073	322.5
466.293	305.5
466.512	322.5
466.732	332.5
466.951	297.5
467.171	292.5
467.391	312.5
467.61	324.5
467.829	311.5
468.049	315.5
468.268	294.5
468.488	295.5
468.707	305.5
468.927	300.5
469.146	306.5
469.365	297.5
469.585	300.5
469.804	305.5
470.023	312.5
470.243	314.5
470.462	326.5
470.681	311.5
470.901	316.5
471.12	311.5
471.339	318.5
471.558	305.5
471.777	303.5
471.997	309.5
472.216	320.5
472.435	321.5
472.654	293.5
472.873	289.5
473.092	306.5
473.311	321.5
473.53	316.5
473.749	293.5
473.968	306.5
474.187	308.5
474.406	301.5
474.625	328.5
474.844	298.5
475.063	305.5
475.282	296.5
475.501	305.5
475.72	319.5
475.939	317.5
476.158	322.5
476.377	326.5
476.596	323.5
476.814	307.5
477.033	318.5
477.252	312.5
477.471	315.5
477.69	347.5
477.908	328.5
478.127	336.5
478.346	332.5
478.564	348.5
478.783	366.5
479.002	343.5
479.22	352.5
479.439	344.5
479.658	366.5
479.876	350.5
480.095	359.5
480.313	361.5
480.532	382.5
480.751	361.5
480.969	364.5
481.188	354.5
481.406	387.5
481.624	348.5
481.843	357.5
482.061	350.5
482.28	337.5
482.498	342.5
482.717	340.5
482.935	344.5
483.153	329.5
483.372	328.5
483.59	354.5
483.808	335.5
484.027	341.5
484.245	357.5
484.463	347.5
484.681	369.5
484.9	342.5
485.118	338.5
485.336	348.5
485.554	361.5
485.772	351.5
485.99	367.5
486.209	364.5
486.427	369.5
486.645	349.5
486.863	355.5
487.081	360.5
487.299	358.5
487.517	352.5
487.735	349.5
487.953	361.5
488.171	366.5
488.389	360.5
488.607	370.5
488.825	347.5
489.043	354.5
489.261	354.5
489.479	359.5
489.696	360.5
489.914	354.5
490.132	376.5
490.35	364.5
490.568	365.5
490.786	360.5
491.003	356.5
491.221	358.5
491.439	368.5
491.657	366.5
491.874	361.5
492.092	357.5
492.31	367.5
492.527	374.5
492.745	359.5
492.963	380.5
493.18	382.5
493.398	364.5
493.615	398.5
493.833	373.5
494.05	397.5
494.268	391.5
494.485	384.5
494.703	380.5
494.92	390.5
495.138	377.5
495.355	377.5
495.573	395.5
495.79	401.5
496.008	385.5
496.225	394.5
496.442	399.5
496.66	426.5
496.877	407.5
497.094	414.5
497.312	438.5
497.529	424.5
497.746	429.5
497.963	456.5
498.181	469.5
498.398	459.5
498.615	477.5
498.832	508.5
499.049	526.5
499.267	542.5
499.484	565.5
499.701	614.5
499.918	619.5
500.135	684.5
500.352	721.5
500.569	717.5
500.786	718.5
501.003	680.5
501.22	684.5
501.437	607.5
501.654	617.5
501.871	543.5
502.088	545.5
502.305	524.5
502.522	496.5
502.739	469.5
502.956	440.5
503.172	465.5
503.389	440.5
503.606	450.5
503.823	431.5
504.04	423.5
504.256	420.5
504.473	430.5
504.69	415.5
504.907	415.5
505.123	398.5
505.34	391.5
505.557	403.5
505.773	383.5
505.99	372.5
506.207	376.5
506.423	365.5
506.64	342.5
506.856	356.5
507.073	372.5
507.289	370.5
507.506	344.5
507.722	343.5
507.939	342.5
508.155	345.5
508.372	351.5
508.588	346.5
508.805	338.5
509.021	330.5
509.238	337.5
509.454	310.5
509.67	344.5
509.887	343.5
510.103	325.5
510.319	315.5
510.536	336.5
510.752	317.5
510.968	316.5
511.184	315.5
511.401	343.5
511.617	344.5
511.833	325.5
512.049	324.5
512.265	336.5
512.481	341.5
512.698	325.5
512.914	304.5
513.13	329.5
513.346	325.5
513.562	330.5
513.778	323.5
513.994	354.5
514.21	324.5
514.426	335.5
514.642	334.5
514.858	330.5
515.074	346.5
515.29	367.5
515.506	367.5
515.721	365.5
515.937	346.5
516.153	358.5
516.369	345.5
516.585	331.5
516.801	353.5
517.016	348.5
517.232	372.5
517.448	384.5
517.664	373.5
517.879	376.5
518.095	376.5
518.311	376.5
518.527	360.5
518.742	372.5
518.958	368.5
519.173	344.5
519.389	355.5
519.605	352.5
519.82	335.5
520.036	331.5
520.251	316.5
520.467	304.5
520.682	361.5
