Data from Fe(NO3)3@0.1M.TitratingCurve.Agarose3%dH2O.NegLispCup.LampEnergy10.LIBS07252019_HRD10591_16-39-21-331.txt Node
Date: Thu Jul 25 16:39:21 EDT 2019
User: cochatt
Spectrometer: HR+D1059
Trigger mode: 1
Integration Time (sec): 1.000000E-1
Scans to average: 1
Electric dark correction enabled: true
Nonlinearity correction enabled: false
Boxcar width: 0
XAxis mode: Wavelengths
Number of Pixels in Spectrum: 2048
>>>>>Begin Spectral Data<<<<<
223.165	-16.5
223.4	-16.5
223.635	-16.5
223.869	-21.5
224.104	-22.5
224.338	-28.5
224.573	-8.5
224.808	-18.5
225.042	-6.5
225.277	5.5
225.511	25.5
225.746	0.5
225.98	6.5
226.215	14.5
226.449	0.5
226.683	11.5
226.918	26.5
227.152	31.5
227.387	23.5
227.621	32.5
227.856	51.5
228.09	39.5
228.324	59.5
228.559	58.5
228.793	67.5
229.027	71.5
229.262	79.5
229.496	84.5
229.73	79.5
229.964	79.5
230.199	98.5
230.433	87.5
230.667	91.5
230.901	109.5
231.136	114.5
231.37	83.5
231.604	105.5
231.838	107.5
232.072	90.5
232.306	98.5
232.541	106.5
232.775	102.5
233.009	102.5
233.243	108.5
233.477	98.5
233.711	100.5
233.945	92.5
234.179	100.5
234.413	110.5
234.647	99.5
234.881	105.5
235.115	105.5
235.349	102.5
235.583	109.5
235.817	120.5
236.051	108.5
236.285	119.5
236.519	117.5
236.753	103.5
236.987	103.5
237.221	103.5
237.455	99.5
237.689	97.5
237.922	113.5
238.156	100.5
238.39	123.5
238.624	113.5
238.858	124.5
239.091	106.5
239.325	113.5
239.559	117.5
239.793	102.5
240.027	109.5
240.26	121.5
240.494	120.5
240.728	114.5
240.961	112.5
241.195	110.5
241.429	129.5
241.662	108.5
241.896	133.5
242.13	123.5
242.363	130.5
242.597	113.5
242.83	114.5
243.064	116.5
243.298	116.5
243.531	127.5
243.765	134.5
243.998	119.5
244.232	128.5
244.465	131.5
244.699	126.5
244.932	123.5
245.166	123.5
245.399	112.5
245.633	128.5
245.866	127.5
246.099	131.5
246.333	129.5
246.566	131.5
246.8	125.5
247.033	125.5
247.266	126.5
247.5	135.5
247.733	126.5
247.966	127.5
248.2	129.5
248.433	146.5
248.666	141.5
248.899	138.5
249.133	118.5
249.366	122.5
249.599	113.5
249.832	128.5
250.066	135.5
250.299	150.5
250.532	143.5
250.765	129.5
250.998	126.5
251.231	127.5
251.465	145.5
251.698	134.5
251.931	137.5
252.164	127.5
252.397	137.5
252.63	139.5
252.863	142.5
253.096	144.5
253.329	143.5
253.562	139.5
253.795	134.5
254.028	140.5
254.261	149.5
254.494	140.5
254.727	156.5
254.96	149.5
255.193	164.5
255.426	166.5
255.659	144.5
255.892	152.5
256.124	141.5
256.357	154.5
256.59	161.5
256.823	155.5
257.056	132.5
257.289	135.5
257.521	149.5
257.754	149.5
257.987	151.5
258.22	186.5
258.452	154.5
258.685	161.5
258.918	163.5
259.151	175.5
259.383	162.5
259.616	160.5
259.849	166.5
260.081	155.5
260.314	172.5
260.547	179.5
260.779	157.5
261.012	174.5
261.244	185.5
261.477	167.5
261.71	149.5
261.942	157.5
262.175	159.5
262.407	162.5
262.64	160.5
262.872	173.5
263.105	174.5
263.337	178.5
263.57	174.5
263.802	180.5
264.035	160.5
264.267	167.5
264.499	166.5
264.732	168.5
264.964	180.5
265.197	168.5
265.429	175.5
265.661	166.5
265.894	189.5
266.126	174.5
266.358	176.5
266.591	179.5
266.823	187.5
267.055	175.5
267.287	187.5
267.52	179.5
267.752	187.5
267.984	185.5
268.216	182.5
268.448	179.5
268.681	186.5
268.913	188.5
269.145	199.5
269.377	187.5
269.609	176.5
269.841	184.5
270.073	178.5
270.306	186.5
270.538	182.5
270.77	183.5
271.002	191.5
271.234	189.5
271.466	187.5
271.698	198.5
271.93	189.5
272.162	189.5
272.394	198.5
272.626	173.5
272.858	189.5
273.09	194.5
273.322	199.5
273.553	189.5
273.785	207.5
274.017	183.5
274.249	205.5
274.481	193.5
274.713	194.5
274.945	215.5
275.176	204.5
275.408	219.5
275.64	213.5
275.872	200.5
276.104	208.5
276.335	188.5
276.567	199.5
276.799	203.5
277.031	212.5
277.262	188.5
277.494	208.5
277.726	219.5
277.957	205.5
278.189	203.5
278.421	218.5
278.652	215.5
278.884	203.5
279.115	207.5
279.347	212.5
279.579	231.5
279.81	210.5
280.042	203.5
280.273	224.5
280.505	220.5
280.736	238.5
280.968	209.5
281.199	214.5
281.431	200.5
281.662	219.5
281.894	219.5
282.125	217.5
282.356	219.5
282.588	229.5
282.819	228.5
283.051	228.5
283.282	210.5
283.513	226.5
283.745	246.5
283.976	225.5
284.207	220.5
284.439	237.5
284.67	216.5
284.901	227.5
285.132	227.5
285.364	226.5
285.595	241.5
285.826	259.5
286.057	246.5
286.288	238.5
286.52	238.5
286.751	241.5
286.982	249.5
287.213	247.5
287.444	258.5
287.675	264.5
287.906	242.5
288.138	243.5
288.369	245.5
288.6	251.5
288.831	246.5
289.062	235.5
289.293	248.5
289.524	259.5
289.755	244.5
289.986	250.5
290.217	242.5
290.448	249.5
290.679	253.5
290.91	247.5
291.141	244.5
291.371	238.5
291.602	267.5
291.833	246.5
292.064	267.5
292.295	245.5
292.526	248.5
292.757	252.5
292.987	243.5
293.218	242.5
293.449	257.5
293.68	256.5
293.91	274.5
294.141	269.5
294.372	249.5
294.603	263.5
294.833	265.5
295.064	255.5
295.295	261.5
295.525	267.5
295.756	261.5
295.987	262.5
296.217	261.5
296.448	257.5
296.679	277.5
296.909	275.5
297.14	255.5
297.37	282.5
297.601	277.5
297.831	272.5
298.062	267.5
298.292	280.5
298.523	288.5
298.753	279.5
298.984	287.5
299.214	282.5
299.445	269.5
299.675	265.5
299.905	274.5
300.136	273.5
300.366	279.5
300.597	277.5
300.827	284.5
301.057	282.5
301.288	282.5
301.518	283.5
301.748	309.5
301.979	285.5
302.209	283.5
302.439	290.5
302.669	282.5
302.9	263.5
303.13	305.5
303.36	286.5
303.59	297.5
303.82	281.5
304.051	299.5
304.281	311.5
304.511	289.5
304.741	284.5
304.971	294.5
305.201	283.5
305.431	289.5
305.661	290.5
305.891	272.5
306.121	283.5
306.352	269.5
306.582	298.5
306.812	293.5
307.042	267.5
307.272	284.5
307.502	287.5
307.731	281.5
307.961	297.5
308.191	294.5
308.421	273.5
308.651	291.5
308.881	270.5
309.111	288.5
309.341	275.5
309.571	308.5
309.8	300.5
310.03	275.5
310.26	273.5
310.49	288.5
310.72	313.5
310.949	313.5
311.179	275.5
311.409	300.5
311.639	307.5
311.868	307.5
312.098	303.5
312.328	287.5
312.557	309.5
312.787	299.5
313.017	315.5
313.246	296.5
313.476	293.5
313.706	323.5
313.935	301.5
314.165	321.5
314.394	316.5
314.624	307.5
314.853	322.5
315.083	334.5
315.312	309.5
315.542	310.5
315.771	299.5
316.001	321.5
316.23	295.5
316.46	300.5
316.689	315.5
316.919	313.5
317.148	312.5
317.377	325.5
317.607	290.5
317.836	297.5
318.065	288.5
318.295	289.5
318.524	318.5
318.753	305.5
318.983	302.5
319.212	301.5
319.441	297.5
319.67	313.5
319.9	310.5
320.129	302.5
320.358	314.5
320.587	320.5
320.816	312.5
321.046	313.5
321.275	316.5
321.504	313.5
321.733	315.5
321.962	321.5
322.191	320.5
322.42	321.5
322.649	327.5
322.878	319.5
323.108	304.5
323.337	311.5
323.566	330.5
323.795	328.5
324.024	330.5
324.253	317.5
324.482	322.5
324.71	327.5
324.939	326.5
325.168	329.5
325.397	334.5
325.626	326.5
325.855	339.5
326.084	331.5
326.313	329.5
326.542	331.5
326.77	340.5
326.999	330.5
327.228	302.5
327.457	331.5
327.686	343.5
327.914	338.5
328.143	333.5
328.372	342.5
328.6	335.5
328.829	328.5
329.058	334.5
329.287	336.5
329.515	343.5
329.744	355.5
329.972	341.5
330.201	342.5
330.43	342.5
330.658	364.5
330.887	356.5
331.115	355.5
331.344	356.5
331.572	385.5
331.801	352.5
332.03	362.5
332.258	369.5
332.486	389.5
332.715	386.5
332.943	385.5
333.172	408.5
333.4	435.5
333.629	433.5
333.857	436.5
334.085	405.5
334.314	417.5
334.542	412.5
334.771	414.5
334.999	408.5
335.227	403.5
335.455	383.5
335.684	408.5
335.912	398.5
336.14	395.5
336.369	387.5
336.597	409.5
336.825	388.5
337.053	410.5
337.281	379.5
337.51	401.5
337.738	372.5
337.966	387.5
338.194	404.5
338.422	371.5
338.65	372.5
338.878	373.5
339.106	360.5
339.334	377.5
339.562	366.5
339.79	358.5
340.018	367.5
340.246	349.5
340.474	360.5
340.702	363.5
340.93	343.5
341.158	372.5
341.386	355.5
341.614	359.5
341.842	358.5
342.07	355.5
342.298	372.5
342.526	369.5
342.754	356.5
342.981	375.5
343.209	385.5
343.437	401.5
343.665	407.5
343.893	427.5
344.12	425.5
344.348	403.5
344.576	408.5
344.804	392.5
345.031	373.5
345.259	359.5
345.487	355.5
345.714	344.5
345.942	338.5
346.17	373.5
346.397	346.5
346.625	351.5
346.853	353.5
347.08	362.5
347.308	347.5
347.535	349.5
347.763	347.5
347.99	361.5
348.218	354.5
348.445	357.5
348.673	345.5
348.9	332.5
349.128	358.5
349.355	339.5
349.583	348.5
349.81	342.5
350.037	328.5
350.265	353.5
350.492	361.5
350.72	345.5
350.947	342.5
351.174	333.5
351.402	348.5
351.629	346.5
351.856	339.5
352.083	345.5
352.311	366.5
352.538	350.5
352.765	345.5
352.992	329.5
353.22	341.5
353.447	345.5
353.674	346.5
353.901	355.5
354.128	347.5
354.355	343.5
354.583	356.5
354.81	323.5
355.037	348.5
355.264	340.5
355.491	348.5
355.718	339.5
355.945	364.5
356.172	357.5
356.399	347.5
356.626	369.5
356.853	350.5
357.08	369.5
357.307	353.5
357.534	360.5
357.761	357.5
357.988	355.5
358.215	369.5
358.441	343.5
358.668	362.5
358.895	353.5
359.122	335.5
359.349	334.5
359.576	328.5
359.802	350.5
360.029	360.5
360.256	347.5
360.483	341.5
360.709	347.5
360.936	351.5
361.163	350.5
361.39	351.5
361.616	357.5
361.843	342.5
362.07	337.5
362.296	332.5
362.523	344.5
362.749	353.5
362.976	344.5
363.203	348.5
363.429	342.5
363.656	342.5
363.882	356.5
364.109	343.5
364.335	349.5
364.562	338.5
364.788	349.5
365.015	343.5
365.241	358.5
365.468	348.5
365.694	358.5
365.92	366.5
366.147	375.5
366.373	350.5
366.599	354.5
366.826	352.5
367.052	370.5
367.278	365.5
367.505	362.5
367.731	362.5
367.957	356.5
368.184	336.5
368.41	360.5
368.636	377.5
368.862	372.5
369.089	373.5
369.315	376.5
369.541	358.5
369.767	351.5
369.993	387.5
370.219	386.5
370.445	369.5
370.672	385.5
370.898	380.5
371.124	347.5
371.35	377.5
371.576	373.5
371.802	369.5
372.028	393.5
372.254	400.5
372.48	376.5
372.706	384.5
372.932	385.5
373.158	367.5
373.384	389.5
373.61	401.5
373.835	407.5
374.061	404.5
374.287	395.5
374.513	395.5
374.739	415.5
374.965	423.5
375.191	429.5
375.416	410.5
375.642	405.5
375.868	407.5
376.094	399.5
376.319	385.5
376.545	381.5
376.771	392.5
376.997	377.5
377.222	405.5
377.448	379.5
377.674	400.5
377.899	393.5
378.125	397.5
378.35	391.5
378.576	369.5
378.802	397.5
379.027	382.5
379.253	408.5
379.478	406.5
379.704	395.5
379.929	387.5
380.155	373.5
380.38	374.5
380.606	376.5
380.831	386.5
381.057	397.5
381.282	379.5
381.507	391.5
381.733	385.5
381.958	399.5
382.184	401.5
382.409	413.5
382.634	414.5
382.86	421.5
383.085	419.5
383.31	386.5
383.535	422.5
383.761	404.5
383.986	428.5
384.211	440.5
384.436	440.5
384.662	439.5
384.887	445.5
385.112	433.5
385.337	446.5
385.562	440.5
385.787	463.5
386.013	471.5
386.238	450.5
386.463	453.5
386.688	484.5
386.913	427.5
387.138	450.5
387.363	455.5
387.588	439.5
387.813	454.5
388.038	456.5
388.263	473.5
388.488	458.5
388.713	455.5
388.938	449.5
389.163	437.5
389.387	460.5
389.612	463.5
389.837	455.5
390.062	441.5
390.287	456.5
390.512	455.5
390.736	467.5
390.961	460.5
391.186	460.5
391.411	495.5
391.636	507.5
391.86	515.5
392.085	502.5
392.31	514.5
392.534	516.5
392.759	484.5
392.984	495.5
393.208	463.5
393.433	467.5
393.658	486.5
393.882	500.5
394.107	495.5
394.331	506.5
394.556	494.5
394.78	481.5
395.005	490.5
395.229	505.5
395.454	535.5
395.678	521.5
395.903	520.5
396.127	484.5
396.352	506.5
396.576	494.5
396.801	503.5
397.025	509.5
397.249	503.5
397.474	509.5
397.698	513.5
397.922	539.5
398.147	537.5
398.371	539.5
398.595	562.5
398.82	585.5
399.044	618.5
399.268	655.5
399.492	765.5
399.717	823.5
399.941	771.5
400.165	717.5
400.389	665.5
400.613	632.5
400.837	605.5
401.062	586.5
401.286	569.5
401.51	595.5
401.734	559.5
401.958	576.5
402.182	579.5
402.406	551.5
402.63	602.5
402.854	581.5
403.078	609.5
403.302	606.5
403.526	635.5
403.75	638.5
403.974	628.5
404.198	645.5
404.422	636.5
404.645	610.5
404.869	605.5
405.093	610.5
405.317	616.5
405.541	627.5
405.765	610.5
405.988	622.5
406.212	617.5
406.436	582.5
406.66	636.5
406.883	620.5
407.107	655.5
407.331	673.5
407.555	699.5
407.778	682.5
408.002	681.5
408.226	663.5
408.449	659.5
408.673	640.5
408.896	644.5
409.12	593.5
409.344	631.5
409.567	637.5
409.791	641.5
410.014	623.5
410.238	599.5
410.461	596.5
410.685	602.5
410.908	600.5
411.132	628.5
411.355	599.5
411.578	594.5
411.802	581.5
412.025	572.5
412.249	600.5
412.472	585.5
412.695	579.5
412.919	547.5
413.142	572.5
413.365	579.5
413.589	575.5
413.812	574.5
414.035	577.5
414.258	583.5
414.482	576.5
414.705	583.5
414.928	585.5
415.151	577.5
415.374	561.5
415.597	557.5
415.821	573.5
416.044	566.5
416.267	565.5
416.49	575.5
416.713	545.5
416.936	552.5
417.159	549.5
417.382	559.5
417.605	563.5
417.828	555.5
418.051	563.5
418.274	584.5
418.497	583.5
418.72	584.5
418.943	555.5
419.166	587.5
419.389	622.5
419.611	627.5
419.834	588.5
420.057	601.5
420.28	587.5
420.503	579.5
420.726	556.5
420.948	543.5
421.171	545.5
421.394	546.5
421.617	561.5
421.839	579.5
422.062	559.5
422.285	567.5
422.507	569.5
422.73	574.5
422.953	599.5
423.175	600.5
423.398	610.5
423.621	606.5
423.843	599.5
424.066	587.5
424.288	599.5
424.511	589.5
424.733	579.5
424.956	561.5
425.178	556.5
425.401	566.5
425.623	563.5
425.846	568.5
426.068	558.5
426.291	526.5
426.513	546.5
426.735	545.5
426.958	546.5
427.18	522.5
427.402	541.5
427.625	526.5
427.847	516.5
428.069	522.5
428.292	527.5
428.514	526.5
428.736	534.5
428.958	524.5
429.181	510.5
429.403	519.5
429.625	492.5
429.847	493.5
430.069	487.5
430.292	506.5
430.514	518.5
430.736	497.5
430.958	503.5
431.18	499.5
431.402	502.5
431.624	494.5
431.846	515.5
432.068	501.5
432.29	510.5
432.512	510.5
432.734	530.5
432.956	498.5
433.178	504.5
433.4	522.5
433.622	527.5
433.844	545.5
434.066	531.5
434.287	526.5
434.509	553.5
434.731	533.5
434.953	541.5
435.175	570.5
435.397	571.5
435.618	558.5
435.84	521.5
436.062	518.5
436.284	506.5
436.505	507.5
436.727	533.5
436.949	526.5
437.17	512.5
437.392	485.5
437.614	513.5
437.835	483.5
438.057	494.5
438.278	487.5
438.5	514.5
438.721	501.5
438.943	514.5
439.165	504.5
439.386	503.5
439.608	509.5
439.829	535.5
440.05	508.5
440.272	515.5
440.493	533.5
440.715	533.5
440.936	531.5
441.158	545.5
441.379	559.5
441.6	595.5
441.822	581.5
442.043	566.5
442.264	571.5
442.486	573.5
442.707	575.5
442.928	581.5
443.149	563.5
443.371	583.5
443.592	585.5
443.813	604.5
444.034	602.5
444.255	608.5
444.476	639.5
444.698	650.5
444.919	659.5
445.14	740.5
445.361	630.5
445.582	574.5
445.803	593.5
446.024	564.5
446.245	564.5
446.466	548.5
446.687	517.5
446.908	542.5
447.129	515.5
447.35	501.5
447.571	513.5
447.792	498.5
448.013	506.5
448.234	499.5
448.455	501.5
448.675	508.5
448.896	507.5
449.117	467.5
449.338	473.5
449.559	493.5
449.779	463.5
450	485.5
450.221	472.5
450.442	492.5
450.662	497.5
450.883	488.5
451.104	485.5
451.324	485.5
451.545	477.5
451.766	468.5
451.986	486.5
452.207	485.5
452.428	449.5
452.648	511.5
452.869	462.5
453.089	457.5
453.31	449.5
453.53	451.5
453.751	446.5
453.971	460.5
454.192	468.5
454.412	438.5
454.633	461.5
454.853	457.5
455.073	452.5
455.294	467.5
455.514	455.5
455.734	450.5
455.955	469.5
456.175	468.5
456.395	444.5
456.616	450.5
456.836	474.5
457.056	459.5
457.276	438.5
457.497	468.5
457.717	433.5
457.937	447.5
458.157	455.5
458.377	469.5
458.598	474.5
458.818	473.5
459.038	468.5
459.258	484.5
459.478	525.5
459.698	531.5
459.918	547.5
460.138	572.5
460.358	585.5
460.578	588.5
460.798	597.5
461.018	601.5
461.238	629.5
461.458	592.5
461.678	602.5
461.898	625.5
462.118	614.5
462.338	620.5
462.558	648.5
462.777	654.5
462.997	723.5
463.217	732.5
463.437	746.5
463.657	702.5
463.876	677.5
464.096	691.5
464.316	667.5
464.536	658.5
464.755	651.5
464.975	639.5
465.195	621.5
465.414	568.5
465.634	573.5
465.854	531.5
466.073	533.5
466.293	511.5
466.512	500.5
466.732	517.5
466.951	515.5
467.171	505.5
467.391	499.5
467.61	512.5
467.829	478.5
468.049	491.5
468.268	499.5
468.488	485.5
468.707	501.5
468.927	494.5
469.146	492.5
469.365	498.5
469.585	501.5
469.804	505.5
470.023	531.5
470.243	529.5
470.462	504.5
470.681	537.5
470.901	519.5
471.12	508.5
471.339	515.5
471.558	518.5
471.777	486.5
471.997	494.5
472.216	488.5
472.435	493.5
472.654	488.5
472.873	470.5
473.092	458.5
473.311	483.5
473.53	482.5
473.749	470.5
473.968	471.5
474.187	471.5
474.406	446.5
474.625	475.5
474.844	469.5
475.063	478.5
475.282	462.5
475.501	486.5
475.72	475.5
475.939	475.5
476.158	482.5
476.377	491.5
476.596	468.5
476.814	512.5
477.033	497.5
477.252	493.5
477.471	530.5
477.69	529.5
477.908	544.5
478.127	549.5
478.346	537.5
478.564	567.5
478.783	568.5
479.002	559.5
479.22	585.5
479.439	580.5
479.658	558.5
479.876	568.5
480.095	587.5
480.313	595.5
480.532	618.5
480.751	590.5
480.969	578.5
481.188	558.5
481.406	537.5
481.624	521.5
481.843	539.5
482.061	529.5
482.28	520.5
482.498	540.5
482.717	545.5
482.935	513.5
483.153	538.5
483.372	526.5
483.59	489.5
483.808	519.5
484.027	530.5
484.245	549.5
484.463	536.5
484.681	551.5
484.9	536.5
485.118	541.5
485.336	543.5
485.554	516.5
485.772	513.5
485.99	564.5
486.209	553.5
486.427	557.5
486.645	537.5
486.863	563.5
487.081	516.5
487.299	532.5
487.517	533.5
487.735	562.5
487.953	546.5
488.171	566.5
488.389	534.5
488.607	549.5
488.825	542.5
489.043	519.5
489.261	556.5
489.479	524.5
489.696	525.5
489.914	546.5
490.132	539.5
490.35	560.5
490.568	579.5
490.786	571.5
491.003	554.5
491.221	570.5
491.439	568.5
491.657	561.5
491.874	567.5
492.092	587.5
492.31	581.5
492.527	551.5
492.745	581.5
492.963	559.5
493.18	561.5
493.398	578.5
493.615	583.5
493.833	601.5
494.05	585.5
494.268	572.5
494.485	571.5
494.703	581.5
494.92	594.5
495.138	592.5
495.355	575.5
495.573	587.5
495.79	613.5
496.008	612.5
496.225	589.5
496.442	601.5
496.66	643.5
496.877	599.5
497.094	640.5
497.312	651.5
497.529	670.5
497.746	656.5
497.963	683.5
498.181	705.5
498.398	756.5
498.615	783.5
498.832	798.5
499.049	875.5
499.267	950.5
499.484	1038.5
499.701	1086.5
499.918	1178.5
500.135	1291.5
500.352	1437.5
500.569	1444.5
500.786	1438.5
501.003	1370.5
501.22	1262.5
501.437	1134.5
501.654	989.5
501.871	963.5
502.088	873.5
502.305	819.5
502.522	792.5
502.739	759.5
502.956	761.5
503.172	702.5
503.389	699.5
503.606	647.5
503.823	662.5
504.04	645.5
504.256	644.5
504.473	706.5
504.69	693.5
504.907	670.5
505.123	631.5
505.34	619.5
505.557	573.5
505.773	565.5
505.99	547.5
506.207	531.5
506.423	542.5
506.64	539.5
506.856	537.5
507.073	538.5
507.289	528.5
507.506	525.5
507.722	517.5
507.939	520.5
508.155	492.5
508.372	524.5
508.588	489.5
508.805	490.5
509.021	484.5
509.238	483.5
509.454	499.5
509.67	487.5
509.887	477.5
510.103	487.5
510.319	466.5
510.536	480.5
510.752	465.5
510.968	486.5
511.184	482.5
511.401	483.5
511.617	476.5
511.833	463.5
512.049	483.5
512.265	471.5
512.481	456.5
512.698	472.5
512.914	476.5
513.13	458.5
513.346	450.5
513.562	467.5
513.778	463.5
513.994	443.5
514.21	486.5
514.426	491.5
514.642	475.5
514.858	493.5
515.074	507.5
515.29	490.5
515.506	505.5
515.721	509.5
515.937	514.5
516.153	518.5
516.369	528.5
516.585	533.5
516.801	548.5
517.016	590.5
517.232	596.5
517.448	617.5
517.664	612.5
517.879	619.5
518.095	594.5
518.311	619.5
518.527	586.5
518.742	578.5
518.958	559.5
519.173	535.5
519.389	525.5
519.605	514.5
