Data from Fe(NO3)3@0.1M.TitratingCurve.Agarose3%dH2O.NegLispCup.LampEnergy10.LIBS07252019_HRD10591_16-42-09-333.txt Node
Date: Thu Jul 25 16:42:09 EDT 2019
User: cochatt
Spectrometer: HR+D1059
Trigger mode: 1
Integration Time (sec): 1.000000E-1
Scans to average: 1
Electric dark correction enabled: true
Nonlinearity correction enabled: false
Boxcar width: 0
XAxis mode: Wavelengths
Number of Pixels in Spectrum: 2048
>>>>>Begin Spectral Data<<<<<
223.165	-20.69
223.4	-20.69
223.635	-20.69
223.869	-9.69
224.104	-23.69
224.338	-15.69
224.573	-8.69
224.808	-11.69
225.042	-16.69
225.277	-11.69
225.511	-2.69
225.746	11.31
225.98	5.31
226.215	10.31
226.449	7.31
226.683	20.31
226.918	24.31
227.152	42.31
227.387	22.31
227.621	44.31
227.856	31.31
228.09	53.31
228.324	49.31
228.559	54.31
228.793	59.31
229.027	77.31
229.262	67.31
229.496	80.31
229.73	69.31
229.964	76.31
230.199	80.31
230.433	91.31
230.667	74.31
230.901	95.31
231.136	88.31
231.37	78.31
231.604	92.31
231.838	93.31
232.072	106.31
232.306	109.31
232.541	102.31
232.775	99.31
233.009	108.31
233.243	99.31
233.477	108.31
233.711	92.31
233.945	90.31
234.179	89.31
234.413	87.31
234.647	99.31
234.881	92.31
235.115	98.31
235.349	100.31
235.583	95.31
235.817	77.31
236.051	87.31
236.285	101.31
236.519	112.31
236.753	106.31
236.987	103.31
237.221	92.31
237.455	99.31
237.689	85.31
237.922	100.31
238.156	123.31
238.39	74.31
238.624	115.31
238.858	117.31
239.091	104.31
239.325	101.31
239.559	120.31
239.793	91.31
240.027	81.31
240.26	103.31
240.494	105.31
240.728	109.31
240.961	108.31
241.195	96.31
241.429	115.31
241.662	89.31
241.896	98.31
242.13	115.31
242.363	105.31
242.597	95.31
242.83	101.31
243.064	104.31
243.298	113.31
243.531	123.31
243.765	125.31
243.998	107.31
244.232	121.31
244.465	108.31
244.699	116.31
244.932	127.31
245.166	122.31
245.399	125.31
245.633	114.31
245.866	111.31
246.099	122.31
246.333	121.31
246.566	124.31
246.8	117.31
247.033	117.31
247.266	120.31
247.5	118.31
247.733	117.31
247.966	107.31
248.2	119.31
248.433	118.31
248.666	120.31
248.899	125.31
249.133	123.31
249.366	122.31
249.599	123.31
249.832	132.31
250.066	114.31
250.299	131.31
250.532	127.31
250.765	145.31
250.998	125.31
251.231	143.31
251.465	131.31
251.698	125.31
251.931	138.31
252.164	142.31
252.397	117.31
252.63	144.31
252.863	123.31
253.096	124.31
253.329	138.31
253.562	133.31
253.795	135.31
254.028	126.31
254.261	116.31
254.494	127.31
254.727	133.31
254.96	158.31
255.193	139.31
255.426	154.31
255.659	128.31
255.892	129.31
256.124	132.31
256.357	138.31
256.59	137.31
256.823	148.31
257.056	131.31
257.289	136.31
257.521	137.31
257.754	144.31
257.987	120.31
258.22	146.31
258.452	147.31
258.685	141.31
258.918	156.31
259.151	135.31
259.383	147.31
259.616	156.31
259.849	146.31
260.081	139.31
260.314	145.31
260.547	147.31
260.779	147.31
261.012	144.31
261.244	156.31
261.477	164.31
261.71	147.31
261.942	137.31
262.175	136.31
262.407	146.31
262.64	157.31
262.872	152.31
263.105	145.31
263.337	149.31
263.57	157.31
263.802	146.31
264.035	159.31
264.267	153.31
264.499	145.31
264.732	170.31
264.964	164.31
265.197	162.31
265.429	163.31
265.661	165.31
265.894	150.31
266.126	181.31
266.358	163.31
266.591	151.31
266.823	157.31
267.055	149.31
267.287	160.31
267.52	161.31
267.752	160.31
267.984	172.31
268.216	156.31
268.448	168.31
268.681	157.31
268.913	180.31
269.145	170.31
269.377	162.31
269.609	160.31
269.841	156.31
270.073	170.31
270.306	166.31
270.538	193.31
270.77	164.31
271.002	165.31
271.234	175.31
271.466	178.31
271.698	160.31
271.93	168.31
272.162	169.31
272.394	184.31
272.626	170.31
272.858	177.31
273.09	174.31
273.322	184.31
273.553	167.31
273.785	189.31
274.017	178.31
274.249	172.31
274.481	175.31
274.713	183.31
274.945	178.31
275.176	189.31
275.408	186.31
275.64	185.31
275.872	177.31
276.104	184.31
276.335	169.31
276.567	172.31
276.799	170.31
277.031	184.31
277.262	181.31
277.494	195.31
277.726	160.31
277.957	197.31
278.189	188.31
278.421	169.31
278.652	170.31
278.884	184.31
279.115	176.31
279.347	190.31
279.579	198.31
279.81	187.31
280.042	175.31
280.273	191.31
280.505	199.31
280.736	188.31
280.968	208.31
281.199	197.31
281.431	183.31
281.662	189.31
281.894	198.31
282.125	207.31
282.356	191.31
282.588	193.31
282.819	205.31
283.051	195.31
283.282	200.31
283.513	198.31
283.745	204.31
283.976	201.31
284.207	191.31
284.439	212.31
284.67	203.31
284.901	185.31
285.132	194.31
285.364	201.31
285.595	195.31
285.826	212.31
286.057	208.31
286.288	203.31
286.52	213.31
286.751	210.31
286.982	202.31
287.213	189.31
287.444	196.31
287.675	207.31
287.906	210.31
288.138	220.31
288.369	211.31
288.6	203.31
288.831	207.31
289.062	218.31
289.293	217.31
289.524	212.31
289.755	204.31
289.986	226.31
290.217	211.31
290.448	213.31
290.679	227.31
290.91	210.31
291.141	214.31
291.371	217.31
291.602	213.31
291.833	205.31
292.064	200.31
292.295	210.31
292.526	210.31
292.757	218.31
292.987	219.31
293.218	208.31
293.449	230.31
293.68	225.31
293.91	226.31
294.141	205.31
294.372	221.31
294.603	212.31
294.833	223.31
295.064	246.31
295.295	224.31
295.525	220.31
295.756	225.31
295.987	221.31
296.217	245.31
296.448	223.31
296.679	228.31
296.909	213.31
297.14	217.31
297.37	217.31
297.601	232.31
297.831	231.31
298.062	236.31
298.292	251.31
298.523	230.31
298.753	248.31
298.984	243.31
299.214	239.31
299.445	251.31
299.675	232.31
299.905	232.31
300.136	239.31
300.366	226.31
300.597	244.31
300.827	241.31
301.057	248.31
301.288	259.31
301.518	247.31
301.748	237.31
301.979	239.31
302.209	242.31
302.439	260.31
302.669	243.31
302.9	239.31
303.13	242.31
303.36	251.31
303.59	234.31
303.82	243.31
304.051	252.31
304.281	239.31
304.511	256.31
304.741	242.31
304.971	259.31
305.201	236.31
305.431	239.31
305.661	233.31
305.891	263.31
306.121	254.31
306.352	275.31
306.582	245.31
306.812	256.31
307.042	228.31
307.272	229.31
307.502	248.31
307.731	245.31
307.961	263.31
308.191	256.31
308.421	248.31
308.651	250.31
308.881	241.31
309.111	233.31
309.341	257.31
309.571	259.31
309.8	241.31
310.03	241.31
310.26	262.31
310.49	251.31
310.72	263.31
310.949	257.31
311.179	258.31
311.409	272.31
311.639	242.31
311.868	257.31
312.098	247.31
312.328	260.31
312.557	257.31
312.787	254.31
313.017	266.31
313.246	249.31
313.476	243.31
313.706	248.31
313.935	260.31
314.165	255.31
314.394	274.31
314.624	261.31
314.853	266.31
315.083	269.31
315.312	257.31
315.542	263.31
315.771	269.31
316.001	260.31
316.23	270.31
316.46	277.31
316.689	247.31
316.919	271.31
317.148	252.31
317.377	278.31
317.607	264.31
317.836	255.31
318.065	249.31
318.295	248.31
318.524	261.31
318.753	268.31
318.983	268.31
319.212	260.31
319.441	244.31
319.67	264.31
319.9	243.31
320.129	257.31
320.358	254.31
320.587	248.31
320.816	258.31
321.046	279.31
321.275	264.31
321.504	259.31
321.733	275.31
321.962	269.31
322.191	271.31
322.42	273.31
322.649	285.31
322.878	259.31
323.108	261.31
323.337	275.31
323.566	266.31
323.795	272.31
324.024	283.31
324.253	275.31
324.482	267.31
324.71	271.31
324.939	281.31
325.168	263.31
325.397	281.31
325.626	291.31
325.855	292.31
326.084	293.31
326.313	284.31
326.542	271.31
326.77	293.31
326.999	297.31
327.228	287.31
327.457	287.31
327.686	287.31
327.914	263.31
328.143	272.31
328.372	277.31
328.6	275.31
328.829	291.31
329.058	286.31
329.287	292.31
329.515	285.31
329.744	295.31
329.972	295.31
330.201	299.31
330.43	303.31
330.658	285.31
330.887	285.31
331.115	316.31
331.344	295.31
331.572	297.31
331.801	302.31
332.03	311.31
332.258	322.31
332.486	319.31
332.715	333.31
332.943	347.31
333.172	344.31
333.4	357.31
333.629	335.31
333.857	359.31
334.085	351.31
334.314	337.31
334.542	356.31
334.771	355.31
334.999	329.31
335.227	356.31
335.455	345.31
335.684	353.31
335.912	339.31
336.14	348.31
336.369	342.31
336.597	333.31
336.825	327.31
337.053	328.31
337.281	337.31
337.51	328.31
337.738	316.31
337.966	334.31
338.194	319.31
338.422	319.31
338.65	314.31
338.878	315.31
339.106	298.31
339.334	307.31
339.562	296.31
339.79	305.31
340.018	294.31
340.246	292.31
340.474	329.31
340.702	287.31
340.93	305.31
341.158	308.31
341.386	315.31
341.614	302.31
341.842	312.31
342.07	306.31
342.298	301.31
342.526	287.31
342.754	324.31
342.981	287.31
343.209	323.31
343.437	335.31
343.665	340.31
343.893	348.31
344.12	356.31
344.348	331.31
344.576	327.31
344.804	300.31
345.031	324.31
345.259	333.31
345.487	307.31
345.714	305.31
345.942	287.31
346.17	305.31
346.397	294.31
346.625	293.31
346.853	296.31
347.08	312.31
347.308	285.31
347.535	313.31
347.763	289.31
347.99	282.31
348.218	305.31
348.445	301.31
348.673	307.31
348.9	289.31
349.128	284.31
349.355	282.31
349.583	302.31
349.81	270.31
350.037	256.31
350.265	283.31
350.492	290.31
350.72	277.31
350.947	294.31
351.174	313.31
351.402	297.31
351.629	277.31
351.856	296.31
352.083	281.31
352.311	299.31
352.538	284.31
352.765	294.31
352.992	284.31
353.22	314.31
353.447	279.31
353.674	277.31
353.901	294.31
354.128	275.31
354.355	286.31
354.583	289.31
354.81	295.31
355.037	298.31
355.264	282.31
355.491	292.31
355.718	300.31
355.945	304.31
356.172	311.31
356.399	287.31
356.626	295.31
356.853	279.31
357.08	303.31
357.307	290.31
357.534	284.31
357.761	292.31
357.988	307.31
358.215	279.31
358.441	301.31
358.668	292.31
358.895	300.31
359.122	295.31
359.349	280.31
359.576	286.31
359.802	301.31
360.029	317.31
360.256	305.31
360.483	289.31
360.709	284.31
360.936	297.31
361.163	283.31
361.39	287.31
361.616	295.31
361.843	296.31
362.07	291.31
362.296	309.31
362.523	298.31
362.749	286.31
362.976	297.31
363.203	309.31
363.429	296.31
363.656	281.31
363.882	283.31
364.109	295.31
364.335	275.31
364.562	288.31
364.788	303.31
365.015	298.31
365.241	285.31
365.468	262.31
365.694	288.31
365.92	283.31
366.147	297.31
366.373	299.31
366.599	303.31
366.826	300.31
367.052	298.31
367.278	290.31
367.505	296.31
367.731	308.31
367.957	282.31
368.184	292.31
368.41	292.31
368.636	318.31
368.862	284.31
369.089	287.31
369.315	284.31
369.541	323.31
369.767	300.31
369.993	282.31
370.219	303.31
370.445	317.31
370.672	300.31
370.898	301.31
371.124	322.31
371.35	313.31
371.576	321.31
371.802	316.31
372.028	282.31
372.254	311.31
372.48	308.31
372.706	324.31
372.932	325.31
373.158	333.31
373.384	328.31
373.61	319.31
373.835	324.31
374.061	299.31
374.287	310.31
374.513	332.31
374.739	352.31
374.965	347.31
375.191	336.31
375.416	349.31
375.642	364.31
375.868	327.31
376.094	333.31
376.319	345.31
376.545	317.31
376.771	328.31
376.997	321.31
377.222	316.31
377.448	321.31
377.674	311.31
377.899	317.31
378.125	324.31
378.35	314.31
378.576	309.31
378.802	315.31
379.027	320.31
379.253	306.31
379.478	324.31
379.704	319.31
379.929	312.31
380.155	292.31
380.38	321.31
380.606	320.31
380.831	325.31
381.057	318.31
381.282	307.31
381.507	303.31
381.733	313.31
381.958	343.31
382.184	344.31
382.409	313.31
382.634	324.31
382.86	348.31
383.085	339.31
383.31	324.31
383.535	331.31
383.761	349.31
383.986	349.31
384.211	352.31
384.436	359.31
384.662	349.31
384.887	376.31
385.112	375.31
385.337	360.31
385.562	350.31
385.787	370.31
386.013	381.31
386.238	380.31
386.463	360.31
386.688	388.31
386.913	371.31
387.138	387.31
387.363	372.31
387.588	364.31
387.813	362.31
388.038	370.31
388.263	383.31
388.488	374.31
388.713	373.31
388.938	372.31
389.163	368.31
389.387	387.31
389.612	364.31
389.837	381.31
390.062	375.31
390.287	377.31
390.512	378.31
390.736	387.31
390.961	380.31
391.186	380.31
391.411	406.31
391.636	404.31
391.86	397.31
392.085	410.31
392.31	407.31
392.534	410.31
392.759	401.31
392.984	392.31
393.208	397.31
393.433	403.31
393.658	391.31
393.882	373.31
394.107	402.31
394.331	394.31
394.556	401.31
394.78	411.31
395.005	405.31
395.229	415.31
395.454	413.31
395.678	410.31
395.903	405.31
396.127	413.31
396.352	402.31
396.576	409.31
396.801	402.31
397.025	410.31
397.249	406.31
397.474	431.31
397.698	418.31
397.922	398.31
398.147	441.31
398.371	434.31
398.595	454.31
398.82	447.31
399.044	492.31
399.268	515.31
399.492	591.31
399.717	618.31
399.941	627.31
400.165	563.31
400.389	511.31
400.613	495.31
400.837	472.31
401.062	481.31
401.286	467.31
401.51	465.31
401.734	452.31
401.958	467.31
402.182	467.31
402.406	458.31
402.63	466.31
402.854	480.31
403.078	482.31
403.302	483.31
403.526	486.31
403.75	500.31
403.974	537.31
404.198	493.31
404.422	483.31
404.645	498.31
404.869	506.31
405.093	519.31
405.317	492.31
405.541	487.31
405.765	497.31
405.988	480.31
406.212	501.31
406.436	499.31
406.66	509.31
406.883	506.31
407.107	529.31
407.331	589.31
407.555	563.31
407.778	557.31
408.002	568.31
408.226	543.31
408.449	529.31
408.673	507.31
408.896	500.31
409.12	491.31
409.344	523.31
409.567	524.31
409.791	533.31
410.014	512.31
410.238	500.31
410.461	507.31
410.685	501.31
410.908	519.31
411.132	500.31
411.355	481.31
411.578	473.31
411.802	481.31
412.025	462.31
412.249	460.31
412.472	470.31
412.695	460.31
412.919	460.31
413.142	474.31
413.365	473.31
413.589	500.31
413.812	461.31
414.035	450.31
414.258	462.31
414.482	473.31
414.705	474.31
414.928	458.31
415.151	498.31
415.374	465.31
415.597	485.31
415.821	454.31
416.044	463.31
416.267	484.31
416.49	457.31
416.713	480.31
416.936	456.31
417.159	455.31
417.382	460.31
417.605	433.31
417.828	431.31
418.051	457.31
418.274	460.31
418.497	462.31
418.72	486.31
418.943	487.31
419.166	491.31
419.389	499.31
419.611	509.31
419.834	476.31
420.057	499.31
420.28	476.31
420.503	471.31
420.726	460.31
420.948	465.31
421.171	470.31
421.394	466.31
421.617	475.31
421.839	469.31
422.062	457.31
422.285	452.31
422.507	481.31
422.73	463.31
422.953	475.31
423.175	472.31
423.398	480.31
423.621	490.31
423.843	498.31
424.066	488.31
424.288	473.31
424.511	488.31
424.733	480.31
424.956	440.31
425.178	456.31
425.401	454.31
425.623	471.31
425.846	441.31
426.068	454.31
426.291	450.31
426.513	445.31
426.735	439.31
426.958	419.31
427.18	425.31
427.402	397.31
427.625	413.31
427.847	408.31
428.069	415.31
428.292	447.31
428.514	419.31
428.736	420.31
428.958	419.31
429.181	424.31
429.403	418.31
429.625	410.31
429.847	424.31
430.069	426.31
430.292	423.31
430.514	429.31
430.736	413.31
430.958	418.31
431.18	409.31
431.402	418.31
431.624	406.31
431.846	405.31
432.068	424.31
432.29	424.31
432.512	416.31
432.734	409.31
432.956	427.31
433.178	438.31
433.4	419.31
433.622	415.31
433.844	460.31
434.066	429.31
434.287	403.31
434.509	423.31
434.731	455.31
434.953	459.31
435.175	458.31
435.397	465.31
435.618	433.31
435.84	455.31
436.062	414.31
436.284	424.31
436.505	436.31
436.727	425.31
436.949	417.31
437.17	415.31
437.392	404.31
437.614	408.31
437.835	404.31
438.057	403.31
438.278	404.31
438.5	411.31
438.721	415.31
438.943	420.31
439.165	424.31
439.386	424.31
439.608	434.31
439.829	437.31
440.05	432.31
440.272	433.31
440.493	446.31
440.715	442.31
440.936	459.31
441.158	465.31
441.379	453.31
441.6	474.31
441.822	463.31
442.043	481.31
442.264	461.31
442.486	468.31
442.707	450.31
442.928	451.31
443.149	448.31
443.371	460.31
443.592	476.31
443.813	486.31
444.034	473.31
444.255	482.31
444.476	501.31
444.698	519.31
444.919	552.31
445.14	596.31
445.361	542.31
445.582	495.31
445.803	468.31
446.024	423.31
446.245	449.31
446.466	460.31
446.687	432.31
446.908	441.31
447.129	439.31
447.35	442.31
447.571	436.31
447.792	445.31
448.013	401.31
448.234	407.31
448.455	394.31
448.675	412.31
448.896	418.31
449.117	399.31
449.338	401.31
449.559	387.31
449.779	396.31
450	399.31
450.221	395.31
450.442	422.31
450.662	419.31
450.883	422.31
451.104	403.31
451.324	419.31
451.545	412.31
451.766	397.31
451.986	408.31
452.207	415.31
452.428	383.31
452.648	400.31
452.869	374.31
453.089	386.31
453.31	387.31
453.53	391.31
453.751	384.31
453.971	380.31
454.192	380.31
454.412	370.31
454.633	374.31
454.853	380.31
455.073	374.31
455.294	382.31
455.514	373.31
455.734	366.31
455.955	370.31
456.175	394.31
456.395	363.31
456.616	367.31
456.836	363.31
457.056	373.31
457.276	348.31
457.497	365.31
457.717	361.31
457.937	372.31
458.157	391.31
458.377	395.31
458.598	387.31
458.818	390.31
459.038	399.31
459.258	427.31
459.478	437.31
459.698	431.31
459.918	429.31
460.138	451.31
460.358	465.31
460.578	473.31
460.798	477.31
461.018	479.31
461.238	492.31
461.458	478.31
461.678	491.31
461.898	501.31
462.118	501.31
462.338	492.31
462.558	544.31
462.777	546.31
462.997	585.31
463.217	602.31
463.437	606.31
463.657	576.31
463.876	536.31
464.096	535.31
464.316	568.31
464.536	566.31
464.755	505.31
464.975	521.31
465.195	502.31
465.414	477.31
465.634	451.31
465.854	424.31
466.073	437.31
466.293	433.31
466.512	389.31
466.732	411.31
466.951	422.31
467.171	426.31
467.391	427.31
467.61	412.31
467.829	403.31
468.049	411.31
468.268	392.31
468.488	395.31
468.707	391.31
468.927	392.31
469.146	410.31
469.365	417.31
469.585	398.31
469.804	392.31
470.023	408.31
470.243	428.31
470.462	424.31
470.681	419.31
470.901	414.31
471.12	416.31
471.339	424.31
471.558	395.31
471.777	373.31
471.997	403.31
472.216	423.31
472.435	387.31
472.654	360.31
472.873	403.31
473.092	385.31
473.311	389.31
473.53	392.31
473.749	391.31
473.968	387.31
474.187	386.31
474.406	381.31
474.625	385.31
474.844	368.31
475.063	374.31
475.282	397.31
475.501	375.31
475.72	382.31
475.939	409.31
476.158	398.31
476.377	415.31
476.596	381.31
476.814	407.31
477.033	401.31
477.252	421.31
477.471	436.31
477.69	430.31
477.908	452.31
478.127	470.31
478.346	433.31
478.564	453.31
478.783	453.31
479.002	454.31
479.22	461.31
479.439	451.31
479.658	455.31
479.876	464.31
480.095	462.31
480.313	488.31
480.532	477.31
480.751	469.31
480.969	447.31
481.188	429.31
481.406	437.31
481.624	435.31
481.843	434.31
482.061	428.31
482.28	444.31
482.498	415.31
482.717	413.31
482.935	441.31
483.153	435.31
483.372	428.31
483.59	440.31
483.808	420.31
484.027	434.31
484.245	433.31
484.463	427.31
484.681	444.31
484.9	441.31
485.118	444.31
485.336	441.31
485.554	438.31
485.772	448.31
485.99	438.31
486.209	427.31
486.427	436.31
486.645	435.31
486.863	450.31
487.081	458.31
487.299	431.31
487.517	445.31
487.735	433.31
487.953	447.31
488.171	451.31
488.389	461.31
488.607	472.31
488.825	428.31
489.043	435.31
489.261	431.31
489.479	456.31
489.696	435.31
489.914	431.31
490.132	442.31
490.35	465.31
490.568	445.31
490.786	456.31
491.003	449.31
491.221	453.31
491.439	467.31
491.657	443.31
491.874	464.31
492.092	469.31
492.31	469.31
492.527	468.31
492.745	482.31
492.963	457.31
493.18	465.31
493.398	435.31
493.615	476.31
493.833	463.31
494.05	481.31
494.268	484.31
494.485	490.31
494.703	475.31
494.92	528.31
495.138	468.31
495.355	492.31
495.573	467.31
495.79	475.31
496.008	488.31
496.225	507.31
496.442	501.31
496.66	515.31
496.877	497.31
497.094	500.31
497.312	509.31
497.529	524.31
497.746	545.31
497.963	544.31
498.181	557.31
498.398	594.31
498.615	609.31
498.832	654.31
499.049	687.31
499.267	704.31
499.484	784.31
499.701	852.31
499.918	926.31
500.135	1002.31
500.352	1138.31
500.569	1163.31
500.786	1127.31
501.003	1085.31
501.22	954.31
501.437	880.31
501.654	820.31
501.871	748.31
502.088	695.31
