Data from Fe(NO3)3@0.05M.TitratingCurve.Agarose3%dH2O.NegLispCup.LampEnergy10.LIBS07252019_HRD10591_16-47-20-334.txt Node
Date: Thu Jul 25 16:47:20 EDT 2019
User: cochatt
Spectrometer: HR+D1059
Trigger mode: 1
Integration Time (sec): 1.000000E-1
Scans to average: 1
Electric dark correction enabled: true
Nonlinearity correction enabled: false
Boxcar width: 0
XAxis mode: Wavelengths
Number of Pixels in Spectrum: 2048
>>>>>Begin Spectral Data<<<<<
223.165	-7.5
223.4	-7.5
223.635	-7.5
223.869	-23.5
224.104	-19.5
224.338	-23.5
224.573	-10.5
224.808	-8.5
225.042	-11.5
225.277	-7.5
225.511	-17.5
225.746	-0.5
225.98	11.5
226.215	17.5
226.449	25.5
226.683	28.5
226.918	18.5
227.152	28.5
227.387	33.5
227.621	44.5
227.856	53.5
228.09	41.5
228.324	47.5
228.559	46.5
228.793	49.5
229.027	83.5
229.262	74.5
229.496	64.5
229.73	58.5
229.964	89.5
230.199	80.5
230.433	115.5
230.667	96.5
230.901	98.5
231.136	99.5
231.37	94.5
231.604	116.5
231.838	104.5
232.072	98.5
232.306	97.5
232.541	106.5
232.775	100.5
233.009	109.5
233.243	104.5
233.477	106.5
233.711	99.5
233.945	115.5
234.179	125.5
234.413	113.5
234.647	121.5
234.881	97.5
235.115	120.5
235.349	112.5
235.583	123.5
235.817	115.5
236.051	101.5
236.285	111.5
236.519	98.5
236.753	125.5
236.987	104.5
237.221	107.5
237.455	117.5
237.689	115.5
237.922	108.5
238.156	123.5
238.39	117.5
238.624	110.5
238.858	134.5
239.091	113.5
239.325	118.5
239.559	116.5
239.793	112.5
240.027	122.5
240.26	111.5
240.494	113.5
240.728	107.5
240.961	131.5
241.195	132.5
241.429	123.5
241.662	119.5
241.896	120.5
242.13	120.5
242.363	114.5
242.597	125.5
242.83	123.5
243.064	123.5
243.298	131.5
243.531	120.5
243.765	132.5
243.998	123.5
244.232	144.5
244.465	125.5
244.699	124.5
244.932	142.5
245.166	117.5
245.399	135.5
245.633	127.5
245.866	134.5
246.099	123.5
246.333	127.5
246.566	112.5
246.8	112.5
247.033	144.5
247.266	123.5
247.5	140.5
247.733	129.5
247.966	129.5
248.2	140.5
248.433	132.5
248.666	137.5
248.899	131.5
249.133	154.5
249.366	150.5
249.599	139.5
249.832	147.5
250.066	128.5
250.299	142.5
250.532	144.5
250.765	146.5
250.998	141.5
251.231	148.5
251.465	135.5
251.698	157.5
251.931	147.5
252.164	142.5
252.397	140.5
252.63	155.5
252.863	151.5
253.096	159.5
253.329	140.5
253.562	147.5
253.795	156.5
254.028	175.5
254.261	160.5
254.494	169.5
254.727	170.5
254.96	165.5
255.193	143.5
255.426	164.5
255.659	144.5
255.892	176.5
256.124	170.5
256.357	156.5
256.59	136.5
256.823	154.5
257.056	144.5
257.289	147.5
257.521	160.5
257.754	163.5
257.987	170.5
258.22	164.5
258.452	159.5
258.685	168.5
258.918	153.5
259.151	164.5
259.383	167.5
259.616	163.5
259.849	175.5
260.081	171.5
260.314	189.5
260.547	168.5
260.779	187.5
261.012	173.5
261.244	182.5
261.477	179.5
261.71	180.5
261.942	174.5
262.175	171.5
262.407	184.5
262.64	175.5
262.872	195.5
263.105	173.5
263.337	194.5
263.57	174.5
263.802	165.5
264.035	168.5
264.267	161.5
264.499	193.5
264.732	175.5
264.964	170.5
265.197	187.5
265.429	173.5
265.661	182.5
265.894	177.5
266.126	179.5
266.358	180.5
266.591	200.5
266.823	183.5
267.055	178.5
267.287	178.5
267.52	184.5
267.752	187.5
267.984	185.5
268.216	193.5
268.448	187.5
268.681	197.5
268.913	195.5
269.145	190.5
269.377	175.5
269.609	181.5
269.841	191.5
270.073	180.5
270.306	189.5
270.538	209.5
270.77	191.5
271.002	215.5
271.234	210.5
271.466	196.5
271.698	197.5
271.93	188.5
272.162	206.5
272.394	210.5
272.626	213.5
272.858	200.5
273.09	210.5
273.322	191.5
273.553	209.5
273.785	212.5
274.017	198.5
274.249	219.5
274.481	206.5
274.713	199.5
274.945	233.5
275.176	205.5
275.408	228.5
275.64	219.5
275.872	209.5
276.104	210.5
276.335	199.5
276.567	225.5
276.799	220.5
277.031	218.5
277.262	201.5
277.494	216.5
277.726	193.5
277.957	201.5
278.189	208.5
278.421	218.5
278.652	228.5
278.884	219.5
279.115	225.5
279.347	216.5
279.579	209.5
279.81	213.5
280.042	222.5
280.273	216.5
280.505	212.5
280.736	216.5
280.968	218.5
281.199	225.5
281.431	215.5
281.662	217.5
281.894	230.5
282.125	225.5
282.356	222.5
282.588	235.5
282.819	237.5
283.051	236.5
283.282	213.5
283.513	249.5
283.745	230.5
283.976	233.5
284.207	222.5
284.439	233.5
284.67	218.5
284.901	233.5
285.132	251.5
285.364	232.5
285.595	252.5
285.826	234.5
286.057	233.5
286.288	243.5
286.52	247.5
286.751	255.5
286.982	245.5
287.213	256.5
287.444	247.5
287.675	249.5
287.906	239.5
288.138	224.5
288.369	234.5
288.6	256.5
288.831	245.5
289.062	232.5
289.293	245.5
289.524	249.5
289.755	245.5
289.986	224.5
290.217	235.5
290.448	252.5
290.679	249.5
290.91	241.5
291.141	244.5
291.371	239.5
291.602	257.5
291.833	254.5
292.064	257.5
292.295	251.5
292.526	245.5
292.757	240.5
292.987	233.5
293.218	261.5
293.449	257.5
293.68	254.5
293.91	246.5
294.141	244.5
294.372	240.5
294.603	238.5
294.833	236.5
295.064	247.5
295.295	251.5
295.525	256.5
295.756	260.5
295.987	262.5
296.217	262.5
296.448	266.5
296.679	273.5
296.909	277.5
297.14	264.5
297.37	261.5
297.601	265.5
297.831	283.5
298.062	252.5
298.292	266.5
298.523	267.5
298.753	272.5
298.984	257.5
299.214	275.5
299.445	277.5
299.675	276.5
299.905	274.5
300.136	267.5
300.366	271.5
300.597	268.5
300.827	271.5
301.057	265.5
301.288	277.5
301.518	289.5
301.748	266.5
301.979	287.5
302.209	287.5
302.439	280.5
302.669	271.5
302.9	270.5
303.13	244.5
303.36	267.5
303.59	254.5
303.82	270.5
304.051	307.5
304.281	301.5
304.511	278.5
304.741	275.5
304.971	274.5
305.201	291.5
305.431	289.5
305.661	259.5
305.891	300.5
306.121	276.5
306.352	293.5
306.582	262.5
306.812	282.5
307.042	286.5
307.272	278.5
307.502	281.5
307.731	269.5
307.961	283.5
308.191	280.5
308.421	278.5
308.651	272.5
308.881	265.5
309.111	265.5
309.341	288.5
309.571	277.5
309.8	276.5
310.03	283.5
310.26	283.5
310.49	274.5
310.72	268.5
310.949	285.5
311.179	293.5
311.409	269.5
311.639	281.5
311.868	276.5
312.098	286.5
312.328	286.5
312.557	298.5
312.787	285.5
313.017	295.5
313.246	295.5
313.476	276.5
313.706	313.5
313.935	309.5
314.165	300.5
314.394	303.5
314.624	290.5
314.853	292.5
315.083	283.5
315.312	313.5
315.542	306.5
315.771	296.5
316.001	303.5
316.23	296.5
316.46	287.5
316.689	304.5
316.919	298.5
317.148	285.5
317.377	304.5
317.607	280.5
317.836	287.5
318.065	283.5
318.295	296.5
318.524	296.5
318.753	316.5
318.983	308.5
319.212	288.5
319.441	284.5
319.67	297.5
319.9	324.5
320.129	291.5
320.358	299.5
320.587	282.5
320.816	289.5
321.046	294.5
321.275	301.5
321.504	291.5
321.733	283.5
321.962	296.5
322.191	311.5
322.42	309.5
322.649	313.5
322.878	317.5
323.108	314.5
323.337	304.5
323.566	316.5
323.795	303.5
324.024	309.5
324.253	309.5
324.482	315.5
324.71	308.5
324.939	299.5
325.168	307.5
325.397	300.5
325.626	305.5
325.855	325.5
326.084	307.5
326.313	321.5
326.542	313.5
326.77	334.5
326.999	325.5
327.228	310.5
327.457	325.5
327.686	331.5
327.914	313.5
328.143	322.5
328.372	324.5
328.6	318.5
328.829	323.5
329.058	312.5
329.287	334.5
329.515	345.5
329.744	327.5
329.972	341.5
330.201	332.5
330.43	328.5
330.658	338.5
330.887	333.5
331.115	353.5
331.344	326.5
331.572	328.5
331.801	335.5
332.03	375.5
332.258	350.5
332.486	349.5
332.715	373.5
332.943	359.5
333.172	389.5
333.4	401.5
333.629	398.5
333.857	405.5
334.085	418.5
334.314	384.5
334.542	387.5
334.771	379.5
334.999	387.5
335.227	401.5
335.455	391.5
335.684	391.5
335.912	377.5
336.14	385.5
336.369	375.5
336.597	379.5
336.825	354.5
337.053	383.5
337.281	373.5
337.51	365.5
337.738	373.5
337.966	347.5
338.194	359.5
338.422	356.5
338.65	337.5
338.878	358.5
339.106	344.5
339.334	373.5
339.562	358.5
339.79	350.5
340.018	329.5
340.246	347.5
340.474	345.5
340.702	333.5
340.93	358.5
341.158	359.5
341.386	330.5
341.614	334.5
341.842	337.5
342.07	336.5
342.298	337.5
342.526	345.5
342.754	336.5
342.981	327.5
343.209	351.5
343.437	364.5
343.665	358.5
343.893	386.5
344.12	423.5
344.348	397.5
344.576	358.5
344.804	358.5
345.031	336.5
345.259	344.5
345.487	333.5
345.714	321.5
345.942	341.5
346.17	333.5
346.397	328.5
346.625	332.5
346.853	337.5
347.08	324.5
347.308	357.5
347.535	321.5
347.763	335.5
347.99	335.5
348.218	341.5
348.445	336.5
348.673	322.5
348.9	333.5
349.128	336.5
349.355	313.5
349.583	320.5
349.81	321.5
350.037	327.5
350.265	309.5
350.492	330.5
350.72	335.5
350.947	326.5
351.174	305.5
351.402	336.5
351.629	312.5
351.856	328.5
352.083	326.5
352.311	326.5
352.538	328.5
352.765	327.5
352.992	322.5
353.22	309.5
353.447	300.5
353.674	334.5
353.901	324.5
354.128	308.5
354.355	314.5
354.583	312.5
354.81	324.5
355.037	317.5
355.264	322.5
355.491	340.5
355.718	325.5
355.945	319.5
356.172	325.5
356.399	339.5
356.626	339.5
356.853	340.5
357.08	338.5
357.307	350.5
357.534	313.5
357.761	315.5
357.988	324.5
358.215	339.5
358.441	345.5
358.668	322.5
358.895	347.5
359.122	330.5
359.349	316.5
359.576	311.5
359.802	319.5
360.029	324.5
360.256	337.5
360.483	345.5
360.709	344.5
360.936	324.5
361.163	339.5
361.39	315.5
361.616	311.5
361.843	325.5
362.07	316.5
362.296	337.5
362.523	337.5
362.749	332.5
362.976	325.5
363.203	341.5
363.429	312.5
363.656	323.5
363.882	343.5
364.109	312.5
364.335	337.5
364.562	326.5
364.788	330.5
365.015	341.5
365.241	345.5
365.468	343.5
365.694	328.5
365.92	344.5
366.147	330.5
366.373	326.5
366.599	345.5
366.826	322.5
367.052	339.5
367.278	329.5
367.505	331.5
367.731	332.5
367.957	347.5
368.184	314.5
368.41	323.5
368.636	325.5
368.862	344.5
369.089	344.5
369.315	339.5
369.541	354.5
369.767	331.5
369.993	344.5
370.219	348.5
370.445	350.5
370.672	359.5
370.898	345.5
371.124	337.5
371.35	358.5
371.576	372.5
371.802	360.5
372.028	358.5
372.254	374.5
372.48	371.5
372.706	367.5
372.932	350.5
373.158	383.5
373.384	375.5
373.61	372.5
373.835	379.5
374.061	363.5
374.287	390.5
374.513	386.5
374.739	408.5
374.965	390.5
375.191	408.5
375.416	395.5
375.642	395.5
375.868	388.5
376.094	393.5
376.319	358.5
376.545	363.5
376.771	367.5
376.997	369.5
377.222	371.5
377.448	359.5
377.674	350.5
377.899	370.5
378.125	371.5
378.35	361.5
378.576	379.5
378.802	345.5
379.027	357.5
379.253	371.5
379.478	346.5
379.704	366.5
379.929	351.5
380.155	364.5
380.38	352.5
380.606	352.5
380.831	364.5
381.057	364.5
381.282	374.5
381.507	371.5
381.733	379.5
381.958	396.5
382.184	369.5
382.409	372.5
382.634	378.5
382.86	382.5
383.085	362.5
383.31	398.5
383.535	394.5
383.761	408.5
383.986	405.5
384.211	403.5
384.436	420.5
384.662	418.5
384.887	419.5
385.112	396.5
385.337	434.5
385.562	434.5
385.787	430.5
386.013	431.5
386.238	424.5
386.463	441.5
386.688	433.5
386.913	435.5
387.138	416.5
387.363	418.5
387.588	420.5
387.813	438.5
388.038	447.5
388.263	440.5
388.488	464.5
388.713	425.5
388.938	440.5
389.163	427.5
389.387	435.5
389.612	438.5
389.837	447.5
390.062	422.5
390.287	421.5
390.512	436.5
390.736	450.5
390.961	451.5
391.186	447.5
391.411	464.5
391.636	464.5
391.86	460.5
392.085	482.5
392.31	489.5
392.534	475.5
392.759	463.5
392.984	456.5
393.208	478.5
393.433	456.5
393.658	477.5
393.882	451.5
394.107	474.5
394.331	475.5
394.556	451.5
394.78	453.5
395.005	474.5
395.229	461.5
395.454	453.5
395.678	492.5
395.903	480.5
396.127	498.5
396.352	457.5
396.576	461.5
396.801	465.5
397.025	489.5
397.249	486.5
397.474	484.5
397.698	488.5
397.922	509.5
398.147	505.5
398.371	513.5
398.595	506.5
398.82	550.5
399.044	546.5
399.268	572.5
399.492	639.5
399.717	684.5
399.941	682.5
400.165	645.5
400.389	623.5
400.613	577.5
400.837	559.5
401.062	525.5
401.286	540.5
401.51	554.5
401.734	532.5
401.958	544.5
402.182	551.5
402.406	551.5
402.63	556.5
402.854	574.5
403.078	572.5
403.302	534.5
403.526	569.5
403.75	567.5
403.974	584.5
404.198	591.5
404.422	585.5
404.645	561.5
404.869	578.5
405.093	577.5
405.317	568.5
405.541	568.5
405.765	572.5
405.988	564.5
406.212	588.5
406.436	580.5
406.66	608.5
406.883	616.5
407.107	625.5
407.331	643.5
407.555	650.5
407.778	646.5
408.002	653.5
408.226	632.5
408.449	642.5
408.673	624.5
408.896	597.5
409.12	579.5
409.344	594.5
409.567	602.5
409.791	599.5
410.014	595.5
410.238	571.5
410.461	602.5
410.685	573.5
410.908	581.5
411.132	564.5
411.355	571.5
411.578	593.5
411.802	553.5
412.025	569.5
412.249	575.5
412.472	574.5
412.695	559.5
412.919	577.5
413.142	564.5
413.365	539.5
413.589	559.5
413.812	551.5
414.035	566.5
414.258	554.5
414.482	571.5
414.705	567.5
414.928	556.5
415.151	555.5
415.374	561.5
415.597	559.5
415.821	548.5
416.044	554.5
416.267	534.5
416.49	547.5
416.713	543.5
416.936	556.5
417.159	537.5
417.382	523.5
417.605	519.5
417.828	544.5
418.051	550.5
418.274	552.5
418.497	522.5
418.72	544.5
418.943	553.5
419.166	601.5
419.389	592.5
419.611	607.5
419.834	585.5
420.057	549.5
420.28	541.5
420.503	517.5
420.726	531.5
420.948	526.5
421.171	523.5
421.394	533.5
421.617	529.5
421.839	518.5
422.062	529.5
422.285	535.5
422.507	539.5
422.73	534.5
422.953	563.5
423.175	561.5
423.398	559.5
423.621	560.5
423.843	538.5
424.066	573.5
424.288	549.5
424.511	545.5
424.733	560.5
424.956	540.5
425.178	529.5
425.401	536.5
425.623	532.5
425.846	538.5
426.068	536.5
426.291	525.5
426.513	500.5
426.735	537.5
426.958	504.5
427.18	501.5
427.402	509.5
427.625	519.5
427.847	509.5
428.069	511.5
428.292	506.5
428.514	489.5
428.736	486.5
428.958	486.5
429.181	481.5
429.403	489.5
429.625	484.5
429.847	482.5
430.069	484.5
430.292	491.5
430.514	511.5
430.736	493.5
430.958	517.5
431.18	502.5
431.402	521.5
431.624	485.5
431.846	505.5
432.068	495.5
432.29	492.5
432.512	499.5
432.734	501.5
432.956	518.5
433.178	495.5
433.4	508.5
433.622	519.5
433.844	517.5
434.066	512.5
434.287	504.5
434.509	531.5
434.731	541.5
434.953	548.5
435.175	564.5
435.397	549.5
435.618	524.5
435.84	496.5
436.062	511.5
436.284	519.5
436.505	524.5
436.727	513.5
436.949	514.5
437.17	507.5
437.392	457.5
437.614	492.5
437.835	468.5
438.057	493.5
438.278	473.5
438.5	483.5
438.721	480.5
438.943	488.5
439.165	497.5
439.386	501.5
439.608	499.5
439.829	489.5
440.05	511.5
440.272	518.5
440.493	511.5
440.715	524.5
440.936	522.5
441.158	543.5
441.379	549.5
441.6	554.5
441.822	575.5
442.043	552.5
442.264	555.5
442.486	553.5
442.707	551.5
442.928	542.5
443.149	555.5
443.371	516.5
443.592	521.5
443.813	522.5
444.034	555.5
444.255	567.5
444.476	585.5
444.698	596.5
444.919	604.5
445.14	668.5
445.361	613.5
445.582	563.5
445.803	534.5
446.024	533.5
446.245	533.5
446.466	527.5
446.687	529.5
446.908	520.5
447.129	492.5
447.35	510.5
447.571	499.5
447.792	489.5
448.013	483.5
448.234	483.5
448.455	461.5
448.675	475.5
448.896	482.5
449.117	486.5
449.338	460.5
449.559	474.5
449.779	450.5
450	458.5
450.221	478.5
450.442	501.5
450.662	491.5
450.883	459.5
451.104	489.5
451.324	489.5
451.545	469.5
451.766	457.5
451.986	471.5
452.207	460.5
452.428	462.5
452.648	467.5
452.869	439.5
453.089	435.5
453.31	454.5
453.53	440.5
453.751	434.5
453.971	451.5
454.192	445.5
454.412	449.5
454.633	427.5
454.853	444.5
455.073	456.5
455.294	441.5
455.514	452.5
455.734	452.5
455.955	437.5
456.175	441.5
456.395	439.5
456.616	431.5
456.836	426.5
457.056	458.5
457.276	452.5
457.497	448.5
457.717	440.5
457.937	442.5
458.157	461.5
458.377	444.5
458.598	454.5
458.818	467.5
459.038	484.5
459.258	473.5
459.478	514.5
459.698	511.5
459.918	539.5
460.138	529.5
460.358	545.5
460.578	540.5
460.798	555.5
461.018	583.5
461.238	570.5
461.458	564.5
461.678	565.5
461.898	586.5
462.118	589.5
462.338	580.5
462.558	607.5
462.777	636.5
462.997	657.5
463.217	695.5
463.437	684.5
463.657	670.5
463.876	644.5
464.096	637.5
464.316	630.5
464.536	631.5
464.755	617.5
464.975	600.5
465.195	588.5
465.414	563.5
465.634	548.5
465.854	515.5
466.073	495.5
466.293	509.5
466.512	511.5
466.732	499.5
466.951	503.5
467.171	483.5
467.391	502.5
467.61	475.5
467.829	495.5
468.049	465.5
468.268	495.5
468.488	464.5
468.707	476.5
468.927	487.5
469.146	479.5
469.365	503.5
469.585	476.5
469.804	499.5
470.023	489.5
470.243	493.5
470.462	511.5
470.681	519.5
470.901	514.5
471.12	508.5
471.339	495.5
471.558	481.5
471.777	500.5
471.997	502.5
472.216	483.5
472.435	491.5
472.654	475.5
472.873	454.5
473.092	476.5
473.311	459.5
473.53	485.5
473.749	476.5
473.968	482.5
474.187	460.5
474.406	458.5
474.625	499.5
474.844	473.5
475.063	471.5
475.282	466.5
475.501	497.5
475.72	507.5
475.939	492.5
476.158	503.5
476.377	494.5
476.596	485.5
476.814	527.5
477.033	495.5
477.252	512.5
477.471	523.5
477.69	497.5
477.908	533.5
478.127	543.5
478.346	546.5
478.564	560.5
478.783	567.5
479.002	573.5
479.22	571.5
479.439	578.5
479.658	556.5
479.876	571.5
480.095	559.5
480.313	586.5
480.532	605.5
480.751	579.5
480.969	576.5
481.188	556.5
481.406	561.5
481.624	568.5
481.843	554.5
482.061	539.5
482.28	532.5
482.498	525.5
482.717	566.5
482.935	527.5
483.153	537.5
483.372	563.5
483.59	534.5
483.808	553.5
484.027	538.5
484.245	525.5
484.463	525.5
484.681	552.5
484.9	552.5
485.118	574.5
485.336	523.5
485.554	543.5
485.772	525.5
485.99	548.5
486.209	567.5
486.427	552.5
486.645	551.5
486.863	556.5
487.081	550.5
487.299	531.5
487.517	529.5
487.735	551.5
487.953	565.5
488.171	563.5
488.389	564.5
488.607	573.5
488.825	550.5
489.043	524.5
489.261	551.5
489.479	570.5
489.696	561.5
489.914	577.5
490.132	537.5
490.35	563.5
490.568	572.5
490.786	562.5
491.003	581.5
491.221	585.5
491.439	575.5
491.657	554.5
491.874	593.5
492.092	575.5
492.31	583.5
492.527	577.5
492.745	560.5
492.963	566.5
493.18	572.5
493.398	557.5
493.615	565.5
493.833	592.5
494.05	583.5
494.268	575.5
494.485	590.5
494.703	565.5
494.92	595.5
495.138	602.5
495.355	592.5
495.573	599.5
495.79	600.5
496.008	621.5
496.225	599.5
496.442	607.5
496.66	625.5
496.877	619.5
497.094	627.5
497.312	617.5
497.529	641.5
497.746	647.5
497.963	696.5
498.181	700.5
498.398	715.5
498.615	765.5
498.832	782.5
499.049	818.5
499.267	861.5
499.484	924.5
499.701	995.5
499.918	1058.5
500.135	1167.5
500.352	1251.5
500.569	1297.5
500.786	1283.5
501.003	1223.5
501.22	1164.5
501.437	1037.5
501.654	986.5
501.871	917.5
502.088	865.5
502.305	789.5
502.522	761.5
502.739	763.5
502.956	733.5
503.172	714.5
503.389	696.5
503.606	675.5
503.823	648.5
504.04	649.5
504.256	632.5
504.473	629.5
504.69	633.5
504.907	635.5
505.123	588.5
505.34	579.5
505.557	575.5
505.773	582.5
505.99	573.5
506.207	549.5
506.423	534.5
506.64	520.5
506.856	524.5
507.073	529.5
507.289	553.5
507.506	509.5
507.722	534.5
507.939	504.5
508.155	507.5
508.372	522.5
508.588	472.5
508.805	489.5
509.021	477.5
509.238	479.5
509.454	489.5
509.67	467.5
509.887	473.5
510.103	474.5
510.319	468.5
510.536	485.5
510.752	474.5
510.968	472.5
511.184	466.5
511.401	480.5
511.617	443.5
511.833	471.5
512.049	453.5
512.265	474.5
512.481	457.5
512.698	455.5
512.914	447.5
513.13	471.5
513.346	469.5
513.562	484.5
513.778	489.5
513.994	463.5
514.21	484.5
514.426	478.5
514.642	449.5
514.858	457.5
515.074	492.5
515.29	483.5
515.506	487.5
515.721	492.5
515.937	492.5
516.153	486.5
516.369	505.5
516.585	527.5
516.801	524.5
517.016	534.5
517.232	575.5
517.448	581.5
517.664	595.5
517.879	598.5
518.095	573.5
518.311	584.5
518.527	565.5
518.742	539.5
518.958	555.5
519.173	529.5
519.389	509.5
519.605	493.5
