Data from Fe(NO3)3@0.0125M.TitratingCurve.Agarose3%dH2O.NegLispCup.LampEnergy10.LIBS07252019_HRD10591_17-00-10-336.txt Node
Date: Thu Jul 25 17:00:10 EDT 2019
User: cochatt
Spectrometer: HR+D1059
Trigger mode: 1
Integration Time (sec): 1.000000E-1
Scans to average: 1
Electric dark correction enabled: true
Nonlinearity correction enabled: false
Boxcar width: 0
XAxis mode: Wavelengths
Number of Pixels in Spectrum: 2048
>>>>>Begin Spectral Data<<<<<
223.165	-10.31
223.4	-10.31
223.635	-10.31
223.869	-24.31
224.104	-14.31
224.338	-16.31
224.573	-5.31
224.808	-23.31
225.042	-0.31
225.277	14.69
225.511	-13.31
225.746	6.69
225.98	5.69
226.215	-5.31
226.449	30.69
226.683	22.69
226.918	18.69
227.152	13.69
227.387	31.69
227.621	35.69
227.856	44.69
228.09	36.69
228.324	50.69
228.559	62.69
228.793	63.69
229.027	91.69
229.262	97.69
229.496	86.69
229.73	82.69
229.964	86.69
230.199	100.69
230.433	97.69
230.667	85.69
230.901	104.69
231.136	99.69
231.37	82.69
231.604	101.69
231.838	103.69
232.072	106.69
232.306	104.69
232.541	83.69
232.775	100.69
233.009	132.69
233.243	106.69
233.477	108.69
233.711	113.69
233.945	107.69
234.179	106.69
234.413	118.69
234.647	104.69
234.881	115.69
235.115	118.69
235.349	110.69
235.583	122.69
235.817	108.69
236.051	120.69
236.285	113.69
236.519	100.69
236.753	117.69
236.987	118.69
237.221	107.69
237.455	126.69
237.689	110.69
237.922	129.69
238.156	123.69
238.39	100.69
238.624	121.69
238.858	126.69
239.091	107.69
239.325	118.69
239.559	108.69
239.793	128.69
240.027	113.69
240.26	119.69
240.494	130.69
240.728	134.69
240.961	139.69
241.195	125.69
241.429	130.69
241.662	124.69
241.896	123.69
242.13	127.69
242.363	127.69
242.597	126.69
242.83	139.69
243.064	115.69
243.298	145.69
243.531	130.69
243.765	122.69
243.998	124.69
244.232	136.69
244.465	132.69
244.699	110.69
244.932	137.69
245.166	136.69
245.399	140.69
245.633	135.69
245.866	145.69
246.099	129.69
246.333	138.69
246.566	152.69
246.8	138.69
247.033	136.69
247.266	137.69
247.5	134.69
247.733	158.69
247.966	128.69
248.2	154.69
248.433	138.69
248.666	149.69
248.899	160.69
249.133	153.69
249.366	150.69
249.599	153.69
249.832	159.69
250.066	152.69
250.299	148.69
250.532	136.69
250.765	151.69
250.998	152.69
251.231	163.69
251.465	158.69
251.698	165.69
251.931	161.69
252.164	153.69
252.397	156.69
252.63	158.69
252.863	170.69
253.096	168.69
253.329	163.69
253.562	169.69
253.795	175.69
254.028	170.69
254.261	171.69
254.494	170.69
254.727	166.69
254.96	166.69
255.193	155.69
255.426	179.69
255.659	180.69
255.892	180.69
256.124	169.69
256.357	170.69
256.59	164.69
256.823	175.69
257.056	178.69
257.289	172.69
257.521	191.69
257.754	181.69
257.987	187.69
258.22	196.69
258.452	183.69
258.685	181.69
258.918	174.69
259.151	170.69
259.383	174.69
259.616	201.69
259.849	186.69
260.081	209.69
260.314	209.69
260.547	207.69
260.779	184.69
261.012	205.69
261.244	187.69
261.477	196.69
261.71	215.69
261.942	210.69
262.175	182.69
262.407	182.69
262.64	190.69
262.872	201.69
263.105	194.69
263.337	204.69
263.57	199.69
263.802	179.69
264.035	186.69
264.267	198.69
264.499	203.69
264.732	210.69
264.964	188.69
265.197	196.69
265.429	180.69
265.661	198.69
265.894	212.69
266.126	200.69
266.358	203.69
266.591	200.69
266.823	205.69
267.055	206.69
267.287	203.69
267.52	205.69
267.752	201.69
267.984	205.69
268.216	216.69
268.448	217.69
268.681	200.69
268.913	208.69
269.145	224.69
269.377	203.69
269.609	215.69
269.841	211.69
270.073	215.69
270.306	209.69
270.538	207.69
270.77	214.69
271.002	214.69
271.234	230.69
271.466	214.69
271.698	230.69
271.93	224.69
272.162	228.69
272.394	215.69
272.626	229.69
272.858	231.69
273.09	216.69
273.322	229.69
273.553	216.69
273.785	247.69
274.017	250.69
274.249	247.69
274.481	254.69
274.713	269.69
274.945	276.69
275.176	260.69
275.408	264.69
275.64	247.69
275.872	255.69
276.104	246.69
276.335	241.69
276.567	261.69
276.799	247.69
277.031	250.69
277.262	249.69
277.494	260.69
277.726	248.69
277.957	264.69
278.189	236.69
278.421	243.69
278.652	231.69
278.884	236.69
279.115	243.69
279.347	244.69
279.579	268.69
279.81	258.69
280.042	259.69
280.273	266.69
280.505	255.69
280.736	266.69
280.968	273.69
281.199	257.69
281.431	281.69
281.662	261.69
281.894	250.69
282.125	267.69
282.356	271.69
282.588	271.69
282.819	277.69
283.051	256.69
283.282	264.69
283.513	276.69
283.745	274.69
283.976	269.69
284.207	274.69
284.439	261.69
284.67	284.69
284.901	283.69
285.132	273.69
285.364	293.69
285.595	274.69
285.826	278.69
286.057	270.69
286.288	266.69
286.52	292.69
286.751	282.69
286.982	287.69
287.213	296.69
287.444	281.69
287.675	279.69
287.906	290.69
288.138	278.69
288.369	291.69
288.6	299.69
288.831	287.69
289.062	295.69
289.293	315.69
289.524	310.69
289.755	303.69
289.986	304.69
290.217	283.69
290.448	299.69
290.679	297.69
290.91	306.69
291.141	310.69
291.371	293.69
291.602	298.69
291.833	277.69
292.064	286.69
292.295	293.69
292.526	303.69
292.757	323.69
292.987	295.69
293.218	289.69
293.449	311.69
293.68	297.69
293.91	291.69
294.141	311.69
294.372	306.69
294.603	291.69
294.833	307.69
295.064	311.69
295.295	311.69
295.525	307.69
295.756	318.69
295.987	296.69
296.217	309.69
296.448	297.69
296.679	317.69
296.909	341.69
297.14	324.69
297.37	315.69
297.601	321.69
297.831	322.69
298.062	319.69
298.292	314.69
298.523	336.69
298.753	327.69
298.984	329.69
299.214	320.69
299.445	326.69
299.675	335.69
299.905	303.69
300.136	310.69
300.366	341.69
300.597	327.69
300.827	349.69
301.057	327.69
301.288	336.69
301.518	326.69
301.748	341.69
301.979	338.69
302.209	359.69
302.439	353.69
302.669	359.69
302.9	347.69
303.13	342.69
303.36	356.69
303.59	352.69
303.82	345.69
304.051	342.69
304.281	361.69
304.511	364.69
304.741	339.69
304.971	346.69
305.201	354.69
305.431	363.69
305.661	358.69
305.891	364.69
306.121	370.69
306.352	370.69
306.582	367.69
306.812	335.69
307.042	363.69
307.272	379.69
307.502	347.69
307.731	354.69
307.961	359.69
308.191	350.69
308.421	336.69
308.651	373.69
308.881	360.69
309.111	347.69
309.341	357.69
309.571	355.69
309.8	359.69
310.03	345.69
310.26	354.69
310.49	363.69
310.72	345.69
310.949	361.69
311.179	339.69
311.409	352.69
311.639	369.69
311.868	368.69
312.098	389.69
312.328	366.69
312.557	370.69
312.787	374.69
313.017	383.69
313.246	373.69
313.476	368.69
313.706	387.69
313.935	380.69
314.165	379.69
314.394	377.69
314.624	368.69
314.853	379.69
315.083	384.69
315.312	384.69
315.542	379.69
315.771	394.69
316.001	376.69
316.23	393.69
316.46	401.69
316.689	383.69
316.919	383.69
317.148	389.69
317.377	376.69
317.607	380.69
317.836	397.69
318.065	402.69
318.295	391.69
318.524	382.69
318.753	379.69
318.983	405.69
319.212	402.69
319.441	386.69
319.67	393.69
319.9	390.69
320.129	411.69
320.358	417.69
320.587	388.69
320.816	414.69
321.046	422.69
321.275	399.69
321.504	390.69
321.733	388.69
321.962	418.69
322.191	403.69
322.42	415.69
322.649	394.69
322.878	433.69
323.108	418.69
323.337	420.69
323.566	398.69
323.795	407.69
324.024	409.69
324.253	415.69
324.482	420.69
324.71	422.69
324.939	424.69
325.168	416.69
325.397	431.69
325.626	419.69
325.855	420.69
326.084	432.69
326.313	422.69
326.542	420.69
326.77	448.69
326.999	427.69
327.228	426.69
327.457	416.69
327.686	435.69
327.914	422.69
328.143	433.69
328.372	440.69
328.6	419.69
328.829	440.69
329.058	434.69
329.287	436.69
329.515	430.69
329.744	422.69
329.972	445.69
330.201	450.69
330.43	440.69
330.658	424.69
330.887	451.69
331.115	446.69
331.344	440.69
331.572	439.69
331.801	440.69
332.03	461.69
332.258	468.69
332.486	441.69
332.715	472.69
332.943	482.69
333.172	467.69
333.4	470.69
333.629	506.69
333.857	496.69
334.085	498.69
334.314	490.69
334.542	491.69
334.771	479.69
334.999	489.69
335.227	491.69
335.455	500.69
335.684	494.69
335.912	495.69
336.14	506.69
336.369	517.69
336.597	512.69
336.825	491.69
337.053	472.69
337.281	478.69
337.51	475.69
337.738	475.69
337.966	490.69
338.194	485.69
338.422	498.69
338.65	479.69
338.878	470.69
339.106	474.69
339.334	466.69
339.562	450.69
339.79	449.69
340.018	475.69
340.246	464.69
340.474	468.69
340.702	474.69
340.93	476.69
341.158	457.69
341.386	458.69
341.614	455.69
341.842	450.69
342.07	482.69
342.298	488.69
342.526	441.69
342.754	470.69
342.981	472.69
343.209	464.69
343.437	471.69
343.665	480.69
343.893	516.69
344.12	519.69
344.348	481.69
344.576	500.69
344.804	490.69
345.031	468.69
345.259	467.69
345.487	481.69
345.714	477.69
345.942	435.69
346.17	453.69
346.397	473.69
346.625	476.69
346.853	460.69
347.08	452.69
347.308	446.69
347.535	461.69
347.763	450.69
347.99	470.69
348.218	464.69
348.445	454.69
348.673	457.69
348.9	458.69
349.128	459.69
349.355	462.69
349.583	481.69
349.81	457.69
350.037	481.69
350.265	454.69
350.492	456.69
350.72	471.69
350.947	478.69
351.174	433.69
351.402	446.69
351.629	463.69
351.856	445.69
352.083	454.69
352.311	439.69
352.538	437.69
352.765	446.69
352.992	446.69
353.22	433.69
353.447	457.69
353.674	456.69
353.901	453.69
354.128	450.69
354.355	457.69
354.583	450.69
354.81	426.69
355.037	443.69
355.264	444.69
355.491	452.69
355.718	462.69
355.945	481.69
356.172	459.69
356.399	456.69
356.626	446.69
356.853	453.69
357.08	468.69
357.307	482.69
357.534	468.69
357.761	449.69
357.988	468.69
358.215	465.69
358.441	450.69
358.668	450.69
358.895	452.69
359.122	469.69
359.349	470.69
359.576	457.69
359.802	467.69
360.029	470.69
360.256	454.69
360.483	449.69
360.709	461.69
360.936	466.69
361.163	471.69
361.39	467.69
361.616	466.69
361.843	464.69
362.07	483.69
362.296	461.69
362.523	468.69
362.749	488.69
362.976	449.69
363.203	476.69
363.429	475.69
363.656	473.69
363.882	454.69
364.109	450.69
364.335	449.69
364.562	457.69
364.788	450.69
365.015	466.69
365.241	465.69
365.468	454.69
365.694	456.69
365.92	479.69
366.147	469.69
366.373	460.69
366.599	469.69
366.826	493.69
367.052	487.69
367.278	498.69
367.505	462.69
367.731	467.69
367.957	468.69
368.184	476.69
368.41	465.69
368.636	482.69
368.862	503.69
369.089	478.69
369.315	478.69
369.541	491.69
369.767	501.69
369.993	487.69
370.219	512.69
370.445	512.69
370.672	479.69
370.898	484.69
371.124	506.69
371.35	486.69
371.576	497.69
371.802	510.69
372.028	510.69
372.254	505.69
372.48	499.69
372.706	497.69
372.932	505.69
373.158	523.69
373.384	519.69
373.61	530.69
373.835	522.69
374.061	523.69
374.287	531.69
374.513	512.69
374.739	522.69
374.965	534.69
375.191	540.69
375.416	537.69
375.642	527.69
375.868	533.69
376.094	534.69
376.319	497.69
376.545	519.69
376.771	527.69
376.997	516.69
377.222	505.69
377.448	498.69
377.674	508.69
377.899	515.69
378.125	498.69
378.35	497.69
378.576	470.69
378.802	497.69
379.027	505.69
379.253	501.69
379.478	515.69
379.704	481.69
379.929	528.69
380.155	503.69
380.38	516.69
380.606	501.69
380.831	522.69
381.057	537.69
381.282	488.69
381.507	501.69
381.733	519.69
381.958	526.69
382.184	529.69
382.409	532.69
382.634	521.69
382.86	532.69
383.085	541.69
383.31	532.69
383.535	534.69
383.761	532.69
383.986	547.69
384.211	550.69
384.436	550.69
384.662	542.69
384.887	537.69
385.112	549.69
385.337	547.69
385.562	551.69
385.787	542.69
386.013	566.69
386.238	578.69
386.463	573.69
386.688	573.69
386.913	582.69
387.138	569.69
387.363	582.69
387.588	582.69
387.813	586.69
388.038	576.69
388.263	551.69
388.488	576.69
388.713	591.69
388.938	562.69
389.163	587.69
389.387	599.69
389.612	584.69
389.837	589.69
390.062	586.69
390.287	590.69
390.512	599.69
390.736	600.69
390.961	587.69
391.186	590.69
391.411	596.69
391.636	608.69
391.86	595.69
392.085	626.69
392.31	621.69
392.534	618.69
392.759	605.69
392.984	629.69
393.208	619.69
393.433	658.69
393.658	650.69
393.882	632.69
394.107	619.69
394.331	590.69
394.556	593.69
394.78	618.69
395.005	601.69
395.229	624.69
395.454	600.69
395.678	608.69
395.903	635.69
396.127	642.69
396.352	628.69
396.576	639.69
396.801	633.69
397.025	652.69
397.249	641.69
397.474	634.69
397.698	656.69
397.922	644.69
398.147	638.69
398.371	652.69
398.595	671.69
398.82	693.69
399.044	690.69
399.268	711.69
399.492	757.69
399.717	760.69
399.941	792.69
400.165	762.69
400.389	756.69
400.613	727.69
400.837	717.69
401.062	714.69
401.286	684.69
401.51	657.69
401.734	694.69
401.958	692.69
402.182	688.69
402.406	655.69
402.63	688.69
402.854	702.69
403.078	664.69
403.302	654.69
403.526	673.69
403.75	707.69
403.974	691.69
404.198	711.69
404.422	689.69
404.645	707.69
404.869	708.69
405.093	697.69
405.317	705.69
405.541	708.69
405.765	698.69
405.988	696.69
406.212	709.69
406.436	725.69
406.66	734.69
406.883	728.69
407.107	774.69
407.331	762.69
407.555	769.69
407.778	777.69
408.002	766.69
408.226	742.69
408.449	775.69
408.673	745.69
408.896	768.69
409.12	734.69
409.344	722.69
409.567	730.69
409.791	715.69
410.014	716.69
410.238	735.69
410.461	711.69
410.685	710.69
410.908	730.69
411.132	742.69
411.355	732.69
411.578	706.69
411.802	699.69
412.025	702.69
412.249	712.69
412.472	710.69
412.695	683.69
412.919	692.69
413.142	715.69
413.365	684.69
413.589	676.69
413.812	671.69
414.035	672.69
414.258	683.69
414.482	679.69
414.705	683.69
414.928	701.69
415.151	662.69
415.374	700.69
415.597	671.69
415.821	674.69
416.044	672.69
416.267	659.69
416.49	668.69
416.713	647.69
416.936	666.69
417.159	660.69
417.382	650.69
417.605	670.69
417.828	648.69
418.051	661.69
418.274	646.69
418.497	654.69
418.72	666.69
418.943	666.69
419.166	693.69
419.389	706.69
419.611	736.69
419.834	695.69
420.057	693.69
420.28	648.69
420.503	636.69
420.726	640.69
420.948	636.69
421.171	639.69
421.394	680.69
421.617	636.69
421.839	677.69
422.062	650.69
422.285	653.69
422.507	654.69
422.73	666.69
422.953	679.69
423.175	652.69
423.398	648.69
423.621	647.69
423.843	652.69
424.066	655.69
424.288	649.69
424.511	636.69
424.733	647.69
424.956	649.69
425.178	652.69
425.401	626.69
425.623	635.69
425.846	631.69
426.068	655.69
426.291	651.69
426.513	662.69
426.735	648.69
426.958	642.69
427.18	629.69
427.402	654.69
427.625	643.69
427.847	629.69
428.069	637.69
428.292	643.69
428.514	642.69
428.736	637.69
428.958	629.69
429.181	607.69
429.403	626.69
429.625	620.69
429.847	610.69
430.069	645.69
430.292	644.69
430.514	607.69
430.736	612.69
430.958	635.69
431.18	624.69
431.402	611.69
431.624	615.69
431.846	632.69
432.068	612.69
432.29	636.69
432.512	633.69
432.734	619.69
432.956	638.69
433.178	633.69
433.4	639.69
433.622	645.69
433.844	646.69
434.066	658.69
434.287	649.69
434.509	663.69
434.731	664.69
434.953	643.69
435.175	652.69
435.397	643.69
435.618	644.69
435.84	635.69
436.062	637.69
436.284	626.69
436.505	663.69
436.727	632.69
436.949	637.69
437.17	618.69
437.392	623.69
437.614	644.69
437.835	611.69
438.057	611.69
438.278	610.69
438.5	611.69
438.721	619.69
438.943	637.69
439.165	638.69
439.386	642.69
439.608	611.69
439.829	627.69
440.05	644.69
440.272	625.69
440.493	637.69
440.715	643.69
440.936	630.69
441.158	631.69
441.379	630.69
441.6	673.69
441.822	633.69
442.043	654.69
442.264	643.69
442.486	662.69
442.707	650.69
442.928	628.69
443.149	632.69
443.371	636.69
443.592	660.69
443.813	656.69
444.034	602.69
444.255	653.69
444.476	658.69
444.698	668.69
444.919	675.69
445.14	734.69
445.361	690.69
445.582	662.69
445.803	642.69
446.024	630.69
446.245	650.69
446.466	641.69
446.687	608.69
446.908	630.69
447.129	610.69
447.35	638.69
447.571	605.69
447.792	591.69
448.013	610.69
448.234	612.69
448.455	586.69
448.675	591.69
448.896	568.69
449.117	567.69
449.338	602.69
449.559	608.69
449.779	556.69
450	585.69
450.221	594.69
450.442	592.69
450.662	578.69
450.883	580.69
451.104	594.69
451.324	550.69
451.545	588.69
451.766	586.69
451.986	584.69
452.207	587.69
452.428	592.69
452.648	578.69
452.869	559.69
453.089	561.69
453.31	565.69
453.53	567.69
453.751	583.69
453.971	572.69
454.192	551.69
454.412	568.69
454.633	574.69
454.853	593.69
455.073	563.69
455.294	576.69
455.514	565.69
455.734	551.69
455.955	550.69
456.175	537.69
456.395	564.69
456.616	582.69
456.836	577.69
457.056	574.69
457.276	567.69
457.497	582.69
457.717	574.69
457.937	572.69
458.157	579.69
458.377	585.69
458.598	583.69
458.818	603.69
459.038	620.69
459.258	607.69
459.478	625.69
459.698	633.69
459.918	635.69
460.138	653.69
460.358	656.69
460.578	652.69
460.798	658.69
461.018	677.69
461.238	676.69
461.458	674.69
461.678	673.69
461.898	680.69
462.118	699.69
462.338	683.69
462.558	698.69
462.777	730.69
462.997	719.69
463.217	752.69
463.437	764.69
463.657	743.69
463.876	723.69
464.096	742.69
464.316	724.69
464.536	734.69
464.755	741.69
464.975	718.69
465.195	701.69
465.414	688.69
465.634	673.69
465.854	636.69
466.073	642.69
466.293	645.69
466.512	634.69
466.732	641.69
466.951	631.69
467.171	611.69
467.391	622.69
467.61	619.69
467.829	630.69
468.049	608.69
468.268	606.69
468.488	626.69
468.707	626.69
468.927	620.69
469.146	630.69
469.365	646.69
469.585	619.69
469.804	606.69
470.023	638.69
470.243	601.69
470.462	616.69
470.681	624.69
470.901	634.69
471.12	619.69
471.339	628.69
471.558	628.69
471.777	618.69
471.997	628.69
472.216	640.69
472.435	617.69
472.654	630.69
472.873	608.69
473.092	628.69
473.311	624.69
473.53	608.69
473.749	645.69
473.968	633.69
474.187	635.69
474.406	628.69
474.625	634.69
474.844	632.69
475.063	622.69
475.282	630.69
475.501	644.69
475.72	642.69
475.939	655.69
476.158	650.69
476.377	654.69
476.596	676.69
476.814	703.69
477.033	666.69
477.252	684.69
477.471	660.69
477.69	663.69
477.908	665.69
478.127	720.69
478.346	701.69
478.564	731.69
478.783	694.69
479.002	738.69
479.22	750.69
479.439	748.69
479.658	750.69
479.876	742.69
480.095	737.69
480.313	772.69
480.532	755.69
480.751	728.69
480.969	704.69
481.188	752.69
481.406	743.69
481.624	730.69
481.843	726.69
482.061	744.69
482.28	734.69
482.498	755.69
482.717	722.69
482.935	746.69
483.153	735.69
483.372	723.69
483.59	758.69
483.808	745.69
484.027	725.69
484.245	737.69
484.463	738.69
484.681	761.69
484.9	751.69
485.118	761.69
485.336	759.69
485.554	785.69
485.772	743.69
485.99	747.69
486.209	755.69
486.427	785.69
486.645	769.69
486.863	780.69
487.081	771.69
487.299	788.69
487.517	757.69
487.735	732.69
487.953	772.69
488.171	786.69
488.389	752.69
488.607	767.69
488.825	781.69
489.043	755.69
489.261	757.69
489.479	784.69
489.696	777.69
489.914	753.69
490.132	761.69
490.35	770.69
490.568	764.69
490.786	750.69
491.003	773.69
491.221	757.69
491.439	758.69
491.657	786.69
491.874	761.69
492.092	775.69
492.31	754.69
492.527	799.69
492.745	805.69
492.963	780.69
493.18	788.69
493.398	779.69
493.615	778.69
493.833	790.69
494.05	820.69
494.268	779.69
494.485	810.69
494.703	814.69
494.92	837.69
495.138	834.69
495.355	805.69
495.573	827.69
495.79	798.69
496.008	833.69
496.225	830.69
496.442	846.69
496.66	841.69
496.877	872.69
497.094	873.69
497.312	844.69
497.529	884.69
497.746	909.69
497.963	912.69
498.181	937.69
498.398	967.69
498.615	984.69
498.832	989.69
499.049	1027.69
499.267	1063.69
499.484	1108.69
499.701	1160.69
499.918	1166.69
500.135	1183.69
500.352	1250.69
500.569	1262.69
500.786	1253.69
501.003	1266.69
501.22	1252.69
501.437	1213.69
