Data from Fe(NO3)3@0.0125M.TitratingCurve.Agarose3%dH2O.NegLispCup.LampEnergy10.LIBS07252019_HRD10591_17-00-40-338.txt Node
Date: Thu Jul 25 17:00:40 EDT 2019
User: cochatt
Spectrometer: HR+D1059
Trigger mode: 1
Integration Time (sec): 1.000000E-1
Scans to average: 1
Electric dark correction enabled: true
Nonlinearity correction enabled: false
Boxcar width: 0
XAxis mode: Wavelengths
Number of Pixels in Spectrum: 2048
>>>>>Begin Spectral Data<<<<<
223.165	-5.25
223.4	-5.25
223.635	-5.25
223.869	-26.25
224.104	-14.25
224.338	-6.25
224.573	-6.25
224.808	-18.25
225.042	-22.25
225.277	-11.25
225.511	-4.25
225.746	0.75
225.98	11.75
226.215	16.75
226.449	1.75
226.683	13.75
226.918	28.75
227.152	40.75
227.387	35.75
227.621	37.75
227.856	36.75
228.09	50.75
228.324	51.75
228.559	58.75
228.793	54.75
229.027	85.75
229.262	89.75
229.496	84.75
229.73	67.75
229.964	85.75
230.199	91.75
230.433	87.75
230.667	89.75
230.901	78.75
231.136	91.75
231.37	91.75
231.604	96.75
231.838	98.75
232.072	93.75
232.306	95.75
232.541	86.75
232.775	100.75
233.009	113.75
233.243	105.75
233.477	91.75
233.711	94.75
233.945	106.75
234.179	103.75
234.413	117.75
234.647	101.75
234.881	102.75
235.115	100.75
235.349	94.75
235.583	90.75
235.817	86.75
236.051	83.75
236.285	99.75
236.519	99.75
236.753	96.75
236.987	103.75
237.221	106.75
237.455	99.75
237.689	94.75
237.922	108.75
238.156	98.75
238.39	101.75
238.624	99.75
238.858	86.75
239.091	102.75
239.325	117.75
239.559	119.75
239.793	110.75
240.027	117.75
240.26	102.75
240.494	97.75
240.728	122.75
240.961	110.75
241.195	119.75
241.429	111.75
241.662	112.75
241.896	99.75
242.13	104.75
242.363	117.75
242.597	99.75
242.83	107.75
243.064	126.75
243.298	119.75
243.531	123.75
243.765	97.75
243.998	110.75
244.232	113.75
244.465	119.75
244.699	115.75
244.932	99.75
245.166	102.75
245.399	102.75
245.633	116.75
245.866	119.75
246.099	108.75
246.333	100.75
246.566	116.75
246.8	117.75
247.033	110.75
247.266	107.75
247.5	128.75
247.733	123.75
247.966	131.75
248.2	124.75
248.433	131.75
248.666	127.75
248.899	109.75
249.133	117.75
249.366	133.75
249.599	130.75
249.832	122.75
250.066	129.75
250.299	119.75
250.532	128.75
250.765	109.75
250.998	127.75
251.231	123.75
251.465	125.75
251.698	127.75
251.931	126.75
252.164	131.75
252.397	130.75
252.63	122.75
252.863	127.75
253.096	131.75
253.329	133.75
253.562	128.75
253.795	123.75
254.028	130.75
254.261	125.75
254.494	135.75
254.727	135.75
254.96	158.75
255.193	133.75
255.426	143.75
255.659	134.75
255.892	131.75
256.124	125.75
256.357	128.75
256.59	139.75
256.823	143.75
257.056	150.75
257.289	138.75
257.521	135.75
257.754	142.75
257.987	130.75
258.22	123.75
258.452	124.75
258.685	127.75
258.918	133.75
259.151	123.75
259.383	141.75
259.616	140.75
259.849	147.75
260.081	139.75
260.314	154.75
260.547	153.75
260.779	144.75
261.012	146.75
261.244	153.75
261.477	140.75
261.71	144.75
261.942	147.75
262.175	130.75
262.407	148.75
262.64	167.75
262.872	165.75
263.105	169.75
263.337	153.75
263.57	149.75
263.802	150.75
264.035	149.75
264.267	153.75
264.499	135.75
264.732	165.75
264.964	143.75
265.197	157.75
265.429	157.75
265.661	156.75
265.894	150.75
266.126	149.75
266.358	153.75
266.591	158.75
266.823	147.75
267.055	161.75
267.287	138.75
267.52	151.75
267.752	162.75
267.984	158.75
268.216	163.75
268.448	154.75
268.681	157.75
268.913	162.75
269.145	159.75
269.377	154.75
269.609	154.75
269.841	156.75
270.073	143.75
270.306	177.75
270.538	169.75
270.77	156.75
271.002	163.75
271.234	157.75
271.466	157.75
271.698	169.75
271.93	179.75
272.162	162.75
272.394	165.75
272.626	170.75
272.858	164.75
273.09	150.75
273.322	189.75
273.553	178.75
273.785	177.75
274.017	179.75
274.249	181.75
274.481	172.75
274.713	193.75
274.945	182.75
275.176	197.75
275.408	181.75
275.64	189.75
275.872	166.75
276.104	175.75
276.335	183.75
276.567	185.75
276.799	161.75
277.031	187.75
277.262	173.75
277.494	169.75
277.726	190.75
277.957	171.75
278.189	172.75
278.421	171.75
278.652	179.75
278.884	184.75
279.115	177.75
279.347	187.75
279.579	186.75
279.81	171.75
280.042	172.75
280.273	185.75
280.505	178.75
280.736	190.75
280.968	186.75
281.199	184.75
281.431	185.75
281.662	168.75
281.894	186.75
282.125	183.75
282.356	191.75
282.588	193.75
282.819	188.75
283.051	191.75
283.282	181.75
283.513	189.75
283.745	186.75
283.976	195.75
284.207	188.75
284.439	187.75
284.67	204.75
284.901	186.75
285.132	209.75
285.364	189.75
285.595	207.75
285.826	200.75
286.057	204.75
286.288	207.75
286.52	198.75
286.751	209.75
286.982	180.75
287.213	187.75
287.444	180.75
287.675	199.75
287.906	205.75
288.138	188.75
288.369	200.75
288.6	200.75
288.831	210.75
289.062	198.75
289.293	188.75
289.524	204.75
289.755	197.75
289.986	190.75
290.217	204.75
290.448	202.75
290.679	197.75
290.91	210.75
291.141	217.75
291.371	205.75
291.602	188.75
291.833	197.75
292.064	198.75
292.295	202.75
292.526	203.75
292.757	205.75
292.987	206.75
293.218	202.75
293.449	217.75
293.68	210.75
293.91	218.75
294.141	186.75
294.372	213.75
294.603	214.75
294.833	219.75
295.064	225.75
295.295	210.75
295.525	206.75
295.756	208.75
295.987	227.75
296.217	220.75
296.448	222.75
296.679	223.75
296.909	213.75
297.14	215.75
297.37	210.75
297.601	209.75
297.831	213.75
298.062	194.75
298.292	218.75
298.523	227.75
298.753	222.75
298.984	230.75
299.214	217.75
299.445	221.75
299.675	229.75
299.905	215.75
300.136	229.75
300.366	225.75
300.597	225.75
300.827	242.75
301.057	216.75
301.288	223.75
301.518	209.75
301.748	225.75
301.979	219.75
302.209	223.75
302.439	226.75
302.669	238.75
302.9	226.75
303.13	218.75
303.36	221.75
303.59	229.75
303.82	234.75
304.051	233.75
304.281	244.75
304.511	246.75
304.741	237.75
304.971	243.75
305.201	229.75
305.431	226.75
305.661	211.75
305.891	244.75
306.121	246.75
306.352	247.75
306.582	243.75
306.812	240.75
307.042	244.75
307.272	210.75
307.502	232.75
307.731	257.75
307.961	222.75
308.191	248.75
308.421	245.75
308.651	244.75
308.881	230.75
309.111	233.75
309.341	230.75
309.571	225.75
309.8	234.75
310.03	217.75
310.26	255.75
310.49	243.75
310.72	234.75
310.949	236.75
311.179	247.75
311.409	241.75
311.639	242.75
311.868	244.75
312.098	239.75
312.328	235.75
312.557	256.75
312.787	263.75
313.017	257.75
313.246	243.75
313.476	241.75
313.706	247.75
313.935	246.75
314.165	253.75
314.394	261.75
314.624	257.75
314.853	233.75
315.083	265.75
315.312	256.75
315.542	267.75
315.771	261.75
316.001	258.75
316.23	267.75
316.46	272.75
316.689	259.75
316.919	245.75
317.148	271.75
317.377	280.75
317.607	265.75
317.836	255.75
318.065	241.75
318.295	269.75
318.524	275.75
318.753	268.75
318.983	268.75
319.212	266.75
319.441	265.75
319.67	251.75
319.9	266.75
320.129	254.75
320.358	238.75
320.587	254.75
320.816	267.75
321.046	281.75
321.275	268.75
321.504	259.75
321.733	258.75
321.962	253.75
322.191	261.75
322.42	271.75
322.649	270.75
322.878	272.75
323.108	284.75
323.337	279.75
323.566	269.75
323.795	271.75
324.024	277.75
324.253	279.75
324.482	293.75
324.71	267.75
324.939	299.75
325.168	277.75
325.397	277.75
325.626	300.75
325.855	285.75
326.084	293.75
326.313	293.75
326.542	281.75
326.77	281.75
326.999	294.75
327.228	291.75
327.457	260.75
327.686	301.75
327.914	293.75
328.143	295.75
328.372	280.75
328.6	293.75
328.829	285.75
329.058	295.75
329.287	297.75
329.515	283.75
329.744	300.75
329.972	261.75
330.201	283.75
330.43	282.75
330.658	285.75
330.887	298.75
331.115	291.75
331.344	300.75
331.572	301.75
331.801	284.75
332.03	308.75
332.258	311.75
332.486	308.75
332.715	300.75
332.943	317.75
333.172	297.75
333.4	309.75
333.629	305.75
333.857	307.75
334.085	318.75
334.314	308.75
334.542	307.75
334.771	319.75
334.999	331.75
335.227	314.75
335.455	311.75
335.684	315.75
335.912	317.75
336.14	299.75
336.369	318.75
336.597	309.75
336.825	334.75
337.053	325.75
337.281	318.75
337.51	324.75
337.738	307.75
337.966	298.75
338.194	296.75
338.422	305.75
338.65	302.75
338.878	295.75
339.106	295.75
339.334	301.75
339.562	297.75
339.79	306.75
340.018	311.75
340.246	290.75
340.474	305.75
340.702	311.75
340.93	320.75
341.158	293.75
341.386	302.75
341.614	294.75
341.842	299.75
342.07	320.75
342.298	301.75
342.526	297.75
342.754	299.75
342.981	300.75
343.209	301.75
343.437	303.75
343.665	306.75
343.893	319.75
344.12	341.75
344.348	331.75
344.576	324.75
344.804	283.75
345.031	295.75
345.259	305.75
345.487	306.75
345.714	298.75
345.942	322.75
346.17	318.75
346.397	307.75
346.625	307.75
346.853	302.75
347.08	305.75
347.308	300.75
347.535	314.75
347.763	299.75
347.99	300.75
348.218	301.75
348.445	286.75
348.673	308.75
348.9	310.75
349.128	303.75
349.355	290.75
349.583	296.75
349.81	295.75
350.037	305.75
350.265	294.75
350.492	282.75
350.72	283.75
350.947	294.75
351.174	300.75
351.402	296.75
351.629	295.75
351.856	286.75
352.083	286.75
352.311	291.75
352.538	290.75
352.765	292.75
352.992	298.75
353.22	286.75
353.447	297.75
353.674	283.75
353.901	281.75
354.128	301.75
354.355	307.75
354.583	298.75
354.81	298.75
355.037	294.75
355.264	307.75
355.491	293.75
355.718	313.75
355.945	321.75
356.172	314.75
356.399	282.75
356.626	329.75
356.853	298.75
357.08	302.75
357.307	303.75
357.534	291.75
357.761	281.75
357.988	326.75
358.215	313.75
358.441	300.75
358.668	285.75
358.895	307.75
359.122	313.75
359.349	293.75
359.576	306.75
359.802	305.75
360.029	325.75
360.256	310.75
360.483	300.75
360.709	300.75
360.936	305.75
361.163	309.75
361.39	310.75
361.616	325.75
361.843	281.75
362.07	278.75
362.296	309.75
362.523	296.75
362.749	267.75
362.976	310.75
363.203	300.75
363.429	316.75
363.656	307.75
363.882	299.75
364.109	310.75
364.335	307.75
364.562	298.75
364.788	312.75
365.015	321.75
365.241	324.75
365.468	314.75
365.694	307.75
365.92	299.75
366.147	313.75
366.373	306.75
366.599	318.75
366.826	312.75
367.052	291.75
367.278	303.75
367.505	312.75
367.731	317.75
367.957	330.75
368.184	327.75
368.41	326.75
368.636	327.75
368.862	326.75
369.089	321.75
369.315	321.75
369.541	320.75
369.767	331.75
369.993	320.75
370.219	321.75
370.445	329.75
370.672	346.75
370.898	324.75
371.124	325.75
371.35	333.75
371.576	321.75
371.802	326.75
372.028	322.75
372.254	349.75
372.48	328.75
372.706	337.75
372.932	323.75
373.158	337.75
373.384	346.75
373.61	331.75
373.835	358.75
374.061	338.75
374.287	316.75
374.513	343.75
374.739	354.75
374.965	357.75
375.191	370.75
375.416	337.75
375.642	339.75
375.868	340.75
376.094	344.75
376.319	318.75
376.545	335.75
376.771	325.75
376.997	354.75
377.222	333.75
377.448	332.75
377.674	325.75
377.899	323.75
378.125	322.75
378.35	320.75
378.576	314.75
378.802	309.75
379.027	327.75
379.253	319.75
379.478	324.75
379.704	332.75
379.929	324.75
380.155	327.75
380.38	330.75
380.606	332.75
380.831	343.75
381.057	332.75
381.282	330.75
381.507	340.75
381.733	343.75
381.958	348.75
382.184	345.75
382.409	351.75
382.634	344.75
382.86	348.75
383.085	346.75
383.31	345.75
383.535	338.75
383.761	339.75
383.986	352.75
384.211	350.75
384.436	352.75
384.662	347.75
384.887	366.75
385.112	350.75
385.337	358.75
385.562	377.75
385.787	375.75
386.013	371.75
386.238	353.75
386.463	369.75
386.688	390.75
386.913	361.75
387.138	383.75
387.363	371.75
387.588	362.75
387.813	377.75
388.038	365.75
388.263	360.75
388.488	377.75
388.713	383.75
388.938	377.75
389.163	349.75
389.387	360.75
389.612	364.75
389.837	357.75
390.062	362.75
390.287	373.75
390.512	363.75
390.736	366.75
390.961	391.75
391.186	369.75
391.411	381.75
391.636	383.75
391.86	366.75
392.085	377.75
392.31	397.75
392.534	375.75
392.759	389.75
392.984	383.75
393.208	389.75
393.433	417.75
393.658	415.75
393.882	387.75
394.107	393.75
394.331	379.75
394.556	381.75
394.78	393.75
395.005	392.75
395.229	382.75
395.454	418.75
395.678	390.75
395.903	392.75
396.127	389.75
396.352	397.75
396.576	393.75
396.801	395.75
397.025	418.75
397.249	401.75
397.474	405.75
397.698	400.75
397.922	420.75
398.147	404.75
398.371	408.75
398.595	418.75
398.82	424.75
399.044	417.75
399.268	446.75
399.492	461.75
399.717	478.75
399.941	472.75
400.165	452.75
400.389	466.75
400.613	462.75
400.837	457.75
401.062	453.75
401.286	434.75
401.51	429.75
401.734	438.75
401.958	428.75
402.182	435.75
402.406	428.75
402.63	440.75
402.854	436.75
403.078	439.75
403.302	447.75
403.526	446.75
403.75	429.75
403.974	425.75
404.198	432.75
404.422	457.75
404.645	442.75
404.869	443.75
405.093	437.75
405.317	433.75
405.541	422.75
405.765	441.75
405.988	441.75
406.212	458.75
406.436	446.75
406.66	469.75
406.883	455.75
407.107	460.75
407.331	475.75
407.555	485.75
407.778	464.75
408.002	492.75
408.226	481.75
408.449	477.75
408.673	466.75
408.896	457.75
409.12	464.75
409.344	474.75
409.567	456.75
409.791	451.75
410.014	439.75
410.238	455.75
410.461	446.75
410.685	453.75
410.908	451.75
411.132	444.75
411.355	441.75
411.578	451.75
411.802	443.75
412.025	451.75
412.249	435.75
412.472	435.75
412.695	453.75
412.919	439.75
413.142	443.75
413.365	407.75
413.589	422.75
413.812	398.75
414.035	422.75
414.258	458.75
414.482	441.75
414.705	440.75
414.928	437.75
415.151	441.75
415.374	455.75
415.597	425.75
415.821	425.75
416.044	434.75
416.267	433.75
416.49	436.75
416.713	425.75
416.936	441.75
417.159	422.75
417.382	413.75
417.605	427.75
417.828	395.75
418.051	404.75
418.274	406.75
418.497	423.75
418.72	424.75
418.943	430.75
419.166	454.75
419.389	453.75
419.611	449.75
419.834	450.75
420.057	427.75
420.28	425.75
420.503	417.75
420.726	391.75
420.948	428.75
421.171	438.75
421.394	421.75
421.617	419.75
421.839	418.75
422.062	420.75
422.285	407.75
422.507	421.75
422.73	431.75
422.953	425.75
423.175	413.75
423.398	434.75
423.621	419.75
423.843	421.75
424.066	399.75
424.288	402.75
424.511	419.75
424.733	408.75
424.956	422.75
425.178	444.75
425.401	421.75
425.623	415.75
425.846	413.75
426.068	430.75
426.291	411.75
426.513	400.75
426.735	401.75
426.958	446.75
427.18	413.75
427.402	409.75
427.625	410.75
427.847	415.75
428.069	410.75
428.292	412.75
428.514	418.75
428.736	412.75
428.958	419.75
429.181	400.75
429.403	404.75
429.625	403.75
429.847	378.75
430.069	398.75
430.292	428.75
430.514	419.75
430.736	397.75
430.958	405.75
431.18	393.75
431.402	403.75
431.624	411.75
431.846	402.75
432.068	391.75
432.29	398.75
432.512	398.75
432.734	433.75
432.956	423.75
433.178	400.75
433.4	404.75
433.622	415.75
433.844	409.75
434.066	395.75
434.287	416.75
434.509	417.75
434.731	428.75
434.953	407.75
435.175	419.75
435.397	425.75
435.618	413.75
435.84	440.75
436.062	403.75
436.284	411.75
436.505	408.75
436.727	406.75
436.949	405.75
437.17	394.75
437.392	403.75
437.614	406.75
437.835	382.75
438.057	414.75
438.278	403.75
438.5	392.75
438.721	397.75
438.943	387.75
439.165	376.75
439.386	422.75
439.608	389.75
439.829	398.75
440.05	417.75
440.272	411.75
440.493	405.75
440.715	414.75
440.936	389.75
441.158	403.75
441.379	413.75
441.6	426.75
441.822	400.75
442.043	429.75
442.264	419.75
442.486	418.75
442.707	413.75
442.928	421.75
443.149	429.75
443.371	414.75
443.592	414.75
443.813	426.75
444.034	420.75
444.255	421.75
444.476	434.75
444.698	433.75
444.919	429.75
445.14	504.75
445.361	433.75
445.582	427.75
445.803	446.75
446.024	402.75
446.245	414.75
446.466	433.75
446.687	401.75
446.908	411.75
447.129	403.75
447.35	395.75
447.571	402.75
447.792	396.75
448.013	397.75
448.234	392.75
448.455	398.75
448.675	389.75
448.896	394.75
449.117	405.75
449.338	385.75
449.559	378.75
449.779	362.75
450	393.75
450.221	395.75
450.442	384.75
450.662	389.75
450.883	389.75
451.104	379.75
451.324	375.75
451.545	381.75
451.766	378.75
451.986	389.75
452.207	385.75
452.428	381.75
452.648	375.75
452.869	371.75
453.089	370.75
453.31	371.75
453.53	382.75
453.751	383.75
453.971	378.75
454.192	367.75
454.412	372.75
454.633	359.75
454.853	383.75
455.073	377.75
455.294	363.75
455.514	395.75
455.734	379.75
455.955	370.75
456.175	392.75
456.395	388.75
456.616	385.75
456.836	394.75
457.056	398.75
457.276	346.75
457.497	374.75
457.717	361.75
457.937	381.75
458.157	380.75
458.377	393.75
458.598	381.75
458.818	388.75
459.038	394.75
459.258	397.75
459.478	397.75
459.698	409.75
459.918	397.75
460.138	413.75
460.358	420.75
460.578	409.75
460.798	438.75
461.018	432.75
461.238	454.75
461.458	440.75
461.678	411.75
461.898	428.75
462.118	462.75
462.338	475.75
462.558	464.75
462.777	466.75
462.997	481.75
463.217	488.75
463.437	489.75
463.657	472.75
463.876	478.75
464.096	479.75
464.316	466.75
464.536	481.75
464.755	476.75
464.975	447.75
465.195	449.75
465.414	447.75
465.634	433.75
465.854	438.75
466.073	415.75
466.293	411.75
466.512	405.75
466.732	415.75
466.951	411.75
467.171	419.75
467.391	401.75
467.61	407.75
467.829	429.75
468.049	396.75
468.268	406.75
468.488	394.75
468.707	386.75
468.927	405.75
469.146	393.75
469.365	406.75
469.585	413.75
469.804	414.75
470.023	406.75
470.243	407.75
470.462	411.75
470.681	411.75
470.901	402.75
471.12	405.75
471.339	396.75
471.558	409.75
471.777	413.75
471.997	394.75
472.216	419.75
472.435	398.75
472.654	399.75
472.873	418.75
473.092	424.75
473.311	425.75
473.53	429.75
473.749	428.75
473.968	396.75
474.187	426.75
474.406	410.75
474.625	411.75
474.844	418.75
475.063	422.75
475.282	419.75
475.501	447.75
475.72	416.75
475.939	413.75
476.158	438.75
476.377	428.75
476.596	429.75
476.814	426.75
477.033	452.75
477.252	451.75
477.471	456.75
477.69	448.75
477.908	464.75
478.127	468.75
478.346	461.75
478.564	475.75
478.783	468.75
479.002	471.75
479.22	477.75
479.439	496.75
479.658	493.75
479.876	507.75
480.095	481.75
480.313	485.75
480.532	472.75
480.751	492.75
480.969	482.75
481.188	494.75
481.406	514.75
481.624	481.75
481.843	472.75
482.061	490.75
482.28	506.75
482.498	483.75
482.717	478.75
482.935	491.75
483.153	513.75
483.372	510.75
483.59	484.75
483.808	488.75
484.027	489.75
484.245	495.75
484.463	484.75
484.681	521.75
484.9	492.75
485.118	525.75
485.336	481.75
485.554	484.75
485.772	510.75
485.99	515.75
486.209	490.75
486.427	503.75
486.645	487.75
486.863	540.75
487.081	508.75
487.299	503.75
487.517	486.75
487.735	495.75
487.953	500.75
488.171	515.75
488.389	493.75
488.607	528.75
488.825	493.75
489.043	496.75
489.261	509.75
489.479	489.75
489.696	479.75
489.914	505.75
490.132	499.75
490.35	524.75
490.568	492.75
490.786	526.75
491.003	531.75
491.221	523.75
491.439	517.75
491.657	526.75
491.874	549.75
492.092	516.75
492.31	522.75
492.527	525.75
492.745	536.75
492.963	525.75
493.18	525.75
493.398	521.75
493.615	516.75
493.833	516.75
494.05	542.75
494.268	543.75
494.485	531.75
494.703	532.75
494.92	556.75
495.138	544.75
495.355	569.75
495.573	539.75
495.79	547.75
496.008	534.75
496.225	538.75
496.442	543.75
496.66	556.75
496.877	548.75
497.094	575.75
497.312	569.75
497.529	587.75
497.746	594.75
497.963	602.75
498.181	595.75
498.398	609.75
498.615	631.75
498.832	647.75
499.049	653.75
499.267	657.75
499.484	674.75
499.701	721.75
499.918	715.75
500.135	748.75
500.352	753.75
500.569	801.75
500.786	809.75
501.003	790.75
501.22	751.75
501.437	739.75
501.654	702.75
501.871	676.75
502.088	685.75
