Data from Fe(NO3)3@0.0125M.TitratingCurve.Agarose3%dH2O.NegLispCup.LampEnergy10.LIBS07252019_HRD10591_16-59-05-340.txt Node
Date: Thu Jul 25 16:59:05 EDT 2019
User: cochatt
Spectrometer: HR+D1059
Trigger mode: 1
Integration Time (sec): 1.000000E-1
Scans to average: 1
Electric dark correction enabled: true
Nonlinearity correction enabled: false
Boxcar width: 0
XAxis mode: Wavelengths
Number of Pixels in Spectrum: 2048
>>>>>Begin Spectral Data<<<<<
223.165	-9.31
223.4	-9.31
223.635	-9.31
223.869	-23.31
224.104	-13.31
224.338	-3.31
224.573	-30.31
224.808	-15.31
225.042	-2.31
225.277	-3.31
225.511	-3.31
225.746	8.69
225.98	8.69
226.215	3.69
226.449	7.69
226.683	15.69
226.918	25.69
227.152	33.69
227.387	28.69
227.621	44.69
227.856	52.69
228.09	30.69
228.324	44.69
228.559	56.69
228.793	66.69
229.027	92.69
229.262	90.69
229.496	97.69
229.73	98.69
229.964	97.69
230.199	105.69
230.433	114.69
230.667	116.69
230.901	112.69
231.136	112.69
231.37	104.69
231.604	122.69
231.838	114.69
232.072	124.69
232.306	118.69
232.541	123.69
232.775	131.69
233.009	127.69
233.243	127.69
233.477	120.69
233.711	134.69
233.945	125.69
234.179	131.69
234.413	119.69
234.647	129.69
234.881	123.69
235.115	123.69
235.349	138.69
235.583	133.69
235.817	139.69
236.051	136.69
236.285	127.69
236.519	129.69
236.753	145.69
236.987	125.69
237.221	134.69
237.455	152.69
237.689	116.69
237.922	128.69
238.156	147.69
238.39	143.69
238.624	154.69
238.858	150.69
239.091	134.69
239.325	140.69
239.559	139.69
239.793	155.69
240.027	163.69
240.26	165.69
240.494	142.69
240.728	141.69
240.961	154.69
241.195	156.69
241.429	144.69
241.662	141.69
241.896	157.69
242.13	145.69
242.363	164.69
242.597	147.69
242.83	160.69
243.064	143.69
243.298	154.69
243.531	153.69
243.765	160.69
243.998	151.69
244.232	148.69
244.465	156.69
244.699	173.69
244.932	169.69
245.166	173.69
245.399	169.69
245.633	177.69
245.866	175.69
246.099	180.69
246.333	160.69
246.566	175.69
246.8	179.69
247.033	179.69
247.266	198.69
247.5	167.69
247.733	188.69
247.966	181.69
248.2	188.69
248.433	179.69
248.666	181.69
248.899	201.69
249.133	180.69
249.366	207.69
249.599	196.69
249.832	208.69
250.066	181.69
250.299	184.69
250.532	196.69
250.765	205.69
250.998	200.69
251.231	178.69
251.465	201.69
251.698	204.69
251.931	192.69
252.164	203.69
252.397	212.69
252.63	201.69
252.863	204.69
253.096	225.69
253.329	201.69
253.562	198.69
253.795	217.69
254.028	218.69
254.261	223.69
254.494	223.69
254.727	226.69
254.96	211.69
255.193	205.69
255.426	225.69
255.659	210.69
255.892	218.69
256.124	213.69
256.357	213.69
256.59	230.69
256.823	225.69
257.056	225.69
257.289	218.69
257.521	237.69
257.754	220.69
257.987	239.69
258.22	233.69
258.452	240.69
258.685	247.69
258.918	229.69
259.151	253.69
259.383	252.69
259.616	247.69
259.849	266.69
260.081	244.69
260.314	257.69
260.547	265.69
260.779	248.69
261.012	241.69
261.244	258.69
261.477	255.69
261.71	246.69
261.942	259.69
262.175	262.69
262.407	264.69
262.64	246.69
262.872	245.69
263.105	268.69
263.337	269.69
263.57	271.69
263.802	262.69
264.035	261.69
264.267	275.69
264.499	275.69
264.732	264.69
264.964	260.69
265.197	254.69
265.429	257.69
265.661	266.69
265.894	279.69
266.126	270.69
266.358	275.69
266.591	256.69
266.823	291.69
267.055	273.69
267.287	284.69
267.52	307.69
267.752	306.69
267.984	292.69
268.216	289.69
268.448	297.69
268.681	276.69
268.913	292.69
269.145	294.69
269.377	297.69
269.609	272.69
269.841	278.69
270.073	306.69
270.306	307.69
270.538	291.69
270.77	293.69
271.002	295.69
271.234	303.69
271.466	309.69
271.698	296.69
271.93	308.69
272.162	327.69
272.394	324.69
272.626	309.69
272.858	314.69
273.09	324.69
273.322	312.69
273.553	324.69
273.785	330.69
274.017	323.69
274.249	328.69
274.481	361.69
274.713	322.69
274.945	348.69
275.176	327.69
275.408	358.69
275.64	341.69
275.872	356.69
276.104	334.69
276.335	320.69
276.567	351.69
276.799	328.69
277.031	348.69
277.262	333.69
277.494	352.69
277.726	343.69
277.957	362.69
278.189	339.69
278.421	359.69
278.652	342.69
278.884	349.69
279.115	360.69
279.347	347.69
279.579	350.69
279.81	343.69
280.042	327.69
280.273	353.69
280.505	360.69
280.736	351.69
280.968	349.69
281.199	359.69
281.431	372.69
281.662	379.69
281.894	347.69
282.125	368.69
282.356	373.69
282.588	359.69
282.819	379.69
283.051	360.69
283.282	375.69
283.513	387.69
283.745	378.69
283.976	383.69
284.207	367.69
284.439	385.69
284.67	390.69
284.901	402.69
285.132	383.69
285.364	385.69
285.595	389.69
285.826	387.69
286.057	398.69
286.288	394.69
286.52	417.69
286.751	392.69
286.982	416.69
287.213	404.69
287.444	398.69
287.675	428.69
287.906	399.69
288.138	404.69
288.369	422.69
288.6	394.69
288.831	417.69
289.062	410.69
289.293	417.69
289.524	403.69
289.755	400.69
289.986	424.69
290.217	431.69
290.448	423.69
290.679	438.69
290.91	431.69
291.141	406.69
291.371	391.69
291.602	407.69
291.833	426.69
292.064	436.69
292.295	397.69
292.526	430.69
292.757	409.69
292.987	421.69
293.218	420.69
293.449	412.69
293.68	424.69
293.91	411.69
294.141	424.69
294.372	435.69
294.603	443.69
294.833	427.69
295.064	455.69
295.295	417.69
295.525	415.69
295.756	440.69
295.987	430.69
296.217	443.69
296.448	445.69
296.679	437.69
296.909	441.69
297.14	436.69
297.37	436.69
297.601	452.69
297.831	453.69
298.062	441.69
298.292	460.69
298.523	443.69
298.753	448.69
298.984	467.69
299.214	467.69
299.445	479.69
299.675	437.69
299.905	465.69
300.136	460.69
300.366	461.69
300.597	471.69
300.827	465.69
301.057	463.69
301.288	471.69
301.518	473.69
301.748	468.69
301.979	469.69
302.209	476.69
302.439	490.69
302.669	491.69
302.9	480.69
303.13	479.69
303.36	497.69
303.59	474.69
303.82	491.69
304.051	500.69
304.281	521.69
304.511	491.69
304.741	474.69
304.971	519.69
305.201	497.69
305.431	517.69
305.661	502.69
305.891	517.69
306.121	503.69
306.352	501.69
306.582	488.69
306.812	513.69
307.042	508.69
307.272	490.69
307.502	492.69
307.731	496.69
307.961	526.69
308.191	515.69
308.421	523.69
308.651	534.69
308.881	505.69
309.111	510.69
309.341	509.69
309.571	517.69
309.8	531.69
310.03	525.69
310.26	513.69
310.49	533.69
310.72	523.69
310.949	531.69
311.179	523.69
311.409	513.69
311.639	520.69
311.868	543.69
312.098	541.69
312.328	514.69
312.557	524.69
312.787	549.69
313.017	522.69
313.246	539.69
313.476	531.69
313.706	557.69
313.935	555.69
314.165	567.69
314.394	543.69
314.624	558.69
314.853	538.69
315.083	556.69
315.312	557.69
315.542	553.69
315.771	564.69
316.001	565.69
316.23	577.69
316.46	574.69
316.689	577.69
316.919	579.69
317.148	584.69
317.377	575.69
317.607	570.69
317.836	579.69
318.065	577.69
318.295	593.69
318.524	566.69
318.753	568.69
318.983	579.69
319.212	578.69
319.441	560.69
319.67	566.69
319.9	578.69
320.129	583.69
320.358	596.69
320.587	601.69
320.816	591.69
321.046	592.69
321.275	601.69
321.504	591.69
321.733	586.69
321.962	609.69
322.191	582.69
322.42	609.69
322.649	602.69
322.878	599.69
323.108	611.69
323.337	613.69
323.566	592.69
323.795	602.69
324.024	620.69
324.253	610.69
324.482	608.69
324.71	607.69
324.939	586.69
325.168	608.69
325.397	603.69
325.626	617.69
325.855	610.69
326.084	632.69
326.313	633.69
326.542	619.69
326.77	608.69
326.999	631.69
327.228	629.69
327.457	639.69
327.686	627.69
327.914	642.69
328.143	641.69
328.372	623.69
328.6	634.69
328.829	640.69
329.058	629.69
329.287	635.69
329.515	643.69
329.744	620.69
329.972	660.69
330.201	632.69
330.43	644.69
330.658	659.69
330.887	640.69
331.115	653.69
331.344	651.69
331.572	637.69
331.801	660.69
332.03	665.69
332.258	645.69
332.486	670.69
332.715	654.69
332.943	644.69
333.172	643.69
333.4	649.69
333.629	677.69
333.857	642.69
334.085	693.69
334.314	688.69
334.542	657.69
334.771	679.69
334.999	671.69
335.227	661.69
335.455	691.69
335.684	709.69
335.912	689.69
336.14	696.69
336.369	699.69
336.597	667.69
336.825	706.69
337.053	689.69
337.281	692.69
337.51	680.69
337.738	690.69
337.966	687.69
338.194	674.69
338.422	675.69
338.65	665.69
338.878	694.69
339.106	682.69
339.334	683.69
339.562	651.69
339.79	697.69
340.018	675.69
340.246	659.69
340.474	679.69
340.702	690.69
340.93	659.69
341.158	691.69
341.386	678.69
341.614	684.69
341.842	661.69
342.07	691.69
342.298	663.69
342.526	665.69
342.754	680.69
342.981	679.69
343.209	700.69
343.437	680.69
343.665	691.69
343.893	678.69
344.12	687.69
344.348	684.69
344.576	718.69
344.804	673.69
345.031	680.69
345.259	692.69
345.487	675.69
345.714	674.69
345.942	682.69
346.17	680.69
346.397	680.69
346.625	690.69
346.853	681.69
347.08	682.69
347.308	661.69
347.535	656.69
347.763	659.69
347.99	675.69
348.218	667.69
348.445	682.69
348.673	652.69
348.9	654.69
349.128	651.69
349.355	659.69
349.583	649.69
349.81	677.69
350.037	652.69
350.265	663.69
350.492	666.69
350.72	656.69
350.947	652.69
351.174	654.69
351.402	649.69
351.629	677.69
351.856	664.69
352.083	668.69
352.311	643.69
352.538	653.69
352.765	644.69
352.992	678.69
353.22	643.69
353.447	638.69
353.674	635.69
353.901	659.69
354.128	657.69
354.355	668.69
354.583	651.69
354.81	646.69
355.037	661.69
355.264	641.69
355.491	671.69
355.718	673.69
355.945	688.69
356.172	662.69
356.399	636.69
356.626	658.69
356.853	681.69
357.08	687.69
357.307	640.69
357.534	668.69
357.761	659.69
357.988	675.69
358.215	696.69
358.441	674.69
358.668	676.69
358.895	660.69
359.122	652.69
359.349	645.69
359.576	673.69
359.802	676.69
360.029	663.69
360.256	659.69
360.483	678.69
360.709	706.69
360.936	673.69
361.163	698.69
361.39	667.69
361.616	685.69
361.843	673.69
362.07	687.69
362.296	655.69
362.523	662.69
362.749	665.69
362.976	684.69
363.203	680.69
363.429	680.69
363.656	669.69
363.882	691.69
364.109	671.69
364.335	662.69
364.562	675.69
364.788	674.69
365.015	696.69
365.241	690.69
365.468	686.69
365.694	679.69
365.92	673.69
366.147	683.69
366.373	705.69
366.599	691.69
366.826	667.69
367.052	701.69
367.278	681.69
367.505	707.69
367.731	715.69
367.957	706.69
368.184	700.69
368.41	713.69
368.636	692.69
368.862	700.69
369.089	700.69
369.315	706.69
369.541	709.69
369.767	692.69
369.993	706.69
370.219	699.69
370.445	721.69
370.672	711.69
370.898	706.69
371.124	713.69
371.35	689.69
371.576	708.69
371.802	721.69
372.028	712.69
372.254	702.69
372.48	696.69
372.706	721.69
372.932	708.69
373.158	742.69
373.384	711.69
373.61	707.69
373.835	693.69
374.061	732.69
374.287	729.69
374.513	737.69
374.739	752.69
374.965	724.69
375.191	728.69
375.416	736.69
375.642	737.69
375.868	733.69
376.094	727.69
376.319	709.69
376.545	717.69
376.771	715.69
376.997	701.69
377.222	742.69
377.448	711.69
377.674	691.69
377.899	701.69
378.125	718.69
378.35	701.69
378.576	699.69
378.802	710.69
379.027	719.69
379.253	711.69
379.478	711.69
379.704	724.69
379.929	709.69
380.155	720.69
380.38	703.69
380.606	709.69
380.831	712.69
381.057	723.69
381.282	725.69
381.507	709.69
381.733	747.69
381.958	739.69
382.184	729.69
382.409	717.69
382.634	762.69
382.86	731.69
383.085	747.69
383.31	730.69
383.535	737.69
383.761	711.69
383.986	718.69
384.211	753.69
384.436	769.69
384.662	745.69
384.887	747.69
385.112	754.69
385.337	719.69
385.562	745.69
385.787	748.69
386.013	754.69
386.238	775.69
386.463	774.69
386.688	772.69
386.913	772.69
387.138	760.69
387.363	760.69
387.588	784.69
387.813	763.69
388.038	796.69
388.263	782.69
388.488	771.69
388.713	759.69
388.938	768.69
389.163	776.69
389.387	779.69
389.612	770.69
389.837	783.69
390.062	777.69
390.287	780.69
390.512	770.69
390.736	790.69
390.961	785.69
391.186	785.69
391.411	809.69
391.636	787.69
391.86	763.69
392.085	787.69
392.31	802.69
392.534	809.69
392.759	791.69
392.984	789.69
393.208	780.69
393.433	805.69
393.658	806.69
393.882	805.69
394.107	761.69
394.331	758.69
394.556	773.69
394.78	764.69
395.005	802.69
395.229	780.69
395.454	788.69
395.678	784.69
395.903	793.69
396.127	802.69
396.352	805.69
396.576	803.69
396.801	806.69
397.025	829.69
397.249	819.69
397.474	817.69
397.698	801.69
397.922	828.69
398.147	821.69
398.371	832.69
398.595	853.69
398.82	815.69
399.044	848.69
399.268	863.69
399.492	882.69
399.717	864.69
399.941	862.69
400.165	853.69
400.389	885.69
400.613	868.69
400.837	854.69
401.062	857.69
401.286	857.69
401.51	875.69
401.734	858.69
401.958	836.69
402.182	841.69
402.406	835.69
402.63	817.69
402.854	846.69
403.078	835.69
403.302	834.69
403.526	836.69
403.75	838.69
403.974	836.69
404.198	837.69
404.422	867.69
404.645	852.69
404.869	847.69
405.093	824.69
405.317	821.69
405.541	840.69
405.765	861.69
405.988	884.69
406.212	841.69
406.436	868.69
406.66	871.69
406.883	873.69
407.107	884.69
407.331	895.69
407.555	903.69
407.778	886.69
408.002	874.69
408.226	904.69
408.449	909.69
408.673	884.69
408.896	890.69
409.12	866.69
409.344	870.69
409.567	862.69
409.791	866.69
410.014	861.69
410.238	871.69
410.461	859.69
410.685	863.69
410.908	867.69
411.132	845.69
411.355	867.69
411.578	866.69
411.802	860.69
412.025	836.69
412.249	852.69
412.472	861.69
412.695	858.69
412.919	842.69
413.142	839.69
413.365	870.69
413.589	860.69
413.812	816.69
414.035	857.69
414.258	825.69
414.482	842.69
414.705	830.69
414.928	803.69
415.151	832.69
415.374	821.69
415.597	837.69
415.821	804.69
416.044	821.69
416.267	816.69
416.49	831.69
416.713	804.69
416.936	820.69
417.159	826.69
417.382	784.69
417.605	789.69
417.828	803.69
418.051	794.69
418.274	811.69
418.497	789.69
418.72	802.69
418.943	799.69
419.166	807.69
419.389	845.69
419.611	844.69
419.834	824.69
420.057	796.69
420.28	797.69
420.503	769.69
420.726	766.69
420.948	796.69
421.171	775.69
421.394	805.69
421.617	781.69
421.839	767.69
422.062	795.69
422.285	784.69
422.507	786.69
422.73	768.69
422.953	765.69
423.175	805.69
423.398	794.69
423.621	802.69
423.843	813.69
424.066	793.69
424.288	799.69
424.511	789.69
424.733	792.69
424.956	791.69
425.178	793.69
425.401	791.69
425.623	776.69
425.846	800.69
426.068	803.69
426.291	805.69
426.513	800.69
426.735	789.69
426.958	802.69
427.18	774.69
427.402	771.69
427.625	783.69
427.847	775.69
428.069	773.69
428.292	777.69
428.514	772.69
428.736	800.69
428.958	807.69
429.181	772.69
429.403	773.69
429.625	741.69
429.847	771.69
430.069	773.69
430.292	763.69
430.514	771.69
430.736	778.69
430.958	784.69
431.18	784.69
431.402	786.69
431.624	759.69
431.846	743.69
432.068	780.69
432.29	793.69
432.512	766.69
432.734	791.69
432.956	777.69
433.178	757.69
433.4	778.69
433.622	783.69
433.844	795.69
434.066	797.69
434.287	771.69
434.509	808.69
434.731	788.69
434.953	771.69
435.175	763.69
435.397	778.69
435.618	791.69
435.84	760.69
436.062	738.69
436.284	771.69
436.505	777.69
436.727	745.69
436.949	761.69
437.17	770.69
437.392	742.69
437.614	732.69
437.835	757.69
438.057	755.69
438.278	762.69
438.5	751.69
438.721	749.69
438.943	761.69
439.165	768.69
439.386	755.69
439.608	755.69
439.829	772.69
440.05	745.69
440.272	761.69
440.493	774.69
440.715	764.69
440.936	748.69
441.158	775.69
441.379	757.69
441.6	769.69
441.822	775.69
442.043	763.69
442.264	759.69
442.486	767.69
442.707	776.69
442.928	771.69
443.149	779.69
443.371	780.69
443.592	777.69
443.813	795.69
444.034	739.69
444.255	732.69
444.476	746.69
444.698	784.69
444.919	778.69
445.14	876.69
445.361	800.69
445.582	771.69
445.803	773.69
446.024	752.69
446.245	744.69
446.466	739.69
446.687	725.69
446.908	771.69
447.129	727.69
447.35	768.69
447.571	748.69
447.792	717.69
448.013	744.69
448.234	710.69
448.455	728.69
448.675	732.69
448.896	751.69
449.117	725.69
449.338	732.69
449.559	710.69
449.779	723.69
450	718.69
450.221	737.69
450.442	729.69
450.662	717.69
450.883	730.69
451.104	719.69
451.324	747.69
451.545	727.69
451.766	687.69
451.986	697.69
452.207	691.69
452.428	707.69
452.648	719.69
452.869	697.69
453.089	688.69
453.31	712.69
453.53	685.69
453.751	713.69
453.971	711.69
454.192	699.69
454.412	703.69
454.633	704.69
454.853	711.69
455.073	693.69
455.294	684.69
455.514	697.69
455.734	694.69
455.955	673.69
456.175	693.69
456.395	690.69
456.616	710.69
456.836	714.69
457.056	703.69
457.276	732.69
457.497	702.69
457.717	710.69
457.937	712.69
458.157	723.69
458.377	712.69
458.598	711.69
458.818	722.69
459.038	708.69
459.258	737.69
459.478	736.69
459.698	753.69
459.918	765.69
460.138	730.69
460.358	759.69
460.578	723.69
460.798	747.69
461.018	761.69
461.238	778.69
461.458	767.69
461.678	767.69
461.898	769.69
462.118	749.69
462.338	799.69
462.558	796.69
462.777	789.69
462.997	793.69
463.217	797.69
463.437	816.69
463.657	791.69
463.876	813.69
464.096	807.69
464.316	790.69
464.536	775.69
464.755	804.69
464.975	771.69
465.195	790.69
465.414	762.69
465.634	746.69
465.854	750.69
466.073	746.69
466.293	749.69
466.512	763.69
466.732	785.69
466.951	738.69
467.171	746.69
467.391	780.69
467.61	728.69
467.829	741.69
468.049	748.69
468.268	764.69
468.488	742.69
468.707	775.69
468.927	760.69
469.146	764.69
469.365	724.69
469.585	739.69
469.804	761.69
470.023	779.69
470.243	715.69
470.462	752.69
470.681	745.69
470.901	781.69
471.12	730.69
471.339	764.69
471.558	743.69
471.777	767.69
471.997	754.69
472.216	769.69
472.435	771.69
472.654	763.69
472.873	763.69
473.092	755.69
473.311	778.69
473.53	786.69
473.749	757.69
473.968	806.69
474.187	800.69
474.406	770.69
474.625	801.69
474.844	782.69
475.063	792.69
475.282	801.69
475.501	804.69
475.72	819.69
475.939	806.69
476.158	817.69
476.377	843.69
476.596	842.69
476.814	846.69
477.033	844.69
477.252	837.69
477.471	848.69
477.69	841.69
477.908	827.69
478.127	859.69
478.346	844.69
478.564	871.69
478.783	869.69
479.002	867.69
479.22	901.69
479.439	903.69
479.658	891.69
479.876	929.69
480.095	911.69
480.313	923.69
480.532	908.69
480.751	916.69
480.969	915.69
481.188	915.69
481.406	894.69
481.624	924.69
481.843	895.69
482.061	934.69
482.28	914.69
482.498	901.69
482.717	925.69
482.935	936.69
483.153	925.69
483.372	917.69
483.59	931.69
483.808	932.69
484.027	922.69
484.245	958.69
484.463	945.69
484.681	985.69
484.9	956.69
485.118	936.69
485.336	951.69
485.554	956.69
485.772	932.69
485.99	920.69
486.209	950.69
486.427	923.69
486.645	969.69
486.863	937.69
487.081	970.69
487.299	970.69
487.517	969.69
487.735	966.69
487.953	955.69
488.171	965.69
488.389	987.69
488.607	956.69
488.825	939.69
489.043	949.69
489.261	943.69
489.479	937.69
489.696	972.69
489.914	964.69
490.132	957.69
490.35	983.69
490.568	979.69
490.786	970.69
491.003	968.69
491.221	970.69
491.439	987.69
491.657	965.69
491.874	968.69
492.092	974.69
492.31	967.69
492.527	973.69
492.745	973.69
492.963	977.69
493.18	978.69
493.398	978.69
493.615	970.69
493.833	994.69
494.05	972.69
494.268	996.69
494.485	968.69
494.703	988.69
494.92	989.69
495.138	976.69
495.355	1016.69
495.573	998.69
495.79	1004.69
496.008	1012.69
496.225	1013.69
496.442	988.69
496.66	1023.69
496.877	1023.69
497.094	1027.69
497.312	1052.69
497.529	1036.69
497.746	1065.69
497.963	1060.69
498.181	1079.69
498.398	1068.69
498.615	1083.69
498.832	1088.69
499.049	1087.69
499.267	1110.69
499.484	1144.69
499.701	1161.69
499.918	1176.69
500.135	1168.69
500.352	1214.69
500.569	1194.69
500.786	1176.69
501.003	1202.69
501.22	1154.69
