Data from Fe(NO3)3@0.1M.TitratingCurve.Agarose3%dH2O.NegLispCup.LampEnergy10.LIBS07252019_HRD10591_16-38-01-331.txt Node
Date: Thu Jul 25 16:38:01 EDT 2019
User: cochatt
Spectrometer: HR+D1059
Trigger mode: 1
Integration Time (sec): 1.000000E-1
Scans to average: 1
Electric dark correction enabled: true
Nonlinearity correction enabled: false
Boxcar width: 0
XAxis mode: Wavelengths
Number of Pixels in Spectrum: 2048
>>>>>Begin Spectral Data<<<<<
223.165	-14.94
223.4	-14.94
223.635	-14.94
223.869	-14.94
224.104	-19.94
224.338	-14.94
224.573	-7.94
224.808	-9.94
225.042	-13.94
225.277	-10.94
225.511	3.06
225.746	-2.94
225.98	-8.94
226.215	13.06
226.449	20.06
226.683	25.06
226.918	28.06
227.152	30.06
227.387	40.06
227.621	44.06
227.856	30.06
228.09	57.06
228.324	53.06
228.559	53.06
228.793	69.06
229.027	65.06
229.262	77.06
229.496	68.06
229.73	69.06
229.964	75.06
230.199	69.06
230.433	67.06
230.667	87.06
230.901	80.06
231.136	74.06
231.37	71.06
231.604	77.06
231.838	89.06
232.072	86.06
232.306	80.06
232.541	78.06
232.775	85.06
233.009	82.06
233.243	82.06
233.477	86.06
233.711	97.06
233.945	77.06
234.179	93.06
234.413	75.06
234.647	87.06
234.881	91.06
235.115	71.06
235.349	84.06
235.583	89.06
235.817	76.06
236.051	83.06
236.285	88.06
236.519	91.06
236.753	86.06
236.987	68.06
237.221	79.06
237.455	76.06
237.689	76.06
237.922	70.06
238.156	73.06
238.39	90.06
238.624	94.06
238.858	77.06
239.091	83.06
239.325	80.06
239.559	85.06
239.793	85.06
240.027	76.06
240.26	78.06
240.494	98.06
240.728	75.06
240.961	79.06
241.195	88.06
241.429	84.06
241.662	77.06
241.896	84.06
242.13	86.06
242.363	94.06
242.597	76.06
242.83	83.06
243.064	71.06
243.298	77.06
243.531	88.06
243.765	63.06
243.998	99.06
244.232	86.06
244.465	83.06
244.699	89.06
244.932	68.06
245.166	79.06
245.399	93.06
245.633	96.06
245.866	92.06
246.099	91.06
246.333	76.06
246.566	99.06
246.8	83.06
247.033	81.06
247.266	88.06
247.5	103.06
247.733	98.06
247.966	86.06
248.2	85.06
248.433	69.06
248.666	83.06
248.899	83.06
249.133	87.06
249.366	72.06
249.599	77.06
249.832	90.06
250.066	90.06
250.299	88.06
250.532	83.06
250.765	94.06
250.998	82.06
251.231	89.06
251.465	83.06
251.698	93.06
251.931	87.06
252.164	95.06
252.397	92.06
252.63	91.06
252.863	98.06
253.096	96.06
253.329	86.06
253.562	79.06
253.795	86.06
254.028	97.06
254.261	93.06
254.494	98.06
254.727	92.06
254.96	82.06
255.193	96.06
255.426	95.06
255.659	93.06
255.892	78.06
256.124	90.06
256.357	95.06
256.59	85.06
256.823	95.06
257.056	86.06
257.289	90.06
257.521	84.06
257.754	85.06
257.987	88.06
258.22	91.06
258.452	91.06
258.685	86.06
258.918	93.06
259.151	84.06
259.383	89.06
259.616	93.06
259.849	81.06
260.081	91.06
260.314	100.06
260.547	96.06
260.779	88.06
261.012	91.06
261.244	95.06
261.477	92.06
261.71	89.06
261.942	80.06
262.175	85.06
262.407	105.06
262.64	102.06
262.872	91.06
263.105	90.06
263.337	96.06
263.57	85.06
263.802	94.06
264.035	98.06
264.267	91.06
264.499	98.06
264.732	85.06
264.964	95.06
265.197	85.06
265.429	101.06
265.661	88.06
265.894	97.06
266.126	99.06
266.358	91.06
266.591	101.06
266.823	104.06
267.055	99.06
267.287	86.06
267.52	98.06
267.752	92.06
267.984	95.06
268.216	101.06
268.448	93.06
268.681	94.06
268.913	94.06
269.145	82.06
269.377	94.06
269.609	88.06
269.841	89.06
270.073	85.06
270.306	80.06
270.538	94.06
270.77	98.06
271.002	94.06
271.234	99.06
271.466	99.06
271.698	90.06
271.93	69.06
272.162	93.06
272.394	94.06
272.626	98.06
272.858	97.06
273.09	95.06
273.322	78.06
273.553	99.06
273.785	87.06
274.017	93.06
274.249	103.06
274.481	92.06
274.713	95.06
274.945	88.06
275.176	102.06
275.408	102.06
275.64	96.06
275.872	101.06
276.104	95.06
276.335	89.06
276.567	97.06
276.799	89.06
277.031	103.06
277.262	85.06
277.494	87.06
277.726	103.06
277.957	85.06
278.189	106.06
278.421	94.06
278.652	96.06
278.884	102.06
279.115	101.06
279.347	91.06
279.579	93.06
279.81	109.06
280.042	93.06
280.273	98.06
280.505	105.06
280.736	93.06
280.968	92.06
281.199	106.06
281.431	99.06
281.662	95.06
281.894	96.06
282.125	101.06
282.356	104.06
282.588	107.06
282.819	87.06
283.051	97.06
283.282	94.06
283.513	113.06
283.745	105.06
283.976	111.06
284.207	117.06
284.439	107.06
284.67	91.06
284.901	92.06
285.132	97.06
285.364	97.06
285.595	95.06
285.826	89.06
286.057	107.06
286.288	81.06
286.52	92.06
286.751	115.06
286.982	108.06
287.213	102.06
287.444	94.06
287.675	101.06
287.906	102.06
288.138	97.06
288.369	109.06
288.6	113.06
288.831	117.06
289.062	102.06
289.293	122.06
289.524	96.06
289.755	102.06
289.986	99.06
290.217	105.06
290.448	103.06
290.679	102.06
290.91	96.06
291.141	98.06
291.371	111.06
291.602	101.06
291.833	113.06
292.064	101.06
292.295	110.06
292.526	84.06
292.757	84.06
292.987	106.06
293.218	91.06
293.449	103.06
293.68	109.06
293.91	103.06
294.141	88.06
294.372	87.06
294.603	97.06
294.833	97.06
295.064	101.06
295.295	95.06
295.525	98.06
295.756	98.06
295.987	87.06
296.217	105.06
296.448	107.06
296.679	98.06
296.909	100.06
297.14	102.06
297.37	94.06
297.601	105.06
297.831	111.06
298.062	100.06
298.292	104.06
298.523	113.06
298.753	107.06
298.984	111.06
299.214	103.06
299.445	107.06
299.675	101.06
299.905	99.06
300.136	107.06
300.366	102.06
300.597	114.06
300.827	110.06
301.057	108.06
301.288	93.06
301.518	101.06
301.748	106.06
301.979	107.06
302.209	113.06
302.439	119.06
302.669	107.06
302.9	108.06
303.13	98.06
303.36	118.06
303.59	117.06
303.82	108.06
304.051	99.06
304.281	94.06
304.511	115.06
304.741	104.06
304.971	111.06
305.201	112.06
305.431	114.06
305.661	104.06
305.891	107.06
306.121	118.06
306.352	97.06
306.582	102.06
306.812	108.06
307.042	99.06
307.272	99.06
307.502	110.06
307.731	115.06
307.961	113.06
308.191	108.06
308.421	105.06
308.651	122.06
308.881	101.06
309.111	115.06
309.341	116.06
309.571	105.06
309.8	90.06
310.03	97.06
310.26	111.06
310.49	102.06
310.72	102.06
310.949	78.06
311.179	107.06
311.409	95.06
311.639	103.06
311.868	124.06
312.098	103.06
312.328	115.06
312.557	108.06
312.787	93.06
313.017	113.06
313.246	104.06
313.476	100.06
313.706	98.06
313.935	105.06
314.165	88.06
314.394	117.06
314.624	101.06
314.853	113.06
315.083	109.06
315.312	108.06
315.542	107.06
315.771	115.06
316.001	115.06
316.23	98.06
316.46	118.06
316.689	109.06
316.919	109.06
317.148	110.06
317.377	107.06
317.607	106.06
317.836	107.06
318.065	83.06
318.295	112.06
318.524	99.06
318.753	111.06
318.983	98.06
319.212	108.06
319.441	105.06
319.67	122.06
319.9	113.06
320.129	105.06
320.358	115.06
320.587	104.06
320.816	123.06
321.046	108.06
321.275	117.06
321.504	89.06
321.733	113.06
321.962	108.06
322.191	89.06
322.42	104.06
322.649	113.06
322.878	117.06
323.108	110.06
323.337	123.06
323.566	94.06
323.795	118.06
324.024	108.06
324.253	115.06
324.482	114.06
324.71	126.06
324.939	116.06
325.168	111.06
325.397	119.06
325.626	99.06
325.855	103.06
326.084	115.06
326.313	107.06
326.542	111.06
326.77	122.06
326.999	101.06
327.228	101.06
327.457	94.06
327.686	113.06
327.914	115.06
328.143	107.06
328.372	118.06
328.6	104.06
328.829	118.06
329.058	101.06
329.287	102.06
329.515	105.06
329.744	103.06
329.972	101.06
330.201	110.06
330.43	109.06
330.658	105.06
330.887	116.06
331.115	106.06
331.344	119.06
331.572	117.06
331.801	118.06
332.03	111.06
332.258	116.06
332.486	122.06
332.715	117.06
332.943	123.06
333.172	108.06
333.4	120.06
333.629	133.06
333.857	129.06
334.085	128.06
334.314	123.06
334.542	110.06
334.771	126.06
334.999	117.06
335.227	113.06
335.455	130.06
335.684	111.06
335.912	121.06
336.14	122.06
336.369	121.06
336.597	109.06
336.825	113.06
337.053	118.06
337.281	105.06
337.51	103.06
337.738	122.06
337.966	98.06
338.194	103.06
338.422	102.06
338.65	113.06
338.878	114.06
339.106	125.06
339.334	123.06
339.562	117.06
339.79	123.06
340.018	125.06
340.246	106.06
340.474	124.06
340.702	93.06
340.93	103.06
341.158	103.06
341.386	106.06
341.614	112.06
341.842	117.06
342.07	121.06
342.298	115.06
342.526	118.06
342.754	117.06
342.981	123.06
343.209	111.06
343.437	131.06
343.665	120.06
343.893	115.06
344.12	122.06
344.348	121.06
344.576	117.06
344.804	129.06
345.031	95.06
345.259	109.06
345.487	113.06
345.714	110.06
345.942	103.06
346.17	101.06
346.397	95.06
346.625	117.06
346.853	94.06
347.08	119.06
347.308	117.06
347.535	108.06
347.763	124.06
347.99	115.06
348.218	116.06
348.445	115.06
348.673	115.06
348.9	110.06
349.128	118.06
349.355	115.06
349.583	120.06
349.81	115.06
350.037	104.06
350.265	106.06
350.492	103.06
350.72	125.06
350.947	113.06
351.174	107.06
351.402	115.06
351.629	115.06
351.856	117.06
352.083	114.06
352.311	115.06
352.538	102.06
352.765	118.06
352.992	100.06
353.22	106.06
353.447	106.06
353.674	110.06
353.901	103.06
354.128	105.06
354.355	117.06
354.583	107.06
354.81	128.06
355.037	125.06
355.264	115.06
355.491	98.06
355.718	130.06
355.945	101.06
356.172	123.06
356.399	109.06
356.626	118.06
356.853	119.06
357.08	120.06
357.307	128.06
357.534	110.06
357.761	120.06
357.988	113.06
358.215	120.06
358.441	105.06
358.668	118.06
358.895	109.06
359.122	113.06
359.349	120.06
359.576	101.06
359.802	115.06
360.029	123.06
360.256	128.06
360.483	117.06
360.709	113.06
360.936	107.06
361.163	112.06
361.39	121.06
361.616	113.06
361.843	108.06
362.07	120.06
362.296	127.06
362.523	113.06
362.749	111.06
362.976	116.06
363.203	109.06
363.429	114.06
363.656	101.06
363.882	120.06
364.109	127.06
364.335	115.06
364.562	106.06
364.788	103.06
365.015	101.06
365.241	112.06
365.468	120.06
365.694	127.06
365.92	116.06
366.147	104.06
366.373	110.06
366.599	119.06
366.826	122.06
367.052	110.06
367.278	120.06
367.505	111.06
367.731	99.06
367.957	121.06
368.184	124.06
368.41	105.06
368.636	106.06
368.862	118.06
369.089	120.06
369.315	120.06
369.541	128.06
369.767	117.06
369.993	97.06
370.219	125.06
370.445	108.06
370.672	114.06
370.898	117.06
371.124	127.06
371.35	102.06
371.576	119.06
371.802	133.06
372.028	115.06
372.254	129.06
372.48	123.06
372.706	120.06
372.932	118.06
373.158	125.06
373.384	113.06
373.61	121.06
373.835	123.06
374.061	107.06
374.287	140.06
374.513	119.06
374.739	121.06
374.965	129.06
375.191	122.06
375.416	115.06
375.642	119.06
375.868	131.06
376.094	95.06
376.319	108.06
376.545	127.06
376.771	105.06
376.997	120.06
377.222	123.06
377.448	103.06
377.674	114.06
377.899	125.06
378.125	122.06
378.35	133.06
378.576	133.06
378.802	127.06
379.027	124.06
379.253	122.06
379.478	123.06
379.704	129.06
379.929	133.06
380.155	116.06
380.38	119.06
380.606	119.06
380.831	127.06
381.057	130.06
381.282	137.06
381.507	129.06
381.733	139.06
381.958	122.06
382.184	130.06
382.409	128.06
382.634	133.06
382.86	131.06
383.085	122.06
383.31	134.06
383.535	129.06
383.761	118.06
383.986	128.06
384.211	126.06
384.436	122.06
384.662	154.06
384.887	139.06
385.112	138.06
385.337	141.06
385.562	122.06
385.787	147.06
386.013	131.06
386.238	140.06
386.463	124.06
386.688	122.06
386.913	142.06
387.138	128.06
387.363	137.06
387.588	135.06
387.813	137.06
388.038	152.06
388.263	124.06
388.488	137.06
388.713	126.06
388.938	141.06
389.163	135.06
389.387	144.06
389.612	142.06
389.837	138.06
390.062	137.06
390.287	126.06
390.512	141.06
390.736	142.06
390.961	137.06
391.186	141.06
391.411	134.06
391.636	147.06
391.86	158.06
392.085	125.06
392.31	140.06
392.534	147.06
392.759	150.06
392.984	144.06
393.208	145.06
393.433	166.06
393.658	133.06
393.882	144.06
394.107	145.06
394.331	138.06
394.556	148.06
394.78	154.06
395.005	161.06
395.229	140.06
395.454	155.06
395.678	156.06
395.903	166.06
396.127	149.06
396.352	141.06
396.576	153.06
396.801	157.06
397.025	148.06
397.249	154.06
397.474	161.06
397.698	146.06
397.922	154.06
398.147	152.06
398.371	147.06
398.595	172.06
398.82	185.06
399.044	161.06
399.268	164.06
399.492	184.06
399.717	195.06
399.941	185.06
400.165	187.06
400.389	188.06
400.613	179.06
400.837	159.06
401.062	161.06
401.286	157.06
401.51	150.06
401.734	140.06
401.958	160.06
402.182	181.06
402.406	161.06
402.63	161.06
402.854	158.06
403.078	154.06
403.302	169.06
403.526	169.06
403.75	187.06
403.974	169.06
404.198	167.06
404.422	171.06
404.645	181.06
404.869	174.06
405.093	174.06
405.317	181.06
405.541	170.06
405.765	158.06
405.988	165.06
406.212	169.06
406.436	166.06
406.66	194.06
406.883	189.06
407.107	193.06
407.331	203.06
407.555	181.06
407.778	191.06
408.002	200.06
408.226	182.06
408.449	186.06
408.673	170.06
408.896	188.06
409.12	183.06
409.344	162.06
409.567	173.06
409.791	177.06
410.014	186.06
410.238	172.06
410.461	166.06
410.685	182.06
410.908	179.06
411.132	188.06
411.355	158.06
411.578	181.06
411.802	166.06
412.025	174.06
412.249	173.06
412.472	186.06
412.695	178.06
412.919	170.06
413.142	160.06
413.365	164.06
413.589	180.06
413.812	179.06
414.035	165.06
414.258	175.06
414.482	188.06
414.705	184.06
414.928	181.06
415.151	175.06
415.374	179.06
415.597	165.06
415.821	163.06
416.044	171.06
416.267	167.06
416.49	165.06
416.713	166.06
416.936	170.06
417.159	182.06
417.382	157.06
417.605	167.06
417.828	175.06
418.051	160.06
418.274	156.06
418.497	146.06
418.72	179.06
418.943	180.06
419.166	184.06
419.389	172.06
419.611	172.06
419.834	191.06
420.057	185.06
420.28	171.06
420.503	175.06
420.726	166.06
420.948	174.06
421.171	166.06
421.394	174.06
421.617	187.06
421.839	181.06
422.062	166.06
422.285	174.06
422.507	182.06
422.73	176.06
422.953	179.06
423.175	164.06
423.398	179.06
423.621	168.06
423.843	182.06
424.066	179.06
424.288	189.06
424.511	182.06
424.733	188.06
424.956	173.06
425.178	161.06
425.401	171.06
425.623	172.06
425.846	184.06
426.068	169.06
426.291	161.06
426.513	178.06
426.735	186.06
426.958	183.06
427.18	157.06
427.402	165.06
427.625	163.06
427.847	163.06
428.069	173.06
428.292	170.06
428.514	157.06
428.736	152.06
428.958	164.06
429.181	173.06
429.403	159.06
429.625	156.06
429.847	151.06
430.069	152.06
430.292	166.06
430.514	163.06
430.736	163.06
430.958	174.06
431.18	153.06
431.402	175.06
431.624	166.06
431.846	161.06
432.068	168.06
432.29	165.06
432.512	188.06
432.734	176.06
432.956	170.06
433.178	177.06
433.4	156.06
433.622	169.06
433.844	179.06
434.066	161.06
434.287	175.06
434.509	172.06
434.731	173.06
434.953	167.06
435.175	165.06
435.397	179.06
435.618	172.06
435.84	161.06
436.062	164.06
436.284	174.06
436.505	171.06
436.727	173.06
436.949	153.06
437.17	159.06
437.392	157.06
437.614	168.06
437.835	155.06
438.057	155.06
438.278	171.06
438.5	165.06
438.721	153.06
438.943	170.06
439.165	167.06
439.386	149.06
439.608	166.06
439.829	167.06
440.05	189.06
440.272	168.06
440.493	163.06
440.715	173.06
440.936	195.06
441.158	163.06
441.379	178.06
441.6	186.06
441.822	182.06
442.043	175.06
442.264	161.06
442.486	172.06
442.707	174.06
442.928	170.06
443.149	188.06
443.371	173.06
443.592	195.06
443.813	187.06
444.034	197.06
444.255	183.06
444.476	187.06
444.698	205.06
444.919	207.06
445.14	302.06
445.361	245.06
445.582	179.06
445.803	194.06
446.024	178.06
446.245	174.06
446.466	172.06
446.687	179.06
446.908	191.06
447.129	181.06
447.35	173.06
447.571	172.06
447.792	179.06
448.013	170.06
448.234	162.06
448.455	165.06
448.675	173.06
448.896	181.06
449.117	150.06
449.338	165.06
449.559	169.06
449.779	157.06
450	173.06
450.221	163.06
450.442	162.06
450.662	173.06
450.883	156.06
451.104	175.06
451.324	158.06
451.545	159.06
451.766	144.06
451.986	153.06
452.207	175.06
452.428	167.06
452.648	170.06
452.869	145.06
453.089	159.06
453.31	167.06
453.53	156.06
453.751	151.06
453.971	164.06
454.192	148.06
454.412	174.06
454.633	155.06
454.853	147.06
455.073	147.06
455.294	159.06
455.514	167.06
455.734	157.06
455.955	157.06
456.175	157.06
456.395	152.06
456.616	142.06
456.836	172.06
457.056	154.06
457.276	180.06
457.497	171.06
457.717	164.06
457.937	171.06
458.157	171.06
458.377	168.06
458.598	157.06
458.818	166.06
459.038	151.06
459.258	147.06
459.478	171.06
459.698	178.06
459.918	175.06
460.138	170.06
460.358	195.06
460.578	168.06
460.798	179.06
461.018	186.06
461.238	189.06
461.458	191.06
461.678	191.06
461.898	186.06
462.118	178.06
462.338	202.06
462.558	192.06
462.777	204.06
462.997	212.06
463.217	219.06
463.437	223.06
463.657	205.06
463.876	195.06
464.096	199.06
464.316	179.06
464.536	197.06
464.755	191.06
464.975	200.06
465.195	181.06
465.414	170.06
465.634	184.06
465.854	179.06
466.073	172.06
466.293	189.06
466.512	166.06
466.732	173.06
466.951	173.06
467.171	186.06
467.391	169.06
467.61	171.06
467.829	164.06
468.049	166.06
468.268	162.06
468.488	167.06
468.707	176.06
468.927	155.06
469.146	177.06
469.365	184.06
469.585	174.06
469.804	166.06
470.023	177.06
470.243	176.06
470.462	182.06
470.681	164.06
470.901	164.06
471.12	166.06
471.339	171.06
471.558	178.06
471.777	168.06
471.997	179.06
472.216	162.06
472.435	169.06
472.654	169.06
472.873	149.06
473.092	158.06
473.311	155.06
473.53	167.06
473.749	169.06
473.968	166.06
474.187	164.06
474.406	167.06
474.625	168.06
474.844	168.06
475.063	183.06
475.282	161.06
475.501	173.06
475.72	188.06
475.939	174.06
476.158	183.06
476.377	167.06
476.596	155.06
476.814	168.06
477.033	179.06
477.252	160.06
477.471	170.06
477.69	180.06
477.908	174.06
478.127	183.06
478.346	197.06
478.564	175.06
478.783	196.06
479.002	183.06
479.22	204.06
479.439	193.06
479.658	185.06
479.876	168.06
480.095	181.06
480.313	199.06
480.532	183.06
480.751	184.06
480.969	189.06
481.188	210.06
481.406	193.06
481.624	181.06
481.843	179.06
482.061	175.06
482.28	171.06
482.498	192.06
482.717	172.06
482.935	177.06
483.153	181.06
483.372	185.06
483.59	195.06
483.808	180.06
484.027	185.06
484.245	179.06
484.463	167.06
484.681	192.06
484.9	203.06
485.118	196.06
485.336	183.06
485.554	175.06
485.772	189.06
485.99	162.06
486.209	201.06
486.427	182.06
486.645	185.06
486.863	173.06
487.081	189.06
487.299	180.06
487.517	180.06
487.735	198.06
487.953	199.06
488.171	191.06
488.389	207.06
488.607	194.06
488.825	181.06
489.043	184.06
489.261	190.06
489.479	182.06
489.696	201.06
489.914	191.06
490.132	190.06
490.35	184.06
490.568	192.06
490.786	197.06
491.003	182.06
491.221	181.06
491.439	191.06
491.657	195.06
491.874	193.06
492.092	188.06
492.31	211.06
492.527	193.06
492.745	206.06
492.963	202.06
493.18	202.06
493.398	187.06
493.615	190.06
493.833	195.06
494.05	211.06
494.268	189.06
494.485	183.06
494.703	192.06
494.92	188.06
495.138	193.06
495.355	190.06
495.573	219.06
495.79	208.06
496.008	205.06
496.225	187.06
496.442	205.06
496.66	201.06
496.877	218.06
497.094	206.06
497.312	207.06
497.529	189.06
497.746	219.06
497.963	216.06
498.181	223.06
498.398	205.06
498.615	231.06
498.832	230.06
499.049	255.06
499.267	261.06
499.484	292.06
499.701	286.06
499.918	329.06
500.135	341.06
500.352	357.06
500.569	388.06
500.786	371.06
501.003	357.06
501.22	331.06
501.437	297.06
501.654	289.06
501.871	279.06
502.088	264.06
502.305	261.06
502.522	250.06
502.739	237.06
502.956	214.06
503.172	201.06
503.389	207.06
503.606	206.06
503.823	225.06
504.04	225.06
504.256	212.06
504.473	209.06
504.69	210.06
504.907	221.06
505.123	196.06
505.34	165.06
