Data from Fe(NO3)3@0.0125M.TitratingCurve.Agarose3%dH2O.NegLispCup.LampEnergy10.LIBS07252019_HRD10591_17-01-24-337.txt Node
Date: Thu Jul 25 17:01:24 EDT 2019
User: cochatt
Spectrometer: HR+D1059
Trigger mode: 1
Integration Time (sec): 1.000000E-1
Scans to average: 1
Electric dark correction enabled: true
Nonlinearity correction enabled: false
Boxcar width: 0
XAxis mode: Wavelengths
Number of Pixels in Spectrum: 2048
>>>>>Begin Spectral Data<<<<<
223.165	-18.06
223.4	-18.06
223.635	-18.06
223.869	-22.06
224.104	-3.06
224.338	-18.06
224.573	-11.06
224.808	-3.06
225.042	-14.06
225.277	-10.06
225.511	-13.06
225.746	4.94
225.98	11.94
226.215	19.94
226.449	7.94
226.683	18.94
226.918	22.94
227.152	25.94
227.387	39.94
227.621	32.94
227.856	35.94
228.09	41.94
228.324	49.94
228.559	49.94
228.793	64.94
229.027	75.94
229.262	91.94
229.496	81.94
229.73	83.94
229.964	72.94
230.199	86.94
230.433	92.94
230.667	102.94
230.901	91.94
231.136	98.94
231.37	109.94
231.604	116.94
231.838	107.94
232.072	101.94
232.306	92.94
232.541	100.94
232.775	96.94
233.009	109.94
233.243	114.94
233.477	112.94
233.711	106.94
233.945	108.94
234.179	93.94
234.413	107.94
234.647	101.94
234.881	123.94
235.115	119.94
235.349	102.94
235.583	116.94
235.817	95.94
236.051	123.94
236.285	114.94
236.519	115.94
236.753	104.94
236.987	106.94
237.221	111.94
237.455	122.94
237.689	110.94
237.922	105.94
238.156	117.94
238.39	119.94
238.624	115.94
238.858	116.94
239.091	117.94
239.325	119.94
239.559	127.94
239.793	101.94
240.027	109.94
240.26	126.94
240.494	128.94
240.728	121.94
240.961	121.94
241.195	119.94
241.429	117.94
241.662	135.94
241.896	124.94
242.13	125.94
242.363	123.94
242.597	125.94
242.83	114.94
243.064	113.94
243.298	122.94
243.531	123.94
243.765	107.94
243.998	138.94
244.232	120.94
244.465	119.94
244.699	135.94
244.932	117.94
245.166	119.94
245.399	111.94
245.633	130.94
245.866	133.94
246.099	124.94
246.333	128.94
246.566	126.94
246.8	129.94
247.033	137.94
247.266	128.94
247.5	138.94
247.733	133.94
247.966	128.94
248.2	140.94
248.433	152.94
248.666	140.94
248.899	142.94
249.133	137.94
249.366	148.94
249.599	146.94
249.832	153.94
250.066	155.94
250.299	155.94
250.532	148.94
250.765	121.94
250.998	132.94
251.231	166.94
251.465	136.94
251.698	136.94
251.931	160.94
252.164	134.94
252.397	144.94
252.63	147.94
252.863	149.94
253.096	151.94
253.329	155.94
253.562	155.94
253.795	151.94
254.028	156.94
254.261	161.94
254.494	166.94
254.727	150.94
254.96	150.94
255.193	158.94
255.426	158.94
255.659	153.94
255.892	161.94
256.124	141.94
256.357	164.94
256.59	154.94
256.823	156.94
257.056	155.94
257.289	155.94
257.521	157.94
257.754	166.94
257.987	151.94
258.22	165.94
258.452	174.94
258.685	152.94
258.918	174.94
259.151	162.94
259.383	164.94
259.616	158.94
259.849	185.94
260.081	185.94
260.314	184.94
260.547	174.94
260.779	170.94
261.012	162.94
261.244	178.94
261.477	187.94
261.71	167.94
261.942	169.94
262.175	180.94
262.407	182.94
262.64	168.94
262.872	176.94
263.105	183.94
263.337	171.94
263.57	192.94
263.802	188.94
264.035	187.94
264.267	184.94
264.499	175.94
264.732	190.94
264.964	179.94
265.197	190.94
265.429	177.94
265.661	167.94
265.894	185.94
266.126	174.94
266.358	170.94
266.591	198.94
266.823	176.94
267.055	192.94
267.287	195.94
267.52	179.94
267.752	186.94
267.984	190.94
268.216	193.94
268.448	193.94
268.681	178.94
268.913	202.94
269.145	187.94
269.377	199.94
269.609	203.94
269.841	202.94
270.073	208.94
270.306	188.94
270.538	182.94
270.77	199.94
271.002	205.94
271.234	211.94
271.466	203.94
271.698	215.94
271.93	210.94
272.162	194.94
272.394	205.94
272.626	207.94
272.858	218.94
273.09	222.94
273.322	196.94
273.553	212.94
273.785	203.94
274.017	222.94
274.249	233.94
274.481	232.94
274.713	198.94
274.945	231.94
275.176	217.94
275.408	215.94
275.64	229.94
275.872	218.94
276.104	210.94
276.335	199.94
276.567	236.94
276.799	235.94
277.031	225.94
277.262	217.94
277.494	220.94
277.726	224.94
277.957	228.94
278.189	232.94
278.421	228.94
278.652	227.94
278.884	223.94
279.115	225.94
279.347	213.94
279.579	203.94
279.81	214.94
280.042	220.94
280.273	218.94
280.505	220.94
280.736	243.94
280.968	232.94
281.199	230.94
281.431	232.94
281.662	234.94
281.894	238.94
282.125	246.94
282.356	259.94
282.588	224.94
282.819	257.94
283.051	246.94
283.282	221.94
283.513	235.94
283.745	241.94
283.976	250.94
284.207	232.94
284.439	251.94
284.67	242.94
284.901	243.94
285.132	263.94
285.364	231.94
285.595	261.94
285.826	224.94
286.057	249.94
286.288	265.94
286.52	237.94
286.751	254.94
286.982	250.94
287.213	246.94
287.444	258.94
287.675	251.94
287.906	258.94
288.138	259.94
288.369	273.94
288.6	263.94
288.831	257.94
289.062	249.94
289.293	263.94
289.524	245.94
289.755	246.94
289.986	243.94
290.217	260.94
290.448	283.94
290.679	272.94
290.91	271.94
291.141	248.94
291.371	265.94
291.602	254.94
291.833	274.94
292.064	261.94
292.295	249.94
292.526	264.94
292.757	246.94
292.987	245.94
293.218	256.94
293.449	271.94
293.68	270.94
293.91	259.94
294.141	274.94
294.372	253.94
294.603	270.94
294.833	272.94
295.064	264.94
295.295	279.94
295.525	278.94
295.756	272.94
295.987	281.94
296.217	299.94
296.448	277.94
296.679	278.94
296.909	286.94
297.14	274.94
297.37	280.94
297.601	288.94
297.831	267.94
298.062	289.94
298.292	273.94
298.523	290.94
298.753	311.94
298.984	312.94
299.214	295.94
299.445	284.94
299.675	283.94
299.905	298.94
300.136	302.94
300.366	289.94
300.597	297.94
300.827	306.94
301.057	315.94
301.288	295.94
301.518	287.94
301.748	304.94
301.979	313.94
302.209	307.94
302.439	294.94
302.669	303.94
302.9	292.94
303.13	297.94
303.36	305.94
303.59	318.94
303.82	306.94
304.051	298.94
304.281	295.94
304.511	287.94
304.741	315.94
304.971	306.94
305.201	319.94
305.431	308.94
305.661	304.94
305.891	312.94
306.121	299.94
306.352	301.94
306.582	304.94
306.812	312.94
307.042	314.94
307.272	305.94
307.502	307.94
307.731	302.94
307.961	310.94
308.191	312.94
308.421	324.94
308.651	314.94
308.881	301.94
309.111	329.94
309.341	319.94
309.571	327.94
309.8	314.94
310.03	322.94
310.26	331.94
310.49	298.94
310.72	310.94
310.949	325.94
311.179	315.94
311.409	352.94
311.639	328.94
311.868	335.94
312.098	338.94
312.328	345.94
312.557	325.94
312.787	337.94
313.017	340.94
313.246	321.94
313.476	338.94
313.706	334.94
313.935	324.94
314.165	328.94
314.394	316.94
314.624	341.94
314.853	349.94
315.083	352.94
315.312	345.94
315.542	341.94
315.771	338.94
316.001	345.94
316.23	340.94
316.46	336.94
316.689	340.94
316.919	356.94
317.148	351.94
317.377	340.94
317.607	355.94
317.836	342.94
318.065	352.94
318.295	350.94
318.524	358.94
318.753	343.94
318.983	331.94
319.212	354.94
319.441	341.94
319.67	357.94
319.9	354.94
320.129	344.94
320.358	352.94
320.587	366.94
320.816	342.94
321.046	352.94
321.275	360.94
321.504	361.94
321.733	338.94
321.962	371.94
322.191	356.94
322.42	364.94
322.649	347.94
322.878	363.94
323.108	370.94
323.337	358.94
323.566	352.94
323.795	367.94
324.024	355.94
324.253	359.94
324.482	355.94
324.71	375.94
324.939	372.94
325.168	360.94
325.397	366.94
325.626	352.94
325.855	354.94
326.084	379.94
326.313	386.94
326.542	373.94
326.77	388.94
326.999	378.94
327.228	366.94
327.457	380.94
327.686	378.94
327.914	379.94
328.143	378.94
328.372	363.94
328.6	384.94
328.829	384.94
329.058	382.94
329.287	374.94
329.515	383.94
329.744	388.94
329.972	388.94
330.201	388.94
330.43	384.94
330.658	397.94
330.887	378.94
331.115	394.94
331.344	410.94
331.572	398.94
331.801	402.94
332.03	399.94
332.258	392.94
332.486	402.94
332.715	419.94
332.943	416.94
333.172	401.94
333.4	405.94
333.629	446.94
333.857	440.94
334.085	439.94
334.314	450.94
334.542	425.94
334.771	432.94
334.999	410.94
335.227	448.94
335.455	452.94
335.684	419.94
335.912	458.94
336.14	436.94
336.369	427.94
336.597	425.94
336.825	431.94
337.053	425.94
337.281	412.94
337.51	421.94
337.738	422.94
337.966	416.94
338.194	424.94
338.422	405.94
338.65	418.94
338.878	427.94
339.106	423.94
339.334	404.94
339.562	426.94
339.79	406.94
340.018	400.94
340.246	407.94
340.474	409.94
340.702	414.94
340.93	433.94
341.158	398.94
341.386	417.94
341.614	411.94
341.842	395.94
342.07	406.94
342.298	409.94
342.526	412.94
342.754	416.94
342.981	407.94
343.209	409.94
343.437	434.94
343.665	412.94
343.893	432.94
344.12	456.94
344.348	433.94
344.576	411.94
344.804	440.94
345.031	415.94
345.259	424.94
345.487	413.94
345.714	422.94
345.942	417.94
346.17	395.94
346.397	401.94
346.625	401.94
346.853	403.94
347.08	401.94
347.308	399.94
347.535	410.94
347.763	388.94
347.99	415.94
348.218	417.94
348.445	389.94
348.673	416.94
348.9	401.94
349.128	405.94
349.355	395.94
349.583	394.94
349.81	394.94
350.037	366.94
350.265	381.94
350.492	400.94
350.72	400.94
350.947	388.94
351.174	407.94
351.402	387.94
351.629	385.94
351.856	403.94
352.083	390.94
352.311	386.94
352.538	405.94
352.765	402.94
352.992	416.94
353.22	404.94
353.447	404.94
353.674	389.94
353.901	418.94
354.128	400.94
354.355	385.94
354.583	391.94
354.81	411.94
355.037	387.94
355.264	399.94
355.491	423.94
355.718	382.94
355.945	383.94
356.172	399.94
356.399	395.94
356.626	377.94
356.853	394.94
357.08	399.94
357.307	411.94
357.534	408.94
357.761	411.94
357.988	419.94
358.215	390.94
358.441	402.94
358.668	388.94
358.895	409.94
359.122	375.94
359.349	415.94
359.576	416.94
359.802	396.94
360.029	380.94
360.256	418.94
360.483	391.94
360.709	385.94
360.936	408.94
361.163	392.94
361.39	394.94
361.616	402.94
361.843	400.94
362.07	401.94
362.296	413.94
362.523	406.94
362.749	405.94
362.976	388.94
363.203	402.94
363.429	416.94
363.656	400.94
363.882	420.94
364.109	400.94
364.335	406.94
364.562	395.94
364.788	408.94
365.015	436.94
365.241	406.94
365.468	414.94
365.694	431.94
365.92	427.94
366.147	404.94
366.373	410.94
366.599	411.94
366.826	413.94
367.052	398.94
367.278	423.94
367.505	425.94
367.731	410.94
367.957	410.94
368.184	404.94
368.41	403.94
368.636	427.94
368.862	423.94
369.089	408.94
369.315	410.94
369.541	427.94
369.767	433.94
369.993	400.94
370.219	423.94
370.445	440.94
370.672	432.94
370.898	439.94
371.124	441.94
371.35	434.94
371.576	431.94
371.802	445.94
372.028	431.94
372.254	448.94
372.48	453.94
372.706	452.94
372.932	450.94
373.158	435.94
373.384	469.94
373.61	439.94
373.835	442.94
374.061	427.94
374.287	446.94
374.513	427.94
374.739	444.94
374.965	456.94
375.191	456.94
375.416	465.94
375.642	438.94
375.868	443.94
376.094	440.94
376.319	445.94
376.545	454.94
376.771	437.94
376.997	459.94
377.222	454.94
377.448	433.94
377.674	435.94
377.899	443.94
378.125	415.94
378.35	433.94
378.576	436.94
378.802	432.94
379.027	449.94
379.253	452.94
379.478	434.94
379.704	431.94
379.929	443.94
380.155	437.94
380.38	414.94
380.606	430.94
380.831	458.94
381.057	451.94
381.282	451.94
381.507	449.94
381.733	438.94
381.958	420.94
382.184	438.94
382.409	436.94
382.634	474.94
382.86	473.94
383.085	467.94
383.31	475.94
383.535	440.94
383.761	460.94
383.986	455.94
384.211	466.94
384.436	458.94
384.662	470.94
384.887	479.94
385.112	475.94
385.337	497.94
385.562	494.94
385.787	482.94
386.013	492.94
386.238	510.94
386.463	482.94
386.688	502.94
386.913	477.94
387.138	494.94
387.363	517.94
387.588	508.94
387.813	520.94
388.038	484.94
388.263	487.94
388.488	519.94
388.713	499.94
388.938	519.94
389.163	497.94
389.387	489.94
389.612	516.94
389.837	492.94
390.062	506.94
390.287	502.94
390.512	516.94
390.736	498.94
390.961	485.94
391.186	510.94
391.411	512.94
391.636	506.94
391.86	544.94
392.085	512.94
392.31	525.94
392.534	513.94
392.759	542.94
392.984	501.94
393.208	532.94
393.433	540.94
393.658	507.94
393.882	491.94
394.107	530.94
394.331	498.94
394.556	538.94
394.78	514.94
395.005	527.94
395.229	525.94
395.454	548.94
395.678	524.94
395.903	531.94
396.127	527.94
396.352	531.94
396.576	517.94
396.801	538.94
397.025	548.94
397.249	554.94
397.474	535.94
397.698	547.94
397.922	550.94
398.147	547.94
398.371	590.94
398.595	579.94
398.82	593.94
399.044	595.94
399.268	654.94
399.492	648.94
399.717	665.94
399.941	666.94
400.165	662.94
400.389	662.94
400.613	635.94
400.837	618.94
401.062	608.94
401.286	593.94
401.51	601.94
401.734	592.94
401.958	588.94
402.182	600.94
402.406	586.94
402.63	592.94
402.854	611.94
403.078	588.94
403.302	583.94
403.526	578.94
403.75	606.94
403.974	594.94
404.198	611.94
404.422	595.94
404.645	591.94
404.869	575.94
405.093	604.94
405.317	602.94
405.541	615.94
405.765	606.94
405.988	626.94
406.212	608.94
406.436	601.94
406.66	631.94
406.883	650.94
407.107	652.94
407.331	655.94
407.555	655.94
407.778	673.94
408.002	655.94
408.226	650.94
408.449	644.94
408.673	648.94
408.896	638.94
409.12	632.94
409.344	623.94
409.567	635.94
409.791	624.94
410.014	622.94
410.238	611.94
410.461	636.94
410.685	615.94
410.908	598.94
411.132	610.94
411.355	586.94
411.578	585.94
411.802	587.94
412.025	592.94
412.249	618.94
412.472	606.94
412.695	614.94
412.919	605.94
413.142	599.94
413.365	591.94
413.589	594.94
413.812	579.94
414.035	587.94
414.258	584.94
414.482	579.94
414.705	611.94
414.928	592.94
415.151	576.94
415.374	584.94
415.597	572.94
415.821	567.94
416.044	580.94
416.267	591.94
416.49	563.94
416.713	577.94
416.936	568.94
417.159	546.94
417.382	572.94
417.605	552.94
417.828	571.94
418.051	587.94
418.274	550.94
418.497	582.94
418.72	574.94
418.943	554.94
419.166	575.94
419.389	571.94
419.611	610.94
419.834	606.94
420.057	599.94
420.28	538.94
420.503	553.94
420.726	568.94
420.948	564.94
421.171	541.94
421.394	558.94
421.617	542.94
421.839	551.94
422.062	547.94
422.285	548.94
422.507	558.94
422.73	544.94
422.953	564.94
423.175	546.94
423.398	552.94
423.621	555.94
423.843	527.94
424.066	578.94
424.288	554.94
424.511	568.94
424.733	566.94
424.956	558.94
425.178	529.94
425.401	564.94
425.623	553.94
425.846	536.94
426.068	562.94
426.291	554.94
426.513	543.94
426.735	554.94
426.958	548.94
427.18	536.94
427.402	518.94
427.625	516.94
427.847	531.94
428.069	508.94
428.292	536.94
428.514	542.94
428.736	518.94
428.958	537.94
429.181	525.94
429.403	514.94
429.625	513.94
429.847	539.94
430.069	537.94
430.292	531.94
430.514	528.94
430.736	530.94
430.958	553.94
431.18	510.94
431.402	528.94
431.624	528.94
431.846	535.94
432.068	554.94
432.29	522.94
432.512	543.94
432.734	534.94
432.956	537.94
433.178	529.94
433.4	537.94
433.622	540.94
433.844	547.94
434.066	523.94
434.287	566.94
434.509	547.94
434.731	555.94
434.953	576.94
435.175	567.94
435.397	554.94
435.618	533.94
435.84	549.94
436.062	537.94
436.284	540.94
436.505	564.94
436.727	524.94
436.949	527.94
437.17	516.94
437.392	513.94
437.614	530.94
437.835	516.94
438.057	527.94
438.278	506.94
438.5	528.94
438.721	516.94
438.943	517.94
439.165	517.94
439.386	517.94
439.608	519.94
439.829	520.94
440.05	514.94
440.272	530.94
440.493	524.94
440.715	551.94
440.936	548.94
441.158	542.94
441.379	542.94
441.6	550.94
441.822	567.94
442.043	550.94
442.264	538.94
442.486	560.94
442.707	538.94
442.928	550.94
443.149	523.94
443.371	554.94
443.592	552.94
443.813	542.94
444.034	562.94
444.255	546.94
444.476	561.94
444.698	568.94
444.919	602.94
445.14	666.94
445.361	568.94
445.582	543.94
445.803	555.94
446.024	523.94
446.245	534.94
446.466	543.94
446.687	512.94
446.908	528.94
447.129	503.94
447.35	507.94
447.571	523.94
447.792	523.94
448.013	494.94
448.234	503.94
448.455	496.94
448.675	500.94
448.896	503.94
449.117	492.94
449.338	489.94
449.559	485.94
449.779	460.94
450	467.94
450.221	488.94
450.442	495.94
450.662	491.94
450.883	473.94
451.104	482.94
451.324	487.94
451.545	499.94
451.766	500.94
451.986	466.94
452.207	494.94
452.428	489.94
452.648	494.94
452.869	499.94
453.089	481.94
453.31	472.94
453.53	473.94
453.751	482.94
453.971	470.94
454.192	469.94
454.412	464.94
454.633	457.94
454.853	441.94
455.073	440.94
455.294	465.94
455.514	465.94
455.734	482.94
455.955	451.94
456.175	456.94
456.395	467.94
456.616	459.94
456.836	485.94
457.056	481.94
457.276	470.94
457.497	460.94
457.717	481.94
457.937	479.94
458.157	475.94
458.377	474.94
458.598	490.94
458.818	487.94
459.038	504.94
459.258	519.94
459.478	515.94
459.698	544.94
459.918	533.94
460.138	554.94
460.358	544.94
460.578	560.94
460.798	585.94
461.018	568.94
461.238	555.94
461.458	566.94
461.678	565.94
461.898	598.94
462.118	576.94
462.338	590.94
462.558	624.94
462.777	609.94
462.997	623.94
463.217	630.94
463.437	649.94
463.657	614.94
463.876	646.94
464.096	600.94
464.316	588.94
464.536	606.94
464.755	607.94
464.975	577.94
465.195	589.94
465.414	547.94
465.634	528.94
465.854	536.94
466.073	531.94
466.293	524.94
466.512	527.94
466.732	521.94
466.951	500.94
467.171	529.94
467.391	514.94
467.61	527.94
467.829	489.94
468.049	498.94
468.268	519.94
468.488	515.94
468.707	528.94
468.927	517.94
469.146	532.94
469.365	524.94
469.585	507.94
469.804	523.94
470.023	532.94
470.243	516.94
470.462	533.94
470.681	543.94
470.901	529.94
471.12	530.94
471.339	524.94
471.558	497.94
471.777	518.94
471.997	536.94
472.216	517.94
472.435	526.94
472.654	508.94
472.873	498.94
473.092	497.94
473.311	505.94
473.53	516.94
473.749	503.94
473.968	513.94
474.187	498.94
474.406	529.94
474.625	528.94
474.844	522.94
475.063	502.94
475.282	559.94
475.501	530.94
475.72	520.94
475.939	532.94
476.158	538.94
476.377	553.94
476.596	540.94
476.814	562.94
477.033	567.94
477.252	530.94
477.471	552.94
477.69	567.94
477.908	582.94
478.127	603.94
478.346	610.94
478.564	601.94
478.783	592.94
479.002	607.94
479.22	618.94
479.439	619.94
479.658	614.94
479.876	633.94
480.095	629.94
480.313	656.94
480.532	638.94
480.751	642.94
480.969	628.94
481.188	602.94
481.406	633.94
481.624	628.94
481.843	624.94
482.061	615.94
482.28	629.94
482.498	618.94
482.717	609.94
482.935	625.94
483.153	601.94
483.372	633.94
483.59	607.94
483.808	650.94
484.027	634.94
484.245	604.94
484.463	607.94
484.681	660.94
484.9	642.94
485.118	673.94
485.336	632.94
485.554	646.94
485.772	638.94
485.99	636.94
486.209	656.94
486.427	692.94
486.645	638.94
486.863	652.94
487.081	679.94
487.299	632.94
487.517	651.94
487.735	642.94
487.953	657.94
488.171	661.94
488.389	655.94
488.607	647.94
488.825	642.94
489.043	646.94
489.261	647.94
489.479	647.94
489.696	644.94
489.914	634.94
490.132	652.94
490.35	648.94
490.568	625.94
490.786	642.94
491.003	633.94
491.221	638.94
491.439	653.94
491.657	658.94
491.874	642.94
492.092	670.94
492.31	630.94
492.527	652.94
492.745	647.94
492.963	648.94
493.18	653.94
493.398	661.94
493.615	664.94
493.833	645.94
494.05	654.94
494.268	664.94
494.485	665.94
494.703	666.94
494.92	647.94
495.138	663.94
495.355	670.94
495.573	661.94
495.79	679.94
496.008	671.94
496.225	686.94
496.442	696.94
496.66	697.94
496.877	710.94
497.094	703.94
497.312	712.94
497.529	730.94
497.746	754.94
497.963	745.94
498.181	781.94
498.398	793.94
498.615	823.94
498.832	831.94
499.049	853.94
499.267	877.94
499.484	939.94
499.701	960.94
499.918	1013.94
500.135	1078.94
500.352	1107.94
500.569	1106.94
500.786	1113.94
501.003	1067.94
501.22	1007.94
501.437	1004.94
501.654	931.94
