Data from Fe(NO3)3@0.05M.TitratingCurve.Agarose3%dH2O.NegLispCup.LampEnergy10.LIBS07252019_HRD10591_16-46-12-335.txt Node
Date: Thu Jul 25 16:46:12 EDT 2019
User: cochatt
Spectrometer: HR+D1059
Trigger mode: 1
Integration Time (sec): 1.000000E-1
Scans to average: 1
Electric dark correction enabled: true
Nonlinearity correction enabled: false
Boxcar width: 0
XAxis mode: Wavelengths
Number of Pixels in Spectrum: 2048
>>>>>Begin Spectral Data<<<<<
223.165	-14.62
223.4	-14.62
223.635	-14.62
223.869	-11.62
224.104	4.38
224.338	-9.62
224.573	-20.62
224.808	-17.62
225.042	-12.62
225.277	-12.62
225.511	-12.62
225.746	14.38
225.98	7.38
226.215	8.38
226.449	18.38
226.683	3.38
226.918	24.38
227.152	31.38
227.387	33.38
227.621	37.38
227.856	37.38
228.09	43.38
228.324	56.38
228.559	55.38
228.793	85.38
229.027	150.38
229.262	177.38
229.496	164.38
229.73	178.38
229.964	181.38
230.199	182.38
230.433	182.38
230.667	168.38
230.901	189.38
231.136	185.38
231.37	175.38
231.604	192.38
231.838	189.38
232.072	205.38
232.306	204.38
232.541	212.38
232.775	213.38
233.009	192.38
233.243	208.38
233.477	216.38
233.711	217.38
233.945	226.38
234.179	214.38
234.413	226.38
234.647	241.38
234.881	261.38
235.115	247.38
235.349	263.38
235.583	228.38
235.817	231.38
236.051	245.38
236.285	267.38
236.519	260.38
236.753	260.38
236.987	264.38
237.221	258.38
237.455	257.38
237.689	256.38
237.922	285.38
238.156	281.38
238.39	306.38
238.624	331.38
238.858	331.38
239.091	290.38
239.325	288.38
239.559	291.38
239.793	321.38
240.027	327.38
240.26	328.38
240.494	313.38
240.728	327.38
240.961	364.38
241.195	357.38
241.429	346.38
241.662	336.38
241.896	321.38
242.13	307.38
242.363	332.38
242.597	328.38
242.83	352.38
243.064	332.38
243.298	351.38
243.531	347.38
243.765	358.38
243.998	344.38
244.232	349.38
244.465	350.38
244.699	355.38
244.932	369.38
245.166	371.38
245.399	369.38
245.633	352.38
245.866	356.38
246.099	364.38
246.333	373.38
246.566	383.38
246.8	383.38
247.033	370.38
247.266	402.38
247.5	385.38
247.733	397.38
247.966	401.38
248.2	406.38
248.433	409.38
248.666	435.38
248.899	437.38
249.133	438.38
249.366	461.38
249.599	478.38
249.832	464.38
250.066	450.38
250.299	447.38
250.532	427.38
250.765	434.38
250.998	439.38
251.231	417.38
251.465	444.38
251.698	454.38
251.931	450.38
252.164	455.38
252.397	479.38
252.63	489.38
252.863	511.38
253.096	502.38
253.329	517.38
253.562	498.38
253.795	527.38
254.028	553.38
254.261	557.38
254.494	541.38
254.727	505.38
254.96	514.38
255.193	534.38
255.426	531.38
255.659	504.38
255.892	498.38
256.124	484.38
256.357	518.38
256.59	561.38
256.823	544.38
257.056	524.38
257.289	514.38
257.521	511.38
257.754	516.38
257.987	539.38
258.22	533.38
258.452	518.38
258.685	555.38
258.918	593.38
259.151	565.38
259.383	582.38
259.616	574.38
259.849	599.38
260.081	691.38
260.314	707.38
260.547	608.38
260.779	589.38
261.012	616.38
261.244	652.38
261.477	651.38
261.71	647.38
261.942	608.38
262.175	598.38
262.407	588.38
262.64	608.38
262.872	645.38
263.105	657.38
263.337	676.38
263.57	679.38
263.802	613.38
264.035	584.38
264.267	587.38
264.499	592.38
264.732	580.38
264.964	586.38
265.197	601.38
265.429	607.38
265.661	594.38
265.894	599.38
266.126	608.38
266.358	609.38
266.591	596.38
266.823	617.38
267.055	625.38
267.287	618.38
267.52	603.38
267.752	660.38
267.984	635.38
268.216	635.38
268.448	659.38
268.681	649.38
268.913	648.38
269.145	658.38
269.377	657.38
269.609	672.38
269.841	654.38
270.073	640.38
270.306	660.38
270.538	682.38
270.77	681.38
271.002	682.38
271.234	652.38
271.466	682.38
271.698	733.38
271.93	712.38
272.162	685.38
272.394	716.38
272.626	697.38
272.858	724.38
273.09	742.38
273.322	704.38
273.553	730.38
273.785	745.38
274.017	842.38
274.249	875.38
274.481	867.38
274.713	881.38
274.945	952.38
275.176	1000.38
275.408	922.38
275.64	895.38
275.872	905.38
276.104	851.38
276.335	780.38
276.567	768.38
276.799	791.38
277.031	782.38
277.262	770.38
277.494	748.38
277.726	782.38
277.957	773.38
278.189	783.38
278.421	764.38
278.652	780.38
278.884	792.38
279.115	773.38
279.347	773.38
279.579	804.38
279.81	780.38
280.042	787.38
280.273	765.38
280.505	804.38
280.736	802.38
280.968	787.38
281.199	815.38
281.431	797.38
281.662	797.38
281.894	818.38
282.125	798.38
282.356	811.38
282.588	828.38
282.819	811.38
283.051	824.38
283.282	836.38
283.513	846.38
283.745	851.38
283.976	843.38
284.207	857.38
284.439	854.38
284.67	860.38
284.901	857.38
285.132	857.38
285.364	843.38
285.595	851.38
285.826	845.38
286.057	907.38
286.288	859.38
286.52	856.38
286.751	847.38
286.982	888.38
287.213	845.38
287.444	881.38
287.675	883.38
287.906	897.38
288.138	871.38
288.369	879.38
288.6	895.38
288.831	898.38
289.062	854.38
289.293	883.38
289.524	870.38
289.755	889.38
289.986	895.38
290.217	899.38
290.448	890.38
290.679	884.38
290.91	906.38
291.141	890.38
291.371	887.38
291.602	904.38
291.833	870.38
292.064	889.38
292.295	917.38
292.526	897.38
292.757	888.38
292.987	905.38
293.218	887.38
293.449	897.38
293.68	925.38
293.91	926.38
294.141	905.38
294.372	928.38
294.603	905.38
294.833	912.38
295.064	907.38
295.295	912.38
295.525	901.38
295.756	965.38
295.987	911.38
296.217	927.38
296.448	967.38
296.679	918.38
296.909	931.38
297.14	944.38
297.37	967.38
297.601	955.38
297.831	938.38
298.062	905.38
298.292	953.38
298.523	964.38
298.753	993.38
298.984	999.38
299.214	962.38
299.445	980.38
299.675	981.38
299.905	969.38
300.136	977.38
300.366	969.38
300.597	988.38
300.827	1007.38
301.057	1000.38
301.288	1019.38
301.518	993.38
301.748	1004.38
301.979	1045.38
302.209	1041.38
302.439	1056.38
302.669	1026.38
302.9	993.38
303.13	983.38
303.36	1023.38
303.59	1034.38
303.82	1027.38
304.051	1029.38
304.281	1040.38
304.511	1049.38
304.741	1024.38
304.971	1036.38
305.201	1049.38
305.431	1024.38
305.661	1064.38
305.891	1016.38
306.121	1043.38
306.352	1029.38
306.582	1041.38
306.812	1030.38
307.042	1059.38
307.272	1058.38
307.502	1052.38
307.731	1060.38
307.961	1062.38
308.191	1044.38
308.421	1040.38
308.651	1050.38
308.881	1034.38
309.111	1063.38
309.341	1043.38
309.571	1060.38
309.8	1058.38
310.03	1047.38
310.26	1080.38
310.49	1054.38
310.72	1058.38
310.949	1060.38
311.179	1068.38
311.409	1079.38
311.639	1095.38
311.868	1097.38
312.098	1079.38
312.328	1104.38
312.557	1126.38
312.787	1088.38
313.017	1104.38
313.246	1120.38
313.476	1090.38
313.706	1107.38
313.935	1103.38
314.165	1130.38
314.394	1129.38
314.624	1123.38
314.853	1099.38
315.083	1124.38
315.312	1135.38
315.542	1124.38
315.771	1127.38
316.001	1146.38
316.23	1123.38
316.46	1127.38
316.689	1157.38
316.919	1095.38
317.148	1155.38
317.377	1124.38
317.607	1151.38
317.836	1143.38
318.065	1158.38
318.295	1167.38
318.524	1167.38
318.753	1168.38
318.983	1164.38
319.212	1180.38
319.441	1176.38
319.67	1172.38
319.9	1144.38
320.129	1151.38
320.358	1183.38
320.587	1173.38
320.816	1165.38
321.046	1175.38
321.275	1156.38
321.504	1202.38
321.733	1185.38
321.962	1175.38
322.191	1195.38
322.42	1192.38
322.649	1123.38
322.878	1159.38
323.108	1142.38
323.337	1208.38
323.566	1193.38
323.795	1207.38
324.024	1177.38
324.253	1178.38
324.482	1195.38
324.71	1217.38
324.939	1187.38
325.168	1203.38
325.397	1212.38
325.626	1215.38
325.855	1227.38
326.084	1253.38
326.313	1249.38
326.542	1236.38
326.77	1259.38
326.999	1245.38
327.228	1224.38
327.457	1251.38
327.686	1240.38
327.914	1254.38
328.143	1271.38
328.372	1237.38
328.6	1234.38
328.829	1256.38
329.058	1244.38
329.287	1269.38
329.515	1244.38
329.744	1241.38
329.972	1308.38
330.201	1259.38
330.43	1281.38
330.658	1264.38
330.887	1266.38
331.115	1304.38
331.344	1307.38
331.572	1275.38
331.801	1314.38
332.03	1340.38
332.258	1321.38
332.486	1368.38
332.715	1334.38
332.943	1387.38
333.172	1393.38
333.4	1383.38
333.629	1400.38
333.857	1409.38
334.085	1437.38
334.314	1425.38
334.542	1439.38
334.771	1455.38
334.999	1404.38
335.227	1428.38
335.455	1442.38
335.684	1447.38
335.912	1412.38
336.14	1405.38
336.369	1388.38
336.597	1433.38
336.825	1431.38
337.053	1453.38
337.281	1447.38
337.51	1437.38
337.738	1369.38
337.966	1413.38
338.194	1403.38
338.422	1389.38
338.65	1374.38
338.878	1381.38
339.106	1370.38
339.334	1381.38
339.562	1346.38
339.79	1349.38
340.018	1352.38
340.246	1343.38
340.474	1382.38
340.702	1341.38
340.93	1367.38
341.158	1353.38
341.386	1362.38
341.614	1361.38
341.842	1342.38
342.07	1336.38
342.298	1347.38
342.526	1305.38
342.754	1361.38
342.981	1349.38
343.209	1380.38
343.437	1337.38
343.665	1364.38
343.893	1403.38
344.12	1433.38
344.348	1457.38
344.576	1425.38
344.804	1428.38
345.031	1385.38
345.259	1347.38
345.487	1350.38
345.714	1340.38
345.942	1325.38
346.17	1330.38
346.397	1313.38
346.625	1303.38
346.853	1299.38
347.08	1278.38
347.308	1313.38
347.535	1305.38
347.763	1282.38
347.99	1318.38
348.218	1294.38
348.445	1289.38
348.673	1273.38
348.9	1290.38
349.128	1256.38
349.355	1308.38
349.583	1305.38
349.81	1272.38
350.037	1256.38
350.265	1264.38
350.492	1257.38
350.72	1301.38
350.947	1265.38
351.174	1267.38
351.402	1258.38
351.629	1249.38
351.856	1243.38
352.083	1264.38
352.311	1275.38
352.538	1273.38
352.765	1267.38
352.992	1255.38
353.22	1248.38
353.447	1240.38
353.674	1275.38
353.901	1273.38
354.128	1260.38
354.355	1271.38
354.583	1269.38
354.81	1259.38
355.037	1266.38
355.264	1287.38
355.491	1250.38
355.718	1290.38
355.945	1282.38
356.172	1273.38
356.399	1267.38
356.626	1261.38
356.853	1310.38
357.08	1293.38
357.307	1325.38
357.534	1300.38
357.761	1306.38
357.988	1284.38
358.215	1320.38
358.441	1313.38
358.668	1261.38
358.895	1292.38
359.122	1264.38
359.349	1288.38
359.576	1269.38
359.802	1272.38
360.029	1268.38
360.256	1291.38
360.483	1294.38
360.709	1301.38
360.936	1308.38
361.163	1299.38
361.39	1286.38
361.616	1306.38
361.843	1289.38
362.07	1285.38
362.296	1281.38
362.523	1284.38
362.749	1287.38
362.976	1295.38
363.203	1292.38
363.429	1306.38
363.656	1351.38
363.882	1302.38
364.109	1321.38
364.335	1295.38
364.562	1314.38
364.788	1303.38
365.015	1308.38
365.241	1335.38
365.468	1279.38
365.694	1303.38
365.92	1308.38
366.147	1290.38
366.373	1317.38
366.599	1306.38
366.826	1316.38
367.052	1308.38
367.278	1316.38
367.505	1333.38
367.731	1316.38
367.957	1347.38
368.184	1327.38
368.41	1357.38
368.636	1316.38
368.862	1363.38
369.089	1354.38
369.315	1366.38
369.541	1367.38
369.767	1336.38
369.993	1363.38
370.219	1381.38
370.445	1384.38
370.672	1398.38
370.898	1417.38
371.124	1384.38
371.35	1400.38
371.576	1415.38
371.802	1414.38
372.028	1414.38
372.254	1434.38
372.48	1436.38
372.706	1463.38
372.932	1449.38
373.158	1429.38
373.384	1442.38
373.61	1461.38
373.835	1495.38
374.061	1434.38
374.287	1423.38
374.513	1408.38
374.739	1500.38
374.965	1526.38
375.191	1504.38
375.416	1508.38
375.642	1471.38
375.868	1485.38
376.094	1499.38
376.319	1465.38
376.545	1473.38
376.771	1442.38
376.997	1441.38
377.222	1425.38
377.448	1399.38
377.674	1395.38
377.899	1403.38
378.125	1416.38
378.35	1413.38
378.576	1397.38
378.802	1404.38
379.027	1419.38
379.253	1403.38
379.478	1372.38
379.704	1417.38
379.929	1433.38
380.155	1405.38
380.38	1421.38
380.606	1445.38
380.831	1422.38
381.057	1458.38
381.282	1447.38
381.507	1453.38
381.733	1472.38
381.958	1455.38
382.184	1512.38
382.409	1508.38
382.634	1548.38
382.86	1541.38
383.085	1558.38
383.31	1475.38
383.535	1487.38
383.761	1535.38
383.986	1528.38
384.211	1572.38
384.436	1575.38
384.662	1584.38
384.887	1564.38
385.112	1589.38
385.337	1593.38
385.562	1604.38
385.787	1595.38
386.013	1636.38
386.238	1661.38
386.463	1645.38
386.688	1663.38
386.913	1605.38
387.138	1604.38
387.363	1625.38
387.588	1639.38
387.813	1658.38
388.038	1660.38
388.263	1649.38
388.488	1671.38
388.713	1676.38
388.938	1668.38
389.163	1695.38
389.387	1685.38
389.612	1655.38
389.837	1659.38
390.062	1637.38
390.287	1647.38
390.512	1675.38
390.736	1679.38
390.961	1700.38
391.186	1704.38
391.411	1739.38
391.636	1739.38
391.86	1764.38
392.085	1759.38
392.31	1738.38
392.534	1729.38
392.759	1728.38
392.984	1763.38
393.208	1723.38
393.433	1790.38
393.658	1757.38
393.882	1741.38
394.107	1743.38
394.331	1735.38
394.556	1716.38
394.78	1757.38
395.005	1757.38
395.229	1770.38
395.454	1749.38
395.678	1778.38
395.903	1772.38
396.127	1831.38
396.352	1786.38
396.576	1807.38
396.801	1787.38
397.025	1849.38
397.249	1851.38
397.474	1852.38
397.698	1851.38
397.922	1885.38
398.147	1864.38
398.371	1931.38
398.595	1919.38
398.82	1933.38
399.044	2023.38
399.268	2098.38
399.492	2178.38
399.717	2231.38
399.941	2303.38
400.165	2287.38
400.389	2213.38
400.613	2151.38
400.837	2118.38
401.062	2084.38
401.286	2058.38
401.51	2027.38
401.734	2003.38
401.958	1990.38
402.182	1992.38
402.406	1987.38
402.63	1983.38
402.854	2007.38
403.078	1979.38
403.302	1984.38
403.526	2024.38
403.75	2008.38
403.974	2042.38
404.198	2001.38
404.422	2010.38
404.645	2035.38
404.869	2055.38
405.093	2072.38
405.317	2026.38
405.541	2074.38
405.765	2100.38
405.988	2087.38
406.212	2171.38
406.436	2124.38
406.66	2167.38
406.883	2171.38
407.107	2240.38
407.331	2262.38
407.555	2335.38
407.778	2316.38
408.002	2252.38
408.226	2260.38
408.449	2285.38
408.673	2195.38
408.896	2177.38
409.12	2169.38
409.344	2227.38
409.567	2120.38
409.791	2223.38
410.014	2189.38
410.238	2111.38
410.461	2152.38
410.685	2101.38
410.908	2072.38
411.132	2125.38
411.355	2025.38
411.578	2091.38
411.802	2043.38
412.025	2104.38
412.249	2111.38
412.472	2113.38
412.695	2053.38
412.919	1996.38
413.142	2012.38
413.365	2027.38
413.589	2080.38
413.812	2054.38
414.035	1994.38
414.258	1970.38
414.482	2023.38
414.705	2018.38
414.928	2015.38
415.151	2027.38
415.374	2005.38
415.597	1981.38
415.821	1954.38
416.044	1955.38
416.267	1926.38
416.49	1958.38
416.713	1919.38
416.936	1932.38
417.159	1900.38
417.382	1893.38
417.605	1913.38
417.828	1893.38
418.051	1926.38
418.274	1909.38
418.497	1901.38
418.72	1907.38
418.943	1929.38
419.166	1996.38
419.389	2146.38
419.611	2108.38
419.834	2055.38
420.057	1969.38
420.28	1889.38
420.503	1885.38
420.726	1883.38
420.948	1895.38
421.171	1913.38
421.394	1899.38
421.617	1880.38
421.839	1887.38
422.062	1885.38
422.285	1852.38
422.507	1886.38
422.73	1913.38
422.953	1882.38
423.175	1911.38
423.398	1865.38
423.621	1882.38
423.843	1951.38
424.066	1923.38
424.288	1898.38
424.511	1896.38
424.733	1859.38
424.956	1880.38
425.178	1896.38
425.401	1877.38
425.623	1902.38
425.846	1836.38
426.068	1843.38
426.291	1875.38
426.513	1858.38
426.735	1828.38
426.958	1872.38
427.18	1845.38
427.402	1832.38
427.625	1844.38
427.847	1833.38
428.069	1834.38
428.292	1847.38
428.514	1823.38
428.736	1820.38
428.958	1859.38
429.181	1772.38
429.403	1813.38
429.625	1802.38
429.847	1803.38
430.069	1785.38
430.292	1813.38
430.514	1834.38
430.736	1820.38
430.958	1859.38
431.18	1860.38
431.402	1822.38
431.624	1795.38
431.846	1795.38
432.068	1780.38
432.29	1857.38
432.512	1800.38
432.734	1839.38
432.956	1872.38
433.178	1863.38
433.4	1841.38
433.622	1907.38
433.844	1869.38
434.066	1875.38
434.287	1822.38
434.509	1862.38
434.731	1894.38
434.953	1907.38
435.175	1924.38
435.397	1921.38
435.618	1903.38
435.84	1863.38
436.062	1879.38
436.284	1837.38
436.505	1828.38
436.727	1850.38
436.949	1800.38
437.17	1830.38
437.392	1779.38
437.614	1794.38
437.835	1790.38
438.057	1749.38
438.278	1725.38
438.5	1794.38
438.721	1807.38
438.943	1765.38
439.165	1731.38
439.386	1769.38
439.608	1799.38
439.829	1812.38
440.05	1768.38
440.272	1801.38
440.493	1811.38
440.715	1816.38
440.936	1804.38
441.158	1816.38
441.379	1839.38
441.6	1905.38
441.822	1847.38
442.043	1869.38
442.264	1885.38
442.486	1868.38
442.707	1851.38
442.928	1852.38
443.149	1868.38
443.371	1855.38
443.592	1881.38
443.813	1890.38
444.034	1891.38
444.255	1910.38
444.476	1909.38
444.698	1963.38
444.919	1952.38
445.14	2093.38
445.361	2009.38
445.582	1883.38
445.803	1908.38
446.024	1863.38
446.245	1865.38
446.466	1856.38
446.687	1746.38
446.908	1831.38
447.129	1768.38
447.35	1764.38
447.571	1793.38
447.792	1715.38
448.013	1719.38
448.234	1684.38
448.455	1709.38
448.675	1714.38
448.896	1678.38
449.117	1662.38
449.338	1655.38
449.559	1643.38
449.779	1671.38
450	1628.38
450.221	1683.38
450.442	1689.38
450.662	1651.38
450.883	1647.38
451.104	1661.38
451.324	1607.38
451.545	1640.38
451.766	1649.38
451.986	1636.38
452.207	1610.38
452.428	1609.38
452.648	1617.38
452.869	1609.38
453.089	1587.38
453.31	1567.38
453.53	1575.38
453.751	1543.38
453.971	1585.38
454.192	1583.38
454.412	1610.38
454.633	1583.38
454.853	1544.38
455.073	1569.38
455.294	1604.38
455.514	1574.38
455.734	1593.38
455.955	1548.38
456.175	1623.38
456.395	1573.38
456.616	1561.38
456.836	1583.38
457.056	1580.38
457.276	1586.38
457.497	1626.38
457.717	1601.38
457.937	1625.38
458.157	1656.38
458.377	1612.38
458.598	1718.38
458.818	1708.38
459.038	1731.38
459.258	1738.38
459.478	1762.38
459.698	1744.38
459.918	1809.38
460.138	1832.38
460.358	1868.38
460.578	1877.38
460.798	1916.38
461.018	1931.38
461.238	1947.38
461.458	1934.38
461.678	1917.38
461.898	2008.38
462.118	1945.38
462.338	2031.38
462.558	2047.38
462.777	2107.38
462.997	2119.38
463.217	2152.38
463.437	2156.38
463.657	2140.38
463.876	2118.38
464.096	2104.38
464.316	2092.38
464.536	2123.38
464.755	2072.38
464.975	2060.38
465.195	1957.38
465.414	1976.38
465.634	1869.38
465.854	1881.38
466.073	1862.38
466.293	1805.38
466.512	1795.38
466.732	1785.38
466.951	1803.38
467.171	1779.38
467.391	1755.38
467.61	1748.38
467.829	1751.38
468.049	1728.38
468.268	1746.38
468.488	1736.38
468.707	1705.38
468.927	1781.38
469.146	1787.38
469.365	1757.38
469.585	1717.38
469.804	1740.38
470.023	1786.38
470.243	1768.38
470.462	1777.38
470.681	1779.38
470.901	1783.38
471.12	1760.38
471.339	1778.38
471.558	1721.38
471.777	1780.38
471.997	1725.38
472.216	1753.38
472.435	1759.38
472.654	1759.38
472.873	1756.38
473.092	1799.38
473.311	1758.38
473.53	1753.38
473.749	1775.38
473.968	1754.38
474.187	1751.38
474.406	1739.38
474.625	1766.38
474.844	1752.38
475.063	1825.38
475.282	1838.38
475.501	1793.38
475.72	1818.38
475.939	1827.38
476.158	1869.38
476.377	1907.38
476.596	1951.38
476.814	1983.38
477.033	1929.38
477.252	1922.38
477.471	1923.38
477.69	1973.38
477.908	1986.38
478.127	1993.38
478.346	2004.38
478.564	2011.38
478.783	2050.38
479.002	2034.38
479.22	2139.38
479.439	2193.38
479.658	2125.38
479.876	2129.38
480.095	2120.38
480.313	2120.38
480.532	2168.38
480.751	2175.38
480.969	2151.38
481.188	2165.38
481.406	2172.38
481.624	2158.38
481.843	2138.38
482.061	2112.38
482.28	2129.38
482.498	2168.38
482.717	2152.38
482.935	2113.38
483.153	2127.38
483.372	2153.38
483.59	2136.38
483.808	2119.38
484.027	2128.38
484.245	2173.38
484.463	2181.38
484.681	2200.38
484.9	2227.38
485.118	2257.38
485.336	2185.38
485.554	2213.38
485.772	2155.38
485.99	2212.38
486.209	2206.38
486.427	2185.38
486.645	2209.38
486.863	2220.38
487.081	2251.38
487.299	2198.38
487.517	2236.38
487.735	2223.38
487.953	2209.38
488.171	2223.38
488.389	2179.38
488.607	2192.38
488.825	2187.38
489.043	2164.38
489.261	2202.38
489.479	2164.38
489.696	2195.38
489.914	2223.38
