Data from Fe(NO3)3@0.1M.TitratingCurve.Agarose3%dH2O.NegLispCup.LampEnergy10.LIBS07252019_HRD10591_16-40-41-332.txt Node
Date: Thu Jul 25 16:40:41 EDT 2019
User: cochatt
Spectrometer: HR+D1059
Trigger mode: 1
Integration Time (sec): 1.000000E-1
Scans to average: 1
Electric dark correction enabled: true
Nonlinearity correction enabled: false
Boxcar width: 0
XAxis mode: Wavelengths
Number of Pixels in Spectrum: 2048
>>>>>Begin Spectral Data<<<<<
223.165	-18.5
223.4	-18.5
223.635	-18.5
223.869	-10.5
224.104	-8.5
224.338	-34.5
224.573	-9.5
224.808	-20.5
225.042	-19.5
225.277	-4.5
225.511	-0.5
225.746	6.5
225.98	5.5
226.215	15.5
226.449	20.5
226.683	32.5
226.918	30.5
227.152	15.5
227.387	32.5
227.621	45.5
227.856	41.5
228.09	45.5
228.324	58.5
228.559	53.5
228.793	56.5
229.027	80.5
229.262	79.5
229.496	67.5
229.73	70.5
229.964	79.5
230.199	85.5
230.433	84.5
230.667	91.5
230.901	102.5
231.136	82.5
231.37	101.5
231.604	83.5
231.838	91.5
232.072	90.5
232.306	108.5
232.541	103.5
232.775	77.5
233.009	93.5
233.243	98.5
233.477	95.5
233.711	104.5
233.945	77.5
234.179	109.5
234.413	104.5
234.647	98.5
234.881	110.5
235.115	100.5
235.349	90.5
235.583	107.5
235.817	108.5
236.051	95.5
236.285	91.5
236.519	84.5
236.753	94.5
236.987	102.5
237.221	102.5
237.455	106.5
237.689	84.5
237.922	86.5
238.156	93.5
238.39	91.5
238.624	93.5
238.858	99.5
239.091	105.5
239.325	80.5
239.559	90.5
239.793	91.5
240.027	90.5
240.26	98.5
240.494	110.5
240.728	105.5
240.961	95.5
241.195	114.5
241.429	92.5
241.662	89.5
241.896	103.5
242.13	88.5
242.363	83.5
242.597	102.5
242.83	108.5
243.064	105.5
243.298	112.5
243.531	108.5
243.765	95.5
243.998	101.5
244.232	103.5
244.465	82.5
244.699	99.5
244.932	125.5
245.166	96.5
245.399	93.5
245.633	96.5
245.866	84.5
246.099	89.5
246.333	117.5
246.566	115.5
246.8	111.5
247.033	109.5
247.266	115.5
247.5	111.5
247.733	116.5
247.966	107.5
248.2	99.5
248.433	116.5
248.666	110.5
248.899	105.5
249.133	109.5
249.366	102.5
249.599	106.5
249.832	93.5
250.066	113.5
250.299	103.5
250.532	110.5
250.765	103.5
250.998	109.5
251.231	106.5
251.465	122.5
251.698	125.5
251.931	139.5
252.164	131.5
252.397	123.5
252.63	118.5
252.863	115.5
253.096	119.5
253.329	129.5
253.562	121.5
253.795	125.5
254.028	131.5
254.261	134.5
254.494	117.5
254.727	122.5
254.96	121.5
255.193	108.5
255.426	125.5
255.659	123.5
255.892	119.5
256.124	130.5
256.357	121.5
256.59	123.5
256.823	123.5
257.056	123.5
257.289	118.5
257.521	133.5
257.754	126.5
257.987	118.5
258.22	121.5
258.452	108.5
258.685	120.5
258.918	122.5
259.151	117.5
259.383	123.5
259.616	139.5
259.849	123.5
260.081	153.5
260.314	121.5
260.547	135.5
260.779	133.5
261.012	137.5
261.244	127.5
261.477	138.5
261.71	136.5
261.942	126.5
262.175	134.5
262.407	133.5
262.64	134.5
262.872	133.5
263.105	124.5
263.337	149.5
263.57	133.5
263.802	130.5
264.035	146.5
264.267	139.5
264.499	134.5
264.732	141.5
264.964	157.5
265.197	153.5
265.429	130.5
265.661	153.5
265.894	122.5
266.126	141.5
266.358	125.5
266.591	139.5
266.823	148.5
267.055	138.5
267.287	156.5
267.52	146.5
267.752	138.5
267.984	137.5
268.216	161.5
268.448	141.5
268.681	130.5
268.913	121.5
269.145	154.5
269.377	145.5
269.609	137.5
269.841	144.5
270.073	149.5
270.306	157.5
270.538	141.5
270.77	139.5
271.002	154.5
271.234	146.5
271.466	137.5
271.698	133.5
271.93	144.5
272.162	148.5
272.394	144.5
272.626	133.5
272.858	142.5
273.09	148.5
273.322	148.5
273.553	138.5
273.785	139.5
274.017	130.5
274.249	147.5
274.481	149.5
274.713	142.5
274.945	142.5
275.176	133.5
275.408	153.5
275.64	167.5
275.872	159.5
276.104	173.5
276.335	161.5
276.567	166.5
276.799	158.5
277.031	154.5
277.262	168.5
277.494	157.5
277.726	152.5
277.957	153.5
278.189	173.5
278.421	167.5
278.652	169.5
278.884	157.5
279.115	156.5
279.347	163.5
279.579	157.5
279.81	147.5
280.042	161.5
280.273	161.5
280.505	154.5
280.736	176.5
280.968	173.5
281.199	153.5
281.431	163.5
281.662	165.5
281.894	161.5
282.125	167.5
282.356	155.5
282.588	153.5
282.819	156.5
283.051	166.5
283.282	146.5
283.513	185.5
283.745	150.5
283.976	163.5
284.207	163.5
284.439	173.5
284.67	162.5
284.901	167.5
285.132	158.5
285.364	146.5
285.595	170.5
285.826	173.5
286.057	177.5
286.288	177.5
286.52	175.5
286.751	173.5
286.982	181.5
287.213	162.5
287.444	165.5
287.675	186.5
287.906	161.5
288.138	165.5
288.369	183.5
288.6	196.5
288.831	175.5
289.062	167.5
289.293	163.5
289.524	170.5
289.755	167.5
289.986	177.5
290.217	177.5
290.448	156.5
290.679	177.5
290.91	175.5
291.141	177.5
291.371	187.5
291.602	182.5
291.833	186.5
292.064	184.5
292.295	178.5
292.526	175.5
292.757	193.5
292.987	177.5
293.218	172.5
293.449	183.5
293.68	172.5
293.91	176.5
294.141	186.5
294.372	178.5
294.603	175.5
294.833	175.5
295.064	183.5
295.295	183.5
295.525	180.5
295.756	188.5
295.987	185.5
296.217	187.5
296.448	184.5
296.679	185.5
296.909	185.5
297.14	203.5
297.37	177.5
297.601	171.5
297.831	193.5
298.062	183.5
298.292	187.5
298.523	194.5
298.753	182.5
298.984	183.5
299.214	196.5
299.445	200.5
299.675	181.5
299.905	198.5
300.136	187.5
300.366	187.5
300.597	193.5
300.827	191.5
301.057	210.5
301.288	212.5
301.518	190.5
301.748	194.5
301.979	184.5
302.209	182.5
302.439	190.5
302.669	210.5
302.9	188.5
303.13	198.5
303.36	192.5
303.59	199.5
303.82	196.5
304.051	179.5
304.281	182.5
304.511	206.5
304.741	209.5
304.971	202.5
305.201	191.5
305.431	216.5
305.661	181.5
305.891	202.5
306.121	194.5
306.352	197.5
306.582	195.5
306.812	193.5
307.042	189.5
307.272	187.5
307.502	194.5
307.731	196.5
307.961	200.5
308.191	201.5
308.421	193.5
308.651	210.5
308.881	184.5
309.111	179.5
309.341	198.5
309.571	183.5
309.8	178.5
310.03	188.5
310.26	202.5
310.49	203.5
310.72	189.5
310.949	195.5
311.179	184.5
311.409	210.5
311.639	212.5
311.868	207.5
312.098	203.5
312.328	204.5
312.557	198.5
312.787	193.5
313.017	198.5
313.246	197.5
313.476	210.5
313.706	217.5
313.935	181.5
314.165	217.5
314.394	209.5
314.624	213.5
314.853	213.5
315.083	203.5
315.312	209.5
315.542	210.5
315.771	216.5
316.001	197.5
316.23	204.5
316.46	216.5
316.689	201.5
316.919	206.5
317.148	217.5
317.377	213.5
317.607	185.5
317.836	195.5
318.065	204.5
318.295	218.5
318.524	219.5
318.753	215.5
318.983	207.5
319.212	198.5
319.441	211.5
319.67	221.5
319.9	207.5
320.129	200.5
320.358	205.5
320.587	191.5
320.816	213.5
321.046	207.5
321.275	226.5
321.504	202.5
321.733	201.5
321.962	197.5
322.191	206.5
322.42	209.5
322.649	218.5
322.878	208.5
323.108	218.5
323.337	216.5
323.566	207.5
323.795	203.5
324.024	211.5
324.253	204.5
324.482	216.5
324.71	231.5
324.939	218.5
325.168	219.5
325.397	213.5
325.626	230.5
325.855	199.5
326.084	235.5
326.313	214.5
326.542	227.5
326.77	205.5
326.999	224.5
327.228	222.5
327.457	234.5
327.686	219.5
327.914	232.5
328.143	216.5
328.372	220.5
328.6	207.5
328.829	213.5
329.058	242.5
329.287	207.5
329.515	250.5
329.744	217.5
329.972	207.5
330.201	229.5
330.43	231.5
330.658	228.5
330.887	229.5
331.115	238.5
331.344	206.5
331.572	243.5
331.801	234.5
332.03	233.5
332.258	250.5
332.486	248.5
332.715	267.5
332.943	260.5
333.172	280.5
333.4	277.5
333.629	289.5
333.857	277.5
334.085	292.5
334.314	277.5
334.542	278.5
334.771	262.5
334.999	267.5
335.227	259.5
335.455	258.5
335.684	260.5
335.912	272.5
336.14	252.5
336.369	257.5
336.597	243.5
336.825	234.5
337.053	253.5
337.281	251.5
337.51	242.5
337.738	274.5
337.966	252.5
338.194	257.5
338.422	253.5
338.65	254.5
338.878	254.5
339.106	230.5
339.334	251.5
339.562	243.5
339.79	249.5
340.018	231.5
340.246	221.5
340.474	223.5
340.702	250.5
340.93	233.5
341.158	231.5
341.386	220.5
341.614	230.5
341.842	233.5
342.07	238.5
342.298	222.5
342.526	225.5
342.754	226.5
342.981	247.5
343.209	232.5
343.437	245.5
343.665	243.5
343.893	269.5
344.12	275.5
344.348	245.5
344.576	246.5
344.804	245.5
345.031	225.5
345.259	232.5
345.487	239.5
345.714	227.5
345.942	227.5
346.17	234.5
346.397	234.5
346.625	237.5
346.853	236.5
347.08	226.5
347.308	227.5
347.535	228.5
347.763	215.5
347.99	239.5
348.218	222.5
348.445	226.5
348.673	206.5
348.9	227.5
349.128	237.5
349.355	230.5
349.583	232.5
349.81	235.5
350.037	217.5
350.265	211.5
350.492	214.5
350.72	231.5
350.947	216.5
351.174	243.5
351.402	221.5
351.629	203.5
351.856	221.5
352.083	216.5
352.311	230.5
352.538	228.5
352.765	212.5
352.992	231.5
353.22	227.5
353.447	241.5
353.674	230.5
353.901	209.5
354.128	204.5
354.355	225.5
354.583	238.5
354.81	228.5
355.037	223.5
355.264	227.5
355.491	234.5
355.718	219.5
355.945	223.5
356.172	215.5
356.399	214.5
356.626	218.5
356.853	234.5
357.08	236.5
357.307	236.5
357.534	225.5
357.761	204.5
357.988	215.5
358.215	231.5
358.441	217.5
358.668	215.5
358.895	219.5
359.122	235.5
359.349	229.5
359.576	210.5
359.802	225.5
360.029	231.5
360.256	233.5
360.483	236.5
360.709	243.5
360.936	230.5
361.163	238.5
361.39	235.5
361.616	226.5
361.843	212.5
362.07	229.5
362.296	233.5
362.523	209.5
362.749	231.5
362.976	236.5
363.203	230.5
363.429	235.5
363.656	226.5
363.882	228.5
364.109	225.5
364.335	222.5
364.562	216.5
364.788	212.5
365.015	221.5
365.241	221.5
365.468	221.5
365.694	230.5
365.92	236.5
366.147	224.5
366.373	225.5
366.599	220.5
366.826	234.5
367.052	221.5
367.278	217.5
367.505	227.5
367.731	217.5
367.957	223.5
368.184	237.5
368.41	231.5
368.636	217.5
368.862	226.5
369.089	228.5
369.315	228.5
369.541	253.5
369.767	250.5
369.993	224.5
370.219	246.5
370.445	236.5
370.672	243.5
370.898	257.5
371.124	241.5
371.35	246.5
371.576	245.5
371.802	247.5
372.028	246.5
372.254	224.5
372.48	250.5
372.706	257.5
372.932	258.5
373.158	247.5
373.384	238.5
373.61	242.5
373.835	253.5
374.061	267.5
374.287	251.5
374.513	265.5
374.739	272.5
374.965	260.5
375.191	253.5
375.416	272.5
375.642	254.5
375.868	262.5
376.094	253.5
376.319	254.5
376.545	245.5
376.771	248.5
376.997	261.5
377.222	245.5
377.448	242.5
377.674	268.5
377.899	260.5
378.125	243.5
378.35	262.5
378.576	269.5
378.802	257.5
379.027	252.5
379.253	240.5
379.478	238.5
379.704	231.5
379.929	242.5
380.155	220.5
380.38	239.5
380.606	237.5
380.831	231.5
381.057	249.5
381.282	255.5
381.507	243.5
381.733	250.5
381.958	243.5
382.184	254.5
382.409	266.5
382.634	263.5
382.86	264.5
383.085	246.5
383.31	245.5
383.535	260.5
383.761	263.5
383.986	269.5
384.211	250.5
384.436	284.5
384.662	278.5
384.887	290.5
385.112	287.5
385.337	299.5
385.562	274.5
385.787	293.5
386.013	296.5
386.238	303.5
386.463	287.5
386.688	294.5
386.913	286.5
387.138	289.5
387.363	279.5
387.588	284.5
387.813	293.5
388.038	279.5
388.263	271.5
388.488	299.5
388.713	285.5
388.938	270.5
389.163	277.5
389.387	284.5
389.612	283.5
389.837	270.5
390.062	281.5
390.287	289.5
390.512	284.5
390.736	290.5
390.961	274.5
391.186	305.5
391.411	300.5
391.636	305.5
391.86	302.5
392.085	307.5
392.31	317.5
392.534	310.5
392.759	299.5
392.984	293.5
393.208	307.5
393.433	305.5
393.658	272.5
393.882	325.5
394.107	293.5
394.331	315.5
394.556	293.5
394.78	293.5
395.005	306.5
395.229	300.5
395.454	298.5
395.678	313.5
395.903	311.5
396.127	305.5
396.352	309.5
396.576	301.5
396.801	294.5
397.025	320.5
397.249	319.5
397.474	330.5
397.698	307.5
397.922	306.5
398.147	310.5
398.371	319.5
398.595	335.5
398.82	353.5
399.044	367.5
399.268	406.5
399.492	452.5
399.717	478.5
399.941	461.5
400.165	407.5
400.389	387.5
400.613	359.5
400.837	349.5
401.062	366.5
401.286	360.5
401.51	335.5
401.734	340.5
401.958	341.5
402.182	349.5
402.406	341.5
402.63	356.5
402.854	362.5
403.078	366.5
403.302	382.5
403.526	376.5
403.75	393.5
403.974	388.5
404.198	391.5
404.422	380.5
404.645	367.5
404.869	372.5
405.093	359.5
405.317	377.5
405.541	368.5
405.765	376.5
405.988	362.5
406.212	344.5
406.436	378.5
406.66	385.5
406.883	395.5
407.107	418.5
407.331	425.5
407.555	443.5
407.778	448.5
408.002	401.5
408.226	401.5
408.449	402.5
408.673	408.5
408.896	398.5
409.12	383.5
409.344	371.5
409.567	389.5
409.791	386.5
410.014	371.5
410.238	390.5
410.461	378.5
410.685	377.5
410.908	373.5
411.132	374.5
411.355	348.5
411.578	338.5
411.802	361.5
412.025	350.5
412.249	377.5
412.472	351.5
412.695	348.5
412.919	348.5
413.142	346.5
413.365	357.5
413.589	346.5
413.812	344.5
414.035	365.5
414.258	366.5
414.482	373.5
414.705	364.5
414.928	369.5
415.151	345.5
415.374	349.5
415.597	341.5
415.821	355.5
416.044	337.5
416.267	369.5
416.49	331.5
416.713	325.5
416.936	357.5
417.159	355.5
417.382	367.5
417.605	354.5
417.828	338.5
418.051	369.5
418.274	344.5
418.497	373.5
418.72	363.5
418.943	365.5
419.166	378.5
419.389	405.5
419.611	355.5
419.834	344.5
420.057	356.5
420.28	357.5
420.503	343.5
420.726	346.5
420.948	329.5
421.171	348.5
421.394	353.5
421.617	338.5
421.839	341.5
422.062	360.5
422.285	354.5
422.507	359.5
422.73	394.5
422.953	352.5
423.175	356.5
423.398	353.5
423.621	361.5
423.843	354.5
424.066	373.5
424.288	379.5
424.511	360.5
424.733	385.5
424.956	369.5
425.178	380.5
425.401	347.5
425.623	355.5
425.846	343.5
426.068	336.5
426.291	330.5
426.513	350.5
426.735	339.5
426.958	324.5
427.18	327.5
427.402	324.5
427.625	332.5
427.847	327.5
428.069	327.5
428.292	321.5
428.514	335.5
428.736	323.5
428.958	328.5
429.181	338.5
429.403	302.5
429.625	325.5
429.847	298.5
430.069	346.5
430.292	311.5
430.514	338.5
430.736	329.5
430.958	323.5
431.18	328.5
431.402	327.5
431.624	309.5
431.846	321.5
432.068	322.5
432.29	337.5
432.512	311.5
432.734	334.5
432.956	322.5
433.178	306.5
433.4	316.5
433.622	325.5
433.844	336.5
434.066	341.5
434.287	347.5
434.509	330.5
434.731	331.5
434.953	357.5
435.175	374.5
435.397	358.5
435.618	343.5
435.84	339.5
436.062	334.5
436.284	332.5
436.505	332.5
436.727	335.5
436.949	318.5
437.17	335.5
437.392	306.5
437.614	325.5
437.835	298.5
438.057	321.5
438.278	315.5
438.5	298.5
438.721	336.5
438.943	321.5
439.165	336.5
439.386	322.5
439.608	352.5
439.829	341.5
440.05	330.5
440.272	355.5
440.493	353.5
440.715	351.5
440.936	345.5
441.158	350.5
441.379	358.5
441.6	369.5
441.822	374.5
442.043	382.5
442.264	374.5
442.486	366.5
442.707	365.5
442.928	344.5
443.149	365.5
443.371	384.5
443.592	364.5
443.813	366.5
444.034	374.5
444.255	373.5
444.476	392.5
444.698	419.5
444.919	395.5
445.14	516.5
445.361	435.5
445.582	383.5
445.803	364.5
446.024	352.5
446.245	350.5
446.466	341.5
446.687	345.5
446.908	340.5
447.129	319.5
447.35	333.5
447.571	358.5
447.792	328.5
448.013	341.5
448.234	335.5
448.455	326.5
448.675	322.5
448.896	319.5
449.117	288.5
449.338	309.5
449.559	300.5
449.779	313.5
450	313.5
450.221	322.5
450.442	305.5
450.662	309.5
450.883	334.5
451.104	325.5
451.324	311.5
451.545	325.5
451.766	329.5
451.986	315.5
452.207	326.5
452.428	302.5
452.648	315.5
452.869	315.5
453.089	300.5
453.31	292.5
453.53	297.5
453.751	288.5
453.971	321.5
454.192	300.5
454.412	305.5
454.633	305.5
454.853	299.5
455.073	286.5
455.294	311.5
455.514	305.5
455.734	297.5
455.955	297.5
456.175	294.5
456.395	285.5
456.616	291.5
456.836	282.5
457.056	279.5
457.276	279.5
457.497	308.5
457.717	303.5
457.937	300.5
458.157	293.5
458.377	305.5
458.598	290.5
458.818	298.5
459.038	301.5
459.258	314.5
459.478	336.5
459.698	341.5
459.918	359.5
460.138	357.5
460.358	373.5
460.578	373.5
460.798	393.5
461.018	385.5
461.238	369.5
461.458	382.5
461.678	367.5
461.898	372.5
462.118	388.5
462.338	395.5
462.558	408.5
462.777	395.5
462.997	455.5
463.217	467.5
463.437	463.5
463.657	429.5
463.876	441.5
464.096	410.5
464.316	421.5
464.536	392.5
464.755	396.5
464.975	393.5
465.195	364.5
465.414	360.5
465.634	344.5
465.854	342.5
466.073	335.5
466.293	326.5
466.512	324.5
466.732	321.5
466.951	319.5
467.171	346.5
467.391	342.5
467.61	319.5
467.829	309.5
468.049	318.5
468.268	310.5
468.488	310.5
468.707	323.5
468.927	320.5
469.146	324.5
469.365	342.5
469.585	317.5
469.804	331.5
470.023	338.5
470.243	334.5
470.462	324.5
470.681	330.5
470.901	319.5
471.12	329.5
471.339	329.5
471.558	327.5
471.777	318.5
471.997	318.5
472.216	305.5
472.435	313.5
472.654	300.5
472.873	300.5
473.092	306.5
473.311	313.5
473.53	310.5
473.749	313.5
473.968	315.5
474.187	300.5
474.406	290.5
474.625	311.5
474.844	302.5
475.063	276.5
475.282	281.5
475.501	299.5
475.72	301.5
475.939	290.5
476.158	312.5
476.377	305.5
476.596	318.5
476.814	314.5
477.033	313.5
477.252	298.5
477.471	306.5
477.69	337.5
477.908	340.5
478.127	351.5
478.346	336.5
478.564	345.5
478.783	356.5
479.002	344.5
479.22	366.5
479.439	370.5
479.658	378.5
479.876	369.5
480.095	351.5
480.313	356.5
480.532	378.5
480.751	375.5
480.969	343.5
481.188	333.5
481.406	332.5
481.624	345.5
481.843	333.5
482.061	334.5
482.28	339.5
482.498	321.5
482.717	318.5
482.935	326.5
483.153	353.5
483.372	340.5
483.59	331.5
483.808	329.5
484.027	339.5
484.245	338.5
484.463	351.5
484.681	351.5
484.9	346.5
485.118	334.5
485.336	337.5
485.554	333.5
485.772	333.5
485.99	348.5
486.209	340.5
486.427	357.5
486.645	354.5
486.863	342.5
487.081	355.5
487.299	347.5
487.517	329.5
487.735	343.5
487.953	356.5
488.171	361.5
488.389	347.5
488.607	358.5
488.825	336.5
489.043	343.5
489.261	356.5
489.479	333.5
489.696	333.5
489.914	336.5
490.132	354.5
490.35	357.5
490.568	347.5
490.786	358.5
491.003	355.5
491.221	347.5
491.439	367.5
491.657	339.5
491.874	345.5
492.092	356.5
492.31	370.5
492.527	341.5
492.745	351.5
492.963	338.5
493.18	361.5
493.398	376.5
493.615	331.5
493.833	371.5
494.05	373.5
494.268	365.5
494.485	371.5
494.703	370.5
494.92	363.5
495.138	364.5
495.355	355.5
495.573	365.5
495.79	391.5
496.008	376.5
496.225	373.5
496.442	369.5
496.66	376.5
496.877	381.5
497.094	385.5
497.312	407.5
497.529	384.5
497.746	407.5
497.963	414.5
498.181	431.5
498.398	437.5
498.615	459.5
498.832	454.5
499.049	511.5
499.267	554.5
499.484	575.5
499.701	637.5
499.918	688.5
500.135	797.5
500.352	890.5
500.569	881.5
500.786	871.5
501.003	820.5
501.22	732.5
501.437	638.5
501.654	579.5
501.871	570.5
502.088	534.5
502.305	473.5
502.522	483.5
502.739	460.5
502.956	416.5
503.172	428.5
503.389	409.5
503.606	386.5
503.823	403.5
504.04	386.5
504.256	395.5
504.473	381.5
504.69	404.5
504.907	398.5
505.123	382.5
505.34	364.5
505.557	329.5
505.773	355.5
505.99	339.5
506.207	335.5
506.423	330.5
506.64	326.5
506.856	322.5
507.073	305.5
507.289	324.5
507.506	315.5
507.722	317.5
507.939	313.5
508.155	336.5
508.372	321.5
508.588	323.5
508.805	315.5
509.021	317.5
509.238	307.5
509.454	314.5
509.67	298.5
509.887	290.5
510.103	303.5
510.319	296.5
510.536	295.5
510.752	278.5
510.968	293.5
511.184	296.5
511.401	293.5
511.617	305.5
511.833	300.5
512.049	302.5
512.265	298.5
512.481	284.5
512.698	270.5
512.914	288.5
513.13	308.5
513.346	300.5
513.562	292.5
513.778	320.5
513.994	294.5
514.21	311.5
514.426	307.5
514.642	305.5
514.858	286.5
515.074	294.5
515.29	294.5
515.506	312.5
515.721	310.5
515.937	310.5
516.153	319.5
516.369	328.5
516.585	329.5
516.801	331.5
517.016	346.5
517.232	341.5
517.448	358.5
517.664	380.5
517.879	366.5
518.095	379.5
518.311	376.5
518.527	356.5
518.742	346.5
518.958	347.5
519.173	334.5
519.389	313.5
519.605	320.5
519.82	306.5
520.036	302.5
520.251	299.5
