Data from Fe(NO3)3@0.025M.TitratingCurve.Agarose3%dH2O.NegLispCup.LampEnergy10.LIBS07252019_HRD10591_16-55-50-335.txt Node
Date: Thu Jul 25 16:55:50 EDT 2019
User: cochatt
Spectrometer: HR+D1059
Trigger mode: 1
Integration Time (sec): 1.000000E-1
Scans to average: 1
Electric dark correction enabled: true
Nonlinearity correction enabled: false
Boxcar width: 0
XAxis mode: Wavelengths
Number of Pixels in Spectrum: 2048
>>>>>Begin Spectral Data<<<<<
223.165	-17.19
223.4	-17.19
223.635	-17.19
223.869	-16.19
224.104	-19.19
224.338	-18.19
224.573	-19.19
224.808	-12.19
225.042	-13.19
225.277	-11.19
225.511	17.81
225.746	6.81
225.98	-0.19
226.215	5.81
226.449	18.81
226.683	20.81
226.918	21.81
227.152	34.81
227.387	38.81
227.621	42.81
227.856	58.81
228.09	46.81
228.324	34.81
228.559	57.81
228.793	66.81
229.027	76.81
229.262	67.81
229.496	76.81
229.73	86.81
229.964	91.81
230.199	77.81
230.433	92.81
230.667	84.81
230.901	84.81
231.136	96.81
231.37	88.81
231.604	101.81
231.838	106.81
232.072	85.81
232.306	108.81
232.541	105.81
232.775	114.81
233.009	111.81
233.243	100.81
233.477	115.81
233.711	106.81
233.945	104.81
234.179	98.81
234.413	98.81
234.647	107.81
234.881	90.81
235.115	92.81
235.349	105.81
235.583	109.81
235.817	104.81
236.051	102.81
236.285	99.81
236.519	104.81
236.753	103.81
236.987	100.81
237.221	97.81
237.455	97.81
237.689	96.81
237.922	95.81
238.156	97.81
238.39	103.81
238.624	106.81
238.858	110.81
239.091	109.81
239.325	105.81
239.559	102.81
239.793	114.81
240.027	116.81
240.26	109.81
240.494	109.81
240.728	109.81
240.961	97.81
241.195	116.81
241.429	94.81
241.662	110.81
241.896	104.81
242.13	109.81
242.363	96.81
242.597	104.81
242.83	108.81
243.064	99.81
243.298	118.81
243.531	109.81
243.765	99.81
243.998	108.81
244.232	117.81
244.465	110.81
244.699	127.81
244.932	108.81
245.166	114.81
245.399	112.81
245.633	112.81
245.866	114.81
246.099	117.81
246.333	116.81
246.566	111.81
246.8	122.81
247.033	124.81
247.266	128.81
247.5	123.81
247.733	113.81
247.966	130.81
248.2	121.81
248.433	106.81
248.666	115.81
248.899	126.81
249.133	123.81
249.366	123.81
249.599	125.81
249.832	132.81
250.066	120.81
250.299	118.81
250.532	122.81
250.765	123.81
250.998	126.81
251.231	130.81
251.465	124.81
251.698	133.81
251.931	132.81
252.164	119.81
252.397	139.81
252.63	125.81
252.863	134.81
253.096	134.81
253.329	152.81
253.562	136.81
253.795	126.81
254.028	142.81
254.261	144.81
254.494	140.81
254.727	120.81
254.96	141.81
255.193	137.81
255.426	141.81
255.659	129.81
255.892	136.81
256.124	139.81
256.357	128.81
256.59	130.81
256.823	132.81
257.056	134.81
257.289	135.81
257.521	125.81
257.754	148.81
257.987	137.81
258.22	143.81
258.452	151.81
258.685	138.81
258.918	143.81
259.151	153.81
259.383	146.81
259.616	145.81
259.849	135.81
260.081	143.81
260.314	146.81
260.547	144.81
260.779	144.81
261.012	145.81
261.244	146.81
261.477	159.81
261.71	141.81
261.942	155.81
262.175	140.81
262.407	152.81
262.64	144.81
262.872	161.81
263.105	139.81
263.337	140.81
263.57	136.81
263.802	155.81
264.035	157.81
264.267	150.81
264.499	161.81
264.732	148.81
264.964	133.81
265.197	154.81
265.429	158.81
265.661	165.81
265.894	166.81
266.126	163.81
266.358	150.81
266.591	164.81
266.823	155.81
267.055	154.81
267.287	153.81
267.52	157.81
267.752	160.81
267.984	161.81
268.216	159.81
268.448	161.81
268.681	156.81
268.913	161.81
269.145	154.81
269.377	181.81
269.609	169.81
269.841	169.81
270.073	168.81
270.306	173.81
270.538	154.81
270.77	171.81
271.002	176.81
271.234	173.81
271.466	184.81
271.698	168.81
271.93	157.81
272.162	170.81
272.394	179.81
272.626	186.81
272.858	171.81
273.09	181.81
273.322	182.81
273.553	187.81
273.785	184.81
274.017	182.81
274.249	180.81
274.481	197.81
274.713	183.81
274.945	178.81
275.176	171.81
275.408	165.81
275.64	194.81
275.872	174.81
276.104	183.81
276.335	180.81
276.567	168.81
276.799	188.81
277.031	180.81
277.262	173.81
277.494	177.81
277.726	193.81
277.957	177.81
278.189	178.81
278.421	182.81
278.652	179.81
278.884	179.81
279.115	199.81
279.347	174.81
279.579	201.81
279.81	192.81
280.042	207.81
280.273	193.81
280.505	184.81
280.736	187.81
280.968	193.81
281.199	196.81
281.431	205.81
281.662	179.81
281.894	205.81
282.125	187.81
282.356	207.81
282.588	204.81
282.819	187.81
283.051	197.81
283.282	195.81
283.513	196.81
283.745	222.81
283.976	212.81
284.207	208.81
284.439	225.81
284.67	203.81
284.901	200.81
285.132	202.81
285.364	196.81
285.595	199.81
285.826	210.81
286.057	214.81
286.288	212.81
286.52	218.81
286.751	200.81
286.982	217.81
287.213	205.81
287.444	219.81
287.675	205.81
287.906	203.81
288.138	218.81
288.369	215.81
288.6	221.81
288.831	227.81
289.062	217.81
289.293	204.81
289.524	206.81
289.755	212.81
289.986	219.81
290.217	212.81
290.448	221.81
290.679	244.81
290.91	215.81
291.141	220.81
291.371	225.81
291.602	219.81
291.833	221.81
292.064	232.81
292.295	226.81
292.526	231.81
292.757	213.81
292.987	233.81
293.218	233.81
293.449	219.81
293.68	216.81
293.91	231.81
294.141	229.81
294.372	224.81
294.603	220.81
294.833	227.81
295.064	234.81
295.295	236.81
295.525	229.81
295.756	218.81
295.987	247.81
296.217	236.81
296.448	214.81
296.679	244.81
296.909	224.81
297.14	225.81
297.37	241.81
297.601	242.81
297.831	213.81
298.062	250.81
298.292	220.81
298.523	229.81
298.753	250.81
298.984	252.81
299.214	230.81
299.445	242.81
299.675	234.81
299.905	239.81
300.136	234.81
300.366	249.81
300.597	245.81
300.827	260.81
301.057	270.81
301.288	238.81
301.518	246.81
301.748	242.81
301.979	255.81
302.209	260.81
302.439	255.81
302.669	260.81
302.9	253.81
303.13	272.81
303.36	255.81
303.59	248.81
303.82	275.81
304.051	249.81
304.281	267.81
304.511	252.81
304.741	251.81
304.971	255.81
305.201	251.81
305.431	249.81
305.661	251.81
305.891	263.81
306.121	277.81
306.352	268.81
306.582	267.81
306.812	249.81
307.042	283.81
307.272	275.81
307.502	266.81
307.731	256.81
307.961	276.81
308.191	267.81
308.421	267.81
308.651	267.81
308.881	248.81
309.111	266.81
309.341	245.81
309.571	242.81
309.8	277.81
310.03	266.81
310.26	245.81
310.49	266.81
310.72	259.81
310.949	238.81
311.179	281.81
311.409	275.81
311.639	265.81
311.868	267.81
312.098	264.81
312.328	286.81
312.557	273.81
312.787	285.81
313.017	263.81
313.246	281.81
313.476	278.81
313.706	284.81
313.935	268.81
314.165	289.81
314.394	292.81
314.624	268.81
314.853	294.81
315.083	288.81
315.312	294.81
315.542	288.81
315.771	270.81
316.001	286.81
316.23	292.81
316.46	275.81
316.689	283.81
316.919	301.81
317.148	293.81
317.377	282.81
317.607	289.81
317.836	295.81
318.065	285.81
318.295	286.81
318.524	294.81
318.753	285.81
318.983	290.81
319.212	306.81
319.441	293.81
319.67	280.81
319.9	304.81
320.129	280.81
320.358	289.81
320.587	284.81
320.816	282.81
321.046	294.81
321.275	287.81
321.504	312.81
321.733	309.81
321.962	295.81
322.191	292.81
322.42	288.81
322.649	292.81
322.878	288.81
323.108	309.81
323.337	290.81
323.566	293.81
323.795	317.81
324.024	299.81
324.253	296.81
324.482	306.81
324.71	300.81
324.939	306.81
325.168	307.81
325.397	286.81
325.626	315.81
325.855	294.81
326.084	308.81
326.313	282.81
326.542	306.81
326.77	309.81
326.999	312.81
327.228	313.81
327.457	315.81
327.686	316.81
327.914	320.81
328.143	318.81
328.372	313.81
328.6	334.81
328.829	321.81
329.058	308.81
329.287	306.81
329.515	314.81
329.744	320.81
329.972	316.81
330.201	327.81
330.43	317.81
330.658	325.81
330.887	324.81
331.115	320.81
331.344	324.81
331.572	342.81
331.801	316.81
332.03	345.81
332.258	349.81
332.486	360.81
332.715	358.81
332.943	347.81
333.172	369.81
333.4	358.81
333.629	348.81
333.857	374.81
334.085	376.81
334.314	385.81
334.542	378.81
334.771	368.81
334.999	385.81
335.227	366.81
335.455	361.81
335.684	363.81
335.912	353.81
336.14	359.81
336.369	359.81
336.597	355.81
336.825	358.81
337.053	358.81
337.281	342.81
337.51	340.81
337.738	346.81
337.966	326.81
338.194	356.81
338.422	352.81
338.65	331.81
338.878	361.81
339.106	353.81
339.334	350.81
339.562	324.81
339.79	348.81
340.018	337.81
340.246	334.81
340.474	331.81
340.702	345.81
340.93	334.81
341.158	330.81
341.386	353.81
341.614	352.81
341.842	343.81
342.07	341.81
342.298	354.81
342.526	343.81
342.754	327.81
342.981	352.81
343.209	346.81
343.437	368.81
343.665	364.81
343.893	364.81
344.12	376.81
344.348	358.81
344.576	354.81
344.804	341.81
345.031	365.81
345.259	341.81
345.487	348.81
345.714	339.81
345.942	337.81
346.17	312.81
346.397	329.81
346.625	329.81
346.853	314.81
347.08	315.81
347.308	324.81
347.535	328.81
347.763	317.81
347.99	338.81
348.218	348.81
348.445	327.81
348.673	332.81
348.9	331.81
349.128	334.81
349.355	324.81
349.583	324.81
349.81	322.81
350.037	319.81
350.265	330.81
350.492	328.81
350.72	322.81
350.947	324.81
351.174	329.81
351.402	328.81
351.629	325.81
351.856	332.81
352.083	333.81
352.311	338.81
352.538	342.81
352.765	316.81
352.992	323.81
353.22	325.81
353.447	326.81
353.674	317.81
353.901	328.81
354.128	323.81
354.355	339.81
354.583	325.81
354.81	335.81
355.037	325.81
355.264	317.81
355.491	346.81
355.718	315.81
355.945	320.81
356.172	324.81
356.399	339.81
356.626	353.81
356.853	344.81
357.08	333.81
357.307	349.81
357.534	339.81
357.761	333.81
357.988	337.81
358.215	341.81
358.441	339.81
358.668	331.81
358.895	342.81
359.122	332.81
359.349	328.81
359.576	328.81
359.802	306.81
360.029	322.81
360.256	330.81
360.483	338.81
360.709	319.81
360.936	334.81
361.163	328.81
361.39	341.81
361.616	311.81
361.843	326.81
362.07	310.81
362.296	334.81
362.523	337.81
362.749	329.81
362.976	345.81
363.203	353.81
363.429	324.81
363.656	347.81
363.882	334.81
364.109	344.81
364.335	358.81
364.562	331.81
364.788	341.81
365.015	349.81
365.241	342.81
365.468	341.81
365.694	341.81
365.92	345.81
366.147	346.81
366.373	355.81
366.599	339.81
366.826	345.81
367.052	321.81
367.278	347.81
367.505	336.81
367.731	349.81
367.957	341.81
368.184	337.81
368.41	333.81
368.636	333.81
368.862	337.81
369.089	340.81
369.315	354.81
369.541	350.81
369.767	360.81
369.993	365.81
370.219	367.81
370.445	356.81
370.672	354.81
370.898	349.81
371.124	356.81
371.35	349.81
371.576	345.81
371.802	359.81
372.028	355.81
372.254	372.81
372.48	340.81
372.706	359.81
372.932	358.81
373.158	363.81
373.384	387.81
373.61	377.81
373.835	377.81
374.061	370.81
374.287	376.81
374.513	359.81
374.739	370.81
374.965	374.81
375.191	369.81
375.416	362.81
375.642	360.81
375.868	378.81
376.094	361.81
376.319	354.81
376.545	361.81
376.771	360.81
376.997	352.81
377.222	359.81
377.448	359.81
377.674	361.81
377.899	344.81
378.125	355.81
378.35	348.81
378.576	376.81
378.802	372.81
379.027	364.81
379.253	357.81
379.478	358.81
379.704	345.81
379.929	368.81
380.155	348.81
380.38	353.81
380.606	363.81
380.831	364.81
381.057	375.81
381.282	363.81
381.507	376.81
381.733	382.81
381.958	394.81
382.184	375.81
382.409	376.81
382.634	363.81
382.86	390.81
383.085	376.81
383.31	392.81
383.535	380.81
383.761	378.81
383.986	385.81
384.211	382.81
384.436	391.81
384.662	390.81
384.887	413.81
385.112	400.81
385.337	420.81
385.562	416.81
385.787	401.81
386.013	414.81
386.238	418.81
386.463	425.81
386.688	412.81
386.913	398.81
387.138	424.81
387.363	417.81
387.588	415.81
387.813	406.81
388.038	382.81
388.263	427.81
388.488	423.81
388.713	416.81
388.938	432.81
389.163	428.81
389.387	413.81
389.612	416.81
389.837	418.81
390.062	443.81
390.287	441.81
390.512	423.81
390.736	402.81
390.961	443.81
391.186	448.81
391.411	442.81
391.636	434.81
391.86	437.81
392.085	452.81
392.31	450.81
392.534	446.81
392.759	443.81
392.984	438.81
393.208	444.81
393.433	415.81
393.658	431.81
393.882	429.81
394.107	437.81
394.331	435.81
394.556	452.81
394.78	438.81
395.005	468.81
395.229	452.81
395.454	467.81
395.678	451.81
395.903	473.81
396.127	450.81
396.352	436.81
396.576	450.81
396.801	446.81
397.025	459.81
397.249	441.81
397.474	446.81
397.698	449.81
397.922	485.81
398.147	494.81
398.371	491.81
398.595	497.81
398.82	509.81
399.044	538.81
399.268	545.81
399.492	597.81
399.717	605.81
399.941	616.81
400.165	579.81
400.389	557.81
400.613	550.81
400.837	518.81
401.062	517.81
401.286	517.81
401.51	500.81
401.734	506.81
401.958	491.81
402.182	474.81
402.406	492.81
402.63	494.81
402.854	505.81
403.078	500.81
403.302	507.81
403.526	500.81
403.75	523.81
403.974	503.81
404.198	519.81
404.422	525.81
404.645	528.81
404.869	530.81
405.093	513.81
405.317	500.81
405.541	514.81
405.765	519.81
405.988	537.81
406.212	520.81
406.436	499.81
406.66	545.81
406.883	564.81
407.107	548.81
407.331	567.81
407.555	554.81
407.778	570.81
408.002	571.81
408.226	564.81
408.449	577.81
408.673	546.81
408.896	533.81
409.12	548.81
409.344	524.81
409.567	512.81
409.791	537.81
410.014	512.81
410.238	532.81
410.461	516.81
410.685	521.81
410.908	530.81
411.132	508.81
411.355	514.81
411.578	504.81
411.802	493.81
412.025	512.81
412.249	520.81
412.472	505.81
412.695	505.81
412.919	489.81
413.142	487.81
413.365	507.81
413.589	490.81
413.812	509.81
414.035	493.81
414.258	501.81
414.482	496.81
414.705	504.81
414.928	514.81
415.151	502.81
415.374	472.81
415.597	483.81
415.821	460.81
416.044	454.81
416.267	492.81
416.49	472.81
416.713	492.81
416.936	487.81
417.159	460.81
417.382	466.81
417.605	470.81
417.828	486.81
418.051	473.81
418.274	460.81
418.497	480.81
418.72	491.81
418.943	480.81
419.166	500.81
419.389	504.81
419.611	520.81
419.834	494.81
420.057	500.81
420.28	472.81
420.503	491.81
420.726	455.81
420.948	486.81
421.171	459.81
421.394	484.81
421.617	465.81
421.839	474.81
422.062	488.81
422.285	469.81
422.507	480.81
422.73	452.81
422.953	458.81
423.175	464.81
423.398	464.81
423.621	467.81
423.843	488.81
424.066	479.81
424.288	484.81
424.511	487.81
424.733	457.81
424.956	480.81
425.178	466.81
425.401	450.81
425.623	468.81
425.846	480.81
426.068	477.81
426.291	475.81
426.513	480.81
426.735	451.81
426.958	448.81
427.18	440.81
427.402	419.81
427.625	444.81
427.847	430.81
428.069	445.81
428.292	456.81
428.514	421.81
428.736	427.81
428.958	440.81
429.181	436.81
429.403	433.81
429.625	440.81
429.847	456.81
430.069	460.81
430.292	454.81
430.514	437.81
430.736	444.81
430.958	426.81
431.18	436.81
431.402	426.81
431.624	434.81
431.846	422.81
432.068	442.81
432.29	459.81
432.512	457.81
432.734	431.81
432.956	442.81
433.178	441.81
433.4	452.81
433.622	428.81
433.844	446.81
434.066	454.81
434.287	455.81
434.509	449.81
434.731	476.81
434.953	486.81
435.175	488.81
435.397	443.81
435.618	456.81
435.84	442.81
436.062	436.81
436.284	460.81
436.505	431.81
436.727	412.81
436.949	435.81
437.17	447.81
437.392	437.81
437.614	437.81
437.835	416.81
438.057	436.81
438.278	432.81
438.5	417.81
438.721	421.81
438.943	436.81
439.165	426.81
439.386	437.81
439.608	436.81
439.829	390.81
440.05	429.81
440.272	429.81
440.493	433.81
440.715	460.81
440.936	433.81
441.158	447.81
441.379	451.81
441.6	462.81
441.822	475.81
442.043	450.81
442.264	447.81
442.486	462.81
442.707	465.81
442.928	466.81
443.149	468.81
443.371	453.81
443.592	486.81
443.813	463.81
444.034	489.81
444.255	482.81
444.476	498.81
444.698	500.81
444.919	518.81
445.14	560.81
445.361	502.81
445.582	488.81
445.803	456.81
446.024	457.81
446.245	434.81
446.466	471.81
446.687	432.81
446.908	426.81
447.129	421.81
447.35	422.81
447.571	436.81
447.792	413.81
448.013	408.81
448.234	411.81
448.455	436.81
448.675	404.81
448.896	404.81
449.117	408.81
449.338	410.81
449.559	403.81
449.779	382.81
450	425.81
450.221	404.81
450.442	396.81
450.662	400.81
450.883	388.81
451.104	420.81
451.324	393.81
451.545	402.81
451.766	406.81
451.986	391.81
452.207	389.81
452.428	412.81
452.648	395.81
452.869	399.81
453.089	384.81
453.31	370.81
453.53	388.81
453.751	380.81
453.971	388.81
454.192	382.81
454.412	406.81
454.633	378.81
454.853	386.81
455.073	377.81
455.294	382.81
455.514	386.81
455.734	391.81
455.955	401.81
456.175	377.81
456.395	383.81
456.616	382.81
456.836	375.81
457.056	392.81
457.276	374.81
457.497	379.81
457.717	380.81
457.937	374.81
458.157	405.81
458.377	392.81
458.598	411.81
458.818	420.81
459.038	392.81
459.258	421.81
459.478	441.81
459.698	442.81
459.918	465.81
460.138	461.81
460.358	488.81
460.578	480.81
460.798	488.81
461.018	462.81
461.238	507.81
461.458	474.81
461.678	480.81
461.898	483.81
462.118	465.81
462.338	516.81
462.558	513.81
462.777	513.81
462.997	538.81
463.217	566.81
463.437	562.81
463.657	534.81
463.876	549.81
464.096	541.81
464.316	522.81
464.536	529.81
464.755	518.81
464.975	515.81
465.195	493.81
465.414	471.81
465.634	447.81
465.854	457.81
466.073	445.81
466.293	429.81
466.512	445.81
466.732	419.81
466.951	420.81
467.171	435.81
467.391	426.81
467.61	441.81
467.829	437.81
468.049	442.81
468.268	412.81
468.488	409.81
468.707	401.81
468.927	405.81
469.146	416.81
469.365	429.81
469.585	425.81
469.804	426.81
470.023	424.81
470.243	428.81
470.462	444.81
470.681	444.81
470.901	442.81
471.12	422.81
471.339	438.81
471.558	428.81
471.777	453.81
471.997	428.81
472.216	411.81
472.435	441.81
472.654	420.81
472.873	428.81
473.092	447.81
473.311	414.81
473.53	417.81
473.749	405.81
473.968	407.81
474.187	407.81
474.406	416.81
474.625	433.81
474.844	444.81
475.063	416.81
475.282	425.81
475.501	431.81
475.72	414.81
475.939	443.81
476.158	455.81
476.377	443.81
476.596	454.81
476.814	443.81
477.033	455.81
477.252	459.81
477.471	460.81
477.69	491.81
477.908	468.81
478.127	468.81
478.346	499.81
478.564	478.81
478.783	492.81
479.002	500.81
479.22	492.81
479.439	492.81
479.658	514.81
479.876	503.81
480.095	519.81
480.313	520.81
480.532	524.81
480.751	515.81
480.969	531.81
481.188	510.81
481.406	507.81
481.624	486.81
481.843	480.81
482.061	479.81
482.28	470.81
482.498	488.81
482.717	490.81
482.935	501.81
483.153	495.81
483.372	470.81
483.59	493.81
483.808	497.81
484.027	472.81
484.245	476.81
484.463	489.81
484.681	512.81
484.9	506.81
485.118	510.81
485.336	502.81
485.554	499.81
485.772	494.81
485.99	510.81
486.209	497.81
486.427	493.81
486.645	512.81
486.863	485.81
487.081	502.81
487.299	499.81
487.517	509.81
487.735	511.81
487.953	503.81
488.171	520.81
488.389	485.81
488.607	497.81
488.825	502.81
489.043	503.81
489.261	483.81
489.479	514.81
489.696	520.81
489.914	508.81
490.132	504.81
490.35	490.81
490.568	518.81
490.786	515.81
491.003	524.81
491.221	517.81
491.439	505.81
491.657	521.81
491.874	505.81
492.092	524.81
492.31	512.81
492.527	521.81
492.745	538.81
492.963	501.81
493.18	522.81
493.398	532.81
493.615	512.81
493.833	545.81
494.05	530.81
494.268	530.81
494.485	541.81
494.703	561.81
494.92	543.81
495.138	545.81
495.355	537.81
495.573	525.81
495.79	540.81
496.008	564.81
496.225	546.81
496.442	561.81
496.66	570.81
496.877	561.81
497.094	574.81
497.312	586.81
497.529	572.81
497.746	613.81
497.963	613.81
498.181	632.81
498.398	653.81
498.615	709.81
498.832	747.81
499.049	773.81
499.267	793.81
499.484	824.81
499.701	890.81
499.918	904.81
500.135	982.81
500.352	1028.81
500.569	1046.81
500.786	1013.81
501.003	978.81
501.22	935.81
501.437	876.81
501.654	854.81
501.871	808.81
