Data from Fe(NO3)3@0.05M.TitratingCurve.Agarose3%dH2O.NegLispCup.LampEnergy10.LIBS07252019_HRD10591_16-47-41-334.txt Node
Date: Thu Jul 25 16:47:41 EDT 2019
User: cochatt
Spectrometer: HR+D1059
Trigger mode: 1
Integration Time (sec): 1.000000E-1
Scans to average: 1
Electric dark correction enabled: true
Nonlinearity correction enabled: false
Boxcar width: 0
XAxis mode: Wavelengths
Number of Pixels in Spectrum: 2048
>>>>>Begin Spectral Data<<<<<
223.165	-21.19
223.4	-21.19
223.635	-21.19
223.869	-13.19
224.104	-24.19
224.338	-7.19
224.573	-15.19
224.808	-11.19
225.042	-1.19
225.277	-1.19
225.511	2.81
225.746	4.81
225.98	4.81
226.215	9.81
226.449	12.81
226.683	15.81
226.918	23.81
227.152	19.81
227.387	36.81
227.621	32.81
227.856	44.81
228.09	38.81
228.324	47.81
228.559	52.81
228.793	75.81
229.027	56.81
229.262	70.81
229.496	78.81
229.73	91.81
229.964	103.81
230.199	78.81
230.433	99.81
230.667	111.81
230.901	97.81
231.136	89.81
231.37	97.81
231.604	93.81
231.838	91.81
232.072	100.81
232.306	101.81
232.541	107.81
232.775	106.81
233.009	100.81
233.243	99.81
233.477	97.81
233.711	88.81
233.945	106.81
234.179	99.81
234.413	101.81
234.647	100.81
234.881	105.81
235.115	98.81
235.349	93.81
235.583	103.81
235.817	92.81
236.051	100.81
236.285	107.81
236.519	107.81
236.753	110.81
236.987	109.81
237.221	94.81
237.455	113.81
237.689	100.81
237.922	101.81
238.156	119.81
238.39	116.81
238.624	116.81
238.858	120.81
239.091	103.81
239.325	111.81
239.559	114.81
239.793	107.81
240.027	110.81
240.26	125.81
240.494	116.81
240.728	122.81
240.961	116.81
241.195	120.81
241.429	123.81
241.662	113.81
241.896	119.81
242.13	122.81
242.363	105.81
242.597	120.81
242.83	96.81
243.064	128.81
243.298	106.81
243.531	119.81
243.765	106.81
243.998	122.81
244.232	124.81
244.465	119.81
244.699	115.81
244.932	108.81
245.166	122.81
245.399	122.81
245.633	123.81
245.866	122.81
246.099	113.81
246.333	116.81
246.566	124.81
246.8	125.81
247.033	115.81
247.266	125.81
247.5	126.81
247.733	119.81
247.966	120.81
248.2	123.81
248.433	130.81
248.666	129.81
248.899	112.81
249.133	134.81
249.366	125.81
249.599	150.81
249.832	147.81
250.066	137.81
250.299	147.81
250.532	130.81
250.765	138.81
250.998	135.81
251.231	121.81
251.465	145.81
251.698	122.81
251.931	116.81
252.164	129.81
252.397	138.81
252.63	145.81
252.863	134.81
253.096	148.81
253.329	141.81
253.562	154.81
253.795	136.81
254.028	140.81
254.261	139.81
254.494	143.81
254.727	132.81
254.96	143.81
255.193	137.81
255.426	140.81
255.659	148.81
255.892	156.81
256.124	145.81
256.357	138.81
256.59	160.81
256.823	151.81
257.056	139.81
257.289	156.81
257.521	143.81
257.754	136.81
257.987	148.81
258.22	141.81
258.452	149.81
258.685	155.81
258.918	155.81
259.151	136.81
259.383	170.81
259.616	161.81
259.849	146.81
260.081	178.81
260.314	154.81
260.547	152.81
260.779	160.81
261.012	148.81
261.244	174.81
261.477	168.81
261.71	162.81
261.942	167.81
262.175	170.81
262.407	159.81
262.64	169.81
262.872	161.81
263.105	154.81
263.337	157.81
263.57	176.81
263.802	167.81
264.035	159.81
264.267	151.81
264.499	155.81
264.732	158.81
264.964	151.81
265.197	155.81
265.429	174.81
265.661	155.81
265.894	166.81
266.126	165.81
266.358	159.81
266.591	158.81
266.823	157.81
267.055	162.81
267.287	157.81
267.52	146.81
267.752	148.81
267.984	167.81
268.216	170.81
268.448	179.81
268.681	174.81
268.913	171.81
269.145	160.81
269.377	151.81
269.609	172.81
269.841	174.81
270.073	178.81
270.306	174.81
270.538	173.81
270.77	178.81
271.002	182.81
271.234	165.81
271.466	164.81
271.698	176.81
271.93	173.81
272.162	171.81
272.394	194.81
272.626	171.81
272.858	186.81
273.09	192.81
273.322	170.81
273.553	176.81
273.785	194.81
274.017	202.81
274.249	196.81
274.481	184.81
274.713	204.81
274.945	216.81
275.176	204.81
275.408	210.81
275.64	212.81
275.872	208.81
276.104	200.81
276.335	178.81
276.567	176.81
276.799	186.81
277.031	191.81
277.262	189.81
277.494	200.81
277.726	194.81
277.957	196.81
278.189	198.81
278.421	171.81
278.652	192.81
278.884	191.81
279.115	196.81
279.347	194.81
279.579	190.81
279.81	195.81
280.042	188.81
280.273	195.81
280.505	204.81
280.736	176.81
280.968	201.81
281.199	198.81
281.431	195.81
281.662	212.81
281.894	198.81
282.125	200.81
282.356	195.81
282.588	197.81
282.819	204.81
283.051	203.81
283.282	208.81
283.513	199.81
283.745	203.81
283.976	195.81
284.207	195.81
284.439	199.81
284.67	201.81
284.901	218.81
285.132	199.81
285.364	207.81
285.595	221.81
285.826	208.81
286.057	203.81
286.288	207.81
286.52	203.81
286.751	200.81
286.982	196.81
287.213	218.81
287.444	229.81
287.675	201.81
287.906	202.81
288.138	221.81
288.369	205.81
288.6	214.81
288.831	219.81
289.062	211.81
289.293	198.81
289.524	217.81
289.755	190.81
289.986	215.81
290.217	213.81
290.448	217.81
290.679	209.81
290.91	226.81
291.141	209.81
291.371	218.81
291.602	219.81
291.833	212.81
292.064	214.81
292.295	215.81
292.526	203.81
292.757	232.81
292.987	217.81
293.218	227.81
293.449	223.81
293.68	218.81
293.91	225.81
294.141	227.81
294.372	215.81
294.603	211.81
294.833	203.81
295.064	222.81
295.295	225.81
295.525	221.81
295.756	222.81
295.987	225.81
296.217	215.81
296.448	214.81
296.679	238.81
296.909	240.81
297.14	231.81
297.37	233.81
297.601	222.81
297.831	244.81
298.062	218.81
298.292	238.81
298.523	231.81
298.753	216.81
298.984	230.81
299.214	227.81
299.445	248.81
299.675	242.81
299.905	223.81
300.136	227.81
300.366	231.81
300.597	227.81
300.827	243.81
301.057	265.81
301.288	232.81
301.518	234.81
301.748	240.81
301.979	233.81
302.209	230.81
302.439	261.81
302.669	243.81
302.9	248.81
303.13	238.81
303.36	231.81
303.59	236.81
303.82	253.81
304.051	235.81
304.281	249.81
304.511	244.81
304.741	237.81
304.971	255.81
305.201	238.81
305.431	224.81
305.661	231.81
305.891	238.81
306.121	246.81
306.352	231.81
306.582	237.81
306.812	244.81
307.042	235.81
307.272	258.81
307.502	244.81
307.731	242.81
307.961	248.81
308.191	254.81
308.421	232.81
308.651	233.81
308.881	257.81
309.111	253.81
309.341	237.81
309.571	258.81
309.8	247.81
310.03	232.81
310.26	245.81
310.49	239.81
310.72	245.81
310.949	249.81
311.179	241.81
311.409	250.81
311.639	259.81
311.868	243.81
312.098	255.81
312.328	264.81
312.557	256.81
312.787	249.81
313.017	240.81
313.246	246.81
313.476	255.81
313.706	266.81
313.935	267.81
314.165	240.81
314.394	256.81
314.624	264.81
314.853	257.81
315.083	267.81
315.312	265.81
315.542	263.81
315.771	261.81
316.001	255.81
316.23	255.81
316.46	243.81
316.689	236.81
316.919	256.81
317.148	255.81
317.377	262.81
317.607	237.81
317.836	267.81
318.065	278.81
318.295	259.81
318.524	258.81
318.753	243.81
318.983	240.81
319.212	257.81
319.441	238.81
319.67	263.81
319.9	252.81
320.129	243.81
320.358	262.81
320.587	258.81
320.816	262.81
321.046	264.81
321.275	257.81
321.504	262.81
321.733	258.81
321.962	268.81
322.191	271.81
322.42	265.81
322.649	272.81
322.878	267.81
323.108	264.81
323.337	278.81
323.566	259.81
323.795	266.81
324.024	264.81
324.253	247.81
324.482	252.81
324.71	268.81
324.939	272.81
325.168	264.81
325.397	280.81
325.626	267.81
325.855	280.81
326.084	275.81
326.313	275.81
326.542	265.81
326.77	276.81
326.999	278.81
327.228	273.81
327.457	294.81
327.686	281.81
327.914	271.81
328.143	272.81
328.372	263.81
328.6	287.81
328.829	279.81
329.058	282.81
329.287	274.81
329.515	274.81
329.744	278.81
329.972	274.81
330.201	282.81
330.43	285.81
330.658	263.81
330.887	290.81
331.115	295.81
331.344	288.81
331.572	307.81
331.801	292.81
332.03	309.81
332.258	292.81
332.486	299.81
332.715	313.81
332.943	332.81
333.172	343.81
333.4	346.81
333.629	362.81
333.857	361.81
334.085	335.81
334.314	313.81
334.542	329.81
334.771	348.81
334.999	320.81
335.227	328.81
335.455	332.81
335.684	335.81
335.912	336.81
336.14	331.81
336.369	346.81
336.597	319.81
336.825	307.81
337.053	307.81
337.281	316.81
337.51	322.81
337.738	305.81
337.966	314.81
338.194	293.81
338.422	305.81
338.65	292.81
338.878	315.81
339.106	329.81
339.334	298.81
339.562	294.81
339.79	289.81
340.018	307.81
340.246	294.81
340.474	282.81
340.702	290.81
340.93	294.81
341.158	295.81
341.386	314.81
341.614	278.81
341.842	282.81
342.07	296.81
342.298	294.81
342.526	292.81
342.754	307.81
342.981	305.81
343.209	293.81
343.437	324.81
343.665	299.81
343.893	333.81
344.12	343.81
344.348	322.81
344.576	313.81
344.804	311.81
345.031	305.81
345.259	302.81
345.487	300.81
345.714	286.81
345.942	266.81
346.17	296.81
346.397	289.81
346.625	279.81
346.853	292.81
347.08	282.81
347.308	275.81
347.535	303.81
347.763	305.81
347.99	291.81
348.218	289.81
348.445	285.81
348.673	275.81
348.9	271.81
349.128	278.81
349.355	278.81
349.583	262.81
349.81	287.81
350.037	294.81
350.265	281.81
350.492	285.81
350.72	280.81
350.947	288.81
351.174	275.81
351.402	291.81
351.629	279.81
351.856	282.81
352.083	280.81
352.311	279.81
352.538	284.81
352.765	288.81
352.992	289.81
353.22	283.81
353.447	295.81
353.674	282.81
353.901	298.81
354.128	266.81
354.355	284.81
354.583	288.81
354.81	281.81
355.037	299.81
355.264	297.81
355.491	287.81
355.718	281.81
355.945	287.81
356.172	273.81
356.399	276.81
356.626	286.81
356.853	272.81
357.08	295.81
357.307	299.81
357.534	283.81
357.761	286.81
357.988	286.81
358.215	282.81
358.441	297.81
358.668	267.81
358.895	281.81
359.122	282.81
359.349	290.81
359.576	279.81
359.802	294.81
360.029	277.81
360.256	288.81
360.483	282.81
360.709	281.81
360.936	301.81
361.163	276.81
361.39	285.81
361.616	270.81
361.843	288.81
362.07	293.81
362.296	290.81
362.523	273.81
362.749	291.81
362.976	280.81
363.203	285.81
363.429	288.81
363.656	278.81
363.882	289.81
364.109	290.81
364.335	282.81
364.562	290.81
364.788	289.81
365.015	274.81
365.241	295.81
365.468	276.81
365.694	268.81
365.92	295.81
366.147	271.81
366.373	290.81
366.599	295.81
366.826	284.81
367.052	284.81
367.278	300.81
367.505	281.81
367.731	291.81
367.957	297.81
368.184	291.81
368.41	294.81
368.636	289.81
368.862	300.81
369.089	291.81
369.315	280.81
369.541	289.81
369.767	281.81
369.993	304.81
370.219	283.81
370.445	297.81
370.672	295.81
370.898	320.81
371.124	298.81
371.35	315.81
371.576	310.81
371.802	331.81
372.028	329.81
372.254	330.81
372.48	322.81
372.706	302.81
372.932	336.81
373.158	322.81
373.384	314.81
373.61	327.81
373.835	331.81
374.061	314.81
374.287	328.81
374.513	326.81
374.739	331.81
374.965	349.81
375.191	342.81
375.416	330.81
375.642	326.81
375.868	357.81
376.094	332.81
376.319	327.81
376.545	305.81
376.771	318.81
376.997	316.81
377.222	309.81
377.448	316.81
377.674	311.81
377.899	310.81
378.125	327.81
378.35	316.81
378.576	316.81
378.802	304.81
379.027	313.81
379.253	323.81
379.478	323.81
379.704	297.81
379.929	319.81
380.155	318.81
380.38	320.81
380.606	326.81
380.831	327.81
381.057	319.81
381.282	324.81
381.507	334.81
381.733	328.81
381.958	324.81
382.184	340.81
382.409	320.81
382.634	342.81
382.86	344.81
383.085	350.81
383.31	339.81
383.535	357.81
383.761	340.81
383.986	344.81
384.211	357.81
384.436	359.81
384.662	350.81
384.887	379.81
385.112	378.81
385.337	359.81
385.562	370.81
385.787	372.81
386.013	382.81
386.238	368.81
386.463	378.81
386.688	380.81
386.913	379.81
387.138	383.81
387.363	380.81
387.588	372.81
387.813	374.81
388.038	386.81
388.263	402.81
388.488	384.81
388.713	377.81
388.938	364.81
389.163	376.81
389.387	360.81
389.612	364.81
389.837	394.81
390.062	382.81
390.287	372.81
390.512	375.81
390.736	388.81
390.961	375.81
391.186	394.81
391.411	395.81
391.636	405.81
391.86	410.81
392.085	424.81
392.31	420.81
392.534	400.81
392.759	388.81
392.984	396.81
393.208	401.81
393.433	408.81
393.658	418.81
393.882	409.81
394.107	394.81
394.331	400.81
394.556	394.81
394.78	406.81
395.005	406.81
395.229	401.81
395.454	426.81
395.678	421.81
395.903	435.81
396.127	431.81
396.352	406.81
396.576	382.81
396.801	406.81
397.025	419.81
397.249	415.81
397.474	419.81
397.698	400.81
397.922	439.81
398.147	433.81
398.371	434.81
398.595	459.81
398.82	459.81
399.044	476.81
399.268	511.81
399.492	568.81
399.717	628.81
399.941	619.81
400.165	578.81
400.389	535.81
400.613	518.81
400.837	488.81
401.062	490.81
401.286	475.81
401.51	458.81
401.734	448.81
401.958	480.81
402.182	460.81
402.406	459.81
402.63	466.81
402.854	483.81
403.078	473.81
403.302	515.81
403.526	482.81
403.75	502.81
403.974	536.81
404.198	501.81
404.422	534.81
404.645	496.81
404.869	521.81
405.093	490.81
405.317	518.81
405.541	507.81
405.765	485.81
405.988	498.81
406.212	510.81
406.436	516.81
406.66	512.81
406.883	516.81
407.107	542.81
407.331	539.81
407.555	580.81
407.778	583.81
408.002	542.81
408.226	531.81
408.449	545.81
408.673	505.81
408.896	539.81
409.12	516.81
409.344	519.81
409.567	523.81
409.791	535.81
410.014	517.81
410.238	520.81
410.461	514.81
410.685	494.81
410.908	500.81
411.132	475.81
411.355	490.81
411.578	475.81
411.802	487.81
412.025	500.81
412.249	504.81
412.472	500.81
412.695	490.81
412.919	483.81
413.142	491.81
413.365	479.81
413.589	486.81
413.812	485.81
414.035	487.81
414.258	492.81
414.482	479.81
414.705	497.81
414.928	492.81
415.151	483.81
415.374	472.81
415.597	486.81
415.821	479.81
416.044	479.81
416.267	454.81
416.49	475.81
416.713	467.81
416.936	467.81
417.159	460.81
417.382	450.81
417.605	454.81
417.828	475.81
418.051	469.81
418.274	504.81
418.497	473.81
418.72	485.81
418.943	475.81
419.166	491.81
419.389	546.81
419.611	547.81
419.834	499.81
420.057	478.81
420.28	472.81
420.503	478.81
420.726	455.81
420.948	479.81
421.171	455.81
421.394	484.81
421.617	472.81
421.839	455.81
422.062	470.81
422.285	470.81
422.507	477.81
422.73	476.81
422.953	495.81
423.175	500.81
423.398	508.81
423.621	485.81
423.843	484.81
424.066	504.81
424.288	483.81
424.511	505.81
424.733	484.81
424.956	460.81
425.178	492.81
425.401	485.81
425.623	476.81
425.846	463.81
426.068	475.81
426.291	485.81
426.513	455.81
426.735	443.81
426.958	455.81
427.18	450.81
427.402	451.81
427.625	465.81
427.847	432.81
428.069	462.81
428.292	459.81
428.514	472.81
428.736	461.81
428.958	446.81
429.181	424.81
429.403	449.81
429.625	449.81
429.847	431.81
430.069	436.81
430.292	440.81
430.514	454.81
430.736	436.81
430.958	443.81
431.18	424.81
431.402	425.81
431.624	458.81
431.846	441.81
432.068	442.81
432.29	457.81
432.512	438.81
432.734	445.81
432.956	464.81
433.178	465.81
433.4	459.81
433.622	458.81
433.844	458.81
434.066	456.81
434.287	443.81
434.509	460.81
434.731	467.81
434.953	476.81
435.175	477.81
435.397	481.81
435.618	449.81
435.84	459.81
436.062	466.81
436.284	458.81
436.505	446.81
436.727	441.81
436.949	471.81
437.17	443.81
437.392	431.81
437.614	439.81
437.835	427.81
438.057	435.81
438.278	438.81
438.5	460.81
438.721	443.81
438.943	428.81
439.165	448.81
439.386	454.81
439.608	448.81
439.829	467.81
440.05	460.81
440.272	472.81
440.493	456.81
440.715	471.81
440.936	460.81
441.158	477.81
441.379	470.81
441.6	490.81
441.822	470.81
442.043	494.81
442.264	482.81
442.486	468.81
442.707	469.81
442.928	482.81
443.149	500.81
443.371	514.81
443.592	506.81
443.813	491.81
444.034	497.81
444.255	507.81
444.476	514.81
444.698	540.81
444.919	563.81
445.14	618.81
445.361	576.81
445.582	515.81
445.803	511.81
446.024	489.81
446.245	487.81
446.466	476.81
446.687	472.81
446.908	467.81
447.129	468.81
447.35	455.81
447.571	454.81
447.792	447.81
448.013	445.81
448.234	418.81
448.455	439.81
448.675	413.81
448.896	440.81
449.117	438.81
449.338	436.81
449.559	426.81
449.779	418.81
450	437.81
450.221	427.81
450.442	429.81
450.662	444.81
450.883	432.81
451.104	443.81
451.324	441.81
451.545	435.81
451.766	411.81
451.986	419.81
452.207	430.81
452.428	431.81
452.648	407.81
452.869	414.81
453.089	411.81
453.31	425.81
453.53	407.81
453.751	422.81
453.971	396.81
454.192	391.81
454.412	400.81
454.633	422.81
454.853	402.81
455.073	410.81
455.294	409.81
455.514	406.81
455.734	424.81
455.955	426.81
456.175	395.81
456.395	417.81
456.616	397.81
456.836	396.81
457.056	407.81
457.276	408.81
457.497	395.81
457.717	399.81
457.937	408.81
458.157	416.81
458.377	418.81
458.598	420.81
458.818	420.81
459.038	426.81
459.258	443.81
459.478	448.81
459.698	451.81
459.918	478.81
460.138	502.81
460.358	514.81
460.578	492.81
460.798	514.81
461.018	497.81
461.238	514.81
461.458	528.81
461.678	512.81
461.898	528.81
462.118	516.81
462.338	575.81
462.558	547.81
462.777	587.81
462.997	597.81
463.217	652.81
463.437	638.81
463.657	580.81
463.876	583.81
464.096	561.81
464.316	560.81
464.536	567.81
464.755	569.81
464.975	531.81
465.195	532.81
465.414	513.81
465.634	475.81
465.854	470.81
466.073	463.81
466.293	466.81
466.512	468.81
466.732	452.81
466.951	457.81
467.171	454.81
467.391	469.81
467.61	440.81
467.829	455.81
468.049	448.81
468.268	421.81
468.488	427.81
468.707	446.81
468.927	439.81
469.146	440.81
469.365	436.81
469.585	421.81
469.804	441.81
470.023	445.81
470.243	467.81
470.462	454.81
470.681	474.81
470.901	452.81
471.12	467.81
471.339	447.81
471.558	471.81
471.777	440.81
471.997	412.81
472.216	439.81
472.435	425.81
472.654	418.81
472.873	441.81
473.092	424.81
473.311	434.81
473.53	425.81
473.749	444.81
473.968	432.81
474.187	448.81
474.406	436.81
474.625	445.81
474.844	447.81
475.063	448.81
475.282	439.81
475.501	435.81
475.72	459.81
475.939	448.81
476.158	466.81
476.377	451.81
476.596	460.81
476.814	459.81
477.033	433.81
477.252	450.81
477.471	455.81
477.69	482.81
477.908	474.81
478.127	486.81
478.346	525.81
478.564	512.81
478.783	523.81
479.002	510.81
479.22	499.81
479.439	503.81
479.658	502.81
479.876	522.81
480.095	511.81
480.313	534.81
480.532	526.81
480.751	514.81
480.969	533.81
481.188	511.81
481.406	499.81
481.624	500.81
481.843	479.81
482.061	490.81
482.28	495.81
482.498	494.81
482.717	502.81
482.935	498.81
483.153	507.81
483.372	518.81
483.59	497.81
483.808	484.81
484.027	521.81
484.245	489.81
484.463	511.81
484.681	501.81
484.9	502.81
485.118	508.81
485.336	494.81
485.554	514.81
485.772	498.81
485.99	492.81
486.209	508.81
486.427	506.81
486.645	491.81
486.863	536.81
487.081	520.81
487.299	530.81
487.517	516.81
487.735	520.81
487.953	522.81
488.171	516.81
488.389	530.81
488.607	521.81
488.825	524.81
489.043	523.81
489.261	524.81
489.479	498.81
489.696	512.81
489.914	517.81
490.132	511.81
490.35	514.81
490.568	528.81
490.786	506.81
491.003	512.81
491.221	540.81
491.439	537.81
491.657	522.81
491.874	536.81
492.092	540.81
492.31	548.81
492.527	538.81
492.745	546.81
492.963	522.81
493.18	528.81
493.398	513.81
493.615	537.81
493.833	515.81
494.05	550.81
494.268	553.81
494.485	553.81
494.703	554.81
494.92	550.81
495.138	537.81
495.355	534.81
495.573	545.81
495.79	558.81
496.008	574.81
496.225	565.81
496.442	561.81
496.66	574.81
496.877	570.81
497.094	587.81
497.312	581.81
497.529	580.81
497.746	590.81
497.963	594.81
498.181	612.81
498.398	668.81
498.615	689.81
498.832	715.81
499.049	730.81
499.267	780.81
499.484	837.81
499.701	886.81
499.918	978.81
500.135	1066.81
500.352	1164.81
500.569	1212.81
500.786	1200.81
501.003	1115.81
501.22	1059.81
501.437	979.81
501.654	898.81
501.871	806.81
