Data from Fe(NO3)3@0.025M.TitratingCurve.Agarose3%dH2O.NegLispCup.LampEnergy10.LIBS07252019_HRD10591_16-54-50-336.txt Node
Date: Thu Jul 25 16:54:50 EDT 2019
User: cochatt
Spectrometer: HR+D1059
Trigger mode: 1
Integration Time (sec): 1.000000E-1
Scans to average: 1
Electric dark correction enabled: true
Nonlinearity correction enabled: false
Boxcar width: 0
XAxis mode: Wavelengths
Number of Pixels in Spectrum: 2048
>>>>>Begin Spectral Data<<<<<
223.165	-19.69
223.4	-19.69
223.635	-19.69
223.869	-0.69
224.104	-21.69
224.338	-20.69
224.573	-12.69
224.808	-15.69
225.042	4.31
225.277	-24.69
225.511	-8.69
225.746	6.31
225.98	7.31
226.215	15.31
226.449	7.31
226.683	8.31
226.918	31.31
227.152	44.31
227.387	44.31
227.621	40.31
227.856	34.31
228.09	35.31
228.324	53.31
228.559	49.31
228.793	53.31
229.027	74.31
229.262	62.31
229.496	84.31
229.73	76.31
229.964	89.31
230.199	87.31
230.433	93.31
230.667	96.31
230.901	84.31
231.136	89.31
231.37	96.31
231.604	100.31
231.838	106.31
232.072	92.31
232.306	101.31
232.541	97.31
232.775	108.31
233.009	98.31
233.243	91.31
233.477	113.31
233.711	109.31
233.945	117.31
234.179	84.31
234.413	108.31
234.647	101.31
234.881	103.31
235.115	123.31
235.349	99.31
235.583	96.31
235.817	109.31
236.051	101.31
236.285	104.31
236.519	99.31
236.753	102.31
236.987	101.31
237.221	106.31
237.455	100.31
237.689	102.31
237.922	109.31
238.156	96.31
238.39	95.31
238.624	85.31
238.858	91.31
239.091	109.31
239.325	100.31
239.559	104.31
239.793	103.31
240.027	113.31
240.26	98.31
240.494	121.31
240.728	110.31
240.961	124.31
241.195	117.31
241.429	100.31
241.662	96.31
241.896	103.31
242.13	113.31
242.363	116.31
242.597	124.31
242.83	98.31
243.064	107.31
243.298	115.31
243.531	121.31
243.765	132.31
243.998	105.31
244.232	108.31
244.465	123.31
244.699	109.31
244.932	136.31
245.166	121.31
245.399	108.31
245.633	110.31
245.866	122.31
246.099	120.31
246.333	119.31
246.566	116.31
246.8	122.31
247.033	122.31
247.266	127.31
247.5	126.31
247.733	126.31
247.966	123.31
248.2	121.31
248.433	139.31
248.666	125.31
248.899	129.31
249.133	134.31
249.366	132.31
249.599	125.31
249.832	119.31
250.066	131.31
250.299	135.31
250.532	142.31
250.765	138.31
250.998	125.31
251.231	134.31
251.465	136.31
251.698	141.31
251.931	132.31
252.164	144.31
252.397	132.31
252.63	155.31
252.863	126.31
253.096	105.31
253.329	143.31
253.562	127.31
253.795	144.31
254.028	141.31
254.261	130.31
254.494	141.31
254.727	136.31
254.96	132.31
255.193	126.31
255.426	130.31
255.659	126.31
255.892	140.31
256.124	143.31
256.357	143.31
256.59	164.31
256.823	140.31
257.056	149.31
257.289	140.31
257.521	138.31
257.754	148.31
257.987	129.31
258.22	158.31
258.452	143.31
258.685	149.31
258.918	143.31
259.151	153.31
259.383	150.31
259.616	148.31
259.849	131.31
260.081	157.31
260.314	165.31
260.547	149.31
260.779	146.31
261.012	155.31
261.244	160.31
261.477	157.31
261.71	146.31
261.942	149.31
262.175	169.31
262.407	154.31
262.64	156.31
262.872	142.31
263.105	159.31
263.337	160.31
263.57	162.31
263.802	154.31
264.035	153.31
264.267	151.31
264.499	160.31
264.732	161.31
264.964	164.31
265.197	157.31
265.429	165.31
265.661	161.31
265.894	154.31
266.126	156.31
266.358	164.31
266.591	167.31
266.823	164.31
267.055	150.31
267.287	160.31
267.52	164.31
267.752	166.31
267.984	171.31
268.216	182.31
268.448	171.31
268.681	156.31
268.913	171.31
269.145	169.31
269.377	172.31
269.609	166.31
269.841	171.31
270.073	171.31
270.306	170.31
270.538	165.31
270.77	172.31
271.002	170.31
271.234	186.31
271.466	176.31
271.698	173.31
271.93	183.31
272.162	162.31
272.394	176.31
272.626	167.31
272.858	167.31
273.09	177.31
273.322	188.31
273.553	174.31
273.785	174.31
274.017	181.31
274.249	197.31
274.481	195.31
274.713	184.31
274.945	179.31
275.176	176.31
275.408	195.31
275.64	171.31
275.872	192.31
276.104	178.31
276.335	183.31
276.567	179.31
276.799	181.31
277.031	182.31
277.262	210.31
277.494	187.31
277.726	184.31
277.957	209.31
278.189	190.31
278.421	201.31
278.652	198.31
278.884	202.31
279.115	192.31
279.347	188.31
279.579	197.31
279.81	177.31
280.042	194.31
280.273	209.31
280.505	206.31
280.736	196.31
280.968	195.31
281.199	206.31
281.431	189.31
281.662	205.31
281.894	205.31
282.125	206.31
282.356	210.31
282.588	188.31
282.819	210.31
283.051	211.31
283.282	212.31
283.513	203.31
283.745	221.31
283.976	192.31
284.207	215.31
284.439	190.31
284.67	209.31
284.901	210.31
285.132	209.31
285.364	212.31
285.595	205.31
285.826	210.31
286.057	212.31
286.288	216.31
286.52	227.31
286.751	201.31
286.982	218.31
287.213	219.31
287.444	229.31
287.675	225.31
287.906	216.31
288.138	221.31
288.369	222.31
288.6	236.31
288.831	213.31
289.062	212.31
289.293	239.31
289.524	208.31
289.755	226.31
289.986	229.31
290.217	235.31
290.448	220.31
290.679	234.31
290.91	206.31
291.141	221.31
291.371	232.31
291.602	234.31
291.833	225.31
292.064	231.31
292.295	232.31
292.526	242.31
292.757	228.31
292.987	242.31
293.218	229.31
293.449	235.31
293.68	237.31
293.91	221.31
294.141	224.31
294.372	223.31
294.603	229.31
294.833	229.31
295.064	233.31
295.295	220.31
295.525	229.31
295.756	242.31
295.987	229.31
296.217	221.31
296.448	234.31
296.679	238.31
296.909	230.31
297.14	248.31
297.37	240.31
297.601	217.31
297.831	256.31
298.062	229.31
298.292	238.31
298.523	242.31
298.753	240.31
298.984	240.31
299.214	247.31
299.445	249.31
299.675	249.31
299.905	242.31
300.136	234.31
300.366	256.31
300.597	262.31
300.827	247.31
301.057	262.31
301.288	266.31
301.518	248.31
301.748	234.31
301.979	254.31
302.209	254.31
302.439	252.31
302.669	262.31
302.9	257.31
303.13	250.31
303.36	250.31
303.59	255.31
303.82	252.31
304.051	260.31
304.281	262.31
304.511	264.31
304.741	261.31
304.971	245.31
305.201	249.31
305.431	248.31
305.661	264.31
305.891	260.31
306.121	263.31
306.352	256.31
306.582	251.31
306.812	242.31
307.042	246.31
307.272	249.31
307.502	244.31
307.731	260.31
307.961	257.31
308.191	270.31
308.421	274.31
308.651	257.31
308.881	244.31
309.111	262.31
309.341	251.31
309.571	266.31
309.8	262.31
310.03	244.31
310.26	260.31
310.49	265.31
310.72	254.31
310.949	260.31
311.179	273.31
311.409	271.31
311.639	275.31
311.868	267.31
312.098	280.31
312.328	263.31
312.557	269.31
312.787	278.31
313.017	272.31
313.246	286.31
313.476	280.31
313.706	281.31
313.935	265.31
314.165	268.31
314.394	276.31
314.624	280.31
314.853	288.31
315.083	278.31
315.312	291.31
315.542	264.31
315.771	272.31
316.001	270.31
316.23	269.31
316.46	266.31
316.689	266.31
316.919	269.31
317.148	287.31
317.377	276.31
317.607	261.31
317.836	263.31
318.065	273.31
318.295	278.31
318.524	284.31
318.753	269.31
318.983	281.31
319.212	284.31
319.441	261.31
319.67	280.31
319.9	260.31
320.129	271.31
320.358	266.31
320.587	287.31
320.816	271.31
321.046	285.31
321.275	296.31
321.504	282.31
321.733	285.31
321.962	282.31
322.191	285.31
322.42	289.31
322.649	280.31
322.878	274.31
323.108	278.31
323.337	279.31
323.566	282.31
323.795	282.31
324.024	280.31
324.253	303.31
324.482	281.31
324.71	296.31
324.939	285.31
325.168	294.31
325.397	291.31
325.626	308.31
325.855	305.31
326.084	305.31
326.313	289.31
326.542	320.31
326.77	307.31
326.999	309.31
327.228	308.31
327.457	284.31
327.686	308.31
327.914	308.31
328.143	293.31
328.372	288.31
328.6	284.31
328.829	289.31
329.058	295.31
329.287	278.31
329.515	301.31
329.744	297.31
329.972	309.31
330.201	320.31
330.43	316.31
330.658	317.31
330.887	299.31
331.115	313.31
331.344	318.31
331.572	300.31
331.801	333.31
332.03	328.31
332.258	339.31
332.486	354.31
332.715	351.31
332.943	331.31
333.172	359.31
333.4	365.31
333.629	364.31
333.857	376.31
334.085	388.31
334.314	387.31
334.542	368.31
334.771	363.31
334.999	388.31
335.227	376.31
335.455	346.31
335.684	352.31
335.912	355.31
336.14	372.31
336.369	367.31
336.597	353.31
336.825	360.31
337.053	350.31
337.281	353.31
337.51	358.31
337.738	346.31
337.966	330.31
338.194	330.31
338.422	334.31
338.65	356.31
338.878	322.31
339.106	328.31
339.334	335.31
339.562	340.31
339.79	306.31
340.018	305.31
340.246	312.31
340.474	329.31
340.702	315.31
340.93	324.31
341.158	328.31
341.386	329.31
341.614	322.31
341.842	317.31
342.07	324.31
342.298	304.31
342.526	318.31
342.754	326.31
342.981	326.31
343.209	333.31
343.437	335.31
343.665	351.31
343.893	361.31
344.12	368.31
344.348	365.31
344.576	368.31
344.804	338.31
345.031	341.31
345.259	342.31
345.487	337.31
345.714	319.31
345.942	310.31
346.17	320.31
346.397	310.31
346.625	333.31
346.853	326.31
347.08	310.31
347.308	327.31
347.535	305.31
347.763	304.31
347.99	319.31
348.218	312.31
348.445	324.31
348.673	317.31
348.9	307.31
349.128	316.31
349.355	298.31
349.583	305.31
349.81	300.31
350.037	311.31
350.265	324.31
350.492	321.31
350.72	288.31
350.947	310.31
351.174	300.31
351.402	299.31
351.629	313.31
351.856	310.31
352.083	302.31
352.311	295.31
352.538	304.31
352.765	295.31
352.992	298.31
353.22	311.31
353.447	309.31
353.674	300.31
353.901	304.31
354.128	309.31
354.355	304.31
354.583	315.31
354.81	310.31
355.037	305.31
355.264	324.31
355.491	310.31
355.718	306.31
355.945	316.31
356.172	298.31
356.399	289.31
356.626	289.31
356.853	313.31
357.08	315.31
357.307	315.31
357.534	313.31
357.761	327.31
357.988	320.31
358.215	287.31
358.441	299.31
358.668	315.31
358.895	324.31
359.122	301.31
359.349	303.31
359.576	296.31
359.802	327.31
360.029	310.31
360.256	301.31
360.483	311.31
360.709	322.31
360.936	306.31
361.163	316.31
361.39	301.31
361.616	322.31
361.843	310.31
362.07	301.31
362.296	317.31
362.523	308.31
362.749	302.31
362.976	307.31
363.203	315.31
363.429	309.31
363.656	318.31
363.882	306.31
364.109	300.31
364.335	326.31
364.562	320.31
364.788	324.31
365.015	324.31
365.241	306.31
365.468	318.31
365.694	315.31
365.92	303.31
366.147	313.31
366.373	316.31
366.599	306.31
366.826	304.31
367.052	332.31
367.278	299.31
367.505	320.31
367.731	313.31
367.957	317.31
368.184	295.31
368.41	321.31
368.636	322.31
368.862	312.31
369.089	298.31
369.315	326.31
369.541	322.31
369.767	308.31
369.993	316.31
370.219	337.31
370.445	326.31
370.672	328.31
370.898	324.31
371.124	337.31
371.35	330.31
371.576	315.31
371.802	349.31
372.028	329.31
372.254	342.31
372.48	334.31
372.706	351.31
372.932	349.31
373.158	353.31
373.384	338.31
373.61	351.31
373.835	345.31
374.061	342.31
374.287	346.31
374.513	378.31
374.739	359.31
374.965	358.31
375.191	368.31
375.416	366.31
375.642	374.31
375.868	363.31
376.094	342.31
376.319	340.31
376.545	348.31
376.771	340.31
376.997	334.31
377.222	344.31
377.448	341.31
377.674	313.31
377.899	329.31
378.125	362.31
378.35	352.31
378.576	343.31
378.802	333.31
379.027	336.31
379.253	343.31
379.478	339.31
379.704	331.31
379.929	360.31
380.155	327.31
380.38	325.31
380.606	346.31
380.831	348.31
381.057	358.31
381.282	335.31
381.507	333.31
381.733	333.31
381.958	320.31
382.184	359.31
382.409	348.31
382.634	340.31
382.86	362.31
383.085	355.31
383.31	372.31
383.535	376.31
383.761	366.31
383.986	376.31
384.211	378.31
384.436	380.31
384.662	381.31
384.887	396.31
385.112	383.31
385.337	379.31
385.562	392.31
385.787	389.31
386.013	395.31
386.238	401.31
386.463	389.31
386.688	388.31
386.913	387.31
387.138	397.31
387.363	420.31
387.588	403.31
387.813	392.31
388.038	376.31
388.263	401.31
388.488	393.31
388.713	412.31
388.938	386.31
389.163	384.31
389.387	392.31
389.612	382.31
389.837	375.31
390.062	383.31
390.287	393.31
390.512	411.31
390.736	396.31
390.961	403.31
391.186	396.31
391.411	412.31
391.636	433.31
391.86	437.31
392.085	430.31
392.31	437.31
392.534	422.31
392.759	444.31
392.984	449.31
393.208	423.31
393.433	413.31
393.658	412.31
393.882	398.31
394.107	415.31
394.331	420.31
394.556	421.31
394.78	412.31
395.005	416.31
395.229	432.31
395.454	422.31
395.678	427.31
395.903	422.31
396.127	424.31
396.352	412.31
396.576	425.31
396.801	416.31
397.025	415.31
397.249	440.31
397.474	438.31
397.698	458.31
397.922	452.31
398.147	451.31
398.371	444.31
398.595	470.31
398.82	482.31
399.044	492.31
399.268	547.31
399.492	601.31
399.717	648.31
399.941	640.31
400.165	603.31
400.389	548.31
400.613	519.31
400.837	507.31
401.062	498.31
401.286	494.31
401.51	488.31
401.734	463.31
401.958	501.31
402.182	488.31
402.406	479.31
402.63	498.31
402.854	498.31
403.078	487.31
403.302	506.31
403.526	508.31
403.75	496.31
403.974	514.31
404.198	484.31
404.422	528.31
404.645	506.31
404.869	501.31
405.093	522.31
405.317	487.31
405.541	509.31
405.765	512.31
405.988	507.31
406.212	526.31
406.436	515.31
406.66	551.31
406.883	534.31
407.107	547.31
407.331	557.31
407.555	579.31
407.778	586.31
408.002	556.31
408.226	575.31
408.449	578.31
408.673	525.31
408.896	549.31
409.12	518.31
409.344	521.31
409.567	516.31
409.791	514.31
410.014	498.31
410.238	523.31
410.461	532.31
410.685	510.31
410.908	529.31
411.132	512.31
411.355	489.31
411.578	497.31
411.802	491.31
412.025	493.31
412.249	512.31
412.472	532.31
412.695	498.31
412.919	480.31
413.142	486.31
413.365	469.31
413.589	482.31
413.812	479.31
414.035	478.31
414.258	462.31
414.482	490.31
414.705	505.31
414.928	484.31
415.151	489.31
415.374	469.31
415.597	466.31
415.821	475.31
416.044	461.31
416.267	475.31
416.49	465.31
416.713	473.31
416.936	476.31
417.159	480.31
417.382	461.31
417.605	457.31
417.828	460.31
418.051	480.31
418.274	483.31
418.497	477.31
418.72	484.31
418.943	475.31
419.166	487.31
419.389	496.31
419.611	498.31
419.834	504.31
420.057	493.31
420.28	477.31
420.503	465.31
420.726	463.31
420.948	472.31
421.171	474.31
421.394	477.31
421.617	468.31
421.839	492.31
422.062	468.31
422.285	443.31
422.507	484.31
422.73	465.31
422.953	459.31
423.175	460.31
423.398	485.31
423.621	474.31
423.843	480.31
424.066	466.31
424.288	473.31
424.511	480.31
424.733	485.31
424.956	475.31
425.178	474.31
425.401	466.31
425.623	462.31
425.846	461.31
426.068	457.31
426.291	451.31
426.513	450.31
426.735	452.31
426.958	452.31
427.18	446.31
427.402	457.31
427.625	433.31
427.847	447.31
428.069	438.31
428.292	435.31
428.514	444.31
428.736	415.31
428.958	438.31
429.181	405.31
429.403	418.31
429.625	416.31
429.847	418.31
430.069	428.31
430.292	432.31
430.514	417.31
430.736	428.31
430.958	418.31
431.18	434.31
431.402	416.31
431.624	428.31
431.846	433.31
432.068	429.31
432.29	434.31
432.512	432.31
432.734	427.31
432.956	420.31
433.178	427.31
433.4	421.31
433.622	430.31
433.844	428.31
434.066	439.31
434.287	459.31
434.509	466.31
434.731	464.31
434.953	464.31
435.175	472.31
435.397	449.31
435.618	443.31
435.84	437.31
436.062	426.31
436.284	420.31
436.505	431.31
436.727	428.31
436.949	428.31
437.17	421.31
437.392	406.31
437.614	408.31
437.835	423.31
438.057	411.31
438.278	414.31
438.5	405.31
438.721	413.31
438.943	413.31
439.165	429.31
439.386	404.31
439.608	427.31
439.829	425.31
440.05	419.31
440.272	423.31
440.493	432.31
440.715	432.31
440.936	432.31
441.158	440.31
441.379	432.31
441.6	456.31
441.822	490.31
442.043	463.31
442.264	450.31
442.486	450.31
442.707	445.31
442.928	434.31
443.149	444.31
443.371	451.31
443.592	444.31
443.813	466.31
444.034	476.31
444.255	487.31
444.476	460.31
444.698	507.31
444.919	509.31
445.14	628.31
445.361	529.31
445.582	488.31
445.803	453.31
446.024	439.31
446.245	457.31
446.466	448.31
446.687	433.31
446.908	426.31
447.129	412.31
447.35	436.31
447.571	410.31
447.792	412.31
448.013	409.31
448.234	427.31
448.455	380.31
448.675	406.31
448.896	373.31
449.117	397.31
449.338	404.31
449.559	398.31
449.779	410.31
450	389.31
450.221	396.31
450.442	381.31
450.662	398.31
450.883	390.31
451.104	394.31
451.324	408.31
451.545	396.31
451.766	393.31
451.986	405.31
452.207	390.31
452.428	386.31
452.648	405.31
452.869	391.31
453.089	382.31
453.31	385.31
453.53	398.31
453.751	399.31
453.971	372.31
454.192	384.31
454.412	384.31
454.633	386.31
454.853	369.31
455.073	374.31
455.294	374.31
455.514	381.31
455.734	372.31
455.955	360.31
456.175	368.31
456.395	376.31
456.616	359.31
456.836	358.31
457.056	374.31
457.276	354.31
457.497	393.31
457.717	372.31
457.937	381.31
458.157	391.31
458.377	389.31
458.598	393.31
458.818	412.31
459.038	406.31
459.258	420.31
459.478	430.31
459.698	432.31
459.918	445.31
460.138	471.31
460.358	466.31
460.578	492.31
460.798	492.31
461.018	478.31
461.238	490.31
461.458	492.31
461.678	485.31
461.898	513.31
462.118	514.31
462.338	512.31
462.558	532.31
462.777	549.31
462.997	580.31
463.217	575.31
463.437	583.31
463.657	564.31
463.876	550.31
464.096	553.31
464.316	548.31
464.536	547.31
464.755	502.31
464.975	528.31
465.195	487.31
465.414	477.31
465.634	434.31
465.854	446.31
466.073	446.31
466.293	440.31
466.512	421.31
466.732	409.31
466.951	415.31
467.171	428.31
467.391	407.31
467.61	404.31
467.829	396.31
468.049	410.31
468.268	392.31
468.488	393.31
468.707	384.31
468.927	381.31
469.146	404.31
469.365	408.31
469.585	409.31
469.804	439.31
470.023	430.31
470.243	409.31
470.462	424.31
470.681	416.31
470.901	421.31
471.12	413.31
471.339	428.31
471.558	392.31
471.777	418.31
471.997	411.31
472.216	391.31
472.435	400.31
472.654	410.31
472.873	399.31
473.092	393.31
473.311	388.31
473.53	393.31
473.749	388.31
473.968	403.31
474.187	392.31
474.406	382.31
474.625	394.31
474.844	394.31
475.063	406.31
475.282	401.31
475.501	402.31
475.72	411.31
475.939	411.31
476.158	391.31
476.377	410.31
476.596	415.31
476.814	415.31
477.033	408.31
477.252	420.31
477.471	419.31
477.69	435.31
477.908	437.31
478.127	440.31
478.346	458.31
478.564	469.31
478.783	474.31
479.002	474.31
479.22	471.31
479.439	483.31
479.658	478.31
479.876	478.31
480.095	498.31
480.313	489.31
480.532	490.31
480.751	514.31
480.969	492.31
481.188	473.31
481.406	480.31
481.624	442.31
481.843	458.31
482.061	460.31
482.28	460.31
482.498	445.31
482.717	426.31
482.935	437.31
483.153	434.31
483.372	457.31
483.59	435.31
483.808	450.31
484.027	447.31
484.245	449.31
484.463	446.31
484.681	464.31
484.9	452.31
485.118	460.31
485.336	451.31
485.554	453.31
485.772	489.31
485.99	470.31
486.209	466.31
486.427	457.31
486.645	446.31
486.863	456.31
487.081	459.31
487.299	458.31
487.517	459.31
487.735	456.31
487.953	465.31
488.171	471.31
488.389	460.31
488.607	451.31
488.825	453.31
489.043	462.31
489.261	462.31
489.479	468.31
489.696	446.31
489.914	467.31
490.132	475.31
490.35	474.31
490.568	465.31
490.786	475.31
491.003	476.31
491.221	467.31
491.439	464.31
491.657	483.31
491.874	485.31
492.092	452.31
492.31	477.31
492.527	468.31
492.745	481.31
492.963	483.31
493.18	485.31
493.398	479.31
493.615	497.31
493.833	481.31
494.05	489.31
494.268	476.31
494.485	502.31
494.703	485.31
494.92	492.31
495.138	495.31
495.355	481.31
495.573	504.31
495.79	508.31
496.008	511.31
496.225	523.31
496.442	519.31
496.66	518.31
496.877	552.31
497.094	534.31
497.312	546.31
497.529	557.31
497.746	571.31
497.963	598.31
498.181	600.31
498.398	627.31
498.615	666.31
498.832	707.31
499.049	742.31
499.267	766.31
499.484	820.31
499.701	866.31
499.918	972.31
500.135	1045.31
500.352	1109.31
500.569	1154.31
500.786	1117.31
501.003	1114.31
501.22	985.31
501.437	972.31
501.654	846.31
501.871	801.31
