Data from Fe(NO3)3@0.1M.TitratingCurve.Agarose3%dH2O.NegLispCup.LampEnergy10.LIBS07252019_HRD10591_16-40-10-333.txt Node
Date: Thu Jul 25 16:40:10 EDT 2019
User: cochatt
Spectrometer: HR+D1059
Trigger mode: 1
Integration Time (sec): 1.000000E-1
Scans to average: 1
Electric dark correction enabled: true
Nonlinearity correction enabled: false
Boxcar width: 0
XAxis mode: Wavelengths
Number of Pixels in Spectrum: 2048
>>>>>Begin Spectral Data<<<<<
223.165	-17.75
223.4	-17.75
223.635	-17.75
223.869	-19.75
224.104	-13.75
224.338	-26.75
224.573	-5.75
224.808	-17.75
225.042	0.25
225.277	-7.75
225.511	2.25
225.746	3.25
225.98	1.25
226.215	2.25
226.449	10.25
226.683	40.25
226.918	24.25
227.152	25.25
227.387	42.25
227.621	43.25
227.856	30.25
228.09	40.25
228.324	44.25
228.559	49.25
228.793	61.25
229.027	69.25
229.262	90.25
229.496	94.25
229.73	81.25
229.964	83.25
230.199	77.25
230.433	93.25
230.667	87.25
230.901	118.25
231.136	104.25
231.37	106.25
231.604	99.25
231.838	108.25
232.072	81.25
232.306	96.25
232.541	100.25
232.775	103.25
233.009	114.25
233.243	112.25
233.477	111.25
233.711	102.25
233.945	113.25
234.179	97.25
234.413	99.25
234.647	112.25
234.881	103.25
235.115	107.25
235.349	99.25
235.583	92.25
235.817	110.25
236.051	101.25
236.285	98.25
236.519	109.25
236.753	106.25
236.987	98.25
237.221	97.25
237.455	132.25
237.689	123.25
237.922	105.25
238.156	100.25
238.39	96.25
238.624	98.25
238.858	112.25
239.091	113.25
239.325	117.25
239.559	100.25
239.793	108.25
240.027	113.25
240.26	118.25
240.494	110.25
240.728	113.25
240.961	126.25
241.195	118.25
241.429	127.25
241.662	126.25
241.896	112.25
242.13	111.25
242.363	111.25
242.597	119.25
242.83	117.25
243.064	119.25
243.298	110.25
243.531	128.25
243.765	122.25
243.998	121.25
244.232	113.25
244.465	118.25
244.699	112.25
244.932	122.25
245.166	132.25
245.399	120.25
245.633	133.25
245.866	110.25
246.099	132.25
246.333	130.25
246.566	128.25
246.8	124.25
247.033	119.25
247.266	121.25
247.5	132.25
247.733	119.25
247.966	126.25
248.2	144.25
248.433	136.25
248.666	140.25
248.899	118.25
249.133	136.25
249.366	143.25
249.599	140.25
249.832	122.25
250.066	132.25
250.299	126.25
250.532	127.25
250.765	131.25
250.998	135.25
251.231	131.25
251.465	134.25
251.698	132.25
251.931	141.25
252.164	132.25
252.397	134.25
252.63	143.25
252.863	142.25
253.096	146.25
253.329	145.25
253.562	127.25
253.795	146.25
254.028	144.25
254.261	131.25
254.494	126.25
254.727	152.25
254.96	139.25
255.193	155.25
255.426	137.25
255.659	142.25
255.892	146.25
256.124	154.25
256.357	153.25
256.59	160.25
256.823	158.25
257.056	145.25
257.289	151.25
257.521	156.25
257.754	152.25
257.987	158.25
258.22	156.25
258.452	151.25
258.685	146.25
258.918	139.25
259.151	137.25
259.383	160.25
259.616	162.25
259.849	156.25
260.081	167.25
260.314	164.25
260.547	156.25
260.779	154.25
261.012	165.25
261.244	157.25
261.477	173.25
261.71	139.25
261.942	150.25
262.175	153.25
262.407	157.25
262.64	146.25
262.872	172.25
263.105	165.25
263.337	174.25
263.57	161.25
263.802	154.25
264.035	171.25
264.267	162.25
264.499	160.25
264.732	164.25
264.964	160.25
265.197	171.25
265.429	166.25
265.661	187.25
265.894	162.25
266.126	174.25
266.358	178.25
266.591	161.25
266.823	158.25
267.055	175.25
267.287	172.25
267.52	160.25
267.752	172.25
267.984	155.25
268.216	165.25
268.448	181.25
268.681	183.25
268.913	171.25
269.145	161.25
269.377	169.25
269.609	164.25
269.841	162.25
270.073	187.25
270.306	171.25
270.538	174.25
270.77	176.25
271.002	178.25
271.234	166.25
271.466	194.25
271.698	176.25
271.93	177.25
272.162	181.25
272.394	188.25
272.626	181.25
272.858	200.25
273.09	180.25
273.322	178.25
273.553	177.25
273.785	188.25
274.017	191.25
274.249	188.25
274.481	174.25
274.713	191.25
274.945	198.25
275.176	202.25
275.408	190.25
275.64	193.25
275.872	191.25
276.104	184.25
276.335	204.25
276.567	204.25
276.799	204.25
277.031	195.25
277.262	198.25
277.494	204.25
277.726	197.25
277.957	178.25
278.189	210.25
278.421	192.25
278.652	196.25
278.884	202.25
279.115	190.25
279.347	208.25
279.579	189.25
279.81	203.25
280.042	204.25
280.273	198.25
280.505	217.25
280.736	204.25
280.968	208.25
281.199	216.25
281.431	193.25
281.662	190.25
281.894	205.25
282.125	212.25
282.356	212.25
282.588	211.25
282.819	212.25
283.051	227.25
283.282	216.25
283.513	217.25
283.745	202.25
283.976	218.25
284.207	204.25
284.439	225.25
284.67	237.25
284.901	219.25
285.132	212.25
285.364	212.25
285.595	232.25
285.826	224.25
286.057	215.25
286.288	232.25
286.52	242.25
286.751	230.25
286.982	219.25
287.213	227.25
287.444	229.25
287.675	228.25
287.906	223.25
288.138	210.25
288.369	218.25
288.6	238.25
288.831	216.25
289.062	211.25
289.293	227.25
289.524	229.25
289.755	245.25
289.986	237.25
290.217	235.25
290.448	246.25
290.679	232.25
290.91	213.25
291.141	224.25
291.371	237.25
291.602	218.25
291.833	221.25
292.064	228.25
292.295	220.25
292.526	231.25
292.757	230.25
292.987	232.25
293.218	232.25
293.449	244.25
293.68	233.25
293.91	220.25
294.141	253.25
294.372	228.25
294.603	241.25
294.833	254.25
295.064	228.25
295.295	243.25
295.525	235.25
295.756	226.25
295.987	244.25
296.217	224.25
296.448	236.25
296.679	241.25
296.909	242.25
297.14	240.25
297.37	240.25
297.601	235.25
297.831	259.25
298.062	261.25
298.292	225.25
298.523	248.25
298.753	263.25
298.984	261.25
299.214	258.25
299.445	230.25
299.675	243.25
299.905	270.25
300.136	258.25
300.366	233.25
300.597	268.25
300.827	274.25
301.057	248.25
301.288	273.25
301.518	270.25
301.748	266.25
301.979	262.25
302.209	268.25
302.439	256.25
302.669	267.25
302.9	266.25
303.13	243.25
303.36	260.25
303.59	262.25
303.82	266.25
304.051	273.25
304.281	260.25
304.511	260.25
304.741	262.25
304.971	239.25
305.201	275.25
305.431	260.25
305.661	267.25
305.891	267.25
306.121	248.25
306.352	269.25
306.582	264.25
306.812	254.25
307.042	270.25
307.272	274.25
307.502	262.25
307.731	248.25
307.961	256.25
308.191	256.25
308.421	256.25
308.651	265.25
308.881	257.25
309.111	252.25
309.341	256.25
309.571	274.25
309.8	259.25
310.03	267.25
310.26	237.25
310.49	243.25
310.72	275.25
310.949	261.25
311.179	260.25
311.409	273.25
311.639	268.25
311.868	274.25
312.098	262.25
312.328	269.25
312.557	269.25
312.787	281.25
313.017	244.25
313.246	280.25
313.476	287.25
313.706	276.25
313.935	284.25
314.165	280.25
314.394	252.25
314.624	291.25
314.853	277.25
315.083	269.25
315.312	280.25
315.542	274.25
315.771	268.25
316.001	288.25
316.23	293.25
316.46	275.25
316.689	280.25
316.919	263.25
317.148	271.25
317.377	280.25
317.607	274.25
317.836	269.25
318.065	285.25
318.295	276.25
318.524	283.25
318.753	273.25
318.983	258.25
319.212	252.25
319.441	266.25
319.67	278.25
319.9	274.25
320.129	288.25
320.358	282.25
320.587	279.25
320.816	281.25
321.046	276.25
321.275	277.25
321.504	295.25
321.733	270.25
321.962	263.25
322.191	280.25
322.42	268.25
322.649	282.25
322.878	272.25
323.108	271.25
323.337	283.25
323.566	280.25
323.795	286.25
324.024	304.25
324.253	276.25
324.482	272.25
324.71	292.25
324.939	295.25
325.168	284.25
325.397	304.25
325.626	281.25
325.855	297.25
326.084	309.25
326.313	298.25
326.542	289.25
326.77	306.25
326.999	311.25
327.228	318.25
327.457	321.25
327.686	289.25
327.914	289.25
328.143	309.25
328.372	286.25
328.6	313.25
328.829	292.25
329.058	302.25
329.287	289.25
329.515	312.25
329.744	311.25
329.972	307.25
330.201	288.25
330.43	296.25
330.658	314.25
330.887	323.25
331.115	306.25
331.344	312.25
331.572	332.25
331.801	321.25
332.03	334.25
332.258	331.25
332.486	334.25
332.715	354.25
332.943	360.25
333.172	372.25
333.4	384.25
333.629	378.25
333.857	390.25
334.085	388.25
334.314	373.25
334.542	358.25
334.771	379.25
334.999	386.25
335.227	373.25
335.455	380.25
335.684	395.25
335.912	369.25
336.14	365.25
336.369	350.25
336.597	367.25
336.825	359.25
337.053	352.25
337.281	358.25
337.51	351.25
337.738	359.25
337.966	332.25
338.194	352.25
338.422	337.25
338.65	320.25
338.878	329.25
339.106	333.25
339.334	341.25
339.562	323.25
339.79	323.25
340.018	314.25
340.246	300.25
340.474	332.25
340.702	297.25
340.93	308.25
341.158	322.25
341.386	308.25
341.614	301.25
341.842	297.25
342.07	304.25
342.298	309.25
342.526	318.25
342.754	316.25
342.981	350.25
343.209	318.25
343.437	347.25
343.665	364.25
343.893	377.25
344.12	357.25
344.348	386.25
344.576	360.25
344.804	335.25
345.031	322.25
345.259	323.25
345.487	324.25
345.714	320.25
345.942	314.25
346.17	331.25
346.397	296.25
346.625	320.25
346.853	305.25
347.08	301.25
347.308	306.25
347.535	318.25
347.763	307.25
347.99	318.25
348.218	325.25
348.445	327.25
348.673	311.25
348.9	310.25
349.128	306.25
349.355	305.25
349.583	306.25
349.81	299.25
350.037	306.25
350.265	310.25
350.492	311.25
350.72	315.25
350.947	292.25
351.174	305.25
351.402	309.25
351.629	313.25
351.856	298.25
352.083	297.25
352.311	297.25
352.538	300.25
352.765	306.25
352.992	304.25
353.22	290.25
353.447	292.25
353.674	310.25
353.901	288.25
354.128	288.25
354.355	300.25
354.583	309.25
354.81	314.25
355.037	328.25
355.264	281.25
355.491	316.25
355.718	280.25
355.945	285.25
356.172	320.25
356.399	299.25
356.626	306.25
356.853	302.25
357.08	309.25
357.307	296.25
357.534	306.25
357.761	319.25
357.988	322.25
358.215	318.25
358.441	293.25
358.668	309.25
358.895	292.25
359.122	297.25
359.349	298.25
359.576	297.25
359.802	323.25
360.029	284.25
360.256	304.25
360.483	298.25
360.709	296.25
360.936	310.25
361.163	304.25
361.39	322.25
361.616	312.25
361.843	293.25
362.07	312.25
362.296	312.25
362.523	321.25
362.749	313.25
362.976	314.25
363.203	317.25
363.429	321.25
363.656	312.25
363.882	293.25
364.109	305.25
364.335	310.25
364.562	289.25
364.788	301.25
365.015	292.25
365.241	294.25
365.468	297.25
365.694	314.25
365.92	320.25
366.147	294.25
366.373	289.25
366.599	309.25
366.826	310.25
367.052	313.25
367.278	330.25
367.505	328.25
367.731	310.25
367.957	324.25
368.184	323.25
368.41	317.25
368.636	327.25
368.862	315.25
369.089	326.25
369.315	309.25
369.541	328.25
369.767	310.25
369.993	322.25
370.219	313.25
370.445	335.25
370.672	340.25
370.898	316.25
371.124	314.25
371.35	332.25
371.576	355.25
371.802	337.25
372.028	329.25
372.254	334.25
372.48	327.25
372.706	324.25
372.932	349.25
373.158	344.25
373.384	348.25
373.61	356.25
373.835	334.25
374.061	340.25
374.287	345.25
374.513	344.25
374.739	367.25
374.965	369.25
375.191	372.25
375.416	359.25
375.642	335.25
375.868	363.25
376.094	362.25
376.319	332.25
376.545	345.25
376.771	345.25
376.997	330.25
377.222	334.25
377.448	335.25
377.674	359.25
377.899	341.25
378.125	350.25
378.35	337.25
378.576	340.25
378.802	322.25
379.027	331.25
379.253	325.25
379.478	333.25
379.704	359.25
379.929	347.25
380.155	339.25
380.38	325.25
380.606	329.25
380.831	332.25
381.057	338.25
381.282	369.25
381.507	350.25
381.733	348.25
381.958	330.25
382.184	372.25
382.409	352.25
382.634	343.25
382.86	358.25
383.085	346.25
383.31	364.25
383.535	378.25
383.761	361.25
383.986	372.25
384.211	372.25
384.436	381.25
384.662	374.25
384.887	378.25
385.112	379.25
385.337	397.25
385.562	384.25
385.787	400.25
386.013	389.25
386.238	406.25
386.463	392.25
386.688	408.25
386.913	400.25
387.138	379.25
387.363	384.25
387.588	407.25
387.813	410.25
388.038	394.25
388.263	407.25
388.488	394.25
388.713	392.25
388.938	401.25
389.163	373.25
389.387	408.25
389.612	397.25
389.837	396.25
390.062	369.25
390.287	378.25
390.512	412.25
390.736	406.25
390.961	404.25
391.186	434.25
391.411	441.25
391.636	443.25
391.86	409.25
392.085	448.25
392.31	436.25
392.534	429.25
392.759	440.25
392.984	429.25
393.208	436.25
393.433	418.25
393.658	406.25
393.882	421.25
394.107	417.25
394.331	433.25
394.556	421.25
394.78	433.25
395.005	437.25
395.229	449.25
395.454	441.25
395.678	444.25
395.903	451.25
396.127	428.25
396.352	429.25
396.576	445.25
396.801	415.25
397.025	418.25
397.249	441.25
397.474	420.25
397.698	461.25
397.922	452.25
398.147	440.25
398.371	462.25
398.595	470.25
398.82	475.25
399.044	494.25
399.268	560.25
399.492	635.25
399.717	690.25
399.941	661.25
400.165	628.25
400.389	575.25
400.613	527.25
400.837	541.25
401.062	521.25
401.286	485.25
401.51	516.25
401.734	507.25
401.958	490.25
402.182	476.25
402.406	499.25
402.63	500.25
402.854	497.25
403.078	499.25
403.302	542.25
403.526	526.25
403.75	542.25
403.974	582.25
404.198	550.25
404.422	561.25
404.645	563.25
404.869	533.25
405.093	564.25
405.317	534.25
405.541	550.25
405.765	530.25
405.988	541.25
406.212	539.25
406.436	536.25
406.66	567.25
406.883	562.25
407.107	587.25
407.331	594.25
407.555	605.25
407.778	596.25
408.002	597.25
408.226	577.25
408.449	599.25
408.673	566.25
408.896	573.25
409.12	546.25
409.344	552.25
409.567	585.25
409.791	588.25
410.014	563.25
410.238	573.25
410.461	546.25
410.685	551.25
410.908	538.25
411.132	554.25
411.355	532.25
411.578	509.25
411.802	528.25
412.025	541.25
412.249	521.25
412.472	521.25
412.695	504.25
412.919	502.25
413.142	521.25
413.365	509.25
413.589	516.25
413.812	498.25
414.035	476.25
414.258	491.25
414.482	501.25
414.705	506.25
414.928	519.25
415.151	501.25
415.374	502.25
415.597	490.25
415.821	497.25
416.044	496.25
416.267	491.25
416.49	497.25
416.713	500.25
416.936	497.25
417.159	487.25
417.382	497.25
417.605	466.25
417.828	491.25
418.051	515.25
418.274	493.25
418.497	492.25
418.72	505.25
418.943	514.25
419.166	541.25
419.389	574.25
419.611	536.25
419.834	539.25
420.057	508.25
420.28	506.25
420.503	485.25
420.726	500.25
420.948	493.25
421.171	468.25
421.394	493.25
421.617	501.25
421.839	492.25
422.062	502.25
422.285	493.25
422.507	499.25
422.73	487.25
422.953	502.25
423.175	485.25
423.398	497.25
423.621	500.25
423.843	513.25
424.066	526.25
424.288	499.25
424.511	494.25
424.733	505.25
424.956	504.25
425.178	519.25
425.401	504.25
425.623	498.25
425.846	477.25
426.068	497.25
426.291	468.25
426.513	478.25
426.735	480.25
426.958	488.25
427.18	454.25
427.402	475.25
427.625	450.25
427.847	461.25
428.069	462.25
428.292	461.25
428.514	444.25
428.736	465.25
428.958	458.25
429.181	445.25
429.403	443.25
429.625	450.25
429.847	465.25
430.069	435.25
430.292	454.25
430.514	444.25
430.736	473.25
430.958	455.25
431.18	438.25
431.402	460.25
431.624	437.25
431.846	427.25
432.068	450.25
432.29	469.25
432.512	453.25
432.734	458.25
432.956	462.25
433.178	466.25
433.4	458.25
433.622	463.25
433.844	456.25
434.066	454.25
434.287	490.25
434.509	494.25
434.731	496.25
434.953	516.25
435.175	510.25
435.397	498.25
435.618	483.25
435.84	486.25
436.062	459.25
436.284	453.25
436.505	451.25
436.727	446.25
436.949	465.25
437.17	468.25
437.392	450.25
437.614	437.25
437.835	428.25
438.057	446.25
438.278	442.25
438.5	435.25
438.721	438.25
438.943	482.25
439.165	464.25
439.386	470.25
439.608	455.25
439.829	473.25
440.05	468.25
440.272	446.25
440.493	473.25
440.715	487.25
440.936	488.25
441.158	489.25
441.379	523.25
441.6	526.25
441.822	497.25
442.043	499.25
442.264	498.25
442.486	497.25
442.707	510.25
442.928	510.25
443.149	497.25
443.371	501.25
443.592	505.25
443.813	504.25
444.034	524.25
444.255	533.25
444.476	550.25
444.698	568.25
444.919	573.25
445.14	645.25
445.361	567.25
445.582	530.25
445.803	507.25
446.024	500.25
446.245	464.25
446.466	493.25
446.687	475.25
446.908	479.25
447.129	474.25
447.35	446.25
447.571	469.25
447.792	437.25
448.013	443.25
448.234	436.25
448.455	425.25
448.675	435.25
448.896	436.25
449.117	426.25
449.338	429.25
449.559	412.25
449.779	423.25
450	424.25
450.221	443.25
450.442	452.25
450.662	447.25
450.883	439.25
451.104	447.25
451.324	442.25
451.545	437.25
451.766	422.25
451.986	406.25
452.207	424.25
452.428	425.25
452.648	412.25
452.869	422.25
453.089	422.25
453.31	413.25
453.53	416.25
453.751	418.25
453.971	413.25
454.192	404.25
454.412	424.25
454.633	397.25
454.853	422.25
455.073	405.25
455.294	402.25
455.514	411.25
455.734	393.25
455.955	407.25
456.175	400.25
456.395	412.25
456.616	396.25
456.836	414.25
457.056	402.25
457.276	384.25
457.497	398.25
457.717	390.25
457.937	417.25
458.157	403.25
458.377	406.25
458.598	422.25
458.818	426.25
459.038	416.25
459.258	438.25
459.478	453.25
459.698	462.25
459.918	460.25
460.138	512.25
460.358	495.25
460.578	531.25
460.798	507.25
461.018	526.25
461.238	509.25
461.458	525.25
461.678	504.25
461.898	532.25
462.118	547.25
462.338	556.25
462.558	566.25
462.777	586.25
462.997	602.25
463.217	659.25
463.437	646.25
463.657	607.25
463.876	605.25
464.096	595.25
464.316	588.25
464.536	585.25
464.755	587.25
464.975	557.25
465.195	557.25
465.414	526.25
465.634	498.25
465.854	477.25
466.073	456.25
466.293	458.25
466.512	469.25
466.732	454.25
466.951	442.25
467.171	446.25
467.391	425.25
467.61	419.25
467.829	429.25
468.049	438.25
468.268	418.25
468.488	425.25
468.707	419.25
468.927	449.25
469.146	431.25
469.365	422.25
469.585	435.25
469.804	444.25
470.023	446.25
470.243	430.25
470.462	449.25
470.681	455.25
470.901	432.25
471.12	459.25
471.339	458.25
471.558	416.25
471.777	425.25
471.997	446.25
472.216	433.25
472.435	408.25
472.654	389.25
472.873	419.25
473.092	416.25
473.311	407.25
473.53	418.25
473.749	430.25
473.968	414.25
474.187	427.25
474.406	430.25
474.625	393.25
474.844	404.25
475.063	414.25
475.282	410.25
475.501	422.25
475.72	410.25
475.939	400.25
476.158	442.25
476.377	429.25
476.596	424.25
476.814	454.25
477.033	411.25
477.252	445.25
477.471	457.25
477.69	458.25
477.908	467.25
478.127	458.25
478.346	486.25
478.564	474.25
478.783	499.25
479.002	500.25
479.22	496.25
479.439	477.25
479.658	503.25
479.876	464.25
480.095	501.25
480.313	508.25
480.532	514.25
480.751	509.25
480.969	495.25
481.188	469.25
481.406	468.25
481.624	470.25
481.843	456.25
482.061	450.25
482.28	463.25
482.498	478.25
482.717	442.25
482.935	462.25
483.153	467.25
483.372	469.25
483.59	453.25
483.808	447.25
484.027	459.25
484.245	456.25
484.463	466.25
484.681	473.25
484.9	492.25
485.118	480.25
485.336	475.25
485.554	465.25
485.772	474.25
485.99	473.25
486.209	497.25
486.427	472.25
486.645	462.25
486.863	470.25
487.081	461.25
487.299	472.25
487.517	460.25
487.735	490.25
487.953	482.25
488.171	457.25
488.389	468.25
488.607	470.25
488.825	476.25
489.043	457.25
489.261	475.25
489.479	497.25
489.696	454.25
489.914	471.25
490.132	496.25
490.35	490.25
490.568	483.25
490.786	487.25
491.003	489.25
491.221	497.25
491.439	500.25
491.657	509.25
491.874	484.25
492.092	509.25
492.31	512.25
492.527	492.25
492.745	510.25
492.963	512.25
493.18	491.25
493.398	508.25
493.615	500.25
493.833	509.25
494.05	508.25
494.268	496.25
494.485	512.25
494.703	532.25
494.92	504.25
495.138	506.25
495.355	499.25
495.573	540.25
495.79	494.25
496.008	503.25
496.225	520.25
496.442	523.25
496.66	538.25
496.877	539.25
497.094	546.25
497.312	548.25
497.529	566.25
497.746	576.25
497.963	587.25
498.181	602.25
498.398	651.25
498.615	666.25
498.832	704.25
499.049	735.25
499.267	808.25
499.484	860.25
499.701	911.25
499.918	1051.25
500.135	1119.25
500.352	1259.25
500.569	1311.25
500.786	1245.25
501.003	1190.25
501.22	1104.25
501.437	980.25
501.654	887.25
501.871	812.25
