Data from Fe(NO3)3@0.025M.TitratingCurve.Agarose3%dH2O.NegLispCup.LampEnergy10.LIBS07252019_HRD10591_16-55-16-336.txt Node
Date: Thu Jul 25 16:55:16 EDT 2019
User: cochatt
Spectrometer: HR+D1059
Trigger mode: 1
Integration Time (sec): 1.000000E-1
Scans to average: 1
Electric dark correction enabled: true
Nonlinearity correction enabled: false
Boxcar width: 0
XAxis mode: Wavelengths
Number of Pixels in Spectrum: 2048
>>>>>Begin Spectral Data<<<<<
223.165	-20.81
223.4	-20.81
223.635	-20.81
223.869	-14.81
224.104	-18.81
224.338	-20.81
224.573	-32.81
224.808	-14.81
225.042	-1.81
225.277	-15.81
225.511	4.19
225.746	9.19
225.98	15.19
226.215	3.19
226.449	4.19
226.683	23.19
226.918	31.19
227.152	50.19
227.387	47.19
227.621	40.19
227.856	45.19
228.09	48.19
228.324	46.19
228.559	69.19
228.793	61.19
229.027	52.19
229.262	88.19
229.496	68.19
229.73	82.19
229.964	69.19
230.199	65.19
230.433	73.19
230.667	80.19
230.901	89.19
231.136	82.19
231.37	85.19
231.604	92.19
231.838	95.19
232.072	92.19
232.306	103.19
232.541	99.19
232.775	97.19
233.009	98.19
233.243	82.19
233.477	78.19
233.711	96.19
233.945	90.19
234.179	87.19
234.413	104.19
234.647	93.19
234.881	98.19
235.115	98.19
235.349	88.19
235.583	109.19
235.817	92.19
236.051	94.19
236.285	101.19
236.519	102.19
236.753	96.19
236.987	93.19
237.221	98.19
237.455	88.19
237.689	83.19
237.922	95.19
238.156	89.19
238.39	97.19
238.624	90.19
238.858	95.19
239.091	102.19
239.325	82.19
239.559	87.19
239.793	109.19
240.027	103.19
240.26	95.19
240.494	102.19
240.728	95.19
240.961	109.19
241.195	103.19
241.429	105.19
241.662	88.19
241.896	99.19
242.13	106.19
242.363	118.19
242.597	101.19
242.83	88.19
243.064	97.19
243.298	119.19
243.531	102.19
243.765	100.19
243.998	101.19
244.232	116.19
244.465	97.19
244.699	106.19
244.932	101.19
245.166	118.19
245.399	111.19
245.633	96.19
245.866	82.19
246.099	97.19
246.333	111.19
246.566	106.19
246.8	104.19
247.033	110.19
247.266	110.19
247.5	105.19
247.733	100.19
247.966	93.19
248.2	123.19
248.433	117.19
248.666	101.19
248.899	113.19
249.133	115.19
249.366	115.19
249.599	113.19
249.832	105.19
250.066	115.19
250.299	91.19
250.532	123.19
250.765	117.19
250.998	98.19
251.231	125.19
251.465	113.19
251.698	127.19
251.931	111.19
252.164	104.19
252.397	109.19
252.63	123.19
252.863	135.19
253.096	117.19
253.329	128.19
253.562	120.19
253.795	114.19
254.028	126.19
254.261	121.19
254.494	122.19
254.727	117.19
254.96	125.19
255.193	130.19
255.426	126.19
255.659	115.19
255.892	131.19
256.124	126.19
256.357	130.19
256.59	119.19
256.823	127.19
257.056	122.19
257.289	117.19
257.521	119.19
257.754	121.19
257.987	116.19
258.22	139.19
258.452	132.19
258.685	127.19
258.918	139.19
259.151	126.19
259.383	120.19
259.616	143.19
259.849	133.19
260.081	126.19
260.314	122.19
260.547	120.19
260.779	128.19
261.012	138.19
261.244	131.19
261.477	146.19
261.71	140.19
261.942	130.19
262.175	130.19
262.407	125.19
262.64	131.19
262.872	129.19
263.105	132.19
263.337	132.19
263.57	153.19
263.802	127.19
264.035	145.19
264.267	146.19
264.499	141.19
264.732	136.19
264.964	128.19
265.197	122.19
265.429	131.19
265.661	137.19
265.894	153.19
266.126	125.19
266.358	140.19
266.591	152.19
266.823	153.19
267.055	129.19
267.287	148.19
267.52	127.19
267.752	146.19
267.984	134.19
268.216	143.19
268.448	153.19
268.681	147.19
268.913	147.19
269.145	155.19
269.377	145.19
269.609	160.19
269.841	137.19
270.073	150.19
270.306	151.19
270.538	147.19
270.77	154.19
271.002	140.19
271.234	159.19
271.466	141.19
271.698	153.19
271.93	147.19
272.162	146.19
272.394	148.19
272.626	148.19
272.858	152.19
273.09	167.19
273.322	151.19
273.553	154.19
273.785	147.19
274.017	152.19
274.249	149.19
274.481	160.19
274.713	160.19
274.945	174.19
275.176	157.19
275.408	162.19
275.64	161.19
275.872	179.19
276.104	161.19
276.335	160.19
276.567	146.19
276.799	155.19
277.031	164.19
277.262	158.19
277.494	166.19
277.726	158.19
277.957	183.19
278.189	161.19
278.421	163.19
278.652	161.19
278.884	168.19
279.115	146.19
279.347	184.19
279.579	161.19
279.81	171.19
280.042	177.19
280.273	174.19
280.505	174.19
280.736	176.19
280.968	168.19
281.199	176.19
281.431	166.19
281.662	173.19
281.894	174.19
282.125	179.19
282.356	191.19
282.588	181.19
282.819	175.19
283.051	159.19
283.282	170.19
283.513	164.19
283.745	182.19
283.976	177.19
284.207	167.19
284.439	175.19
284.67	180.19
284.901	162.19
285.132	191.19
285.364	187.19
285.595	177.19
285.826	174.19
286.057	187.19
286.288	177.19
286.52	186.19
286.751	179.19
286.982	179.19
287.213	178.19
287.444	186.19
287.675	184.19
287.906	170.19
288.138	189.19
288.369	177.19
288.6	193.19
288.831	203.19
289.062	194.19
289.293	173.19
289.524	183.19
289.755	203.19
289.986	175.19
290.217	184.19
290.448	185.19
290.679	204.19
290.91	199.19
291.141	210.19
291.371	193.19
291.602	186.19
291.833	181.19
292.064	192.19
292.295	200.19
292.526	210.19
292.757	197.19
292.987	191.19
293.218	190.19
293.449	211.19
293.68	220.19
293.91	196.19
294.141	207.19
294.372	197.19
294.603	190.19
294.833	206.19
295.064	214.19
295.295	200.19
295.525	201.19
295.756	210.19
295.987	213.19
296.217	200.19
296.448	195.19
296.679	214.19
296.909	202.19
297.14	206.19
297.37	181.19
297.601	218.19
297.831	202.19
298.062	201.19
298.292	194.19
298.523	214.19
298.753	215.19
298.984	203.19
299.214	196.19
299.445	217.19
299.675	223.19
299.905	220.19
300.136	214.19
300.366	203.19
300.597	215.19
300.827	214.19
301.057	216.19
301.288	221.19
301.518	214.19
301.748	220.19
301.979	206.19
302.209	219.19
302.439	222.19
302.669	234.19
302.9	222.19
303.13	224.19
303.36	227.19
303.59	211.19
303.82	233.19
304.051	207.19
304.281	234.19
304.511	244.19
304.741	220.19
304.971	218.19
305.201	223.19
305.431	213.19
305.661	231.19
305.891	225.19
306.121	222.19
306.352	216.19
306.582	239.19
306.812	217.19
307.042	225.19
307.272	236.19
307.502	234.19
307.731	218.19
307.961	215.19
308.191	225.19
308.421	224.19
308.651	234.19
308.881	207.19
309.111	213.19
309.341	213.19
309.571	209.19
309.8	238.19
310.03	210.19
310.26	227.19
310.49	253.19
310.72	246.19
310.949	238.19
311.179	203.19
311.409	230.19
311.639	218.19
311.868	216.19
312.098	228.19
312.328	245.19
312.557	224.19
312.787	225.19
313.017	219.19
313.246	223.19
313.476	228.19
313.706	238.19
313.935	243.19
314.165	255.19
314.394	251.19
314.624	243.19
314.853	235.19
315.083	245.19
315.312	255.19
315.542	256.19
315.771	254.19
316.001	231.19
316.23	244.19
316.46	239.19
316.689	256.19
316.919	257.19
317.148	217.19
317.377	232.19
317.607	229.19
317.836	239.19
318.065	243.19
318.295	250.19
318.524	228.19
318.753	253.19
318.983	233.19
319.212	228.19
319.441	240.19
319.67	259.19
319.9	250.19
320.129	243.19
320.358	254.19
320.587	257.19
320.816	243.19
321.046	242.19
321.275	238.19
321.504	252.19
321.733	249.19
321.962	257.19
322.191	266.19
322.42	265.19
322.649	260.19
322.878	261.19
323.108	241.19
323.337	250.19
323.566	256.19
323.795	274.19
324.024	273.19
324.253	237.19
324.482	253.19
324.71	256.19
324.939	259.19
325.168	265.19
325.397	263.19
325.626	250.19
325.855	261.19
326.084	259.19
326.313	249.19
326.542	267.19
326.77	281.19
326.999	245.19
327.228	277.19
327.457	278.19
327.686	262.19
327.914	263.19
328.143	277.19
328.372	257.19
328.6	267.19
328.829	271.19
329.058	275.19
329.287	287.19
329.515	275.19
329.744	254.19
329.972	276.19
330.201	285.19
330.43	275.19
330.658	288.19
330.887	276.19
331.115	290.19
331.344	281.19
331.572	277.19
331.801	278.19
332.03	288.19
332.258	276.19
332.486	303.19
332.715	312.19
332.943	306.19
333.172	317.19
333.4	322.19
333.629	321.19
333.857	334.19
334.085	332.19
334.314	324.19
334.542	331.19
334.771	330.19
334.999	316.19
335.227	314.19
335.455	303.19
335.684	312.19
335.912	314.19
336.14	305.19
336.369	333.19
336.597	309.19
336.825	323.19
337.053	317.19
337.281	307.19
337.51	292.19
337.738	314.19
337.966	301.19
338.194	283.19
338.422	293.19
338.65	274.19
338.878	298.19
339.106	301.19
339.334	301.19
339.562	293.19
339.79	296.19
340.018	289.19
340.246	303.19
340.474	286.19
340.702	280.19
340.93	281.19
341.158	302.19
341.386	285.19
341.614	308.19
341.842	294.19
342.07	290.19
342.298	293.19
342.526	296.19
342.754	286.19
342.981	289.19
343.209	289.19
343.437	315.19
343.665	313.19
343.893	298.19
344.12	324.19
344.348	334.19
344.576	325.19
344.804	309.19
345.031	301.19
345.259	299.19
345.487	291.19
345.714	292.19
345.942	281.19
346.17	282.19
346.397	282.19
346.625	299.19
346.853	287.19
347.08	253.19
347.308	274.19
347.535	285.19
347.763	298.19
347.99	274.19
348.218	275.19
348.445	293.19
348.673	295.19
348.9	280.19
349.128	298.19
349.355	262.19
349.583	281.19
349.81	282.19
350.037	286.19
350.265	297.19
350.492	287.19
350.72	282.19
350.947	272.19
351.174	296.19
351.402	283.19
351.629	300.19
351.856	282.19
352.083	303.19
352.311	301.19
352.538	270.19
352.765	281.19
352.992	282.19
353.22	273.19
353.447	278.19
353.674	287.19
353.901	287.19
354.128	284.19
354.355	294.19
354.583	290.19
354.81	268.19
355.037	285.19
355.264	287.19
355.491	278.19
355.718	288.19
355.945	276.19
356.172	278.19
356.399	291.19
356.626	271.19
356.853	280.19
357.08	301.19
357.307	286.19
357.534	274.19
357.761	263.19
357.988	286.19
358.215	283.19
358.441	295.19
358.668	277.19
358.895	294.19
359.122	282.19
359.349	267.19
359.576	285.19
359.802	290.19
360.029	283.19
360.256	297.19
360.483	303.19
360.709	274.19
360.936	302.19
361.163	305.19
361.39	281.19
361.616	278.19
361.843	291.19
362.07	292.19
362.296	274.19
362.523	294.19
362.749	287.19
362.976	306.19
363.203	289.19
363.429	280.19
363.656	278.19
363.882	286.19
364.109	292.19
364.335	286.19
364.562	303.19
364.788	283.19
365.015	287.19
365.241	290.19
365.468	287.19
365.694	279.19
365.92	286.19
366.147	286.19
366.373	282.19
366.599	308.19
366.826	287.19
367.052	285.19
367.278	288.19
367.505	267.19
367.731	297.19
367.957	288.19
368.184	304.19
368.41	295.19
368.636	288.19
368.862	305.19
369.089	310.19
369.315	319.19
369.541	297.19
369.767	296.19
369.993	303.19
370.219	288.19
370.445	303.19
370.672	305.19
370.898	316.19
371.124	296.19
371.35	308.19
371.576	313.19
371.802	304.19
372.028	307.19
372.254	299.19
372.48	313.19
372.706	328.19
372.932	343.19
373.158	318.19
373.384	314.19
373.61	322.19
373.835	324.19
374.061	311.19
374.287	325.19
374.513	321.19
374.739	342.19
374.965	329.19
375.191	327.19
375.416	337.19
375.642	324.19
375.868	305.19
376.094	315.19
376.319	316.19
376.545	305.19
376.771	311.19
376.997	318.19
377.222	320.19
377.448	302.19
377.674	316.19
377.899	298.19
378.125	311.19
378.35	318.19
378.576	288.19
378.802	321.19
379.027	304.19
379.253	325.19
379.478	319.19
379.704	307.19
379.929	311.19
380.155	317.19
380.38	310.19
380.606	318.19
380.831	306.19
381.057	323.19
381.282	315.19
381.507	333.19
381.733	315.19
381.958	331.19
382.184	327.19
382.409	318.19
382.634	329.19
382.86	338.19
383.085	330.19
383.31	336.19
383.535	337.19
383.761	319.19
383.986	341.19
384.211	358.19
384.436	351.19
384.662	343.19
384.887	351.19
385.112	339.19
385.337	343.19
385.562	351.19
385.787	342.19
386.013	374.19
386.238	362.19
386.463	373.19
386.688	371.19
386.913	368.19
387.138	360.19
387.363	373.19
387.588	353.19
387.813	377.19
388.038	371.19
388.263	363.19
388.488	363.19
388.713	352.19
388.938	346.19
389.163	351.19
389.387	362.19
389.612	367.19
389.837	369.19
390.062	352.19
390.287	355.19
390.512	380.19
390.736	369.19
390.961	376.19
391.186	359.19
391.411	373.19
391.636	365.19
391.86	394.19
392.085	384.19
392.31	411.19
392.534	395.19
392.759	388.19
392.984	369.19
393.208	383.19
393.433	386.19
393.658	385.19
393.882	381.19
394.107	390.19
394.331	378.19
394.556	403.19
394.78	389.19
395.005	370.19
395.229	405.19
395.454	395.19
395.678	383.19
395.903	393.19
396.127	373.19
396.352	391.19
396.576	400.19
396.801	408.19
397.025	386.19
397.249	403.19
397.474	383.19
397.698	427.19
397.922	402.19
398.147	406.19
398.371	421.19
398.595	424.19
398.82	469.19
399.044	458.19
399.268	505.19
399.492	537.19
399.717	538.19
399.941	551.19
400.165	529.19
400.389	494.19
400.613	484.19
400.837	459.19
401.062	465.19
401.286	437.19
401.51	445.19
401.734	436.19
401.958	449.19
402.182	455.19
402.406	436.19
402.63	445.19
402.854	443.19
403.078	456.19
403.302	464.19
403.526	460.19
403.75	455.19
403.974	445.19
404.198	448.19
404.422	459.19
404.645	439.19
404.869	457.19
405.093	450.19
405.317	441.19
405.541	442.19
405.765	458.19
405.988	440.19
406.212	457.19
406.436	467.19
406.66	469.19
406.883	470.19
407.107	506.19
407.331	510.19
407.555	523.19
407.778	502.19
408.002	515.19
408.226	505.19
408.449	501.19
408.673	487.19
408.896	456.19
409.12	461.19
409.344	464.19
409.567	456.19
409.791	457.19
410.014	438.19
410.238	453.19
410.461	470.19
410.685	448.19
410.908	464.19
411.132	447.19
411.355	428.19
411.578	438.19
411.802	455.19
412.025	431.19
412.249	455.19
412.472	440.19
412.695	459.19
412.919	432.19
413.142	445.19
413.365	437.19
413.589	406.19
413.812	431.19
414.035	433.19
414.258	446.19
414.482	442.19
414.705	420.19
414.928	425.19
415.151	440.19
415.374	455.19
415.597	437.19
415.821	429.19
416.044	426.19
416.267	452.19
416.49	407.19
416.713	396.19
416.936	432.19
417.159	410.19
417.382	409.19
417.605	431.19
417.828	409.19
418.051	401.19
418.274	432.19
418.497	435.19
418.72	433.19
418.943	438.19
419.166	436.19
419.389	454.19
419.611	423.19
419.834	441.19
420.057	438.19
420.28	419.19
420.503	413.19
420.726	426.19
420.948	415.19
421.171	406.19
421.394	417.19
421.617	416.19
421.839	389.19
422.062	427.19
422.285	418.19
422.507	433.19
422.73	429.19
422.953	430.19
423.175	410.19
423.398	428.19
423.621	418.19
423.843	418.19
424.066	435.19
424.288	402.19
424.511	407.19
424.733	436.19
424.956	409.19
425.178	415.19
425.401	428.19
425.623	405.19
425.846	399.19
426.068	410.19
426.291	413.19
426.513	410.19
426.735	394.19
426.958	400.19
427.18	403.19
427.402	400.19
427.625	371.19
427.847	405.19
428.069	392.19
428.292	376.19
428.514	388.19
428.736	370.19
428.958	392.19
429.181	372.19
429.403	377.19
429.625	396.19
429.847	390.19
430.069	372.19
430.292	387.19
430.514	383.19
430.736	393.19
430.958	392.19
431.18	375.19
431.402	400.19
431.624	384.19
431.846	392.19
432.068	367.19
432.29	399.19
432.512	380.19
432.734	386.19
432.956	390.19
433.178	405.19
433.4	361.19
433.622	391.19
433.844	389.19
434.066	387.19
434.287	398.19
434.509	379.19
434.731	426.19
434.953	411.19
435.175	417.19
435.397	402.19
435.618	405.19
435.84	408.19
436.062	385.19
436.284	390.19
436.505	392.19
436.727	399.19
436.949	395.19
437.17	383.19
437.392	382.19
437.614	395.19
437.835	382.19
438.057	372.19
438.278	369.19
438.5	366.19
438.721	363.19
438.943	369.19
439.165	392.19
439.386	375.19
439.608	373.19
439.829	382.19
440.05	373.19
440.272	369.19
440.493	387.19
440.715	377.19
440.936	387.19
441.158	391.19
441.379	384.19
441.6	415.19
441.822	394.19
442.043	419.19
442.264	409.19
442.486	398.19
442.707	401.19
442.928	401.19
443.149	427.19
443.371	404.19
443.592	407.19
443.813	413.19
444.034	427.19
444.255	423.19
444.476	438.19
444.698	424.19
444.919	449.19
445.14	496.19
445.361	453.19
445.582	439.19
445.803	426.19
446.024	383.19
446.245	405.19
446.466	393.19
446.687	381.19
446.908	398.19
447.129	369.19
447.35	382.19
447.571	378.19
447.792	370.19
448.013	381.19
448.234	365.19
448.455	358.19
448.675	374.19
448.896	357.19
449.117	352.19
449.338	355.19
449.559	351.19
449.779	372.19
450	350.19
450.221	355.19
450.442	357.19
450.662	343.19
450.883	354.19
451.104	369.19
451.324	352.19
451.545	341.19
451.766	345.19
451.986	355.19
452.207	362.19
452.428	349.19
452.648	334.19
452.869	349.19
453.089	344.19
453.31	341.19
453.53	354.19
453.751	333.19
453.971	340.19
454.192	344.19
454.412	331.19
454.633	329.19
454.853	357.19
455.073	357.19
455.294	345.19
455.514	343.19
455.734	343.19
455.955	320.19
456.175	337.19
456.395	327.19
456.616	355.19
456.836	350.19
457.056	343.19
457.276	337.19
457.497	369.19
457.717	342.19
457.937	346.19
458.157	346.19
458.377	363.19
458.598	361.19
458.818	340.19
459.038	386.19
459.258	383.19
459.478	395.19
459.698	405.19
459.918	393.19
460.138	399.19
460.358	411.19
460.578	410.19
460.798	413.19
461.018	430.19
461.238	437.19
461.458	437.19
461.678	451.19
461.898	422.19
462.118	449.19
462.338	453.19
462.558	468.19
462.777	490.19
462.997	492.19
463.217	495.19
463.437	501.19
463.657	516.19
463.876	476.19
464.096	484.19
464.316	478.19
464.536	463.19
464.755	467.19
464.975	466.19
465.195	445.19
465.414	435.19
465.634	394.19
465.854	405.19
466.073	394.19
466.293	383.19
466.512	381.19
466.732	391.19
466.951	365.19
467.171	368.19
467.391	379.19
467.61	376.19
467.829	390.19
468.049	372.19
468.268	387.19
468.488	377.19
468.707	372.19
468.927	366.19
469.146	370.19
469.365	378.19
469.585	369.19
469.804	357.19
470.023	363.19
470.243	370.19
470.462	364.19
470.681	374.19
470.901	355.19
471.12	381.19
471.339	385.19
471.558	394.19
471.777	375.19
471.997	365.19
472.216	362.19
472.435	377.19
472.654	365.19
472.873	360.19
473.092	373.19
473.311	367.19
473.53	378.19
473.749	357.19
473.968	365.19
474.187	370.19
474.406	373.19
474.625	399.19
474.844	377.19
475.063	379.19
475.282	379.19
475.501	376.19
475.72	377.19
475.939	383.19
476.158	394.19
476.377	397.19
476.596	384.19
476.814	421.19
477.033	404.19
477.252	398.19
477.471	407.19
477.69	410.19
477.908	417.19
478.127	405.19
478.346	419.19
478.564	432.19
478.783	431.19
479.002	443.19
479.22	442.19
479.439	456.19
479.658	429.19
479.876	431.19
480.095	468.19
480.313	458.19
480.532	463.19
480.751	470.19
480.969	442.19
481.188	446.19
481.406	437.19
481.624	419.19
481.843	424.19
482.061	431.19
482.28	395.19
482.498	423.19
482.717	429.19
482.935	416.19
483.153	433.19
483.372	440.19
483.59	422.19
483.808	417.19
484.027	417.19
484.245	415.19
484.463	417.19
484.681	445.19
484.9	430.19
485.118	431.19
485.336	424.19
485.554	424.19
485.772	442.19
485.99	431.19
486.209	424.19
486.427	453.19
486.645	415.19
486.863	440.19
487.081	447.19
487.299	441.19
487.517	413.19
487.735	432.19
487.953	430.19
488.171	443.19
488.389	426.19
488.607	435.19
488.825	445.19
489.043	424.19
489.261	431.19
489.479	433.19
489.696	440.19
489.914	434.19
490.132	443.19
490.35	441.19
490.568	449.19
490.786	457.19
491.003	439.19
491.221	445.19
491.439	430.19
491.657	440.19
491.874	450.19
492.092	464.19
492.31	448.19
492.527	460.19
492.745	463.19
492.963	454.19
493.18	465.19
493.398	463.19
493.615	472.19
493.833	445.19
494.05	457.19
494.268	456.19
494.485	473.19
494.703	478.19
494.92	478.19
495.138	475.19
495.355	468.19
495.573	493.19
495.79	460.19
496.008	498.19
496.225	452.19
496.442	474.19
496.66	487.19
496.877	486.19
497.094	518.19
497.312	545.19
497.529	519.19
497.746	544.19
497.963	563.19
498.181	570.19
498.398	574.19
498.615	609.19
498.832	627.19
499.049	674.19
499.267	711.19
499.484	754.19
499.701	787.19
499.918	816.19
500.135	881.19
500.352	902.19
500.569	931.19
500.786	921.19
501.003	901.19
501.22	831.19
501.437	800.19
501.654	763.19
501.871	711.19
502.088	651.19
502.305	651.19
