Data from Fe(NO3)3@0.05M.TitratingCurve.Agarose3%dH2O.NegLispCup.LampEnergy10.LIBS07252019_HRD10591_16-47-38-334.txt Node
Date: Thu Jul 25 16:47:38 EDT 2019
User: cochatt
Spectrometer: HR+D1059
Trigger mode: 1
Integration Time (sec): 1.000000E-1
Scans to average: 1
Electric dark correction enabled: true
Nonlinearity correction enabled: false
Boxcar width: 0
XAxis mode: Wavelengths
Number of Pixels in Spectrum: 2048
>>>>>Begin Spectral Data<<<<<
223.165	-17.5
223.4	-17.5
223.635	-17.5
223.869	-18.5
224.104	-26.5
224.338	-25.5
224.573	-13.5
224.808	-10.5
225.042	-9.5
225.277	-9.5
225.511	-7.5
225.746	3.5
225.98	17.5
226.215	20.5
226.449	10.5
226.683	9.5
226.918	24.5
227.152	52.5
227.387	37.5
227.621	42.5
227.856	53.5
228.09	33.5
228.324	49.5
228.559	57.5
228.793	58.5
229.027	72.5
229.262	82.5
229.496	82.5
229.73	83.5
229.964	89.5
230.199	93.5
230.433	89.5
230.667	108.5
230.901	104.5
231.136	102.5
231.37	103.5
231.604	97.5
231.838	111.5
232.072	104.5
232.306	105.5
232.541	94.5
232.775	110.5
233.009	115.5
233.243	106.5
233.477	94.5
233.711	127.5
233.945	115.5
234.179	105.5
234.413	102.5
234.647	111.5
234.881	121.5
235.115	103.5
235.349	117.5
235.583	113.5
235.817	107.5
236.051	102.5
236.285	112.5
236.519	109.5
236.753	114.5
236.987	118.5
237.221	109.5
237.455	111.5
237.689	122.5
237.922	113.5
238.156	106.5
238.39	115.5
238.624	121.5
238.858	118.5
239.091	119.5
239.325	117.5
239.559	109.5
239.793	126.5
240.027	122.5
240.26	101.5
240.494	126.5
240.728	118.5
240.961	120.5
241.195	119.5
241.429	120.5
241.662	126.5
241.896	115.5
242.13	118.5
242.363	111.5
242.597	115.5
242.83	129.5
243.064	116.5
243.298	109.5
243.531	128.5
243.765	131.5
243.998	121.5
244.232	124.5
244.465	131.5
244.699	127.5
244.932	146.5
245.166	133.5
245.399	131.5
245.633	163.5
245.866	149.5
246.099	130.5
246.333	145.5
246.566	148.5
246.8	153.5
247.033	113.5
247.266	126.5
247.5	135.5
247.733	132.5
247.966	137.5
248.2	149.5
248.433	144.5
248.666	137.5
248.899	146.5
249.133	159.5
249.366	154.5
249.599	146.5
249.832	141.5
250.066	141.5
250.299	139.5
250.532	153.5
250.765	149.5
250.998	149.5
251.231	153.5
251.465	142.5
251.698	155.5
251.931	149.5
252.164	130.5
252.397	148.5
252.63	162.5
252.863	155.5
253.096	157.5
253.329	170.5
253.562	159.5
253.795	177.5
254.028	153.5
254.261	148.5
254.494	161.5
254.727	158.5
254.96	164.5
255.193	158.5
255.426	158.5
255.659	153.5
255.892	170.5
256.124	165.5
256.357	166.5
256.59	172.5
256.823	153.5
257.056	167.5
257.289	178.5
257.521	177.5
257.754	175.5
257.987	169.5
258.22	155.5
258.452	150.5
258.685	165.5
258.918	176.5
259.151	201.5
259.383	173.5
259.616	185.5
259.849	173.5
260.081	185.5
260.314	177.5
260.547	183.5
260.779	175.5
261.012	182.5
261.244	182.5
261.477	192.5
261.71	178.5
261.942	171.5
262.175	184.5
262.407	176.5
262.64	182.5
262.872	188.5
263.105	190.5
263.337	200.5
263.57	197.5
263.802	174.5
264.035	191.5
264.267	179.5
264.499	180.5
264.732	201.5
264.964	191.5
265.197	185.5
265.429	191.5
265.661	195.5
265.894	188.5
266.126	201.5
266.358	203.5
266.591	187.5
266.823	185.5
267.055	193.5
267.287	201.5
267.52	197.5
267.752	167.5
267.984	194.5
268.216	189.5
268.448	190.5
268.681	194.5
268.913	201.5
269.145	208.5
269.377	200.5
269.609	195.5
269.841	202.5
270.073	197.5
270.306	197.5
270.538	195.5
270.77	209.5
271.002	200.5
271.234	200.5
271.466	217.5
271.698	215.5
271.93	197.5
272.162	221.5
272.394	220.5
272.626	204.5
272.858	210.5
273.09	217.5
273.322	198.5
273.553	208.5
273.785	243.5
274.017	207.5
274.249	239.5
274.481	213.5
274.713	219.5
274.945	217.5
275.176	230.5
275.408	218.5
275.64	214.5
275.872	219.5
276.104	219.5
276.335	226.5
276.567	232.5
276.799	231.5
277.031	232.5
277.262	226.5
277.494	218.5
277.726	224.5
277.957	229.5
278.189	216.5
278.421	215.5
278.652	235.5
278.884	222.5
279.115	223.5
279.347	232.5
279.579	233.5
279.81	230.5
280.042	228.5
280.273	225.5
280.505	233.5
280.736	241.5
280.968	233.5
281.199	253.5
281.431	247.5
281.662	239.5
281.894	244.5
282.125	241.5
282.356	253.5
282.588	263.5
282.819	234.5
283.051	238.5
283.282	234.5
283.513	241.5
283.745	229.5
283.976	239.5
284.207	243.5
284.439	265.5
284.67	262.5
284.901	272.5
285.132	235.5
285.364	240.5
285.595	262.5
285.826	249.5
286.057	262.5
286.288	240.5
286.52	257.5
286.751	274.5
286.982	257.5
287.213	261.5
287.444	251.5
287.675	265.5
287.906	242.5
288.138	268.5
288.369	271.5
288.6	281.5
288.831	262.5
289.062	259.5
289.293	281.5
289.524	272.5
289.755	272.5
289.986	253.5
290.217	272.5
290.448	277.5
290.679	287.5
290.91	270.5
291.141	268.5
291.371	271.5
291.602	273.5
291.833	266.5
292.064	281.5
292.295	263.5
292.526	264.5
292.757	266.5
292.987	266.5
293.218	278.5
293.449	274.5
293.68	274.5
293.91	270.5
294.141	265.5
294.372	259.5
294.603	266.5
294.833	265.5
295.064	265.5
295.295	286.5
295.525	269.5
295.756	267.5
295.987	285.5
296.217	269.5
296.448	286.5
296.679	290.5
296.909	272.5
297.14	283.5
297.37	287.5
297.601	285.5
297.831	286.5
298.062	289.5
298.292	279.5
298.523	282.5
298.753	295.5
298.984	301.5
299.214	291.5
299.445	278.5
299.675	262.5
299.905	290.5
300.136	281.5
300.366	289.5
300.597	294.5
300.827	302.5
301.057	310.5
301.288	291.5
301.518	290.5
301.748	300.5
301.979	290.5
302.209	302.5
302.439	309.5
302.669	290.5
302.9	306.5
303.13	281.5
303.36	303.5
303.59	305.5
303.82	297.5
304.051	306.5
304.281	299.5
304.511	288.5
304.741	282.5
304.971	296.5
305.201	293.5
305.431	295.5
305.661	291.5
305.891	312.5
306.121	286.5
306.352	297.5
306.582	305.5
306.812	293.5
307.042	296.5
307.272	298.5
307.502	304.5
307.731	309.5
307.961	285.5
308.191	303.5
308.421	319.5
308.651	316.5
308.881	297.5
309.111	279.5
309.341	306.5
309.571	293.5
309.8	281.5
310.03	317.5
310.26	299.5
310.49	295.5
310.72	311.5
310.949	297.5
311.179	315.5
311.409	308.5
311.639	311.5
311.868	321.5
312.098	303.5
312.328	292.5
312.557	312.5
312.787	315.5
313.017	294.5
313.246	308.5
313.476	301.5
313.706	281.5
313.935	330.5
314.165	321.5
314.394	308.5
314.624	330.5
314.853	338.5
315.083	318.5
315.312	321.5
315.542	327.5
315.771	325.5
316.001	319.5
316.23	315.5
316.46	319.5
316.689	313.5
316.919	324.5
317.148	336.5
317.377	328.5
317.607	328.5
317.836	313.5
318.065	343.5
318.295	334.5
318.524	330.5
318.753	309.5
318.983	308.5
319.212	331.5
319.441	321.5
319.67	322.5
319.9	332.5
320.129	335.5
320.358	320.5
320.587	296.5
320.816	317.5
321.046	335.5
321.275	327.5
321.504	328.5
321.733	335.5
321.962	336.5
322.191	339.5
322.42	339.5
322.649	315.5
322.878	313.5
323.108	322.5
323.337	318.5
323.566	330.5
323.795	330.5
324.024	335.5
324.253	327.5
324.482	333.5
324.71	327.5
324.939	326.5
325.168	323.5
325.397	330.5
325.626	319.5
325.855	339.5
326.084	346.5
326.313	350.5
326.542	343.5
326.77	370.5
326.999	349.5
327.228	353.5
327.457	350.5
327.686	328.5
327.914	354.5
328.143	354.5
328.372	352.5
328.6	350.5
328.829	346.5
329.058	343.5
329.287	351.5
329.515	350.5
329.744	365.5
329.972	350.5
330.201	336.5
330.43	342.5
330.658	358.5
330.887	369.5
331.115	355.5
331.344	359.5
331.572	368.5
331.801	355.5
332.03	393.5
332.258	372.5
332.486	391.5
332.715	418.5
332.943	403.5
333.172	399.5
333.4	417.5
333.629	416.5
333.857	452.5
334.085	420.5
334.314	440.5
334.542	442.5
334.771	410.5
334.999	418.5
335.227	424.5
335.455	449.5
335.684	442.5
335.912	442.5
336.14	411.5
336.369	406.5
336.597	404.5
336.825	407.5
337.053	413.5
337.281	399.5
337.51	418.5
337.738	384.5
337.966	382.5
338.194	385.5
338.422	369.5
338.65	385.5
338.878	383.5
339.106	386.5
339.334	391.5
339.562	375.5
339.79	372.5
340.018	356.5
340.246	371.5
340.474	373.5
340.702	367.5
340.93	371.5
341.158	349.5
341.386	381.5
341.614	373.5
341.842	368.5
342.07	369.5
342.298	365.5
342.526	354.5
342.754	365.5
342.981	375.5
343.209	379.5
343.437	368.5
343.665	397.5
343.893	413.5
344.12	430.5
344.348	422.5
344.576	412.5
344.804	403.5
345.031	382.5
345.259	379.5
345.487	370.5
345.714	371.5
345.942	362.5
346.17	369.5
346.397	378.5
346.625	347.5
346.853	345.5
347.08	350.5
347.308	350.5
347.535	381.5
347.763	340.5
347.99	354.5
348.218	328.5
348.445	351.5
348.673	369.5
348.9	368.5
349.128	348.5
349.355	355.5
349.583	350.5
349.81	352.5
350.037	350.5
350.265	337.5
350.492	341.5
350.72	343.5
350.947	346.5
351.174	327.5
351.402	343.5
351.629	344.5
351.856	325.5
352.083	348.5
352.311	353.5
352.538	359.5
352.765	352.5
352.992	331.5
353.22	330.5
353.447	360.5
353.674	352.5
353.901	352.5
354.128	342.5
354.355	362.5
354.583	372.5
354.81	345.5
355.037	346.5
355.264	350.5
355.491	371.5
355.718	363.5
355.945	359.5
356.172	344.5
356.399	351.5
356.626	348.5
356.853	357.5
357.08	350.5
357.307	347.5
357.534	361.5
357.761	363.5
357.988	346.5
358.215	359.5
358.441	360.5
358.668	345.5
358.895	365.5
359.122	351.5
359.349	357.5
359.576	355.5
359.802	346.5
360.029	353.5
360.256	349.5
360.483	361.5
360.709	340.5
360.936	368.5
361.163	360.5
361.39	356.5
361.616	336.5
361.843	342.5
362.07	343.5
362.296	352.5
362.523	362.5
362.749	358.5
362.976	361.5
363.203	372.5
363.429	360.5
363.656	351.5
363.882	355.5
364.109	360.5
364.335	343.5
364.562	365.5
364.788	344.5
365.015	355.5
365.241	359.5
365.468	365.5
365.694	366.5
365.92	353.5
366.147	342.5
366.373	366.5
366.599	354.5
366.826	348.5
367.052	352.5
367.278	361.5
367.505	366.5
367.731	355.5
367.957	370.5
368.184	365.5
368.41	367.5
368.636	376.5
368.862	352.5
369.089	352.5
369.315	365.5
369.541	393.5
369.767	363.5
369.993	356.5
370.219	370.5
370.445	383.5
370.672	385.5
370.898	393.5
371.124	389.5
371.35	386.5
371.576	392.5
371.802	390.5
372.028	401.5
372.254	397.5
372.48	407.5
372.706	404.5
372.932	390.5
373.158	410.5
373.384	423.5
373.61	414.5
373.835	403.5
374.061	389.5
374.287	376.5
374.513	400.5
374.739	421.5
374.965	414.5
375.191	455.5
375.416	423.5
375.642	416.5
375.868	399.5
376.094	414.5
376.319	401.5
376.545	392.5
376.771	392.5
376.997	392.5
377.222	395.5
377.448	398.5
377.674	377.5
377.899	394.5
378.125	378.5
378.35	371.5
378.576	401.5
378.802	400.5
379.027	420.5
379.253	401.5
379.478	397.5
379.704	410.5
379.929	394.5
380.155	383.5
380.38	401.5
380.606	374.5
380.831	369.5
381.057	378.5
381.282	378.5
381.507	399.5
381.733	416.5
381.958	396.5
382.184	405.5
382.409	401.5
382.634	416.5
382.86	411.5
383.085	444.5
383.31	422.5
383.535	415.5
383.761	423.5
383.986	439.5
384.211	419.5
384.436	440.5
384.662	467.5
384.887	453.5
385.112	452.5
385.337	456.5
385.562	451.5
385.787	452.5
386.013	511.5
386.238	484.5
386.463	453.5
386.688	461.5
386.913	439.5
387.138	446.5
387.363	476.5
387.588	469.5
387.813	476.5
388.038	469.5
388.263	458.5
388.488	460.5
388.713	473.5
388.938	467.5
389.163	451.5
389.387	454.5
389.612	464.5
389.837	457.5
390.062	488.5
390.287	477.5
390.512	482.5
390.736	473.5
390.961	485.5
391.186	478.5
391.411	472.5
391.636	508.5
391.86	521.5
392.085	501.5
392.31	507.5
392.534	510.5
392.759	524.5
392.984	497.5
393.208	493.5
393.433	502.5
393.658	498.5
393.882	490.5
394.107	497.5
394.331	516.5
394.556	495.5
394.78	489.5
395.005	507.5
395.229	515.5
395.454	515.5
395.678	523.5
395.903	523.5
396.127	539.5
396.352	527.5
396.576	524.5
396.801	502.5
397.025	517.5
397.249	537.5
397.474	536.5
397.698	530.5
397.922	545.5
398.147	523.5
398.371	533.5
398.595	549.5
398.82	579.5
399.044	607.5
399.268	649.5
399.492	707.5
399.717	794.5
399.941	778.5
400.165	716.5
400.389	665.5
400.613	641.5
400.837	629.5
401.062	618.5
401.286	602.5
401.51	608.5
401.734	602.5
401.958	592.5
402.182	591.5
402.406	605.5
402.63	606.5
402.854	616.5
403.078	606.5
403.302	623.5
403.526	616.5
403.75	632.5
403.974	627.5
404.198	618.5
404.422	647.5
404.645	639.5
404.869	651.5
405.093	638.5
405.317	652.5
405.541	641.5
405.765	592.5
405.988	631.5
406.212	639.5
406.436	646.5
406.66	651.5
406.883	647.5
407.107	672.5
407.331	719.5
407.555	705.5
407.778	696.5
408.002	721.5
408.226	706.5
408.449	690.5
408.673	643.5
408.896	668.5
409.12	658.5
409.344	666.5
409.567	661.5
409.791	640.5
410.014	643.5
410.238	641.5
410.461	639.5
410.685	642.5
410.908	638.5
411.132	661.5
411.355	596.5
411.578	602.5
411.802	619.5
412.025	607.5
412.249	619.5
412.472	625.5
412.695	602.5
412.919	608.5
413.142	610.5
413.365	603.5
413.589	584.5
413.812	584.5
414.035	582.5
414.258	576.5
414.482	597.5
414.705	604.5
414.928	610.5
415.151	585.5
415.374	586.5
415.597	593.5
415.821	592.5
416.044	574.5
416.267	602.5
416.49	580.5
416.713	566.5
416.936	602.5
417.159	573.5
417.382	581.5
417.605	569.5
417.828	579.5
418.051	586.5
418.274	601.5
418.497	608.5
418.72	611.5
418.943	590.5
419.166	635.5
419.389	647.5
419.611	654.5
419.834	645.5
420.057	617.5
420.28	600.5
420.503	577.5
420.726	582.5
420.948	562.5
421.171	610.5
421.394	579.5
421.617	586.5
421.839	575.5
422.062	583.5
422.285	595.5
422.507	585.5
422.73	597.5
422.953	595.5
423.175	596.5
423.398	601.5
423.621	606.5
423.843	622.5
424.066	603.5
424.288	609.5
424.511	609.5
424.733	602.5
424.956	583.5
425.178	603.5
425.401	568.5
425.623	579.5
425.846	593.5
426.068	565.5
426.291	590.5
426.513	559.5
426.735	580.5
426.958	568.5
427.18	545.5
427.402	567.5
427.625	563.5
427.847	520.5
428.069	551.5
428.292	578.5
428.514	509.5
428.736	530.5
428.958	554.5
429.181	550.5
429.403	541.5
429.625	529.5
429.847	544.5
430.069	529.5
430.292	517.5
430.514	538.5
430.736	546.5
430.958	542.5
431.18	541.5
431.402	560.5
431.624	546.5
431.846	552.5
432.068	529.5
432.29	547.5
432.512	545.5
432.734	572.5
432.956	548.5
433.178	548.5
433.4	535.5
433.622	555.5
433.844	559.5
434.066	535.5
434.287	573.5
434.509	583.5
434.731	585.5
434.953	602.5
435.175	605.5
435.397	600.5
435.618	569.5
435.84	559.5
436.062	570.5
436.284	563.5
436.505	560.5
436.727	580.5
436.949	569.5
437.17	528.5
437.392	549.5
437.614	549.5
437.835	506.5
438.057	521.5
438.278	499.5
438.5	517.5
438.721	545.5
438.943	522.5
439.165	533.5
439.386	549.5
439.608	553.5
439.829	535.5
440.05	540.5
440.272	534.5
440.493	564.5
440.715	577.5
440.936	577.5
441.158	581.5
441.379	557.5
441.6	604.5
441.822	607.5
442.043	604.5
442.264	607.5
442.486	566.5
442.707	581.5
442.928	594.5
443.149	591.5
443.371	600.5
443.592	599.5
443.813	600.5
444.034	623.5
444.255	632.5
444.476	633.5
444.698	642.5
444.919	678.5
445.14	750.5
445.361	674.5
445.582	618.5
445.803	582.5
446.024	621.5
446.245	590.5
446.466	571.5
446.687	574.5
446.908	553.5
447.129	538.5
447.35	568.5
447.571	543.5
447.792	518.5
448.013	520.5
448.234	543.5
448.455	510.5
448.675	510.5
448.896	525.5
449.117	519.5
449.338	517.5
449.559	512.5
449.779	507.5
450	509.5
450.221	508.5
450.442	537.5
450.662	499.5
450.883	513.5
451.104	508.5
451.324	526.5
451.545	535.5
451.766	533.5
451.986	506.5
452.207	518.5
452.428	499.5
452.648	513.5
452.869	475.5
453.089	501.5
453.31	501.5
453.53	491.5
453.751	473.5
453.971	482.5
454.192	501.5
454.412	473.5
454.633	496.5
454.853	502.5
455.073	471.5
455.294	488.5
455.514	470.5
455.734	477.5
455.955	489.5
456.175	485.5
456.395	482.5
456.616	486.5
456.836	485.5
457.056	495.5
457.276	465.5
457.497	505.5
457.717	499.5
457.937	473.5
458.157	490.5
458.377	504.5
458.598	484.5
458.818	503.5
459.038	493.5
459.258	527.5
459.478	535.5
459.698	539.5
459.918	552.5
460.138	579.5
460.358	609.5
460.578	597.5
460.798	637.5
461.018	626.5
461.238	621.5
461.458	617.5
461.678	618.5
461.898	622.5
462.118	623.5
462.338	652.5
462.558	655.5
462.777	694.5
462.997	737.5
463.217	753.5
463.437	764.5
463.657	729.5
463.876	710.5
464.096	685.5
464.316	689.5
464.536	706.5
464.755	699.5
464.975	688.5
465.195	658.5
465.414	602.5
465.634	593.5
465.854	565.5
466.073	570.5
466.293	550.5
466.512	565.5
466.732	540.5
466.951	543.5
467.171	525.5
467.391	519.5
467.61	543.5
467.829	531.5
468.049	521.5
468.268	506.5
468.488	508.5
468.707	538.5
468.927	542.5
469.146	521.5
469.365	527.5
469.585	515.5
469.804	535.5
470.023	555.5
470.243	532.5
470.462	557.5
470.681	549.5
470.901	540.5
471.12	546.5
471.339	529.5
471.558	531.5
471.777	515.5
471.997	520.5
472.216	511.5
472.435	506.5
472.654	522.5
472.873	498.5
473.092	488.5
473.311	499.5
473.53	515.5
473.749	489.5
473.968	514.5
474.187	519.5
474.406	509.5
474.625	502.5
474.844	518.5
475.063	498.5
475.282	513.5
475.501	514.5
475.72	508.5
475.939	519.5
476.158	503.5
476.377	513.5
476.596	521.5
476.814	524.5
477.033	529.5
477.252	551.5
477.471	541.5
477.69	553.5
477.908	589.5
478.127	595.5
478.346	570.5
478.564	567.5
478.783	589.5
479.002	604.5
479.22	631.5
479.439	599.5
479.658	601.5
479.876	596.5
480.095	598.5
480.313	609.5
480.532	637.5
480.751	624.5
480.969	586.5
481.188	605.5
481.406	585.5
481.624	582.5
481.843	566.5
482.061	574.5
482.28	581.5
482.498	547.5
482.717	569.5
482.935	557.5
483.153	576.5
483.372	571.5
483.59	587.5
483.808	587.5
484.027	586.5
484.245	594.5
484.463	565.5
484.681	577.5
484.9	555.5
485.118	587.5
485.336	570.5
485.554	591.5
485.772	584.5
485.99	601.5
486.209	586.5
486.427	589.5
486.645	602.5
486.863	580.5
487.081	580.5
487.299	594.5
487.517	582.5
487.735	584.5
487.953	592.5
488.171	615.5
488.389	592.5
488.607	565.5
488.825	565.5
489.043	606.5
489.261	577.5
489.479	597.5
489.696	581.5
489.914	571.5
490.132	571.5
490.35	587.5
490.568	580.5
490.786	616.5
491.003	592.5
491.221	599.5
491.439	615.5
491.657	603.5
491.874	649.5
492.092	633.5
492.31	626.5
492.527	603.5
492.745	586.5
492.963	614.5
493.18	624.5
493.398	619.5
493.615	635.5
493.833	634.5
494.05	616.5
494.268	643.5
494.485	633.5
494.703	653.5
494.92	637.5
495.138	639.5
495.355	660.5
495.573	653.5
495.79	658.5
496.008	629.5
496.225	659.5
496.442	663.5
496.66	657.5
496.877	669.5
497.094	657.5
497.312	685.5
497.529	719.5
497.746	698.5
497.963	754.5
498.181	755.5
498.398	784.5
498.615	816.5
498.832	877.5
499.049	899.5
499.267	977.5
499.484	1011.5
499.701	1127.5
499.918	1195.5
500.135	1305.5
500.352	1467.5
500.569	1490.5
500.786	1458.5
501.003	1410.5
501.22	1297.5
501.437	1189.5
501.654	1055.5
501.871	976.5
502.088	955.5
502.305	902.5
502.522	848.5
502.739	821.5
502.956	804.5
503.172	737.5
503.389	715.5
503.606	703.5
503.823	700.5
504.04	712.5
504.256	683.5
504.473	706.5
504.69	708.5
504.907	718.5
505.123	658.5
505.34	638.5
505.557	614.5
505.773	617.5
505.99	598.5
506.207	599.5
506.423	588.5
506.64	580.5
506.856	578.5
507.073	559.5
507.289	569.5
507.506	541.5
507.722	570.5
507.939	559.5
508.155	533.5
508.372	536.5
508.588	539.5
508.805	529.5
509.021	530.5
509.238	516.5
509.454	542.5
509.67	515.5
509.887	516.5
510.103	498.5
510.319	521.5
510.536	509.5
510.752	495.5
510.968	488.5
511.184	515.5
511.401	526.5
511.617	498.5
511.833	532.5
512.049	522.5
512.265	482.5
512.481	507.5
512.698	501.5
512.914	529.5
513.13	518.5
513.346	517.5
513.562	525.5
513.778	528.5
513.994	516.5
514.21	524.5
514.426	525.5
514.642	519.5
514.858	538.5
515.074	544.5
515.29	513.5
515.506	530.5
515.721	539.5
515.937	560.5
516.153	572.5
516.369	559.5
516.585	581.5
516.801	578.5
517.016	592.5
517.232	638.5
517.448	631.5
517.664	626.5
517.879	667.5
518.095	643.5
518.311	643.5
518.527	618.5
518.742	587.5
518.958	598.5
519.173	548.5
519.389	553.5
