Data from Fe(NO3)3@0.025M.TitratingCurve.Agarose3%dH2O.NegLispCup.LampEnergy10.LIBS07252019_HRD10591_16-55-52-335.txt Node
Date: Thu Jul 25 16:55:52 EDT 2019
User: cochatt
Spectrometer: HR+D1059
Trigger mode: 1
Integration Time (sec): 1.000000E-1
Scans to average: 1
Electric dark correction enabled: true
Nonlinearity correction enabled: false
Boxcar width: 0
XAxis mode: Wavelengths
Number of Pixels in Spectrum: 2048
>>>>>Begin Spectral Data<<<<<
223.165	-11.12
223.4	-11.12
223.635	-11.12
223.869	-34.12
224.104	-21.12
224.338	-9.12
224.573	-15.12
224.808	-10.12
225.042	-15.12
225.277	-3.12
225.511	5.88
225.746	1.88
225.98	7.88
226.215	22.88
226.449	16.88
226.683	10.88
226.918	20.88
227.152	31.88
227.387	36.88
227.621	29.88
227.856	43.88
228.09	44.88
228.324	44.88
228.559	38.88
228.793	67.88
229.027	67.88
229.262	84.88
229.496	68.88
229.73	78.88
229.964	98.88
230.199	81.88
230.433	92.88
230.667	92.88
230.901	84.88
231.136	78.88
231.37	102.88
231.604	72.88
231.838	84.88
232.072	114.88
232.306	94.88
232.541	100.88
232.775	108.88
233.009	95.88
233.243	98.88
233.477	100.88
233.711	102.88
233.945	109.88
234.179	88.88
234.413	100.88
234.647	95.88
234.881	109.88
235.115	94.88
235.349	89.88
235.583	101.88
235.817	101.88
236.051	107.88
236.285	90.88
236.519	94.88
236.753	104.88
236.987	105.88
237.221	99.88
237.455	113.88
237.689	93.88
237.922	108.88
238.156	92.88
238.39	98.88
238.624	97.88
238.858	109.88
239.091	97.88
239.325	100.88
239.559	103.88
239.793	113.88
240.027	102.88
240.26	96.88
240.494	113.88
240.728	93.88
240.961	102.88
241.195	106.88
241.429	98.88
241.662	116.88
241.896	109.88
242.13	112.88
242.363	100.88
242.597	101.88
242.83	117.88
243.064	106.88
243.298	102.88
243.531	108.88
243.765	119.88
243.998	90.88
244.232	108.88
244.465	116.88
244.699	109.88
244.932	108.88
245.166	100.88
245.399	119.88
245.633	108.88
245.866	115.88
246.099	123.88
246.333	114.88
246.566	108.88
246.8	117.88
247.033	108.88
247.266	116.88
247.5	129.88
247.733	128.88
247.966	128.88
248.2	103.88
248.433	118.88
248.666	119.88
248.899	116.88
249.133	121.88
249.366	117.88
249.599	114.88
249.832	110.88
250.066	134.88
250.299	136.88
250.532	119.88
250.765	121.88
250.998	125.88
251.231	142.88
251.465	122.88
251.698	121.88
251.931	115.88
252.164	120.88
252.397	125.88
252.63	117.88
252.863	134.88
253.096	118.88
253.329	130.88
253.562	133.88
253.795	128.88
254.028	137.88
254.261	145.88
254.494	140.88
254.727	142.88
254.96	134.88
255.193	121.88
255.426	122.88
255.659	132.88
255.892	138.88
256.124	136.88
256.357	136.88
256.59	135.88
256.823	121.88
257.056	129.88
257.289	128.88
257.521	135.88
257.754	127.88
257.987	138.88
258.22	153.88
258.452	139.88
258.685	156.88
258.918	132.88
259.151	133.88
259.383	150.88
259.616	152.88
259.849	138.88
260.081	138.88
260.314	138.88
260.547	148.88
260.779	140.88
261.012	148.88
261.244	144.88
261.477	147.88
261.71	157.88
261.942	144.88
262.175	145.88
262.407	142.88
262.64	134.88
262.872	144.88
263.105	138.88
263.337	153.88
263.57	155.88
263.802	143.88
264.035	138.88
264.267	159.88
264.499	150.88
264.732	155.88
264.964	153.88
265.197	147.88
265.429	152.88
265.661	154.88
265.894	158.88
266.126	146.88
266.358	150.88
266.591	168.88
266.823	159.88
267.055	150.88
267.287	148.88
267.52	145.88
267.752	157.88
267.984	148.88
268.216	157.88
268.448	171.88
268.681	169.88
268.913	177.88
269.145	154.88
269.377	149.88
269.609	158.88
269.841	165.88
270.073	146.88
270.306	184.88
270.538	155.88
270.77	164.88
271.002	165.88
271.234	166.88
271.466	154.88
271.698	168.88
271.93	155.88
272.162	170.88
272.394	180.88
272.626	168.88
272.858	188.88
273.09	164.88
273.322	161.88
273.553	172.88
273.785	162.88
274.017	177.88
274.249	191.88
274.481	183.88
274.713	190.88
274.945	198.88
275.176	186.88
275.408	180.88
275.64	170.88
275.872	172.88
276.104	171.88
276.335	168.88
276.567	184.88
276.799	178.88
277.031	185.88
277.262	172.88
277.494	182.88
277.726	186.88
277.957	186.88
278.189	190.88
278.421	167.88
278.652	177.88
278.884	188.88
279.115	186.88
279.347	179.88
279.579	179.88
279.81	188.88
280.042	184.88
280.273	186.88
280.505	201.88
280.736	193.88
280.968	182.88
281.199	204.88
281.431	194.88
281.662	183.88
281.894	198.88
282.125	193.88
282.356	181.88
282.588	187.88
282.819	196.88
283.051	200.88
283.282	192.88
283.513	190.88
283.745	201.88
283.976	210.88
284.207	214.88
284.439	193.88
284.67	208.88
284.901	197.88
285.132	192.88
285.364	209.88
285.595	218.88
285.826	193.88
286.057	203.88
286.288	202.88
286.52	206.88
286.751	195.88
286.982	230.88
287.213	206.88
287.444	200.88
287.675	210.88
287.906	206.88
288.138	198.88
288.369	195.88
288.6	189.88
288.831	191.88
289.062	219.88
289.293	206.88
289.524	214.88
289.755	217.88
289.986	212.88
290.217	208.88
290.448	205.88
290.679	229.88
290.91	203.88
291.141	221.88
291.371	213.88
291.602	230.88
291.833	200.88
292.064	216.88
292.295	229.88
292.526	220.88
292.757	201.88
292.987	212.88
293.218	226.88
293.449	214.88
293.68	226.88
293.91	213.88
294.141	210.88
294.372	222.88
294.603	216.88
294.833	198.88
295.064	223.88
295.295	212.88
295.525	206.88
295.756	229.88
295.987	216.88
296.217	217.88
296.448	241.88
296.679	242.88
296.909	210.88
297.14	235.88
297.37	238.88
297.601	257.88
297.831	244.88
298.062	246.88
298.292	239.88
298.523	235.88
298.753	234.88
298.984	221.88
299.214	235.88
299.445	251.88
299.675	241.88
299.905	241.88
300.136	233.88
300.366	236.88
300.597	234.88
300.827	244.88
301.057	249.88
301.288	246.88
301.518	242.88
301.748	250.88
301.979	241.88
302.209	268.88
302.439	252.88
302.669	240.88
302.9	259.88
303.13	246.88
303.36	255.88
303.59	237.88
303.82	258.88
304.051	260.88
304.281	262.88
304.511	250.88
304.741	252.88
304.971	247.88
305.201	255.88
305.431	233.88
305.661	253.88
305.891	271.88
306.121	231.88
306.352	242.88
306.582	261.88
306.812	244.88
307.042	262.88
307.272	248.88
307.502	232.88
307.731	270.88
307.961	251.88
308.191	247.88
308.421	268.88
308.651	262.88
308.881	234.88
309.111	274.88
309.341	262.88
309.571	256.88
309.8	266.88
310.03	254.88
310.26	241.88
310.49	261.88
310.72	260.88
310.949	251.88
311.179	269.88
311.409	257.88
311.639	275.88
311.868	256.88
312.098	284.88
312.328	261.88
312.557	258.88
312.787	278.88
313.017	276.88
313.246	275.88
313.476	242.88
313.706	276.88
313.935	264.88
314.165	284.88
314.394	278.88
314.624	254.88
314.853	260.88
315.083	267.88
315.312	279.88
315.542	273.88
315.771	279.88
316.001	258.88
316.23	267.88
316.46	291.88
316.689	265.88
316.919	277.88
317.148	280.88
317.377	279.88
317.607	266.88
317.836	259.88
318.065	257.88
318.295	284.88
318.524	279.88
318.753	263.88
318.983	260.88
319.212	284.88
319.441	275.88
319.67	280.88
319.9	274.88
320.129	285.88
320.358	279.88
320.587	272.88
320.816	268.88
321.046	293.88
321.275	274.88
321.504	280.88
321.733	277.88
321.962	268.88
322.191	280.88
322.42	285.88
322.649	296.88
322.878	290.88
323.108	293.88
323.337	290.88
323.566	281.88
323.795	284.88
324.024	307.88
324.253	299.88
324.482	280.88
324.71	300.88
324.939	297.88
325.168	285.88
325.397	302.88
325.626	288.88
325.855	296.88
326.084	313.88
326.313	306.88
326.542	270.88
326.77	299.88
326.999	298.88
327.228	288.88
327.457	308.88
327.686	300.88
327.914	296.88
328.143	315.88
328.372	319.88
328.6	297.88
328.829	322.88
329.058	307.88
329.287	320.88
329.515	304.88
329.744	300.88
329.972	313.88
330.201	309.88
330.43	300.88
330.658	311.88
330.887	312.88
331.115	311.88
331.344	321.88
331.572	300.88
331.801	314.88
332.03	324.88
332.258	343.88
332.486	329.88
332.715	325.88
332.943	358.88
333.172	339.88
333.4	350.88
333.629	356.88
333.857	356.88
334.085	350.88
334.314	369.88
334.542	363.88
334.771	337.88
334.999	362.88
335.227	374.88
335.455	361.88
335.684	354.88
335.912	344.88
336.14	360.88
336.369	340.88
336.597	345.88
336.825	346.88
337.053	358.88
337.281	335.88
337.51	347.88
337.738	341.88
337.966	325.88
338.194	318.88
338.422	326.88
338.65	329.88
338.878	342.88
339.106	323.88
339.334	337.88
339.562	328.88
339.79	354.88
340.018	314.88
340.246	357.88
340.474	323.88
340.702	344.88
340.93	333.88
341.158	325.88
341.386	338.88
341.614	346.88
341.842	333.88
342.07	335.88
342.298	315.88
342.526	331.88
342.754	331.88
342.981	321.88
343.209	326.88
343.437	345.88
343.665	357.88
343.893	359.88
344.12	362.88
344.348	362.88
344.576	360.88
344.804	356.88
345.031	325.88
345.259	344.88
345.487	349.88
345.714	341.88
345.942	320.88
346.17	321.88
346.397	323.88
346.625	322.88
346.853	333.88
347.08	327.88
347.308	308.88
347.535	320.88
347.763	312.88
347.99	318.88
348.218	331.88
348.445	325.88
348.673	311.88
348.9	320.88
349.128	292.88
349.355	318.88
349.583	318.88
349.81	330.88
350.037	318.88
350.265	318.88
350.492	310.88
350.72	303.88
350.947	323.88
351.174	313.88
351.402	298.88
351.629	313.88
351.856	300.88
352.083	324.88
352.311	332.88
352.538	307.88
352.765	297.88
352.992	310.88
353.22	324.88
353.447	324.88
353.674	308.88
353.901	316.88
354.128	314.88
354.355	314.88
354.583	308.88
354.81	305.88
355.037	313.88
355.264	320.88
355.491	329.88
355.718	315.88
355.945	309.88
356.172	313.88
356.399	325.88
356.626	317.88
356.853	303.88
357.08	323.88
357.307	308.88
357.534	309.88
357.761	322.88
357.988	326.88
358.215	337.88
358.441	315.88
358.668	313.88
358.895	329.88
359.122	312.88
359.349	307.88
359.576	302.88
359.802	334.88
360.029	317.88
360.256	315.88
360.483	320.88
360.709	329.88
360.936	332.88
361.163	332.88
361.39	329.88
361.616	325.88
361.843	329.88
362.07	331.88
362.296	343.88
362.523	333.88
362.749	322.88
362.976	325.88
363.203	320.88
363.429	312.88
363.656	330.88
363.882	348.88
364.109	315.88
364.335	324.88
364.562	325.88
364.788	330.88
365.015	346.88
365.241	331.88
365.468	335.88
365.694	317.88
365.92	349.88
366.147	329.88
366.373	331.88
366.599	332.88
366.826	326.88
367.052	321.88
367.278	318.88
367.505	326.88
367.731	346.88
367.957	328.88
368.184	333.88
368.41	342.88
368.636	330.88
368.862	338.88
369.089	322.88
369.315	336.88
369.541	344.88
369.767	325.88
369.993	350.88
370.219	310.88
370.445	342.88
370.672	339.88
370.898	348.88
371.124	350.88
371.35	366.88
371.576	339.88
371.802	320.88
372.028	356.88
372.254	348.88
372.48	360.88
372.706	339.88
372.932	367.88
373.158	374.88
373.384	375.88
373.61	352.88
373.835	359.88
374.061	349.88
374.287	352.88
374.513	339.88
374.739	364.88
374.965	374.88
375.191	364.88
375.416	373.88
375.642	354.88
375.868	350.88
376.094	362.88
376.319	358.88
376.545	354.88
376.771	348.88
376.997	325.88
377.222	363.88
377.448	358.88
377.674	348.88
377.899	347.88
378.125	328.88
378.35	363.88
378.576	364.88
378.802	360.88
379.027	352.88
379.253	347.88
379.478	352.88
379.704	355.88
379.929	356.88
380.155	337.88
380.38	352.88
380.606	342.88
380.831	349.88
381.057	342.88
381.282	346.88
381.507	346.88
381.733	364.88
381.958	365.88
382.184	365.88
382.409	358.88
382.634	363.88
382.86	363.88
383.085	376.88
383.31	370.88
383.535	388.88
383.761	390.88
383.986	383.88
384.211	381.88
384.436	380.88
384.662	378.88
384.887	401.88
385.112	384.88
385.337	386.88
385.562	379.88
385.787	395.88
386.013	416.88
386.238	388.88
386.463	395.88
386.688	404.88
386.913	385.88
387.138	406.88
387.363	405.88
387.588	408.88
387.813	395.88
388.038	417.88
388.263	412.88
388.488	405.88
388.713	421.88
388.938	413.88
389.163	402.88
389.387	385.88
389.612	408.88
389.837	396.88
390.062	410.88
390.287	416.88
390.512	420.88
390.736	422.88
390.961	413.88
391.186	420.88
391.411	416.88
391.636	411.88
391.86	440.88
392.085	418.88
392.31	448.88
392.534	412.88
392.759	441.88
392.984	435.88
393.208	420.88
393.433	434.88
393.658	416.88
393.882	413.88
394.107	427.88
394.331	420.88
394.556	439.88
394.78	426.88
395.005	426.88
395.229	437.88
395.454	444.88
395.678	448.88
395.903	448.88
396.127	426.88
396.352	450.88
396.576	425.88
396.801	431.88
397.025	452.88
397.249	455.88
397.474	458.88
397.698	487.88
397.922	468.88
398.147	464.88
398.371	460.88
398.595	522.88
398.82	504.88
399.044	524.88
399.268	562.88
399.492	578.88
399.717	610.88
399.941	567.88
400.165	574.88
400.389	560.88
400.613	512.88
400.837	513.88
401.062	500.88
401.286	500.88
401.51	501.88
401.734	493.88
401.958	472.88
402.182	477.88
402.406	488.88
402.63	502.88
402.854	502.88
403.078	475.88
403.302	497.88
403.526	505.88
403.75	500.88
403.974	482.88
404.198	498.88
404.422	512.88
404.645	496.88
404.869	487.88
405.093	492.88
405.317	510.88
405.541	496.88
405.765	492.88
405.988	520.88
406.212	497.88
406.436	504.88
406.66	523.88
406.883	525.88
407.107	546.88
407.331	529.88
407.555	549.88
407.778	564.88
408.002	566.88
408.226	558.88
408.449	528.88
408.673	504.88
408.896	530.88
409.12	522.88
409.344	522.88
409.567	510.88
409.791	519.88
410.014	527.88
410.238	493.88
410.461	499.88
410.685	485.88
410.908	484.88
411.132	517.88
411.355	490.88
411.578	475.88
411.802	494.88
412.025	476.88
412.249	493.88
412.472	476.88
412.695	483.88
412.919	478.88
413.142	492.88
413.365	485.88
413.589	494.88
413.812	474.88
414.035	465.88
414.258	482.88
414.482	465.88
414.705	485.88
414.928	497.88
415.151	488.88
415.374	469.88
415.597	465.88
415.821	469.88
416.044	475.88
416.267	462.88
416.49	482.88
416.713	480.88
416.936	481.88
417.159	478.88
417.382	434.88
417.605	485.88
417.828	461.88
418.051	458.88
418.274	473.88
418.497	463.88
418.72	485.88
418.943	471.88
419.166	477.88
419.389	493.88
419.611	508.88
419.834	478.88
420.057	490.88
420.28	476.88
420.503	462.88
420.726	461.88
420.948	443.88
421.171	441.88
421.394	457.88
421.617	472.88
421.839	454.88
422.062	456.88
422.285	443.88
422.507	464.88
422.73	442.88
422.953	464.88
423.175	476.88
423.398	468.88
423.621	467.88
423.843	457.88
424.066	463.88
424.288	468.88
424.511	461.88
424.733	471.88
424.956	450.88
425.178	442.88
425.401	454.88
425.623	462.88
425.846	457.88
426.068	437.88
426.291	442.88
426.513	451.88
426.735	450.88
426.958	458.88
427.18	443.88
427.402	440.88
427.625	429.88
427.847	432.88
428.069	424.88
428.292	417.88
428.514	421.88
428.736	441.88
428.958	421.88
429.181	421.88
429.403	423.88
429.625	434.88
429.847	437.88
430.069	411.88
430.292	432.88
430.514	408.88
430.736	418.88
430.958	430.88
431.18	418.88
431.402	420.88
431.624	414.88
431.846	427.88
432.068	426.88
432.29	427.88
432.512	428.88
432.734	432.88
432.956	418.88
433.178	444.88
433.4	423.88
433.622	414.88
433.844	436.88
434.066	426.88
434.287	432.88
434.509	450.88
434.731	454.88
434.953	455.88
435.175	466.88
435.397	450.88
435.618	439.88
435.84	441.88
436.062	411.88
436.284	441.88
436.505	426.88
436.727	428.88
436.949	425.88
437.17	413.88
437.392	442.88
437.614	421.88
437.835	410.88
438.057	410.88
438.278	409.88
438.5	420.88
438.721	410.88
438.943	408.88
439.165	421.88
439.386	408.88
439.608	419.88
439.829	422.88
440.05	402.88
440.272	422.88
440.493	414.88
440.715	413.88
440.936	444.88
441.158	436.88
441.379	439.88
441.6	418.88
441.822	437.88
442.043	448.88
442.264	477.88
442.486	430.88
442.707	442.88
442.928	444.88
443.149	432.88
443.371	437.88
443.592	453.88
443.813	437.88
444.034	434.88
444.255	457.88
444.476	483.88
444.698	471.88
444.919	481.88
445.14	559.88
445.361	497.88
445.582	459.88
445.803	436.88
446.024	449.88
446.245	434.88
446.466	424.88
446.687	432.88
446.908	418.88
447.129	408.88
447.35	413.88
447.571	404.88
447.792	391.88
448.013	417.88
448.234	413.88
448.455	417.88
448.675	397.88
448.896	409.88
449.117	396.88
449.338	380.88
449.559	407.88
449.779	378.88
450	384.88
450.221	393.88
450.442	392.88
450.662	392.88
450.883	392.88
451.104	395.88
451.324	372.88
451.545	363.88
451.766	376.88
451.986	382.88
452.207	374.88
452.428	393.88
452.648	389.88
452.869	375.88
453.089	373.88
453.31	380.88
453.53	377.88
453.751	372.88
453.971	396.88
454.192	374.88
454.412	377.88
454.633	364.88
454.853	354.88
455.073	386.88
455.294	373.88
455.514	368.88
455.734	376.88
455.955	369.88
456.175	374.88
456.395	385.88
456.616	370.88
456.836	377.88
457.056	373.88
457.276	378.88
457.497	360.88
457.717	389.88
457.937	379.88
458.157	388.88
458.377	389.88
458.598	389.88
458.818	384.88
459.038	414.88
459.258	400.88
459.478	423.88
459.698	420.88
459.918	430.88
460.138	427.88
460.358	451.88
460.578	470.88
460.798	461.88
461.018	475.88
461.238	448.88
461.458	475.88
461.678	487.88
461.898	473.88
462.118	493.88
462.338	496.88
462.558	486.88
462.777	520.88
462.997	542.88
463.217	523.88
463.437	549.88
463.657	530.88
463.876	532.88
464.096	532.88
464.316	499.88
464.536	513.88
464.755	501.88
464.975	483.88
465.195	469.88
465.414	488.88
465.634	445.88
465.854	438.88
466.073	439.88
466.293	430.88
466.512	426.88
466.732	408.88
466.951	426.88
467.171	413.88
467.391	417.88
467.61	406.88
467.829	397.88
468.049	389.88
468.268	421.88
468.488	400.88
468.707	378.88
468.927	397.88
469.146	397.88
469.365	413.88
469.585	416.88
469.804	428.88
470.023	403.88
470.243	420.88
470.462	426.88
470.681	406.88
470.901	423.88
471.12	421.88
471.339	432.88
471.558	398.88
471.777	422.88
471.997	408.88
472.216	397.88
472.435	418.88
472.654	424.88
472.873	412.88
473.092	412.88
473.311	399.88
473.53	393.88
473.749	414.88
473.968	408.88
474.187	392.88
474.406	385.88
474.625	402.88
474.844	403.88
475.063	386.88
475.282	412.88
475.501	414.88
475.72	414.88
475.939	399.88
476.158	444.88
476.377	446.88
476.596	438.88
476.814	459.88
477.033	439.88
477.252	452.88
477.471	469.88
477.69	453.88
477.908	442.88
478.127	461.88
478.346	494.88
478.564	465.88
478.783	477.88
479.002	462.88
479.22	486.88
479.439	482.88
479.658	485.88
479.876	498.88
480.095	485.88
480.313	502.88
480.532	504.88
480.751	500.88
480.969	484.88
481.188	517.88
481.406	491.88
481.624	489.88
481.843	505.88
482.061	482.88
482.28	472.88
482.498	461.88
482.717	473.88
482.935	465.88
483.153	512.88
483.372	468.88
483.59	468.88
483.808	474.88
484.027	460.88
484.245	488.88
484.463	467.88
484.681	509.88
484.9	478.88
485.118	502.88
485.336	484.88
485.554	488.88
485.772	494.88
485.99	496.88
486.209	481.88
486.427	512.88
486.645	482.88
486.863	485.88
487.081	522.88
487.299	486.88
487.517	494.88
487.735	472.88
487.953	490.88
488.171	499.88
488.389	488.88
488.607	466.88
488.825	482.88
489.043	500.88
489.261	479.88
489.479	492.88
489.696	498.88
489.914	469.88
490.132	497.88
490.35	493.88
490.568	485.88
490.786	472.88
491.003	480.88
491.221	501.88
491.439	477.88
491.657	499.88
491.874	487.88
492.092	502.88
492.31	506.88
492.527	506.88
492.745	492.88
492.963	516.88
493.18	502.88
493.398	496.88
493.615	525.88
493.833	522.88
494.05	553.88
494.268	516.88
494.485	521.88
494.703	514.88
494.92	544.88
495.138	515.88
495.355	525.88
495.573	502.88
495.79	546.88
496.008	515.88
496.225	521.88
496.442	531.88
496.66	550.88
496.877	562.88
497.094	550.88
497.312	560.88
497.529	564.88
497.746	571.88
497.963	579.88
498.181	640.88
498.398	651.88
498.615	641.88
498.832	691.88
499.049	726.88
499.267	750.88
499.484	798.88
499.701	824.88
499.918	894.88
500.135	949.88
500.352	976.88
500.569	992.88
500.786	962.88
501.003	931.88
501.22	868.88
501.437	867.88
501.654	825.88
501.871	762.88
502.088	730.88
