Data from Fe(NO3)3@0.0125M.TitratingCurve.Agarose3%dH2O.NegLispCup.LampEnergy10.LIBS07252019_HRD10591_16-58-58-336.txt Node
Date: Thu Jul 25 16:58:58 EDT 2019
User: cochatt
Spectrometer: HR+D1059
Trigger mode: 1
Integration Time (sec): 1.000000E-1
Scans to average: 1
Electric dark correction enabled: true
Nonlinearity correction enabled: false
Boxcar width: 0
XAxis mode: Wavelengths
Number of Pixels in Spectrum: 2048
>>>>>Begin Spectral Data<<<<<
223.165	-21.12
223.4	-21.12
223.635	-21.12
223.869	-29.12
224.104	-30.12
224.338	-12.12
224.573	2.88
224.808	-17.12
225.042	-7.12
225.277	-12.12
225.511	-6.12
225.746	13.88
225.98	7.88
226.215	0.88
226.449	11.88
226.683	16.88
226.918	31.88
227.152	48.88
227.387	39.88
227.621	39.88
227.856	43.88
228.09	49.88
228.324	47.88
228.559	73.88
228.793	66.88
229.027	84.88
229.262	100.88
229.496	122.88
229.73	114.88
229.964	121.88
230.199	122.88
230.433	120.88
230.667	121.88
230.901	137.88
231.136	112.88
231.37	132.88
231.604	129.88
231.838	133.88
232.072	133.88
232.306	127.88
232.541	151.88
232.775	136.88
233.009	142.88
233.243	144.88
233.477	140.88
233.711	147.88
233.945	156.88
234.179	155.88
234.413	152.88
234.647	134.88
234.881	151.88
235.115	155.88
235.349	152.88
235.583	159.88
235.817	140.88
236.051	154.88
236.285	148.88
236.519	144.88
236.753	174.88
236.987	167.88
237.221	153.88
237.455	142.88
237.689	174.88
237.922	166.88
238.156	168.88
238.39	165.88
238.624	165.88
238.858	179.88
239.091	160.88
239.325	160.88
239.559	170.88
239.793	173.88
240.027	168.88
240.26	167.88
240.494	170.88
240.728	188.88
240.961	191.88
241.195	190.88
241.429	192.88
241.662	183.88
241.896	186.88
242.13	175.88
242.363	202.88
242.597	192.88
242.83	203.88
243.064	191.88
243.298	202.88
243.531	200.88
243.765	188.88
243.998	209.88
244.232	202.88
244.465	204.88
244.699	202.88
244.932	216.88
245.166	219.88
245.399	202.88
245.633	196.88
245.866	207.88
246.099	211.88
246.333	223.88
246.566	208.88
246.8	212.88
247.033	213.88
247.266	221.88
247.5	207.88
247.733	218.88
247.966	228.88
248.2	244.88
248.433	249.88
248.666	225.88
248.899	244.88
249.133	215.88
249.366	245.88
249.599	247.88
249.832	239.88
250.066	247.88
250.299	236.88
250.532	236.88
250.765	246.88
250.998	264.88
251.231	263.88
251.465	253.88
251.698	256.88
251.931	254.88
252.164	252.88
252.397	238.88
252.63	266.88
252.863	264.88
253.096	274.88
253.329	258.88
253.562	266.88
253.795	286.88
254.028	272.88
254.261	266.88
254.494	278.88
254.727	265.88
254.96	305.88
255.193	294.88
255.426	280.88
255.659	257.88
255.892	284.88
256.124	264.88
256.357	276.88
256.59	279.88
256.823	282.88
257.056	278.88
257.289	286.88
257.521	284.88
257.754	295.88
257.987	290.88
258.22	282.88
258.452	295.88
258.685	299.88
258.918	303.88
259.151	313.88
259.383	304.88
259.616	308.88
259.849	318.88
260.081	315.88
260.314	331.88
260.547	334.88
260.779	333.88
261.012	330.88
261.244	321.88
261.477	338.88
261.71	343.88
261.942	334.88
262.175	311.88
262.407	312.88
262.64	329.88
262.872	346.88
263.105	354.88
263.337	341.88
263.57	329.88
263.802	366.88
264.035	337.88
264.267	330.88
264.499	344.88
264.732	332.88
264.964	343.88
265.197	339.88
265.429	337.88
265.661	353.88
265.894	350.88
266.126	340.88
266.358	348.88
266.591	372.88
266.823	351.88
267.055	371.88
267.287	358.88
267.52	352.88
267.752	370.88
267.984	358.88
268.216	386.88
268.448	344.88
268.681	357.88
268.913	371.88
269.145	361.88
269.377	368.88
269.609	402.88
269.841	363.88
270.073	376.88
270.306	371.88
270.538	382.88
270.77	377.88
271.002	394.88
271.234	376.88
271.466	391.88
271.698	395.88
271.93	406.88
272.162	398.88
272.394	408.88
272.626	385.88
272.858	414.88
273.09	400.88
273.322	380.88
273.553	400.88
273.785	407.88
274.017	427.88
274.249	441.88
274.481	432.88
274.713	441.88
274.945	462.88
275.176	449.88
275.408	440.88
275.64	449.88
275.872	445.88
276.104	446.88
276.335	436.88
276.567	451.88
276.799	422.88
277.031	444.88
277.262	450.88
277.494	424.88
277.726	433.88
277.957	457.88
278.189	456.88
278.421	440.88
278.652	463.88
278.884	442.88
279.115	449.88
279.347	460.88
279.579	455.88
279.81	452.88
280.042	450.88
280.273	464.88
280.505	472.88
280.736	454.88
280.968	462.88
281.199	458.88
281.431	461.88
281.662	480.88
281.894	473.88
282.125	466.88
282.356	484.88
282.588	482.88
282.819	483.88
283.051	473.88
283.282	478.88
283.513	484.88
283.745	476.88
283.976	504.88
284.207	501.88
284.439	502.88
284.67	490.88
284.901	487.88
285.132	502.88
285.364	491.88
285.595	499.88
285.826	512.88
286.057	510.88
286.288	498.88
286.52	527.88
286.751	514.88
286.982	518.88
287.213	542.88
287.444	516.88
287.675	542.88
287.906	519.88
288.138	514.88
288.369	523.88
288.6	558.88
288.831	551.88
289.062	533.88
289.293	514.88
289.524	548.88
289.755	541.88
289.986	532.88
290.217	528.88
290.448	555.88
290.679	543.88
290.91	535.88
291.141	536.88
291.371	543.88
291.602	537.88
291.833	534.88
292.064	568.88
292.295	541.88
292.526	548.88
292.757	565.88
292.987	542.88
293.218	530.88
293.449	548.88
293.68	546.88
293.91	535.88
294.141	554.88
294.372	541.88
294.603	561.88
294.833	553.88
295.064	567.88
295.295	574.88
295.525	577.88
295.756	540.88
295.987	540.88
296.217	571.88
296.448	569.88
296.679	574.88
296.909	566.88
297.14	584.88
297.37	594.88
297.601	582.88
297.831	584.88
298.062	583.88
298.292	598.88
298.523	584.88
298.753	599.88
298.984	611.88
299.214	604.88
299.445	596.88
299.675	602.88
299.905	593.88
300.136	595.88
300.366	598.88
300.597	616.88
300.827	598.88
301.057	612.88
301.288	604.88
301.518	620.88
301.748	640.88
301.979	618.88
302.209	639.88
302.439	631.88
302.669	629.88
302.9	640.88
303.13	622.88
303.36	640.88
303.59	616.88
303.82	623.88
304.051	626.88
304.281	627.88
304.511	639.88
304.741	631.88
304.971	622.88
305.201	620.88
305.431	617.88
305.661	676.88
305.891	629.88
306.121	618.88
306.352	639.88
306.582	639.88
306.812	605.88
307.042	658.88
307.272	622.88
307.502	631.88
307.731	661.88
307.961	650.88
308.191	655.88
308.421	646.88
308.651	645.88
308.881	645.88
309.111	655.88
309.341	638.88
309.571	645.88
309.8	651.88
310.03	658.88
310.26	642.88
310.49	636.88
310.72	652.88
310.949	649.88
311.179	690.88
311.409	675.88
311.639	679.88
311.868	681.88
312.098	696.88
312.328	692.88
312.557	684.88
312.787	708.88
313.017	687.88
313.246	674.88
313.476	683.88
313.706	680.88
313.935	678.88
314.165	697.88
314.394	707.88
314.624	707.88
314.853	689.88
315.083	698.88
315.312	735.88
315.542	710.88
315.771	705.88
316.001	679.88
316.23	704.88
316.46	714.88
316.689	730.88
316.919	734.88
317.148	726.88
317.377	730.88
317.607	715.88
317.836	705.88
318.065	732.88
318.295	721.88
318.524	732.88
318.753	703.88
318.983	722.88
319.212	717.88
319.441	725.88
319.67	748.88
319.9	741.88
320.129	752.88
320.358	731.88
320.587	752.88
320.816	755.88
321.046	736.88
321.275	726.88
321.504	747.88
321.733	730.88
321.962	743.88
322.191	767.88
322.42	761.88
322.649	759.88
322.878	766.88
323.108	764.88
323.337	761.88
323.566	777.88
323.795	764.88
324.024	758.88
324.253	788.88
324.482	782.88
324.71	784.88
324.939	778.88
325.168	760.88
325.397	765.88
325.626	803.88
325.855	807.88
326.084	780.88
326.313	781.88
326.542	777.88
326.77	795.88
326.999	790.88
327.228	791.88
327.457	804.88
327.686	778.88
327.914	806.88
328.143	801.88
328.372	805.88
328.6	821.88
328.829	799.88
329.058	819.88
329.287	816.88
329.515	824.88
329.744	788.88
329.972	825.88
330.201	821.88
330.43	836.88
330.658	814.88
330.887	848.88
331.115	819.88
331.344	823.88
331.572	815.88
331.801	842.88
332.03	805.88
332.258	818.88
332.486	854.88
332.715	842.88
332.943	835.88
333.172	844.88
333.4	844.88
333.629	907.88
333.857	869.88
334.085	843.88
334.314	875.88
334.542	890.88
334.771	904.88
334.999	867.88
335.227	904.88
335.455	904.88
335.684	874.88
335.912	902.88
336.14	908.88
336.369	869.88
336.597	905.88
336.825	891.88
337.053	883.88
337.281	879.88
337.51	858.88
337.738	887.88
337.966	880.88
338.194	883.88
338.422	874.88
338.65	874.88
338.878	879.88
339.106	880.88
339.334	875.88
339.562	867.88
339.79	870.88
340.018	831.88
340.246	855.88
340.474	863.88
340.702	862.88
340.93	875.88
341.158	846.88
341.386	863.88
341.614	872.88
341.842	858.88
342.07	880.88
342.298	867.88
342.526	886.88
342.754	864.88
342.981	882.88
343.209	860.88
343.437	874.88
343.665	869.88
343.893	893.88
344.12	884.88
344.348	881.88
344.576	888.88
344.804	895.88
345.031	874.88
345.259	890.88
345.487	863.88
345.714	839.88
345.942	867.88
346.17	847.88
346.397	864.88
346.625	851.88
346.853	840.88
347.08	871.88
347.308	860.88
347.535	827.88
347.763	836.88
347.99	844.88
348.218	848.88
348.445	849.88
348.673	822.88
348.9	844.88
349.128	828.88
349.355	816.88
349.583	838.88
349.81	824.88
350.037	811.88
350.265	832.88
350.492	834.88
350.72	827.88
350.947	832.88
351.174	845.88
351.402	843.88
351.629	819.88
351.856	846.88
352.083	824.88
352.311	824.88
352.538	825.88
352.765	825.88
352.992	828.88
353.22	801.88
353.447	824.88
353.674	826.88
353.901	812.88
354.128	811.88
354.355	858.88
354.583	822.88
354.81	809.88
355.037	826.88
355.264	841.88
355.491	838.88
355.718	832.88
355.945	816.88
356.172	840.88
356.399	843.88
356.626	863.88
356.853	820.88
357.08	842.88
357.307	823.88
357.534	828.88
357.761	828.88
357.988	864.88
358.215	839.88
358.441	839.88
358.668	814.88
358.895	869.88
359.122	826.88
359.349	816.88
359.576	854.88
359.802	823.88
360.029	816.88
360.256	827.88
360.483	852.88
360.709	838.88
360.936	850.88
361.163	867.88
361.39	837.88
361.616	837.88
361.843	852.88
362.07	849.88
362.296	825.88
362.523	854.88
362.749	858.88
362.976	846.88
363.203	867.88
363.429	875.88
363.656	875.88
363.882	845.88
364.109	842.88
364.335	841.88
364.562	834.88
364.788	864.88
365.015	886.88
365.241	844.88
365.468	851.88
365.694	841.88
365.92	844.88
366.147	801.88
366.373	840.88
366.599	863.88
366.826	887.88
367.052	848.88
367.278	870.88
367.505	867.88
367.731	891.88
367.957	874.88
368.184	868.88
368.41	872.88
368.636	916.88
368.862	851.88
369.089	876.88
369.315	871.88
369.541	888.88
369.767	898.88
369.993	858.88
370.219	878.88
370.445	876.88
370.672	894.88
370.898	896.88
371.124	893.88
371.35	890.88
371.576	888.88
371.802	921.88
372.028	884.88
372.254	892.88
372.48	897.88
372.706	918.88
372.932	891.88
373.158	918.88
373.384	913.88
373.61	910.88
373.835	921.88
374.061	903.88
374.287	907.88
374.513	917.88
374.739	889.88
374.965	942.88
375.191	933.88
375.416	942.88
375.642	927.88
375.868	899.88
376.094	914.88
376.319	898.88
376.545	912.88
376.771	912.88
376.997	891.88
377.222	917.88
377.448	896.88
377.674	901.88
377.899	886.88
378.125	916.88
378.35	898.88
378.576	889.88
378.802	922.88
379.027	892.88
379.253	896.88
379.478	875.88
379.704	894.88
379.929	894.88
380.155	886.88
380.38	911.88
380.606	909.88
380.831	911.88
381.057	948.88
381.282	898.88
381.507	928.88
381.733	944.88
381.958	944.88
382.184	922.88
382.409	895.88
382.634	939.88
382.86	920.88
383.085	930.88
383.31	942.88
383.535	938.88
383.761	940.88
383.986	922.88
384.211	942.88
384.436	929.88
384.662	947.88
384.887	937.88
385.112	955.88
385.337	973.88
385.562	962.88
385.787	971.88
386.013	971.88
386.238	961.88
386.463	967.88
386.688	993.88
386.913	982.88
387.138	995.88
387.363	1022.88
387.588	981.88
387.813	983.88
388.038	976.88
388.263	991.88
388.488	988.88
388.713	993.88
388.938	983.88
389.163	993.88
389.387	984.88
389.612	973.88
389.837	991.88
390.062	983.88
390.287	990.88
390.512	1025.88
390.736	981.88
390.961	984.88
391.186	1029.88
391.411	1001.88
391.636	1016.88
391.86	1007.88
392.085	1008.88
392.31	1008.88
392.534	1023.88
392.759	1015.88
392.984	1046.88
393.208	1030.88
393.433	1062.88
393.658	1030.88
393.882	1063.88
394.107	1012.88
394.331	1030.88
394.556	1050.88
394.78	1021.88
395.005	991.88
395.229	1025.88
395.454	1039.88
395.678	1040.88
395.903	1018.88
396.127	1033.88
396.352	1050.88
396.576	1064.88
396.801	1032.88
397.025	1041.88
397.249	1074.88
397.474	1060.88
397.698	1063.88
397.922	1062.88
398.147	1081.88
398.371	1091.88
398.595	1113.88
398.82	1082.88
399.044	1148.88
399.268	1158.88
399.492	1174.88
399.717	1182.88
399.941	1214.88
400.165	1177.88
400.389	1186.88
400.613	1153.88
400.837	1154.88
401.062	1143.88
401.286	1158.88
401.51	1099.88
401.734	1122.88
401.958	1124.88
402.182	1118.88
402.406	1098.88
402.63	1118.88
402.854	1099.88
403.078	1130.88
403.302	1106.88
403.526	1122.88
403.75	1136.88
403.974	1110.88
404.198	1132.88
404.422	1135.88
404.645	1119.88
404.869	1145.88
405.093	1150.88
405.317	1098.88
405.541	1127.88
405.765	1135.88
405.988	1113.88
406.212	1186.88
406.436	1148.88
406.66	1147.88
406.883	1177.88
407.107	1171.88
407.331	1196.88
407.555	1251.88
407.778	1218.88
408.002	1235.88
408.226	1218.88
408.449	1236.88
408.673	1206.88
408.896	1191.88
409.12	1152.88
409.344	1210.88
409.567	1147.88
409.791	1162.88
410.014	1162.88
410.238	1140.88
410.461	1163.88
410.685	1168.88
410.908	1161.88
411.132	1128.88
411.355	1095.88
411.578	1128.88
411.802	1094.88
412.025	1138.88
412.249	1107.88
412.472	1148.88
412.695	1144.88
412.919	1115.88
413.142	1137.88
413.365	1118.88
413.589	1150.88
413.812	1129.88
414.035	1118.88
414.258	1104.88
414.482	1127.88
414.705	1122.88
414.928	1104.88
415.151	1107.88
415.374	1088.88
415.597	1073.88
415.821	1068.88
416.044	1063.88
416.267	1092.88
416.49	1072.88
416.713	1093.88
416.936	1086.88
417.159	1042.88
417.382	1030.88
417.605	1010.88
417.828	1055.88
418.051	1054.88
418.274	1035.88
418.497	1028.88
418.72	1032.88
418.943	1035.88
419.166	1086.88
419.389	1130.88
419.611	1139.88
419.834	1111.88
420.057	1070.88
420.28	1081.88
420.503	1053.88
420.726	1037.88
420.948	1028.88
421.171	1046.88
421.394	1031.88
421.617	1043.88
421.839	1054.88
422.062	1024.88
422.285	1041.88
422.507	1053.88
422.73	1040.88
422.953	1027.88
423.175	1036.88
423.398	1043.88
423.621	1040.88
423.843	1065.88
424.066	1040.88
424.288	1046.88
424.511	1039.88
424.733	1049.88
424.956	1036.88
425.178	1051.88
425.401	1058.88
425.623	1042.88
425.846	1036.88
426.068	1012.88
426.291	1044.88
426.513	1043.88
426.735	1038.88
426.958	1017.88
427.18	1024.88
427.402	1008.88
427.625	1059.88
427.847	1004.88
428.069	1014.88
428.292	1038.88
428.514	1035.88
428.736	1054.88
428.958	1036.88
429.181	1006.88
429.403	993.88
429.625	986.88
429.847	1016.88
430.069	1014.88
430.292	1041.88
430.514	1001.88
430.736	1020.88
430.958	1008.88
431.18	1006.88
431.402	1024.88
431.624	1011.88
431.846	1000.88
432.068	1005.88
432.29	998.88
432.512	1002.88
432.734	1041.88
432.956	1019.88
433.178	1046.88
433.4	993.88
433.622	1032.88
433.844	1022.88
434.066	994.88
434.287	1011.88
434.509	1058.88
434.731	1059.88
434.953	1030.88
435.175	1020.88
435.397	1017.88
435.618	1030.88
435.84	1033.88
436.062	1013.88
436.284	1010.88
436.505	1003.88
436.727	1006.88
436.949	1028.88
437.17	1009.88
437.392	960.88
437.614	990.88
437.835	972.88
438.057	978.88
438.278	978.88
438.5	987.88
438.721	952.88
438.943	1006.88
439.165	991.88
439.386	977.88
439.608	963.88
439.829	987.88
440.05	981.88
440.272	967.88
440.493	974.88
440.715	1016.88
440.936	996.88
441.158	980.88
441.379	971.88
441.6	988.88
441.822	1032.88
442.043	989.88
442.264	1023.88
442.486	1033.88
442.707	1008.88
442.928	995.88
443.149	1008.88
443.371	990.88
443.592	999.88
443.813	1028.88
444.034	1025.88
444.255	1038.88
444.476	1028.88
444.698	1014.88
444.919	1035.88
445.14	1130.88
445.361	1032.88
445.582	987.88
445.803	1020.88
446.024	996.88
446.245	979.88
446.466	991.88
446.687	937.88
446.908	961.88
447.129	975.88
447.35	976.88
447.571	978.88
447.792	934.88
448.013	954.88
448.234	942.88
448.455	945.88
448.675	936.88
448.896	944.88
449.117	917.88
449.338	950.88
449.559	916.88
449.779	936.88
450	903.88
450.221	931.88
450.442	910.88
450.662	918.88
450.883	903.88
451.104	938.88
451.324	939.88
451.545	915.88
451.766	907.88
451.986	908.88
452.207	907.88
452.428	920.88
452.648	954.88
452.869	928.88
453.089	894.88
453.31	903.88
453.53	889.88
453.751	889.88
453.971	893.88
454.192	894.88
454.412	890.88
454.633	881.88
454.853	921.88
455.073	885.88
455.294	888.88
455.514	894.88
455.734	887.88
455.955	868.88
456.175	881.88
456.395	900.88
456.616	882.88
456.836	891.88
457.056	932.88
457.276	870.88
457.497	914.88
457.717	894.88
457.937	915.88
458.157	920.88
458.377	951.88
458.598	947.88
458.818	948.88
459.038	928.88
459.258	947.88
459.478	938.88
459.698	966.88
459.918	971.88
460.138	984.88
460.358	976.88
460.578	999.88
460.798	1029.88
461.018	1041.88
461.238	1028.88
461.458	1058.88
461.678	1022.88
461.898	1072.88
462.118	1024.88
462.338	1035.88
462.558	1087.88
462.777	1102.88
462.997	1106.88
463.217	1078.88
463.437	1126.88
463.657	1079.88
463.876	1097.88
464.096	1112.88
464.316	1079.88
464.536	1073.88
464.755	1078.88
464.975	1071.88
465.195	1064.88
465.414	1027.88
465.634	1002.88
465.854	1012.88
466.073	1023.88
466.293	1017.88
466.512	986.88
466.732	962.88
466.951	998.88
467.171	995.88
467.391	973.88
467.61	961.88
467.829	964.88
468.049	951.88
468.268	966.88
468.488	965.88
468.707	961.88
468.927	959.88
469.146	972.88
469.365	959.88
469.585	955.88
469.804	981.88
470.023	957.88
470.243	972.88
470.462	973.88
470.681	992.88
470.901	990.88
471.12	968.88
471.339	989.88
471.558	968.88
471.777	988.88
471.997	975.88
472.216	1000.88
472.435	980.88
472.654	996.88
472.873	990.88
473.092	961.88
473.311	949.88
473.53	978.88
473.749	996.88
473.968	984.88
474.187	1016.88
474.406	983.88
474.625	1015.88
474.844	1014.88
475.063	987.88
475.282	993.88
475.501	995.88
475.72	1034.88
475.939	1014.88
476.158	1033.88
476.377	1052.88
476.596	1048.88
476.814	1074.88
477.033	1054.88
477.252	1097.88
477.471	1061.88
477.69	1099.88
477.908	1087.88
478.127	1097.88
478.346	1088.88
478.564	1131.88
478.783	1127.88
479.002	1131.88
479.22	1112.88
479.439	1149.88
479.658	1170.88
479.876	1145.88
480.095	1148.88
480.313	1205.88
480.532	1150.88
480.751	1146.88
480.969	1153.88
481.188	1161.88
481.406	1190.88
481.624	1169.88
481.843	1156.88
482.061	1145.88
482.28	1176.88
482.498	1141.88
482.717	1184.88
482.935	1178.88
483.153	1175.88
483.372	1209.88
483.59	1175.88
483.808	1212.88
484.027	1216.88
484.245	1160.88
484.463	1214.88
484.681	1187.88
484.9	1214.88
485.118	1174.88
485.336	1172.88
485.554	1164.88
485.772	1233.88
485.99	1201.88
486.209	1219.88
486.427	1207.88
486.645	1219.88
486.863	1211.88
487.081	1236.88
487.299	1216.88
487.517	1191.88
487.735	1242.88
487.953	1208.88
488.171	1238.88
488.389	1188.88
488.607	1207.88
488.825	1216.88
489.043	1209.88
489.261	1233.88
489.479	1220.88
489.696	1190.88
489.914	1202.88
490.132	1234.88
490.35	1241.88
490.568	1192.88
490.786	1216.88
491.003	1244.88
491.221	1240.88
491.439	1246.88
491.657	1223.88
491.874	1243.88
492.092	1240.88
492.31	1240.88
492.527	1260.88
492.745	1250.88
492.963	1229.88
493.18	1256.88
493.398	1212.88
493.615	1228.88
493.833	1234.88
494.05	1247.88
494.268	1248.88
494.485	1239.88
494.703	1278.88
494.92	1269.88
495.138	1267.88
495.355	1265.88
495.573	1304.88
495.79	1299.88
496.008	1317.88
496.225	1319.88
496.442	1290.88
496.66	1333.88
496.877	1314.88
