Data from Fe(NO3)3@0.1M.TitratingCurve.Agarose3%dH2O.NegLispCup.LampEnergy10.LIBS07252019_HRD10591_16-41-12-332.txt Node
Date: Thu Jul 25 16:41:12 EDT 2019
User: cochatt
Spectrometer: HR+D1059
Trigger mode: 1
Integration Time (sec): 1.000000E-1
Scans to average: 1
Electric dark correction enabled: true
Nonlinearity correction enabled: false
Boxcar width: 0
XAxis mode: Wavelengths
Number of Pixels in Spectrum: 2048
>>>>>Begin Spectral Data<<<<<
223.165	-28.44
223.4	-28.44
223.635	-28.44
223.869	-26.44
224.104	-17.44
224.338	-16.44
224.573	-7.44
224.808	-11.44
225.042	-28.44
225.277	-5.44
225.511	-7.44
225.746	8.56
225.98	2.56
226.215	21.56
226.449	12.56
226.683	28.56
226.918	34.56
227.152	40.56
227.387	35.56
227.621	38.56
227.856	41.56
228.09	42.56
228.324	51.56
228.559	60.56
228.793	59.56
229.027	65.56
229.262	59.56
229.496	76.56
229.73	80.56
229.964	77.56
230.199	74.56
230.433	92.56
230.667	92.56
230.901	92.56
231.136	94.56
231.37	73.56
231.604	94.56
231.838	96.56
232.072	102.56
232.306	83.56
232.541	82.56
232.775	94.56
233.009	98.56
233.243	109.56
233.477	99.56
233.711	100.56
233.945	96.56
234.179	92.56
234.413	94.56
234.647	95.56
234.881	90.56
235.115	99.56
235.349	112.56
235.583	91.56
235.817	107.56
236.051	103.56
236.285	104.56
236.519	91.56
236.753	86.56
236.987	100.56
237.221	90.56
237.455	96.56
237.689	96.56
237.922	93.56
238.156	93.56
238.39	104.56
238.624	97.56
238.858	92.56
239.091	84.56
239.325	112.56
239.559	99.56
239.793	115.56
240.027	94.56
240.26	107.56
240.494	98.56
240.728	104.56
240.961	107.56
241.195	104.56
241.429	101.56
241.662	105.56
241.896	94.56
242.13	82.56
242.363	102.56
242.597	91.56
242.83	101.56
243.064	102.56
243.298	116.56
243.531	106.56
243.765	101.56
243.998	93.56
244.232	94.56
244.465	118.56
244.699	105.56
244.932	114.56
245.166	107.56
245.399	107.56
245.633	108.56
245.866	102.56
246.099	103.56
246.333	103.56
246.566	115.56
246.8	109.56
247.033	104.56
247.266	114.56
247.5	123.56
247.733	118.56
247.966	118.56
248.2	118.56
248.433	98.56
248.666	110.56
248.899	106.56
249.133	115.56
249.366	131.56
249.599	120.56
249.832	124.56
250.066	124.56
250.299	122.56
250.532	115.56
250.765	119.56
250.998	116.56
251.231	122.56
251.465	126.56
251.698	122.56
251.931	134.56
252.164	124.56
252.397	121.56
252.63	124.56
252.863	116.56
253.096	124.56
253.329	138.56
253.562	121.56
253.795	106.56
254.028	130.56
254.261	127.56
254.494	103.56
254.727	126.56
254.96	122.56
255.193	120.56
255.426	119.56
255.659	152.56
255.892	123.56
256.124	126.56
256.357	132.56
256.59	124.56
256.823	145.56
257.056	131.56
257.289	119.56
257.521	138.56
257.754	135.56
257.987	130.56
258.22	138.56
258.452	146.56
258.685	133.56
258.918	124.56
259.151	128.56
259.383	124.56
259.616	146.56
259.849	150.56
260.081	124.56
260.314	133.56
260.547	132.56
260.779	134.56
261.012	141.56
261.244	146.56
261.477	134.56
261.71	140.56
261.942	155.56
262.175	145.56
262.407	142.56
262.64	138.56
262.872	133.56
263.105	124.56
263.337	154.56
263.57	134.56
263.802	138.56
264.035	133.56
264.267	129.56
264.499	153.56
264.732	147.56
264.964	146.56
265.197	155.56
265.429	146.56
265.661	151.56
265.894	150.56
266.126	149.56
266.358	133.56
266.591	153.56
266.823	144.56
267.055	149.56
267.287	154.56
267.52	141.56
267.752	150.56
267.984	150.56
268.216	170.56
268.448	154.56
268.681	150.56
268.913	162.56
269.145	157.56
269.377	137.56
269.609	163.56
269.841	149.56
270.073	146.56
270.306	151.56
270.538	146.56
270.77	154.56
271.002	151.56
271.234	147.56
271.466	136.56
271.698	144.56
271.93	142.56
272.162	165.56
272.394	160.56
272.626	168.56
272.858	152.56
273.09	160.56
273.322	156.56
273.553	145.56
273.785	161.56
274.017	168.56
274.249	169.56
274.481	164.56
274.713	154.56
274.945	151.56
275.176	156.56
275.408	155.56
275.64	163.56
275.872	160.56
276.104	162.56
276.335	165.56
276.567	153.56
276.799	162.56
277.031	162.56
277.262	155.56
277.494	162.56
277.726	171.56
277.957	163.56
278.189	162.56
278.421	155.56
278.652	163.56
278.884	162.56
279.115	167.56
279.347	170.56
279.579	182.56
279.81	177.56
280.042	170.56
280.273	172.56
280.505	170.56
280.736	164.56
280.968	184.56
281.199	180.56
281.431	175.56
281.662	188.56
281.894	176.56
282.125	171.56
282.356	174.56
282.588	180.56
282.819	176.56
283.051	169.56
283.282	178.56
283.513	191.56
283.745	192.56
283.976	174.56
284.207	180.56
284.439	191.56
284.67	175.56
284.901	191.56
285.132	184.56
285.364	170.56
285.595	160.56
285.826	186.56
286.057	190.56
286.288	202.56
286.52	192.56
286.751	182.56
286.982	177.56
287.213	194.56
287.444	186.56
287.675	177.56
287.906	188.56
288.138	190.56
288.369	194.56
288.6	191.56
288.831	184.56
289.062	187.56
289.293	180.56
289.524	181.56
289.755	168.56
289.986	184.56
290.217	189.56
290.448	179.56
290.679	183.56
290.91	193.56
291.141	196.56
291.371	193.56
291.602	190.56
291.833	196.56
292.064	194.56
292.295	207.56
292.526	206.56
292.757	186.56
292.987	187.56
293.218	175.56
293.449	198.56
293.68	185.56
293.91	191.56
294.141	190.56
294.372	182.56
294.603	188.56
294.833	196.56
295.064	188.56
295.295	199.56
295.525	183.56
295.756	194.56
295.987	199.56
296.217	201.56
296.448	204.56
296.679	177.56
296.909	193.56
297.14	204.56
297.37	211.56
297.601	212.56
297.831	184.56
298.062	200.56
298.292	218.56
298.523	212.56
298.753	196.56
298.984	195.56
299.214	211.56
299.445	202.56
299.675	200.56
299.905	191.56
300.136	183.56
300.366	188.56
300.597	196.56
300.827	213.56
301.057	219.56
301.288	204.56
301.518	217.56
301.748	200.56
301.979	201.56
302.209	224.56
302.439	200.56
302.669	214.56
302.9	212.56
303.13	228.56
303.36	211.56
303.59	209.56
303.82	208.56
304.051	203.56
304.281	211.56
304.511	224.56
304.741	199.56
304.971	204.56
305.201	213.56
305.431	208.56
305.661	199.56
305.891	196.56
306.121	199.56
306.352	210.56
306.582	202.56
306.812	204.56
307.042	206.56
307.272	201.56
307.502	212.56
307.731	210.56
307.961	195.56
308.191	223.56
308.421	203.56
308.651	214.56
308.881	205.56
309.111	198.56
309.341	202.56
309.571	209.56
309.8	229.56
310.03	228.56
310.26	189.56
310.49	179.56
310.72	222.56
310.949	212.56
311.179	215.56
311.409	199.56
311.639	214.56
311.868	195.56
312.098	210.56
312.328	214.56
312.557	221.56
312.787	223.56
313.017	227.56
313.246	232.56
313.476	220.56
313.706	215.56
313.935	205.56
314.165	220.56
314.394	227.56
314.624	213.56
314.853	219.56
315.083	218.56
315.312	235.56
315.542	226.56
315.771	216.56
316.001	232.56
316.23	223.56
316.46	213.56
316.689	226.56
316.919	227.56
317.148	229.56
317.377	227.56
317.607	228.56
317.836	232.56
318.065	202.56
318.295	232.56
318.524	215.56
318.753	212.56
318.983	220.56
319.212	228.56
319.441	216.56
319.67	206.56
319.9	226.56
320.129	203.56
320.358	220.56
320.587	213.56
320.816	229.56
321.046	231.56
321.275	222.56
321.504	221.56
321.733	231.56
321.962	209.56
322.191	211.56
322.42	210.56
322.649	227.56
322.878	220.56
323.108	221.56
323.337	213.56
323.566	225.56
323.795	253.56
324.024	232.56
324.253	218.56
324.482	232.56
324.71	214.56
324.939	224.56
325.168	219.56
325.397	227.56
325.626	230.56
325.855	232.56
326.084	233.56
326.313	231.56
326.542	226.56
326.77	238.56
326.999	210.56
327.228	219.56
327.457	235.56
327.686	241.56
327.914	254.56
328.143	246.56
328.372	224.56
328.6	228.56
328.829	223.56
329.058	242.56
329.287	222.56
329.515	224.56
329.744	252.56
329.972	231.56
330.201	246.56
330.43	235.56
330.658	238.56
330.887	232.56
331.115	244.56
331.344	246.56
331.572	248.56
331.801	248.56
332.03	260.56
332.258	289.56
332.486	278.56
332.715	276.56
332.943	271.56
333.172	293.56
333.4	310.56
333.629	291.56
333.857	298.56
334.085	280.56
334.314	291.56
334.542	281.56
334.771	279.56
334.999	286.56
335.227	276.56
335.455	281.56
335.684	268.56
335.912	274.56
336.14	268.56
336.369	274.56
336.597	270.56
336.825	269.56
337.053	258.56
337.281	262.56
337.51	250.56
337.738	268.56
337.966	260.56
338.194	258.56
338.422	243.56
338.65	248.56
338.878	264.56
339.106	251.56
339.334	254.56
339.562	250.56
339.79	278.56
340.018	262.56
340.246	235.56
340.474	228.56
340.702	237.56
340.93	246.56
341.158	265.56
341.386	248.56
341.614	241.56
341.842	243.56
342.07	259.56
342.298	257.56
342.526	252.56
342.754	230.56
342.981	257.56
343.209	250.56
343.437	257.56
343.665	269.56
343.893	299.56
344.12	278.56
344.348	288.56
344.576	266.56
344.804	245.56
345.031	250.56
345.259	258.56
345.487	228.56
345.714	260.56
345.942	246.56
346.17	241.56
346.397	234.56
346.625	240.56
346.853	227.56
347.08	238.56
347.308	244.56
347.535	261.56
347.763	254.56
347.99	246.56
348.218	243.56
348.445	240.56
348.673	235.56
348.9	226.56
349.128	232.56
349.355	250.56
349.583	222.56
349.81	241.56
350.037	228.56
350.265	239.56
350.492	232.56
350.72	227.56
350.947	226.56
351.174	232.56
351.402	241.56
351.629	220.56
351.856	238.56
352.083	229.56
352.311	226.56
352.538	220.56
352.765	230.56
352.992	236.56
353.22	221.56
353.447	229.56
353.674	231.56
353.901	236.56
354.128	248.56
354.355	229.56
354.583	241.56
354.81	231.56
355.037	230.56
355.264	229.56
355.491	243.56
355.718	246.56
355.945	232.56
356.172	240.56
356.399	222.56
356.626	238.56
356.853	231.56
357.08	225.56
357.307	222.56
357.534	246.56
357.761	234.56
357.988	228.56
358.215	242.56
358.441	228.56
358.668	226.56
358.895	237.56
359.122	235.56
359.349	218.56
359.576	235.56
359.802	238.56
360.029	224.56
360.256	223.56
360.483	211.56
360.709	225.56
360.936	246.56
361.163	233.56
361.39	227.56
361.616	217.56
361.843	237.56
362.07	231.56
362.296	232.56
362.523	231.56
362.749	247.56
362.976	245.56
363.203	241.56
363.429	239.56
363.656	222.56
363.882	229.56
364.109	243.56
364.335	233.56
364.562	238.56
364.788	245.56
365.015	228.56
365.241	220.56
365.468	229.56
365.694	224.56
365.92	226.56
366.147	231.56
366.373	232.56
366.599	242.56
366.826	225.56
367.052	222.56
367.278	233.56
367.505	234.56
367.731	254.56
367.957	244.56
368.184	225.56
368.41	235.56
368.636	250.56
368.862	218.56
369.089	244.56
369.315	232.56
369.541	258.56
369.767	240.56
369.993	240.56
370.219	252.56
370.445	255.56
370.672	250.56
370.898	240.56
371.124	240.56
371.35	242.56
371.576	245.56
371.802	263.56
372.028	266.56
372.254	266.56
372.48	243.56
372.706	257.56
372.932	280.56
373.158	258.56
373.384	273.56
373.61	267.56
373.835	263.56
374.061	257.56
374.287	262.56
374.513	267.56
374.739	270.56
374.965	264.56
375.191	281.56
375.416	274.56
375.642	263.56
375.868	278.56
376.094	245.56
376.319	261.56
376.545	254.56
376.771	266.56
376.997	241.56
377.222	256.56
377.448	261.56
377.674	270.56
377.899	245.56
378.125	256.56
378.35	244.56
378.576	250.56
378.802	254.56
379.027	245.56
379.253	262.56
379.478	247.56
379.704	259.56
379.929	246.56
380.155	250.56
380.38	252.56
380.606	264.56
380.831	256.56
381.057	264.56
381.282	273.56
381.507	268.56
381.733	270.56
381.958	283.56
382.184	272.56
382.409	265.56
382.634	268.56
382.86	263.56
383.085	276.56
383.31	273.56
383.535	270.56
383.761	287.56
383.986	283.56
384.211	289.56
384.436	286.56
384.662	294.56
384.887	293.56
385.112	298.56
385.337	308.56
385.562	299.56
385.787	287.56
386.013	301.56
386.238	274.56
386.463	287.56
386.688	299.56
386.913	285.56
387.138	294.56
387.363	280.56
387.588	310.56
387.813	290.56
388.038	286.56
388.263	290.56
388.488	298.56
388.713	286.56
388.938	291.56
389.163	300.56
389.387	290.56
389.612	303.56
389.837	300.56
390.062	289.56
390.287	282.56
390.512	287.56
390.736	297.56
390.961	294.56
391.186	326.56
391.411	320.56
391.636	306.56
391.86	337.56
392.085	331.56
392.31	324.56
392.534	316.56
392.759	306.56
392.984	327.56
393.208	324.56
393.433	323.56
393.658	315.56
393.882	313.56
394.107	298.56
394.331	314.56
394.556	324.56
394.78	320.56
395.005	320.56
395.229	313.56
395.454	331.56
395.678	336.56
395.903	318.56
396.127	305.56
396.352	314.56
396.576	321.56
396.801	314.56
397.025	306.56
397.249	320.56
397.474	320.56
397.698	333.56
397.922	320.56
398.147	314.56
398.371	352.56
398.595	359.56
398.82	362.56
399.044	372.56
399.268	407.56
399.492	459.56
399.717	506.56
399.941	482.56
400.165	446.56
400.389	402.56
400.613	390.56
400.837	376.56
401.062	380.56
401.286	367.56
401.51	338.56
401.734	354.56
401.958	382.56
402.182	367.56
402.406	382.56
402.63	392.56
402.854	370.56
403.078	403.56
403.302	400.56
403.526	408.56
403.75	395.56
403.974	401.56
404.198	402.56
404.422	422.56
404.645	402.56
404.869	405.56
405.093	382.56
405.317	390.56
405.541	392.56
405.765	396.56
405.988	381.56
406.212	383.56
406.436	388.56
406.66	393.56
406.883	409.56
407.107	421.56
407.331	431.56
407.555	448.56
407.778	470.56
408.002	429.56
408.226	411.56
408.449	426.56
408.673	387.56
408.896	406.56
409.12	409.56
409.344	411.56
409.567	396.56
409.791	423.56
410.014	402.56
410.238	394.56
410.461	415.56
410.685	384.56
410.908	384.56
411.132	396.56
411.355	377.56
411.578	389.56
411.802	402.56
412.025	380.56
412.249	373.56
412.472	374.56
412.695	378.56
412.919	373.56
413.142	370.56
413.365	359.56
413.589	374.56
413.812	364.56
414.035	381.56
414.258	351.56
414.482	350.56
414.705	361.56
414.928	384.56
415.151	386.56
415.374	366.56
415.597	374.56
415.821	375.56
416.044	370.56
416.267	363.56
416.49	369.56
416.713	358.56
416.936	360.56
417.159	379.56
417.382	362.56
417.605	369.56
417.828	361.56
418.051	358.56
418.274	362.56
418.497	369.56
418.72	362.56
418.943	384.56
419.166	406.56
419.389	412.56
419.611	402.56
419.834	388.56
420.057	384.56
420.28	347.56
420.503	342.56
420.726	354.56
420.948	363.56
421.171	372.56
421.394	360.56
421.617	341.56
421.839	378.56
422.062	362.56
422.285	384.56
422.507	377.56
422.73	393.56
422.953	378.56
423.175	391.56
423.398	377.56
423.621	389.56
423.843	367.56
424.066	379.56
424.288	401.56
424.511	387.56
424.733	380.56
424.956	375.56
425.178	375.56
425.401	359.56
425.623	386.56
425.846	361.56
426.068	361.56
426.291	370.56
426.513	350.56
426.735	355.56
426.958	348.56
427.18	321.56
427.402	330.56
427.625	339.56
427.847	344.56
428.069	348.56
428.292	343.56
428.514	352.56
428.736	342.56
428.958	337.56
429.181	343.56
429.403	345.56
429.625	305.56
429.847	326.56
430.069	342.56
430.292	344.56
430.514	322.56
430.736	349.56
430.958	335.56
431.18	335.56
431.402	344.56
431.624	347.56
431.846	333.56
432.068	337.56
432.29	346.56
432.512	344.56
432.734	353.56
432.956	337.56
433.178	328.56
433.4	358.56
433.622	347.56
433.844	370.56
434.066	334.56
434.287	344.56
434.509	359.56
434.731	372.56
434.953	374.56
435.175	388.56
435.397	366.56
435.618	359.56
435.84	344.56
436.062	341.56
436.284	344.56
436.505	331.56
436.727	344.56
436.949	343.56
437.17	325.56
437.392	331.56
437.614	346.56
437.835	337.56
438.057	338.56
438.278	336.56
438.5	364.56
438.721	331.56
438.943	345.56
439.165	347.56
439.386	339.56
439.608	360.56
439.829	343.56
440.05	353.56
440.272	324.56
440.493	347.56
440.715	382.56
440.936	378.56
441.158	357.56
441.379	369.56
441.6	390.56
441.822	398.56
442.043	388.56
442.264	396.56
442.486	368.56
442.707	392.56
442.928	368.56
443.149	397.56
443.371	374.56
443.592	378.56
443.813	392.56
444.034	407.56
444.255	410.56
444.476	418.56
444.698	436.56
444.919	436.56
445.14	527.56
445.361	458.56
445.582	420.56
445.803	394.56
446.024	375.56
446.245	392.56
446.466	368.56
446.687	362.56
446.908	368.56
447.129	357.56
447.35	328.56
447.571	359.56
447.792	343.56
448.013	356.56
448.234	332.56
448.455	343.56
448.675	334.56
448.896	336.56
449.117	322.56
449.338	326.56
449.559	334.56
449.779	328.56
450	320.56
450.221	329.56
450.442	325.56
450.662	331.56
450.883	318.56
451.104	352.56
451.324	341.56
451.545	327.56
451.766	342.56
451.986	330.56
452.207	324.56
452.428	324.56
452.648	327.56
452.869	338.56
453.089	308.56
453.31	310.56
453.53	315.56
453.751	324.56
453.971	303.56
454.192	310.56
454.412	314.56
454.633	306.56
454.853	296.56
455.073	323.56
455.294	301.56
455.514	318.56
455.734	313.56
455.955	318.56
456.175	292.56
456.395	310.56
456.616	284.56
456.836	297.56
457.056	303.56
457.276	304.56
457.497	305.56
457.717	302.56
457.937	314.56
458.157	315.56
458.377	326.56
458.598	327.56
458.818	317.56
459.038	314.56
459.258	327.56
459.478	356.56
459.698	347.56
459.918	354.56
460.138	366.56
460.358	382.56
460.578	383.56
460.798	402.56
461.018	406.56
461.238	410.56
461.458	407.56
461.678	371.56
461.898	393.56
462.118	405.56
462.338	411.56
462.558	406.56
462.777	417.56
462.997	462.56
463.217	501.56
463.437	504.56
463.657	466.56
463.876	434.56
464.096	448.56
464.316	451.56
464.536	432.56
464.755	431.56
464.975	424.56
465.195	396.56
465.414	375.56
465.634	348.56
465.854	368.56
466.073	370.56
466.293	361.56
466.512	350.56
466.732	335.56
466.951	331.56
467.171	341.56
467.391	335.56
467.61	351.56
467.829	347.56
468.049	350.56
468.268	332.56
468.488	344.56
468.707	316.56
468.927	313.56
469.146	324.56
469.365	329.56
469.585	338.56
469.804	326.56
470.023	357.56
470.243	342.56
470.462	352.56
470.681	339.56
470.901	351.56
471.12	355.56
471.339	345.56
471.558	329.56
471.777	331.56
471.997	337.56
472.216	325.56
472.435	320.56
472.654	326.56
472.873	330.56
473.092	298.56
473.311	313.56
473.53	309.56
473.749	323.56
473.968	308.56
474.187	306.56
474.406	294.56
474.625	319.56
474.844	327.56
475.063	331.56
475.282	308.56
475.501	307.56
475.72	335.56
475.939	314.56
476.158	320.56
476.377	324.56
476.596	334.56
476.814	330.56
477.033	332.56
477.252	325.56
477.471	338.56
477.69	355.56
477.908	357.56
478.127	362.56
478.346	364.56
478.564	357.56
478.783	370.56
479.002	392.56
479.22	380.56
479.439	391.56
479.658	399.56
479.876	377.56
480.095	390.56
480.313	384.56
480.532	382.56
480.751	403.56
480.969	380.56
481.188	371.56
481.406	368.56
481.624	375.56
481.843	351.56
482.061	336.56
482.28	350.56
482.498	361.56
482.717	340.56
482.935	342.56
483.153	346.56
483.372	375.56
483.59	356.56
483.808	341.56
484.027	344.56
484.245	365.56
484.463	356.56
484.681	350.56
484.9	359.56
485.118	360.56
485.336	352.56
485.554	360.56
485.772	355.56
485.99	338.56
486.209	359.56
486.427	349.56
486.645	339.56
486.863	369.56
487.081	374.56
487.299	350.56
487.517	376.56
487.735	361.56
487.953	378.56
488.171	359.56
488.389	378.56
488.607	363.56
488.825	358.56
489.043	348.56
489.261	356.56
489.479	355.56
489.696	380.56
489.914	363.56
490.132	361.56
490.35	370.56
490.568	349.56
490.786	345.56
491.003	370.56
491.221	380.56
491.439	374.56
491.657	400.56
491.874	380.56
492.092	383.56
492.31	387.56
492.527	396.56
492.745	388.56
492.963	401.56
493.18	396.56
493.398	373.56
493.615	396.56
493.833	378.56
494.05	383.56
494.268	374.56
494.485	397.56
494.703	385.56
494.92	379.56
495.138	393.56
495.355	399.56
495.573	385.56
495.79	385.56
496.008	388.56
496.225	388.56
496.442	410.56
496.66	388.56
496.877	393.56
497.094	414.56
497.312	408.56
497.529	411.56
497.746	436.56
497.963	426.56
498.181	452.56
498.398	456.56
498.615	498.56
498.832	498.56
499.049	548.56
499.267	594.56
499.484	635.56
499.701	666.56
499.918	738.56
500.135	832.56
500.352	950.56
500.569	950.56
500.786	905.56
501.003	890.56
501.22	805.56
501.437	694.56
501.654	649.56
501.871	590.56
502.088	545.56
