Data from Fe(NO3)3@0.025M.TitratingCurve.Agarose3%dH2O.NegLispCup.LampEnergy10.LIBS07252019_HRD10591_16-56-51-336.txt Node
Date: Thu Jul 25 16:56:51 EDT 2019
User: cochatt
Spectrometer: HR+D1059
Trigger mode: 1
Integration Time (sec): 1.000000E-1
Scans to average: 1
Electric dark correction enabled: true
Nonlinearity correction enabled: false
Boxcar width: 0
XAxis mode: Wavelengths
Number of Pixels in Spectrum: 2048
>>>>>Begin Spectral Data<<<<<
223.165	-14.06
223.4	-14.06
223.635	-14.06
223.869	-16.06
224.104	-20.06
224.338	-15.06
224.573	-11.06
224.808	-21.06
225.042	-9.06
225.277	-14.06
225.511	-7.06
225.746	0.94
225.98	21.94
226.215	16.94
226.449	8.94
226.683	16.94
226.918	39.94
227.152	21.94
227.387	28.94
227.621	25.94
227.856	42.94
228.09	46.94
228.324	49.94
228.559	53.94
228.793	63.94
229.027	74.94
229.262	67.94
229.496	76.94
229.73	75.94
229.964	80.94
230.199	88.94
230.433	88.94
230.667	73.94
230.901	72.94
231.136	78.94
231.37	100.94
231.604	92.94
231.838	88.94
232.072	86.94
232.306	99.94
232.541	78.94
232.775	87.94
233.009	90.94
233.243	85.94
233.477	89.94
233.711	84.94
233.945	83.94
234.179	84.94
234.413	102.94
234.647	94.94
234.881	86.94
235.115	97.94
235.349	101.94
235.583	106.94
235.817	100.94
236.051	99.94
236.285	89.94
236.519	97.94
236.753	100.94
236.987	83.94
237.221	92.94
237.455	84.94
237.689	100.94
237.922	79.94
238.156	89.94
238.39	81.94
238.624	97.94
238.858	98.94
239.091	86.94
239.325	80.94
239.559	89.94
239.793	102.94
240.027	87.94
240.26	94.94
240.494	96.94
240.728	94.94
240.961	95.94
241.195	104.94
241.429	100.94
241.662	92.94
241.896	80.94
242.13	89.94
242.363	97.94
242.597	101.94
242.83	94.94
243.064	102.94
243.298	95.94
243.531	87.94
243.765	119.94
243.998	117.94
244.232	103.94
244.465	112.94
244.699	98.94
244.932	103.94
245.166	122.94
245.399	95.94
245.633	93.94
245.866	97.94
246.099	99.94
246.333	105.94
246.566	117.94
246.8	92.94
247.033	95.94
247.266	113.94
247.5	109.94
247.733	112.94
247.966	102.94
248.2	90.94
248.433	104.94
248.666	109.94
248.899	112.94
249.133	103.94
249.366	113.94
249.599	108.94
249.832	113.94
250.066	105.94
250.299	113.94
250.532	118.94
250.765	118.94
250.998	105.94
251.231	106.94
251.465	118.94
251.698	104.94
251.931	105.94
252.164	108.94
252.397	94.94
252.63	117.94
252.863	113.94
253.096	126.94
253.329	134.94
253.562	99.94
253.795	113.94
254.028	121.94
254.261	115.94
254.494	113.94
254.727	108.94
254.96	121.94
255.193	117.94
255.426	117.94
255.659	109.94
255.892	129.94
256.124	125.94
256.357	116.94
256.59	120.94
256.823	115.94
257.056	122.94
257.289	112.94
257.521	113.94
257.754	125.94
257.987	120.94
258.22	118.94
258.452	99.94
258.685	116.94
258.918	124.94
259.151	130.94
259.383	113.94
259.616	120.94
259.849	114.94
260.081	115.94
260.314	117.94
260.547	106.94
260.779	119.94
261.012	132.94
261.244	120.94
261.477	135.94
261.71	129.94
261.942	139.94
262.175	130.94
262.407	112.94
262.64	126.94
262.872	128.94
263.105	121.94
263.337	148.94
263.57	116.94
263.802	134.94
264.035	131.94
264.267	129.94
264.499	141.94
264.732	146.94
264.964	147.94
265.197	130.94
265.429	130.94
265.661	122.94
265.894	134.94
266.126	145.94
266.358	136.94
266.591	126.94
266.823	139.94
267.055	122.94
267.287	134.94
267.52	146.94
267.752	153.94
267.984	141.94
268.216	137.94
268.448	139.94
268.681	148.94
268.913	144.94
269.145	135.94
269.377	134.94
269.609	138.94
269.841	149.94
270.073	114.94
270.306	144.94
270.538	136.94
270.77	159.94
271.002	144.94
271.234	138.94
271.466	150.94
271.698	137.94
271.93	148.94
272.162	135.94
272.394	139.94
272.626	142.94
272.858	136.94
273.09	152.94
273.322	150.94
273.553	139.94
273.785	135.94
274.017	154.94
274.249	150.94
274.481	131.94
274.713	130.94
274.945	151.94
275.176	143.94
275.408	143.94
275.64	156.94
275.872	156.94
276.104	151.94
276.335	133.94
276.567	150.94
276.799	164.94
277.031	148.94
277.262	143.94
277.494	172.94
277.726	162.94
277.957	158.94
278.189	159.94
278.421	168.94
278.652	169.94
278.884	164.94
279.115	153.94
279.347	140.94
279.579	156.94
279.81	160.94
280.042	146.94
280.273	155.94
280.505	158.94
280.736	161.94
280.968	166.94
281.199	161.94
281.431	161.94
281.662	158.94
281.894	161.94
282.125	157.94
282.356	158.94
282.588	164.94
282.819	169.94
283.051	164.94
283.282	164.94
283.513	165.94
283.745	164.94
283.976	160.94
284.207	169.94
284.439	159.94
284.67	168.94
284.901	161.94
285.132	156.94
285.364	170.94
285.595	172.94
285.826	156.94
286.057	177.94
286.288	176.94
286.52	166.94
286.751	163.94
286.982	164.94
287.213	162.94
287.444	175.94
287.675	156.94
287.906	164.94
288.138	167.94
288.369	172.94
288.6	164.94
288.831	163.94
289.062	165.94
289.293	167.94
289.524	186.94
289.755	170.94
289.986	181.94
290.217	175.94
290.448	167.94
290.679	162.94
290.91	162.94
291.141	175.94
291.371	179.94
291.602	166.94
291.833	168.94
292.064	166.94
292.295	196.94
292.526	182.94
292.757	182.94
292.987	178.94
293.218	180.94
293.449	184.94
293.68	172.94
293.91	177.94
294.141	172.94
294.372	194.94
294.603	179.94
294.833	174.94
295.064	188.94
295.295	186.94
295.525	181.94
295.756	192.94
295.987	173.94
296.217	177.94
296.448	196.94
296.679	192.94
296.909	181.94
297.14	175.94
297.37	206.94
297.601	172.94
297.831	193.94
298.062	191.94
298.292	190.94
298.523	185.94
298.753	205.94
298.984	194.94
299.214	187.94
299.445	195.94
299.675	182.94
299.905	182.94
300.136	183.94
300.366	191.94
300.597	191.94
300.827	207.94
301.057	197.94
301.288	196.94
301.518	185.94
301.748	188.94
301.979	206.94
302.209	219.94
302.439	192.94
302.669	206.94
302.9	203.94
303.13	200.94
303.36	216.94
303.59	209.94
303.82	200.94
304.051	198.94
304.281	198.94
304.511	207.94
304.741	195.94
304.971	199.94
305.201	208.94
305.431	202.94
305.661	198.94
305.891	186.94
306.121	196.94
306.352	206.94
306.582	203.94
306.812	219.94
307.042	213.94
307.272	204.94
307.502	198.94
307.731	205.94
307.961	213.94
308.191	202.94
308.421	195.94
308.651	200.94
308.881	201.94
309.111	201.94
309.341	199.94
309.571	199.94
309.8	194.94
310.03	212.94
310.26	214.94
310.49	206.94
310.72	214.94
310.949	199.94
311.179	191.94
311.409	206.94
311.639	197.94
311.868	211.94
312.098	216.94
312.328	218.94
312.557	205.94
312.787	213.94
313.017	213.94
313.246	225.94
313.476	220.94
313.706	224.94
313.935	217.94
314.165	206.94
314.394	229.94
314.624	217.94
314.853	214.94
315.083	218.94
315.312	229.94
315.542	221.94
315.771	233.94
316.001	210.94
316.23	217.94
316.46	212.94
316.689	209.94
316.919	223.94
317.148	219.94
317.377	209.94
317.607	231.94
317.836	211.94
318.065	230.94
318.295	207.94
318.524	205.94
318.753	207.94
318.983	204.94
319.212	225.94
319.441	204.94
319.67	222.94
319.9	226.94
320.129	216.94
320.358	205.94
320.587	225.94
320.816	226.94
321.046	203.94
321.275	229.94
321.504	224.94
321.733	222.94
321.962	215.94
322.191	234.94
322.42	232.94
322.649	224.94
322.878	223.94
323.108	225.94
323.337	228.94
323.566	220.94
323.795	222.94
324.024	220.94
324.253	226.94
324.482	238.94
324.71	227.94
324.939	230.94
325.168	218.94
325.397	222.94
325.626	225.94
325.855	230.94
326.084	253.94
326.313	237.94
326.542	221.94
326.77	222.94
326.999	231.94
327.228	229.94
327.457	257.94
327.686	244.94
327.914	229.94
328.143	246.94
328.372	247.94
328.6	244.94
328.829	240.94
329.058	245.94
329.287	240.94
329.515	239.94
329.744	237.94
329.972	246.94
330.201	253.94
330.43	253.94
330.658	249.94
330.887	242.94
331.115	255.94
331.344	243.94
331.572	250.94
331.801	265.94
332.03	254.94
332.258	248.94
332.486	268.94
332.715	248.94
332.943	249.94
333.172	254.94
333.4	257.94
333.629	264.94
333.857	257.94
334.085	280.94
334.314	263.94
334.542	282.94
334.771	278.94
334.999	276.94
335.227	267.94
335.455	268.94
335.684	280.94
335.912	270.94
336.14	251.94
336.369	278.94
336.597	272.94
336.825	252.94
337.053	264.94
337.281	274.94
337.51	260.94
337.738	259.94
337.966	272.94
338.194	292.94
338.422	270.94
338.65	277.94
338.878	268.94
339.106	233.94
339.334	259.94
339.562	262.94
339.79	250.94
340.018	260.94
340.246	249.94
340.474	244.94
340.702	249.94
340.93	271.94
341.158	241.94
341.386	249.94
341.614	259.94
341.842	249.94
342.07	245.94
342.298	259.94
342.526	282.94
342.754	261.94
342.981	256.94
343.209	237.94
343.437	261.94
343.665	254.94
343.893	296.94
344.12	282.94
344.348	262.94
344.576	284.94
344.804	276.94
345.031	257.94
345.259	264.94
345.487	258.94
345.714	257.94
345.942	264.94
346.17	263.94
346.397	261.94
346.625	241.94
346.853	232.94
347.08	238.94
347.308	228.94
347.535	233.94
347.763	264.94
347.99	260.94
348.218	251.94
348.445	246.94
348.673	246.94
348.9	231.94
349.128	238.94
349.355	249.94
349.583	256.94
349.81	241.94
350.037	246.94
350.265	233.94
350.492	261.94
350.72	242.94
350.947	256.94
351.174	269.94
351.402	247.94
351.629	222.94
351.856	245.94
352.083	236.94
352.311	251.94
352.538	237.94
352.765	233.94
352.992	231.94
353.22	251.94
353.447	234.94
353.674	260.94
353.901	244.94
354.128	229.94
354.355	225.94
354.583	237.94
354.81	259.94
355.037	234.94
355.264	240.94
355.491	229.94
355.718	238.94
355.945	253.94
356.172	263.94
356.399	243.94
356.626	231.94
356.853	239.94
357.08	249.94
357.307	251.94
357.534	229.94
357.761	242.94
357.988	249.94
358.215	262.94
358.441	244.94
358.668	240.94
358.895	229.94
359.122	238.94
359.349	244.94
359.576	249.94
359.802	229.94
360.029	240.94
360.256	236.94
360.483	239.94
360.709	242.94
360.936	239.94
361.163	249.94
361.39	255.94
361.616	238.94
361.843	231.94
362.07	244.94
362.296	238.94
362.523	240.94
362.749	259.94
362.976	241.94
363.203	249.94
363.429	252.94
363.656	257.94
363.882	244.94
364.109	258.94
364.335	262.94
364.562	249.94
364.788	259.94
365.015	253.94
365.241	241.94
365.468	259.94
365.694	270.94
365.92	254.94
366.147	246.94
366.373	241.94
366.599	242.94
366.826	253.94
367.052	246.94
367.278	251.94
367.505	249.94
367.731	246.94
367.957	252.94
368.184	246.94
368.41	262.94
368.636	260.94
368.862	261.94
369.089	252.94
369.315	244.94
369.541	255.94
369.767	240.94
369.993	245.94
370.219	256.94
370.445	246.94
370.672	241.94
370.898	262.94
371.124	272.94
371.35	266.94
371.576	272.94
371.802	270.94
372.028	268.94
372.254	260.94
372.48	270.94
372.706	263.94
372.932	289.94
373.158	256.94
373.384	259.94
373.61	265.94
373.835	272.94
374.061	266.94
374.287	277.94
374.513	262.94
374.739	267.94
374.965	279.94
375.191	273.94
375.416	273.94
375.642	270.94
375.868	270.94
376.094	260.94
376.319	264.94
376.545	285.94
376.771	263.94
376.997	277.94
377.222	272.94
377.448	263.94
377.674	242.94
377.899	248.94
378.125	268.94
378.35	278.94
378.576	277.94
378.802	277.94
379.027	244.94
379.253	259.94
379.478	256.94
379.704	269.94
379.929	260.94
380.155	269.94
380.38	276.94
380.606	275.94
380.831	280.94
381.057	277.94
381.282	252.94
381.507	277.94
381.733	266.94
381.958	254.94
382.184	270.94
382.409	301.94
382.634	283.94
382.86	265.94
383.085	289.94
383.31	285.94
383.535	296.94
383.761	278.94
383.986	291.94
384.211	286.94
384.436	277.94
384.662	290.94
384.887	283.94
385.112	294.94
385.337	306.94
385.562	297.94
385.787	305.94
386.013	296.94
386.238	294.94
386.463	304.94
386.688	288.94
386.913	298.94
387.138	295.94
387.363	305.94
387.588	308.94
387.813	304.94
388.038	304.94
388.263	311.94
388.488	304.94
388.713	304.94
388.938	305.94
389.163	297.94
389.387	314.94
389.612	312.94
389.837	307.94
390.062	302.94
390.287	307.94
390.512	292.94
390.736	316.94
390.961	310.94
391.186	320.94
391.411	320.94
391.636	310.94
391.86	314.94
392.085	330.94
392.31	325.94
392.534	320.94
392.759	324.94
392.984	319.94
393.208	302.94
393.433	312.94
393.658	301.94
393.882	325.94
394.107	324.94
394.331	320.94
394.556	302.94
394.78	300.94
395.005	313.94
395.229	304.94
395.454	329.94
395.678	324.94
395.903	324.94
396.127	345.94
396.352	332.94
396.576	323.94
396.801	324.94
397.025	319.94
397.249	328.94
397.474	333.94
397.698	336.94
397.922	329.94
398.147	324.94
398.371	324.94
398.595	374.94
398.82	359.94
399.044	360.94
399.268	379.94
399.492	394.94
399.717	414.94
399.941	424.94
400.165	433.94
400.389	429.94
400.613	395.94
400.837	380.94
401.062	349.94
401.286	355.94
401.51	377.94
401.734	358.94
401.958	372.94
402.182	374.94
402.406	359.94
402.63	368.94
402.854	344.94
403.078	355.94
403.302	368.94
403.526	374.94
403.75	359.94
403.974	359.94
404.198	376.94
404.422	376.94
404.645	355.94
404.869	387.94
405.093	377.94
405.317	380.94
405.541	400.94
405.765	373.94
405.988	374.94
406.212	394.94
406.436	375.94
406.66	387.94
406.883	384.94
407.107	423.94
407.331	380.94
407.555	418.94
407.778	406.94
408.002	419.94
408.226	404.94
408.449	404.94
408.673	405.94
408.896	384.94
409.12	388.94
409.344	388.94
409.567	362.94
409.791	392.94
410.014	374.94
410.238	361.94
410.461	382.94
410.685	398.94
410.908	374.94
411.132	366.94
411.355	383.94
411.578	382.94
411.802	387.94
412.025	358.94
412.249	369.94
412.472	382.94
412.695	380.94
412.919	360.94
413.142	358.94
413.365	372.94
413.589	375.94
413.812	373.94
414.035	374.94
414.258	348.94
414.482	354.94
414.705	367.94
414.928	374.94
415.151	342.94
415.374	348.94
415.597	356.94
415.821	356.94
416.044	353.94
416.267	345.94
416.49	351.94
416.713	347.94
416.936	349.94
417.159	324.94
417.382	352.94
417.605	338.94
417.828	350.94
418.051	341.94
418.274	352.94
418.497	348.94
418.72	369.94
418.943	338.94
419.166	360.94
419.389	374.94
419.611	361.94
419.834	360.94
420.057	357.94
420.28	342.94
420.503	343.94
420.726	358.94
420.948	354.94
421.171	336.94
421.394	362.94
421.617	337.94
421.839	355.94
422.062	337.94
422.285	339.94
422.507	353.94
422.73	337.94
422.953	337.94
423.175	336.94
423.398	336.94
423.621	329.94
423.843	366.94
424.066	342.94
424.288	331.94
424.511	353.94
424.733	335.94
424.956	338.94
425.178	350.94
425.401	345.94
425.623	335.94
425.846	334.94
426.068	338.94
426.291	332.94
426.513	332.94
426.735	325.94
426.958	339.94
427.18	323.94
427.402	327.94
427.625	320.94
427.847	328.94
428.069	340.94
428.292	325.94
428.514	319.94
428.736	337.94
428.958	316.94
429.181	324.94
429.403	320.94
429.625	324.94
429.847	318.94
430.069	320.94
430.292	301.94
430.514	317.94
430.736	338.94
430.958	326.94
431.18	301.94
431.402	311.94
431.624	322.94
431.846	311.94
432.068	339.94
432.29	332.94
432.512	322.94
432.734	311.94
432.956	314.94
433.178	337.94
433.4	318.94
433.622	324.94
433.844	327.94
434.066	320.94
434.287	340.94
434.509	336.94
434.731	342.94
434.953	341.94
435.175	333.94
435.397	332.94
435.618	343.94
435.84	334.94
436.062	336.94
436.284	335.94
436.505	334.94
436.727	312.94
436.949	309.94
437.17	306.94
437.392	322.94
437.614	322.94
437.835	314.94
438.057	326.94
438.278	318.94
438.5	313.94
438.721	298.94
438.943	304.94
439.165	286.94
439.386	309.94
439.608	312.94
439.829	314.94
440.05	334.94
440.272	311.94
440.493	309.94
440.715	316.94
440.936	320.94
441.158	315.94
441.379	313.94
441.6	320.94
441.822	330.94
442.043	336.94
442.264	328.94
442.486	310.94
442.707	320.94
442.928	325.94
443.149	320.94
443.371	322.94
443.592	330.94
443.813	321.94
444.034	342.94
444.255	350.94
444.476	346.94
444.698	354.94
444.919	365.94
445.14	439.94
445.361	402.94
445.582	352.94
445.803	332.94
446.024	328.94
446.245	328.94
446.466	320.94
446.687	305.94
446.908	319.94
447.129	324.94
447.35	316.94
447.571	296.94
447.792	296.94
448.013	298.94
448.234	308.94
448.455	296.94
448.675	295.94
448.896	294.94
449.117	283.94
449.338	284.94
449.559	295.94
449.779	285.94
450	285.94
450.221	292.94
450.442	288.94
450.662	284.94
450.883	290.94
451.104	300.94
451.324	286.94
451.545	272.94
451.766	275.94
451.986	292.94
452.207	295.94
452.428	308.94
452.648	297.94
452.869	294.94
453.089	288.94
453.31	285.94
453.53	296.94
453.751	278.94
453.971	302.94
454.192	284.94
454.412	280.94
454.633	297.94
454.853	280.94
455.073	300.94
455.294	297.94
455.514	294.94
455.734	260.94
455.955	287.94
456.175	278.94
456.395	264.94
456.616	286.94
456.836	274.94
457.056	277.94
457.276	294.94
457.497	289.94
457.717	292.94
457.937	278.94
458.157	277.94
458.377	287.94
458.598	294.94
458.818	296.94
459.038	309.94
459.258	320.94
459.478	293.94
459.698	312.94
459.918	334.94
460.138	344.94
460.358	333.94
460.578	345.94
460.798	338.94
461.018	346.94
461.238	339.94
461.458	353.94
461.678	346.94
461.898	356.94
462.118	354.94
462.338	367.94
462.558	371.94
462.777	379.94
462.997	383.94
463.217	399.94
463.437	413.94
463.657	373.94
463.876	369.94
464.096	373.94
464.316	364.94
464.536	375.94
464.755	373.94
464.975	368.94
465.195	351.94
465.414	340.94
465.634	327.94
465.854	313.94
466.073	333.94
466.293	311.94
466.512	304.94
466.732	295.94
466.951	330.94
467.171	304.94
467.391	314.94
467.61	296.94
467.829	308.94
468.049	289.94
468.268	276.94
468.488	295.94
468.707	294.94
468.927	291.94
469.146	311.94
469.365	327.94
469.585	304.94
469.804	327.94
470.023	313.94
470.243	316.94
470.462	294.94
470.681	309.94
470.901	310.94
471.12	308.94
471.339	323.94
471.558	301.94
471.777	292.94
471.997	340.94
472.216	304.94
472.435	310.94
472.654	294.94
472.873	313.94
473.092	317.94
473.311	294.94
473.53	301.94
473.749	301.94
473.968	301.94
474.187	306.94
474.406	297.94
474.625	295.94
474.844	291.94
475.063	305.94
475.282	304.94
475.501	324.94
475.72	313.94
475.939	294.94
476.158	325.94
476.377	298.94
476.596	323.94
476.814	322.94
477.033	337.94
477.252	335.94
477.471	325.94
477.69	320.94
477.908	321.94
478.127	356.94
478.346	343.94
478.564	328.94
478.783	355.94
479.002	368.94
479.22	333.94
479.439	356.94
479.658	348.94
479.876	364.94
480.095	369.94
480.313	388.94
480.532	381.94
480.751	373.94
480.969	380.94
481.188	360.94
481.406	357.94
481.624	353.94
481.843	345.94
482.061	371.94
482.28	346.94
482.498	329.94
482.717	339.94
482.935	367.94
483.153	356.94
483.372	358.94
483.59	357.94
483.808	370.94
484.027	367.94
484.245	358.94
484.463	351.94
484.681	369.94
484.9	373.94
485.118	369.94
485.336	375.94
485.554	365.94
485.772	368.94
485.99	370.94
486.209	354.94
486.427	361.94
486.645	377.94
486.863	388.94
487.081	382.94
487.299	378.94
487.517	358.94
487.735	374.94
487.953	352.94
488.171	353.94
488.389	364.94
488.607	360.94
488.825	376.94
489.043	374.94
489.261	368.94
489.479	366.94
489.696	368.94
489.914	381.94
490.132	358.94
490.35	374.94
490.568	369.94
490.786	369.94
491.003	355.94
491.221	364.94
491.439	358.94
491.657	372.94
491.874	357.94
492.092	372.94
492.31	361.94
492.527	354.94
492.745	385.94
492.963	380.94
493.18	364.94
493.398	360.94
493.615	360.94
493.833	378.94
494.05	368.94
494.268	363.94
494.485	368.94
494.703	383.94
494.92	395.94
495.138	377.94
495.355	372.94
495.573	369.94
495.79	372.94
496.008	390.94
496.225	384.94
496.442	407.94
496.66	397.94
496.877	397.94
497.094	432.94
497.312	400.94
497.529	402.94
497.746	421.94
497.963	420.94
498.181	424.94
498.398	458.94
498.615	483.94
498.832	485.94
499.049	520.94
499.267	552.94
499.484	548.94
499.701	597.94
499.918	634.94
500.135	681.94
500.352	737.94
500.569	725.94
500.786	707.94
501.003	671.94
501.22	640.94
501.437	615.94
501.654	572.94
501.871	533.94
502.088	532.94
502.305	503.94
