Data from Fe(NO3)3@0.0125M.TitratingCurve.Agarose3%dH2O.NegLispCup.LampEnergy10.LIBS07252019_HRD10591_16-59-23-344.txt Node
Date: Thu Jul 25 16:59:23 EDT 2019
User: cochatt
Spectrometer: HR+D1059
Trigger mode: 1
Integration Time (sec): 1.000000E-1
Scans to average: 1
Electric dark correction enabled: true
Nonlinearity correction enabled: false
Boxcar width: 0
XAxis mode: Wavelengths
Number of Pixels in Spectrum: 2048
>>>>>Begin Spectral Data<<<<<
223.165	-4.69
223.4	-4.69
223.635	-4.69
223.869	-8.69
224.104	-23.69
224.338	-20.69
224.573	-17.69
224.808	-23.69
225.042	-3.69
225.277	-5.69
225.511	-8.69
225.746	0.31
225.98	10.31
226.215	14.31
226.449	19.31
226.683	32.31
226.918	22.31
227.152	18.31
227.387	31.31
227.621	49.31
227.856	46.31
228.09	37.31
228.324	43.31
228.559	59.31
228.793	52.31
229.027	72.31
229.262	74.31
229.496	78.31
229.73	75.31
229.964	94.31
230.199	83.31
230.433	94.31
230.667	89.31
230.901	87.31
231.136	94.31
231.37	102.31
231.604	102.31
231.838	118.31
232.072	99.31
232.306	98.31
232.541	100.31
232.775	95.31
233.009	95.31
233.243	111.31
233.477	110.31
233.711	112.31
233.945	104.31
234.179	100.31
234.413	100.31
234.647	115.31
234.881	116.31
235.115	117.31
235.349	116.31
235.583	106.31
235.817	112.31
236.051	93.31
236.285	106.31
236.519	111.31
236.753	103.31
236.987	106.31
237.221	111.31
237.455	104.31
237.689	113.31
237.922	95.31
238.156	114.31
238.39	118.31
238.624	110.31
238.858	102.31
239.091	117.31
239.325	103.31
239.559	121.31
239.793	116.31
240.027	122.31
240.26	115.31
240.494	113.31
240.728	95.31
240.961	107.31
241.195	118.31
241.429	130.31
241.662	120.31
241.896	111.31
242.13	113.31
242.363	114.31
242.597	123.31
242.83	118.31
243.064	114.31
243.298	126.31
243.531	118.31
243.765	114.31
243.998	131.31
244.232	122.31
244.465	118.31
244.699	134.31
244.932	123.31
245.166	118.31
245.399	115.31
245.633	121.31
245.866	125.31
246.099	136.31
246.333	122.31
246.566	116.31
246.8	129.31
247.033	127.31
247.266	131.31
247.5	136.31
247.733	126.31
247.966	122.31
248.2	136.31
248.433	152.31
248.666	135.31
248.899	116.31
249.133	128.31
249.366	140.31
249.599	132.31
249.832	132.31
250.066	136.31
250.299	132.31
250.532	125.31
250.765	147.31
250.998	138.31
251.231	120.31
251.465	134.31
251.698	139.31
251.931	132.31
252.164	138.31
252.397	156.31
252.63	167.31
252.863	139.31
253.096	163.31
253.329	154.31
253.562	141.31
253.795	139.31
254.028	156.31
254.261	161.31
254.494	144.31
254.727	145.31
254.96	137.31
255.193	146.31
255.426	146.31
255.659	150.31
255.892	162.31
256.124	150.31
256.357	150.31
256.59	160.31
256.823	146.31
257.056	135.31
257.289	163.31
257.521	146.31
257.754	149.31
257.987	146.31
258.22	158.31
258.452	153.31
258.685	163.31
258.918	156.31
259.151	161.31
259.383	163.31
259.616	172.31
259.849	170.31
260.081	171.31
260.314	162.31
260.547	166.31
260.779	159.31
261.012	178.31
261.244	171.31
261.477	161.31
261.71	167.31
261.942	153.31
262.175	178.31
262.407	167.31
262.64	180.31
262.872	170.31
263.105	193.31
263.337	166.31
263.57	180.31
263.802	172.31
264.035	161.31
264.267	176.31
264.499	176.31
264.732	172.31
264.964	177.31
265.197	177.31
265.429	194.31
265.661	188.31
265.894	182.31
266.126	183.31
266.358	179.31
266.591	202.31
266.823	188.31
267.055	182.31
267.287	205.31
267.52	166.31
267.752	203.31
267.984	189.31
268.216	174.31
268.448	178.31
268.681	189.31
268.913	201.31
269.145	185.31
269.377	188.31
269.609	208.31
269.841	197.31
270.073	186.31
270.306	197.31
270.538	191.31
270.77	197.31
271.002	214.31
271.234	209.31
271.466	217.31
271.698	195.31
271.93	206.31
272.162	211.31
272.394	205.31
272.626	227.31
272.858	220.31
273.09	207.31
273.322	224.31
273.553	198.31
273.785	209.31
274.017	216.31
274.249	231.31
274.481	239.31
274.713	218.31
274.945	216.31
275.176	226.31
275.408	231.31
275.64	223.31
275.872	225.31
276.104	231.31
276.335	243.31
276.567	214.31
276.799	216.31
277.031	220.31
277.262	215.31
277.494	241.31
277.726	232.31
277.957	244.31
278.189	232.31
278.421	225.31
278.652	236.31
278.884	247.31
279.115	250.31
279.347	247.31
279.579	251.31
279.81	249.31
280.042	239.31
280.273	239.31
280.505	241.31
280.736	252.31
280.968	235.31
281.199	259.31
281.431	245.31
281.662	254.31
281.894	234.31
282.125	254.31
282.356	243.31
282.588	254.31
282.819	258.31
283.051	252.31
283.282	266.31
283.513	269.31
283.745	258.31
283.976	267.31
284.207	265.31
284.439	258.31
284.67	251.31
284.901	261.31
285.132	296.31
285.364	275.31
285.595	260.31
285.826	267.31
286.057	263.31
286.288	265.31
286.52	263.31
286.751	265.31
286.982	286.31
287.213	280.31
287.444	269.31
287.675	275.31
287.906	293.31
288.138	280.31
288.369	268.31
288.6	303.31
288.831	283.31
289.062	287.31
289.293	291.31
289.524	285.31
289.755	279.31
289.986	278.31
290.217	296.31
290.448	298.31
290.679	278.31
290.91	298.31
291.141	300.31
291.371	289.31
291.602	298.31
291.833	283.31
292.064	291.31
292.295	308.31
292.526	308.31
292.757	299.31
292.987	283.31
293.218	297.31
293.449	299.31
293.68	311.31
293.91	303.31
294.141	273.31
294.372	319.31
294.603	312.31
294.833	294.31
295.064	296.31
295.295	313.31
295.525	306.31
295.756	299.31
295.987	302.31
296.217	312.31
296.448	306.31
296.679	318.31
296.909	315.31
297.14	304.31
297.37	317.31
297.601	315.31
297.831	330.31
298.062	318.31
298.292	325.31
298.523	324.31
298.753	325.31
298.984	324.31
299.214	327.31
299.445	335.31
299.675	320.31
299.905	335.31
300.136	342.31
300.366	330.31
300.597	332.31
300.827	332.31
301.057	343.31
301.288	341.31
301.518	330.31
301.748	327.31
301.979	331.31
302.209	339.31
302.439	336.31
302.669	346.31
302.9	344.31
303.13	346.31
303.36	357.31
303.59	360.31
303.82	351.31
304.051	353.31
304.281	359.31
304.511	358.31
304.741	362.31
304.971	356.31
305.201	367.31
305.431	339.31
305.661	360.31
305.891	369.31
306.121	372.31
306.352	395.31
306.582	370.31
306.812	350.31
307.042	344.31
307.272	361.31
307.502	366.31
307.731	369.31
307.961	371.31
308.191	371.31
308.421	364.31
308.651	354.31
308.881	371.31
309.111	378.31
309.341	361.31
309.571	377.31
309.8	362.31
310.03	382.31
310.26	381.31
310.49	369.31
310.72	388.31
310.949	377.31
311.179	380.31
311.409	371.31
311.639	382.31
311.868	369.31
312.098	370.31
312.328	376.31
312.557	393.31
312.787	385.31
313.017	396.31
313.246	365.31
313.476	407.31
313.706	397.31
313.935	389.31
314.165	411.31
314.394	403.31
314.624	426.31
314.853	409.31
315.083	404.31
315.312	416.31
315.542	411.31
315.771	404.31
316.001	403.31
316.23	418.31
316.46	402.31
316.689	430.31
316.919	429.31
317.148	419.31
317.377	422.31
317.607	423.31
317.836	402.31
318.065	430.31
318.295	410.31
318.524	419.31
318.753	413.31
318.983	432.31
319.212	432.31
319.441	412.31
319.67	420.31
319.9	417.31
320.129	429.31
320.358	443.31
320.587	414.31
320.816	456.31
321.046	430.31
321.275	444.31
321.504	444.31
321.733	445.31
321.962	432.31
322.191	451.31
322.42	434.31
322.649	432.31
322.878	444.31
323.108	436.31
323.337	434.31
323.566	448.31
323.795	452.31
324.024	433.31
324.253	443.31
324.482	439.31
324.71	442.31
324.939	450.31
325.168	468.31
325.397	467.31
325.626	472.31
325.855	456.31
326.084	438.31
326.313	474.31
326.542	469.31
326.77	452.31
326.999	424.31
327.228	441.31
327.457	438.31
327.686	475.31
327.914	458.31
328.143	468.31
328.372	467.31
328.6	465.31
328.829	464.31
329.058	462.31
329.287	473.31
329.515	463.31
329.744	457.31
329.972	479.31
330.201	464.31
330.43	466.31
330.658	460.31
330.887	469.31
331.115	450.31
331.344	492.31
331.572	460.31
331.801	491.31
332.03	478.31
332.258	488.31
332.486	486.31
332.715	487.31
332.943	472.31
333.172	473.31
333.4	483.31
333.629	482.31
333.857	499.31
334.085	494.31
334.314	496.31
334.542	473.31
334.771	481.31
334.999	485.31
335.227	503.31
335.455	503.31
335.684	500.31
335.912	488.31
336.14	478.31
336.369	475.31
336.597	483.31
336.825	524.31
337.053	510.31
337.281	491.31
337.51	487.31
337.738	481.31
337.966	498.31
338.194	485.31
338.422	479.31
338.65	482.31
338.878	498.31
339.106	476.31
339.334	491.31
339.562	491.31
339.79	511.31
340.018	480.31
340.246	516.31
340.474	514.31
340.702	504.31
340.93	489.31
341.158	487.31
341.386	499.31
341.614	499.31
341.842	512.31
342.07	495.31
342.298	481.31
342.526	502.31
342.754	508.31
342.981	484.31
343.209	467.31
343.437	482.31
343.665	481.31
343.893	491.31
344.12	489.31
344.348	517.31
344.576	504.31
344.804	528.31
345.031	504.31
345.259	522.31
345.487	507.31
345.714	506.31
345.942	513.31
346.17	491.31
346.397	504.31
346.625	503.31
346.853	473.31
347.08	506.31
347.308	475.31
347.535	494.31
347.763	486.31
347.99	483.31
348.218	500.31
348.445	505.31
348.673	490.31
348.9	478.31
349.128	505.31
349.355	521.31
349.583	488.31
349.81	471.31
350.037	498.31
350.265	502.31
350.492	494.31
350.72	495.31
350.947	497.31
351.174	500.31
351.402	507.31
351.629	513.31
351.856	498.31
352.083	523.31
352.311	490.31
352.538	496.31
352.765	506.31
352.992	506.31
353.22	500.31
353.447	500.31
353.674	491.31
353.901	497.31
354.128	501.31
354.355	480.31
354.583	485.31
354.81	521.31
355.037	514.31
355.264	498.31
355.491	498.31
355.718	499.31
355.945	496.31
356.172	511.31
356.399	508.31
356.626	487.31
356.853	494.31
357.08	494.31
357.307	505.31
357.534	507.31
357.761	495.31
357.988	512.31
358.215	507.31
358.441	516.31
358.668	525.31
358.895	502.31
359.122	489.31
359.349	504.31
359.576	505.31
359.802	499.31
360.029	512.31
360.256	510.31
360.483	516.31
360.709	519.31
360.936	510.31
361.163	498.31
361.39	542.31
361.616	530.31
361.843	488.31
362.07	527.31
362.296	500.31
362.523	509.31
362.749	498.31
362.976	523.31
363.203	532.31
363.429	489.31
363.656	523.31
363.882	516.31
364.109	527.31
364.335	511.31
364.562	530.31
364.788	524.31
365.015	516.31
365.241	510.31
365.468	528.31
365.694	519.31
365.92	512.31
366.147	519.31
366.373	509.31
366.599	531.31
366.826	524.31
367.052	520.31
367.278	523.31
367.505	531.31
367.731	539.31
367.957	522.31
368.184	516.31
368.41	525.31
368.636	545.31
368.862	523.31
369.089	527.31
369.315	536.31
369.541	528.31
369.767	567.31
369.993	528.31
370.219	542.31
370.445	552.31
370.672	537.31
370.898	530.31
371.124	556.31
371.35	532.31
371.576	550.31
371.802	560.31
372.028	540.31
372.254	539.31
372.48	557.31
372.706	534.31
372.932	521.31
373.158	545.31
373.384	545.31
373.61	530.31
373.835	570.31
374.061	542.31
374.287	534.31
374.513	570.31
374.739	556.31
374.965	535.31
375.191	532.31
375.416	566.31
375.642	524.31
375.868	573.31
376.094	555.31
376.319	543.31
376.545	537.31
376.771	553.31
376.997	553.31
377.222	539.31
377.448	563.31
377.674	554.31
377.899	534.31
378.125	552.31
378.35	531.31
378.576	536.31
378.802	549.31
379.027	564.31
379.253	528.31
379.478	538.31
379.704	540.31
379.929	537.31
380.155	554.31
380.38	548.31
380.606	544.31
380.831	546.31
381.057	561.31
381.282	560.31
381.507	546.31
381.733	544.31
381.958	552.31
382.184	559.31
382.409	572.31
382.634	579.31
382.86	579.31
383.085	564.31
383.31	562.31
383.535	566.31
383.761	572.31
383.986	560.31
384.211	561.31
384.436	563.31
384.662	561.31
384.887	573.31
385.112	560.31
385.337	580.31
385.562	566.31
385.787	568.31
386.013	567.31
386.238	579.31
386.463	574.31
386.688	562.31
386.913	557.31
387.138	589.31
387.363	577.31
387.588	587.31
387.813	584.31
388.038	581.31
388.263	593.31
388.488	591.31
388.713	570.31
388.938	568.31
389.163	583.31
389.387	562.31
389.612	594.31
389.837	568.31
390.062	565.31
390.287	595.31
390.512	593.31
390.736	580.31
390.961	574.31
391.186	570.31
391.411	598.31
391.636	594.31
391.86	586.31
392.085	586.31
392.31	591.31
392.534	592.31
392.759	592.31
392.984	625.31
393.208	599.31
393.433	612.31
393.658	594.31
393.882	588.31
394.107	613.31
394.331	580.31
394.556	606.31
394.78	570.31
395.005	586.31
395.229	598.31
395.454	604.31
395.678	602.31
395.903	603.31
396.127	592.31
396.352	593.31
396.576	582.31
396.801	607.31
397.025	612.31
397.249	631.31
397.474	572.31
397.698	604.31
397.922	633.31
398.147	591.31
398.371	612.31
398.595	597.31
398.82	601.31
399.044	606.31
399.268	628.31
399.492	636.31
399.717	630.31
399.941	643.31
400.165	634.31
400.389	602.31
400.613	628.31
400.837	575.31
401.062	633.31
401.286	632.31
401.51	646.31
401.734	628.31
401.958	629.31
402.182	636.31
402.406	626.31
402.63	623.31
402.854	623.31
403.078	628.31
403.302	638.31
403.526	628.31
403.75	632.31
403.974	618.31
404.198	627.31
404.422	619.31
404.645	622.31
404.869	642.31
405.093	649.31
405.317	629.31
405.541	631.31
405.765	642.31
405.988	652.31
406.212	656.31
406.436	609.31
406.66	645.31
406.883	666.31
407.107	648.31
407.331	660.31
407.555	650.31
407.778	667.31
408.002	667.31
408.226	651.31
408.449	653.31
408.673	640.31
408.896	665.31
409.12	638.31
409.344	669.31
409.567	631.31
409.791	648.31
410.014	661.31
410.238	655.31
410.461	648.31
410.685	660.31
410.908	651.31
411.132	644.31
411.355	642.31
411.578	634.31
411.802	629.31
412.025	635.31
412.249	650.31
412.472	627.31
412.695	639.31
412.919	619.31
413.142	618.31
413.365	641.31
413.589	622.31
413.812	632.31
414.035	617.31
414.258	638.31
414.482	628.31
414.705	624.31
414.928	624.31
415.151	615.31
415.374	604.31
415.597	608.31
415.821	600.31
416.044	604.31
416.267	611.31
416.49	597.31
416.713	619.31
416.936	619.31
417.159	611.31
417.382	604.31
417.605	608.31
417.828	606.31
418.051	606.31
418.274	594.31
418.497	593.31
418.72	629.31
418.943	592.31
419.166	634.31
419.389	664.31
419.611	641.31
419.834	608.31
420.057	648.31
420.28	617.31
420.503	590.31
420.726	596.31
420.948	584.31
421.171	577.31
421.394	582.31
421.617	601.31
421.839	592.31
422.062	584.31
422.285	577.31
422.507	602.31
422.73	604.31
422.953	588.31
423.175	599.31
423.398	607.31
423.621	591.31
423.843	611.31
424.066	581.31
424.288	604.31
424.511	598.31
424.733	608.31
424.956	617.31
425.178	608.31
425.401	595.31
425.623	593.31
425.846	577.31
426.068	586.31
426.291	591.31
426.513	610.31
426.735	593.31
426.958	613.31
427.18	595.31
427.402	607.31
427.625	595.31
427.847	586.31
428.069	602.31
428.292	614.31
428.514	593.31
428.736	610.31
428.958	609.31
429.181	590.31
429.403	583.31
429.625	593.31
429.847	613.31
430.069	601.31
430.292	611.31
430.514	612.31
430.736	624.31
430.958	622.31
431.18	589.31
431.402	600.31
431.624	591.31
431.846	586.31
432.068	588.31
432.29	600.31
432.512	600.31
432.734	601.31
432.956	606.31
433.178	614.31
433.4	604.31
433.622	607.31
433.844	586.31
434.066	604.31
434.287	572.31
434.509	585.31
434.731	607.31
434.953	587.31
435.175	601.31
435.397	603.31
435.618	595.31
435.84	623.31
436.062	606.31
436.284	602.31
436.505	592.31
436.727	599.31
436.949	584.31
437.17	611.31
437.392	596.31
437.614	606.31
437.835	563.31
438.057	580.31
438.278	562.31
438.5	594.31
438.721	591.31
438.943	578.31
439.165	597.31
439.386	582.31
439.608	594.31
439.829	569.31
440.05	575.31
440.272	596.31
440.493	587.31
440.715	603.31
440.936	595.31
441.158	593.31
441.379	590.31
441.6	578.31
441.822	576.31
442.043	576.31
442.264	585.31
442.486	575.31
442.707	588.31
442.928	603.31
443.149	596.31
443.371	589.31
443.592	585.31
443.813	559.31
444.034	587.31
444.255	596.31
444.476	598.31
444.698	589.31
444.919	606.31
445.14	682.31
445.361	628.31
445.582	618.31
445.803	602.31
446.024	579.31
446.245	582.31
446.466	583.31
446.687	596.31
446.908	562.31
447.129	580.31
447.35	540.31
447.571	583.31
447.792	585.31
448.013	569.31
448.234	567.31
448.455	567.31
448.675	574.31
448.896	578.31
449.117	556.31
449.338	564.31
449.559	563.31
449.779	552.31
450	554.31
450.221	551.31
450.442	567.31
450.662	570.31
450.883	538.31
451.104	555.31
451.324	566.31
451.545	562.31
451.766	568.31
451.986	568.31
452.207	548.31
452.428	560.31
452.648	540.31
452.869	547.31
453.089	552.31
453.31	548.31
453.53	541.31
453.751	550.31
453.971	560.31
454.192	535.31
454.412	567.31
454.633	558.31
454.853	570.31
455.073	525.31
455.294	539.31
455.514	561.31
455.734	557.31
455.955	552.31
456.175	548.31
456.395	537.31
456.616	517.31
456.836	544.31
457.056	530.31
457.276	562.31
457.497	547.31
457.717	550.31
457.937	542.31
458.157	542.31
458.377	542.31
458.598	560.31
458.818	564.31
459.038	571.31
459.258	534.31
459.478	533.31
459.698	563.31
459.918	566.31
460.138	596.31
460.358	587.31
460.578	600.31
460.798	586.31
461.018	587.31
461.238	575.31
461.458	561.31
461.678	576.31
461.898	592.31
462.118	586.31
462.338	580.31
462.558	580.31
462.777	591.31
462.997	590.31
463.217	585.31
463.437	614.31
463.657	595.31
463.876	586.31
464.096	607.31
464.316	592.31
464.536	607.31
464.755	588.31
464.975	593.31
465.195	586.31
465.414	585.31
465.634	586.31
465.854	567.31
466.073	609.31
466.293	581.31
466.512	571.31
466.732	591.31
466.951	578.31
467.171	570.31
467.391	579.31
467.61	579.31
467.829	576.31
468.049	576.31
468.268	574.31
468.488	591.31
468.707	562.31
468.927	583.31
469.146	611.31
469.365	598.31
469.585	579.31
469.804	581.31
470.023	595.31
470.243	602.31
470.462	595.31
470.681	600.31
470.901	603.31
471.12	614.31
471.339	608.31
471.558	620.31
471.777	619.31
471.997	581.31
472.216	604.31
472.435	605.31
472.654	594.31
472.873	590.31
473.092	625.31
473.311	603.31
473.53	610.31
473.749	627.31
473.968	625.31
474.187	641.31
474.406	639.31
474.625	632.31
474.844	620.31
475.063	639.31
475.282	617.31
475.501	632.31
475.72	618.31
475.939	635.31
476.158	638.31
476.377	651.31
476.596	646.31
476.814	671.31
477.033	654.31
477.252	664.31
477.471	657.31
477.69	675.31
477.908	660.31
478.127	657.31
478.346	664.31
478.564	683.31
478.783	678.31
479.002	693.31
479.22	682.31
479.439	679.31
479.658	706.31
479.876	682.31
480.095	708.31
480.313	716.31
480.532	705.31
480.751	726.31
480.969	710.31
481.188	691.31
481.406	718.31
481.624	717.31
481.843	713.31
482.061	717.31
482.28	733.31
482.498	738.31
482.717	708.31
482.935	702.31
483.153	732.31
483.372	742.31
483.59	734.31
483.808	727.31
484.027	730.31
484.245	740.31
484.463	752.31
484.681	736.31
484.9	730.31
485.118	760.31
485.336	753.31
485.554	740.31
485.772	743.31
485.99	751.31
486.209	763.31
486.427	765.31
486.645	739.31
486.863	769.31
487.081	747.31
487.299	755.31
487.517	738.31
487.735	756.31
487.953	767.31
488.171	766.31
488.389	771.31
488.607	741.31
488.825	743.31
489.043	780.31
489.261	780.31
489.479	796.31
489.696	775.31
489.914	754.31
490.132	771.31
490.35	784.31
490.568	784.31
490.786	799.31
491.003	741.31
491.221	784.31
491.439	782.31
491.657	778.31
491.874	777.31
492.092	815.31
492.31	792.31
492.527	800.31
492.745	774.31
492.963	790.31
493.18	787.31
493.398	774.31
493.615	774.31
493.833	779.31
494.05	793.31
494.268	772.31
494.485	793.31
494.703	811.31
494.92	778.31
495.138	790.31
495.355	784.31
495.573	792.31
495.79	795.31
496.008	815.31
496.225	788.31
496.442	822.31
496.66	809.31
496.877	802.31
497.094	830.31
497.312	816.31
497.529	800.31
497.746	809.31
497.963	834.31
498.181	811.31
498.398	836.31
498.615	839.31
498.832	850.31
499.049	839.31
499.267	853.31
499.484	866.31
499.701	850.31
499.918	859.31
500.135	883.31
500.352	860.31
500.569	887.31
500.786	904.31
501.003	850.31
501.22	886.31
501.437	884.31
501.654	875.31
501.871	862.31
