Data from Fe(NO3)3@0.1M.TitratingCurve.Agarose3%dH2O.NegLispCup.LampEnergy10.LIBS07252019_HRD10591_16-41-06-351.txt Node
Date: Thu Jul 25 16:41:06 EDT 2019
User: cochatt
Spectrometer: HR+D1059
Trigger mode: 1
Integration Time (sec): 1.000000E-1
Scans to average: 1
Electric dark correction enabled: true
Nonlinearity correction enabled: false
Boxcar width: 0
XAxis mode: Wavelengths
Number of Pixels in Spectrum: 2048
>>>>>Begin Spectral Data<<<<<
223.165	-4.44
223.4	-4.44
223.635	-4.44
223.869	-30.44
224.104	-11.44
224.338	-21.44
224.573	-17.44
224.808	-10.44
225.042	-8.44
225.277	-3.44
225.511	-13.44
225.746	-1.44
225.98	6.56
226.215	7.56
226.449	20.56
226.683	24.56
226.918	19.56
227.152	43.56
227.387	31.56
227.621	36.56
227.856	31.56
228.09	61.56
228.324	62.56
228.559	58.56
228.793	59.56
229.027	68.56
229.262	69.56
229.496	77.56
229.73	74.56
229.964	78.56
230.199	79.56
230.433	78.56
230.667	105.56
230.901	96.56
231.136	81.56
231.37	96.56
231.604	105.56
231.838	110.56
232.072	90.56
232.306	101.56
232.541	100.56
232.775	93.56
233.009	97.56
233.243	92.56
233.477	104.56
233.711	88.56
233.945	107.56
234.179	89.56
234.413	87.56
234.647	110.56
234.881	79.56
235.115	109.56
235.349	90.56
235.583	106.56
235.817	89.56
236.051	93.56
236.285	91.56
236.519	95.56
236.753	91.56
236.987	86.56
237.221	97.56
237.455	83.56
237.689	93.56
237.922	104.56
238.156	97.56
238.39	85.56
238.624	100.56
238.858	92.56
239.091	87.56
239.325	89.56
239.559	96.56
239.793	91.56
240.027	97.56
240.26	99.56
240.494	86.56
240.728	94.56
240.961	87.56
241.195	108.56
241.429	95.56
241.662	105.56
241.896	93.56
242.13	106.56
242.363	98.56
242.597	106.56
242.83	91.56
243.064	101.56
243.298	104.56
243.531	109.56
243.765	95.56
243.998	105.56
244.232	109.56
244.465	89.56
244.699	103.56
244.932	90.56
245.166	106.56
245.399	99.56
245.633	118.56
245.866	106.56
246.099	106.56
246.333	102.56
246.566	102.56
246.8	106.56
247.033	110.56
247.266	100.56
247.5	102.56
247.733	105.56
247.966	105.56
248.2	97.56
248.433	98.56
248.666	110.56
248.899	105.56
249.133	101.56
249.366	104.56
249.599	107.56
249.832	107.56
250.066	106.56
250.299	117.56
250.532	107.56
250.765	113.56
250.998	121.56
251.231	122.56
251.465	118.56
251.698	103.56
251.931	112.56
252.164	91.56
252.397	115.56
252.63	104.56
252.863	110.56
253.096	110.56
253.329	121.56
253.562	107.56
253.795	123.56
254.028	102.56
254.261	117.56
254.494	111.56
254.727	117.56
254.96	99.56
255.193	121.56
255.426	102.56
255.659	114.56
255.892	115.56
256.124	109.56
256.357	106.56
256.59	106.56
256.823	114.56
257.056	121.56
257.289	116.56
257.521	122.56
257.754	107.56
257.987	128.56
258.22	111.56
258.452	135.56
258.685	115.56
258.918	109.56
259.151	103.56
259.383	118.56
259.616	108.56
259.849	123.56
260.081	132.56
260.314	127.56
260.547	125.56
260.779	128.56
261.012	133.56
261.244	116.56
261.477	134.56
261.71	109.56
261.942	99.56
262.175	123.56
262.407	127.56
262.64	131.56
262.872	116.56
263.105	128.56
263.337	116.56
263.57	114.56
263.802	117.56
264.035	115.56
264.267	123.56
264.499	117.56
264.732	115.56
264.964	125.56
265.197	132.56
265.429	133.56
265.661	112.56
265.894	135.56
266.126	132.56
266.358	130.56
266.591	135.56
266.823	134.56
267.055	123.56
267.287	121.56
267.52	124.56
267.752	121.56
267.984	135.56
268.216	129.56
268.448	121.56
268.681	132.56
268.913	126.56
269.145	118.56
269.377	131.56
269.609	135.56
269.841	130.56
270.073	121.56
270.306	125.56
270.538	126.56
270.77	123.56
271.002	130.56
271.234	133.56
271.466	134.56
271.698	141.56
271.93	135.56
272.162	137.56
272.394	139.56
272.626	141.56
272.858	138.56
273.09	133.56
273.322	123.56
273.553	139.56
273.785	139.56
274.017	140.56
274.249	135.56
274.481	125.56
274.713	134.56
274.945	144.56
275.176	132.56
275.408	142.56
275.64	130.56
275.872	149.56
276.104	138.56
276.335	141.56
276.567	141.56
276.799	127.56
277.031	138.56
277.262	151.56
277.494	131.56
277.726	139.56
277.957	135.56
278.189	138.56
278.421	139.56
278.652	134.56
278.884	138.56
279.115	155.56
279.347	146.56
279.579	148.56
279.81	150.56
280.042	146.56
280.273	138.56
280.505	133.56
280.736	136.56
280.968	147.56
281.199	143.56
281.431	153.56
281.662	151.56
281.894	151.56
282.125	153.56
282.356	155.56
282.588	152.56
282.819	164.56
283.051	151.56
283.282	153.56
283.513	148.56
283.745	144.56
283.976	155.56
284.207	152.56
284.439	149.56
284.67	147.56
284.901	151.56
285.132	138.56
285.364	164.56
285.595	151.56
285.826	145.56
286.057	156.56
286.288	147.56
286.52	142.56
286.751	152.56
286.982	153.56
287.213	157.56
287.444	140.56
287.675	151.56
287.906	146.56
288.138	160.56
288.369	166.56
288.6	162.56
288.831	156.56
289.062	161.56
289.293	152.56
289.524	159.56
289.755	155.56
289.986	155.56
290.217	157.56
290.448	159.56
290.679	173.56
290.91	159.56
291.141	146.56
291.371	179.56
291.602	171.56
291.833	153.56
292.064	153.56
292.295	158.56
292.526	163.56
292.757	163.56
292.987	148.56
293.218	150.56
293.449	167.56
293.68	161.56
293.91	177.56
294.141	168.56
294.372	156.56
294.603	165.56
294.833	178.56
295.064	171.56
295.295	170.56
295.525	162.56
295.756	165.56
295.987	157.56
296.217	162.56
296.448	169.56
296.679	155.56
296.909	164.56
297.14	163.56
297.37	178.56
297.601	168.56
297.831	161.56
298.062	162.56
298.292	171.56
298.523	163.56
298.753	173.56
298.984	174.56
299.214	162.56
299.445	166.56
299.675	179.56
299.905	157.56
300.136	169.56
300.366	157.56
300.597	168.56
300.827	180.56
301.057	161.56
301.288	177.56
301.518	167.56
301.748	179.56
301.979	171.56
302.209	171.56
302.439	184.56
302.669	169.56
302.9	179.56
303.13	189.56
303.36	180.56
303.59	168.56
303.82	177.56
304.051	171.56
304.281	170.56
304.511	175.56
304.741	171.56
304.971	181.56
305.201	163.56
305.431	196.56
305.661	161.56
305.891	174.56
306.121	165.56
306.352	178.56
306.582	177.56
306.812	164.56
307.042	172.56
307.272	162.56
307.502	172.56
307.731	172.56
307.961	181.56
308.191	166.56
308.421	172.56
308.651	177.56
308.881	181.56
309.111	168.56
309.341	177.56
309.571	170.56
309.8	173.56
310.03	171.56
310.26	169.56
310.49	186.56
310.72	159.56
310.949	163.56
311.179	153.56
311.409	173.56
311.639	197.56
311.868	180.56
312.098	172.56
312.328	192.56
312.557	179.56
312.787	163.56
313.017	178.56
313.246	185.56
313.476	189.56
313.706	198.56
313.935	187.56
314.165	174.56
314.394	175.56
314.624	197.56
314.853	192.56
315.083	193.56
315.312	173.56
315.542	181.56
315.771	193.56
316.001	182.56
316.23	186.56
316.46	190.56
316.689	190.56
316.919	184.56
317.148	180.56
317.377	181.56
317.607	183.56
317.836	168.56
318.065	170.56
318.295	177.56
318.524	167.56
318.753	202.56
318.983	188.56
319.212	183.56
319.441	188.56
319.67	184.56
319.9	181.56
320.129	193.56
320.358	173.56
320.587	181.56
320.816	195.56
321.046	185.56
321.275	175.56
321.504	175.56
321.733	174.56
321.962	190.56
322.191	181.56
322.42	193.56
322.649	186.56
322.878	195.56
323.108	185.56
323.337	175.56
323.566	181.56
323.795	166.56
324.024	188.56
324.253	190.56
324.482	175.56
324.71	190.56
324.939	188.56
325.168	184.56
325.397	194.56
325.626	197.56
325.855	166.56
326.084	206.56
326.313	207.56
326.542	198.56
326.77	216.56
326.999	178.56
327.228	184.56
327.457	197.56
327.686	193.56
327.914	168.56
328.143	189.56
328.372	187.56
328.6	187.56
328.829	193.56
329.058	204.56
329.287	204.56
329.515	195.56
329.744	194.56
329.972	205.56
330.201	199.56
330.43	184.56
330.658	205.56
330.887	193.56
331.115	203.56
331.344	217.56
331.572	195.56
331.801	202.56
332.03	208.56
332.258	202.56
332.486	201.56
332.715	229.56
332.943	230.56
333.172	243.56
333.4	223.56
333.629	230.56
333.857	252.56
334.085	228.56
334.314	245.56
334.542	218.56
334.771	235.56
334.999	239.56
335.227	244.56
335.455	232.56
335.684	226.56
335.912	210.56
336.14	237.56
336.369	225.56
336.597	226.56
336.825	212.56
337.053	212.56
337.281	205.56
337.51	230.56
337.738	220.56
337.966	204.56
338.194	205.56
338.422	196.56
338.65	202.56
338.878	198.56
339.106	210.56
339.334	207.56
339.562	205.56
339.79	198.56
340.018	195.56
340.246	191.56
340.474	211.56
340.702	204.56
340.93	219.56
341.158	204.56
341.386	207.56
341.614	207.56
341.842	189.56
342.07	195.56
342.298	215.56
342.526	195.56
342.754	206.56
342.981	194.56
343.209	193.56
343.437	206.56
343.665	233.56
343.893	225.56
344.12	234.56
344.348	235.56
344.576	228.56
344.804	189.56
345.031	193.56
345.259	204.56
345.487	202.56
345.714	207.56
345.942	209.56
346.17	198.56
346.397	210.56
346.625	203.56
346.853	194.56
347.08	202.56
347.308	193.56
347.535	215.56
347.763	184.56
347.99	185.56
348.218	196.56
348.445	194.56
348.673	212.56
348.9	202.56
349.128	197.56
349.355	201.56
349.583	187.56
349.81	190.56
350.037	183.56
350.265	190.56
350.492	214.56
350.72	218.56
350.947	189.56
351.174	189.56
351.402	198.56
351.629	181.56
351.856	183.56
352.083	191.56
352.311	182.56
352.538	187.56
352.765	194.56
352.992	189.56
353.22	204.56
353.447	193.56
353.674	201.56
353.901	189.56
354.128	205.56
354.355	189.56
354.583	199.56
354.81	203.56
355.037	191.56
355.264	195.56
355.491	195.56
355.718	181.56
355.945	192.56
356.172	187.56
356.399	200.56
356.626	198.56
356.853	190.56
357.08	197.56
357.307	189.56
357.534	199.56
357.761	195.56
357.988	186.56
358.215	214.56
358.441	193.56
358.668	211.56
358.895	197.56
359.122	198.56
359.349	183.56
359.576	198.56
359.802	194.56
360.029	201.56
360.256	193.56
360.483	210.56
360.709	203.56
360.936	207.56
361.163	183.56
361.39	197.56
361.616	201.56
361.843	206.56
362.07	182.56
362.296	202.56
362.523	194.56
362.749	195.56
362.976	205.56
363.203	202.56
363.429	195.56
363.656	193.56
363.882	196.56
364.109	199.56
364.335	200.56
364.562	184.56
364.788	203.56
365.015	198.56
365.241	186.56
365.468	202.56
365.694	200.56
365.92	190.56
366.147	197.56
366.373	204.56
366.599	198.56
366.826	205.56
367.052	185.56
367.278	193.56
367.505	208.56
367.731	198.56
367.957	197.56
368.184	185.56
368.41	185.56
368.636	203.56
368.862	204.56
369.089	203.56
369.315	212.56
369.541	201.56
369.767	206.56
369.993	205.56
370.219	203.56
370.445	213.56
370.672	207.56
370.898	189.56
371.124	210.56
371.35	218.56
371.576	207.56
371.802	206.56
372.028	205.56
372.254	220.56
372.48	211.56
372.706	218.56
372.932	227.56
373.158	211.56
373.384	219.56
373.61	214.56
373.835	196.56
374.061	208.56
374.287	220.56
374.513	218.56
374.739	225.56
374.965	226.56
375.191	230.56
375.416	221.56
375.642	212.56
375.868	228.56
376.094	231.56
376.319	221.56
376.545	203.56
376.771	217.56
376.997	217.56
377.222	218.56
377.448	198.56
377.674	201.56
377.899	215.56
378.125	207.56
378.35	213.56
378.576	208.56
378.802	227.56
379.027	212.56
379.253	207.56
379.478	206.56
379.704	206.56
379.929	201.56
380.155	224.56
380.38	214.56
380.606	208.56
380.831	216.56
381.057	226.56
381.282	206.56
381.507	203.56
381.733	197.56
381.958	203.56
382.184	222.56
382.409	217.56
382.634	228.56
382.86	230.56
383.085	218.56
383.31	229.56
383.535	229.56
383.761	226.56
383.986	241.56
384.211	237.56
384.436	236.56
384.662	260.56
384.887	247.56
385.112	239.56
385.337	261.56
385.562	255.56
385.787	243.56
386.013	248.56
386.238	243.56
386.463	232.56
386.688	265.56
386.913	243.56
387.138	244.56
387.363	233.56
387.588	237.56
387.813	234.56
388.038	263.56
388.263	248.56
388.488	246.56
388.713	244.56
388.938	257.56
389.163	232.56
389.387	245.56
389.612	253.56
389.837	245.56
390.062	254.56
390.287	250.56
390.512	255.56
390.736	230.56
390.961	230.56
391.186	244.56
391.411	239.56
391.636	257.56
391.86	261.56
392.085	283.56
392.31	263.56
392.534	262.56
392.759	265.56
392.984	264.56
393.208	259.56
393.433	263.56
393.658	268.56
393.882	241.56
394.107	257.56
394.331	268.56
394.556	262.56
394.78	259.56
395.005	246.56
395.229	256.56
395.454	265.56
395.678	261.56
395.903	272.56
396.127	244.56
396.352	261.56
396.576	269.56
396.801	247.56
397.025	268.56
397.249	263.56
397.474	274.56
397.698	263.56
397.922	246.56
398.147	270.56
398.371	270.56
398.595	289.56
398.82	268.56
399.044	313.56
399.268	358.56
399.492	375.56
399.717	403.56
399.941	377.56
400.165	353.56
400.389	343.56
400.613	312.56
400.837	275.56
401.062	288.56
401.286	287.56
401.51	310.56
401.734	293.56
401.958	294.56
402.182	299.56
402.406	295.56
402.63	299.56
402.854	309.56
403.078	305.56
403.302	315.56
403.526	340.56
403.75	327.56
403.974	328.56
404.198	327.56
404.422	323.56
404.645	333.56
404.869	316.56
405.093	322.56
405.317	306.56
405.541	325.56
405.765	312.56
405.988	311.56
406.212	341.56
406.436	298.56
406.66	322.56
406.883	334.56
407.107	338.56
407.331	366.56
407.555	365.56
407.778	356.56
408.002	349.56
408.226	331.56
408.449	354.56
408.673	343.56
408.896	317.56
409.12	341.56
409.344	327.56
409.567	325.56
409.791	334.56
410.014	317.56
410.238	337.56
410.461	320.56
410.685	327.56
410.908	309.56
411.132	295.56
411.355	320.56
411.578	309.56
411.802	286.56
412.025	317.56
412.249	285.56
412.472	319.56
412.695	317.56
412.919	325.56
413.142	315.56
413.365	297.56
413.589	298.56
413.812	294.56
414.035	306.56
414.258	305.56
414.482	301.56
414.705	307.56
414.928	308.56
415.151	306.56
415.374	309.56
415.597	305.56
415.821	302.56
416.044	297.56
416.267	302.56
416.49	308.56
416.713	313.56
416.936	284.56
417.159	293.56
417.382	298.56
417.605	290.56
417.828	292.56
418.051	300.56
418.274	309.56
418.497	299.56
418.72	300.56
418.943	321.56
419.166	321.56
419.389	333.56
419.611	341.56
419.834	301.56
420.057	310.56
420.28	309.56
420.503	305.56
420.726	300.56
420.948	297.56
421.171	315.56
421.394	284.56
421.617	299.56
421.839	302.56
422.062	302.56
422.285	295.56
422.507	303.56
422.73	301.56
422.953	294.56
423.175	290.56
423.398	321.56
423.621	314.56
423.843	305.56
424.066	313.56
424.288	313.56
424.511	313.56
424.733	309.56
424.956	326.56
425.178	287.56
425.401	308.56
425.623	318.56
425.846	302.56
426.068	303.56
426.291	291.56
426.513	295.56
426.735	290.56
426.958	310.56
427.18	282.56
427.402	275.56
427.625	280.56
427.847	277.56
428.069	268.56
428.292	274.56
428.514	271.56
428.736	277.56
428.958	254.56
429.181	278.56
429.403	285.56
429.625	276.56
429.847	275.56
430.069	273.56
430.292	270.56
430.514	279.56
430.736	282.56
430.958	282.56
431.18	278.56
431.402	292.56
431.624	275.56
431.846	282.56
432.068	268.56
432.29	266.56
432.512	277.56
432.734	264.56
432.956	291.56
433.178	280.56
433.4	291.56
433.622	301.56
433.844	293.56
434.066	299.56
434.287	289.56
434.509	285.56
434.731	295.56
434.953	294.56
435.175	285.56
435.397	291.56
435.618	287.56
435.84	294.56
436.062	284.56
436.284	285.56
436.505	286.56
436.727	259.56
436.949	287.56
437.17	300.56
437.392	293.56
437.614	279.56
437.835	257.56
438.057	283.56
438.278	283.56
438.5	274.56
438.721	279.56
438.943	283.56
439.165	295.56
439.386	290.56
439.608	292.56
439.829	292.56
440.05	307.56
440.272	301.56
440.493	292.56
440.715	281.56
440.936	311.56
441.158	311.56
441.379	313.56
441.6	319.56
441.822	317.56
442.043	318.56
442.264	321.56
442.486	307.56
442.707	321.56
442.928	314.56
443.149	314.56
443.371	315.56
443.592	301.56
443.813	327.56
444.034	321.56
444.255	325.56
444.476	356.56
444.698	339.56
444.919	364.56
445.14	443.56
445.361	377.56
445.582	336.56
445.803	323.56
446.024	310.56
446.245	314.56
446.466	302.56
446.687	288.56
446.908	301.56
447.129	294.56
447.35	298.56
447.571	290.56
447.792	291.56
448.013	275.56
448.234	289.56
448.455	282.56
448.675	277.56
448.896	283.56
449.117	275.56
449.338	278.56
449.559	262.56
449.779	291.56
450	283.56
450.221	266.56
450.442	292.56
450.662	269.56
450.883	288.56
451.104	274.56
451.324	276.56
451.545	263.56
451.766	266.56
451.986	280.56
452.207	269.56
452.428	285.56
452.648	267.56
452.869	284.56
453.089	266.56
453.31	286.56
453.53	255.56
453.751	261.56
453.971	261.56
454.192	252.56
454.412	261.56
454.633	267.56
454.853	260.56
455.073	279.56
455.294	273.56
455.514	260.56
455.734	253.56
455.955	237.56
456.175	253.56
456.395	255.56
456.616	267.56
456.836	256.56
457.056	255.56
457.276	236.56
457.497	254.56
457.717	237.56
457.937	264.56
458.157	263.56
458.377	268.56
458.598	260.56
458.818	264.56
459.038	279.56
459.258	274.56
459.478	292.56
459.698	294.56
459.918	307.56
460.138	319.56
460.358	313.56
460.578	310.56
460.798	317.56
461.018	337.56
461.238	328.56
461.458	322.56
461.678	325.56
461.898	339.56
462.118	332.56
462.338	339.56
462.558	344.56
462.777	349.56
462.997	362.56
463.217	392.56
463.437	384.56
463.657	351.56
463.876	353.56
464.096	355.56
464.316	357.56
464.536	402.56
464.755	350.56
464.975	343.56
465.195	322.56
465.414	333.56
465.634	311.56
465.854	300.56
466.073	281.56
466.293	301.56
466.512	301.56
466.732	279.56
466.951	282.56
467.171	271.56
467.391	289.56
467.61	286.56
467.829	291.56
468.049	281.56
468.268	295.56
468.488	274.56
468.707	286.56
468.927	292.56
469.146	267.56
469.365	274.56
469.585	275.56
469.804	274.56
470.023	284.56
470.243	308.56
470.462	305.56
470.681	307.56
470.901	298.56
471.12	275.56
471.339	281.56
471.558	281.56
471.777	282.56
471.997	280.56
472.216	262.56
472.435	268.56
472.654	271.56
472.873	246.56
473.092	257.56
473.311	271.56
473.53	255.56
473.749	270.56
473.968	274.56
474.187	268.56
474.406	249.56
474.625	274.56
474.844	271.56
475.063	246.56
475.282	273.56
475.501	266.56
475.72	265.56
475.939	270.56
476.158	270.56
476.377	263.56
476.596	259.56
476.814	285.56
477.033	272.56
477.252	282.56
477.471	273.56
477.69	289.56
477.908	301.56
478.127	291.56
478.346	285.56
478.564	307.56
478.783	331.56
479.002	305.56
479.22	306.56
479.439	319.56
479.658	310.56
479.876	318.56
480.095	279.56
480.313	321.56
480.532	330.56
480.751	336.56
480.969	298.56
481.188	292.56
481.406	289.56
481.624	294.56
481.843	283.56
482.061	292.56
482.28	292.56
482.498	294.56
482.717	297.56
482.935	302.56
483.153	285.56
483.372	307.56
483.59	285.56
483.808	289.56
484.027	297.56
484.245	280.56
484.463	299.56
484.681	288.56
484.9	300.56
485.118	301.56
485.336	294.56
485.554	296.56
485.772	302.56
485.99	303.56
486.209	283.56
486.427	294.56
486.645	317.56
486.863	294.56
487.081	275.56
487.299	287.56
487.517	299.56
487.735	301.56
487.953	323.56
488.171	319.56
488.389	285.56
488.607	293.56
488.825	294.56
489.043	271.56
489.261	305.56
489.479	300.56
489.696	293.56
489.914	289.56
490.132	301.56
490.35	319.56
490.568	303.56
490.786	289.56
491.003	320.56
491.221	313.56
491.439	302.56
491.657	307.56
491.874	325.56
492.092	320.56
492.31	314.56
492.527	317.56
492.745	314.56
492.963	317.56
493.18	316.56
493.398	319.56
493.615	306.56
493.833	323.56
494.05	302.56
494.268	333.56
494.485	345.56
494.703	307.56
494.92	319.56
495.138	331.56
495.355	330.56
495.573	322.56
495.79	325.56
496.008	307.56
496.225	314.56
496.442	286.56
496.66	307.56
496.877	331.56
497.094	320.56
497.312	344.56
497.529	356.56
497.746	360.56
497.963	351.56
498.181	373.56
498.398	374.56
498.615	383.56
498.832	403.56
499.049	436.56
499.267	463.56
499.484	486.56
499.701	530.56
499.918	573.56
500.135	652.56
500.352	725.56
500.569	748.56
500.786	721.56
501.003	669.56
501.22	614.56
501.437	543.56
501.654	488.56
501.871	451.56
502.088	430.56
502.305	431.56
