Data from Fe(NO3)3@0.0125M.TitratingCurve.Agarose3%dH2O.NegLispCup.LampEnergy10.LIBS07252019_HRD10591_16-59-18-336.txt Node
Date: Thu Jul 25 16:59:18 EDT 2019
User: cochatt
Spectrometer: HR+D1059
Trigger mode: 1
Integration Time (sec): 1.000000E-1
Scans to average: 1
Electric dark correction enabled: true
Nonlinearity correction enabled: false
Boxcar width: 0
XAxis mode: Wavelengths
Number of Pixels in Spectrum: 2048
>>>>>Begin Spectral Data<<<<<
223.165	-22
223.4	-22
223.635	-22
223.869	-21
224.104	-14
224.338	7
224.573	-17
224.808	-5
225.042	-4
225.277	-8
225.511	-2
225.746	7
225.98	-7
226.215	-10
226.449	21
226.683	15
226.918	21
227.152	39
227.387	38
227.621	54
227.856	60
228.09	51
228.324	44
228.559	50
228.793	73
229.027	97
229.262	90
229.496	113
229.73	113
229.964	110
230.199	114
230.433	97
230.667	115
230.901	116
231.136	116
231.37	119
231.604	117
231.838	116
232.072	120
232.306	121
232.541	123
232.775	145
233.009	125
233.243	127
233.477	126
233.711	134
233.945	128
234.179	122
234.413	124
234.647	122
234.881	133
235.115	137
235.349	133
235.583	126
235.817	126
236.051	132
236.285	140
236.519	115
236.753	133
236.987	133
237.221	144
237.455	148
237.689	134
237.922	137
238.156	127
238.39	138
238.624	141
238.858	143
239.091	148
239.325	137
239.559	138
239.793	159
240.027	149
240.26	137
240.494	155
240.728	154
240.961	151
241.195	140
241.429	149
241.662	153
241.896	157
242.13	141
242.363	147
242.597	154
242.83	141
243.064	168
243.298	167
243.531	154
243.765	164
243.998	167
244.232	153
244.465	157
244.699	167
244.932	165
245.166	177
245.399	156
245.633	160
245.866	170
246.099	168
246.333	163
246.566	158
246.8	175
247.033	167
247.266	171
247.5	182
247.733	188
247.966	198
248.2	187
248.433	198
248.666	173
248.899	173
249.133	179
249.366	191
249.599	204
249.832	189
250.066	193
250.299	191
250.532	210
250.765	186
250.998	190
251.231	190
251.465	203
251.698	195
251.931	189
252.164	208
252.397	193
252.63	172
252.863	214
253.096	210
253.329	213
253.562	205
253.795	200
254.028	198
254.261	220
254.494	226
254.727	214
254.96	214
255.193	203
255.426	217
255.659	210
255.892	222
256.124	210
256.357	226
256.59	215
256.823	226
257.056	222
257.289	221
257.521	241
257.754	222
257.987	209
258.22	210
258.452	230
258.685	257
258.918	228
259.151	241
259.383	225
259.616	251
259.849	253
260.081	254
260.314	252
260.547	239
260.779	245
261.012	257
261.244	269
261.477	269
261.71	277
261.942	252
262.175	267
262.407	264
262.64	259
262.872	260
263.105	249
263.337	266
263.57	267
263.802	261
264.035	272
264.267	249
264.499	254
264.732	249
264.964	262
265.197	259
265.429	263
265.661	265
265.894	270
266.126	249
266.358	273
266.591	262
266.823	282
267.055	267
267.287	277
267.52	286
267.752	269
267.984	271
268.216	287
268.448	286
268.681	270
268.913	279
269.145	278
269.377	277
269.609	305
269.841	276
270.073	302
270.306	305
270.538	309
270.77	290
271.002	307
271.234	299
271.466	290
271.698	311
271.93	315
272.162	315
272.394	317
272.626	321
272.858	295
273.09	335
273.322	320
273.553	341
273.785	324
274.017	342
274.249	345
274.481	342
274.713	330
274.945	359
275.176	363
275.408	349
275.64	343
275.872	350
276.104	338
276.335	347
276.567	333
276.799	333
277.031	350
277.262	326
277.494	366
277.726	351
277.957	353
278.189	348
278.421	372
278.652	347
278.884	363
279.115	355
279.347	358
279.579	349
279.81	344
280.042	365
280.273	369
280.505	372
280.736	358
280.968	361
281.199	371
281.431	374
281.662	341
281.894	381
282.125	381
282.356	381
282.588	370
282.819	374
283.051	394
283.282	365
283.513	391
283.745	388
283.976	388
284.207	399
284.439	406
284.67	400
284.901	387
285.132	381
285.364	391
285.595	401
285.826	406
286.057	408
286.288	413
286.52	402
286.751	403
286.982	398
287.213	409
287.444	403
287.675	414
287.906	392
288.138	405
288.369	398
288.6	430
288.831	421
289.062	402
289.293	419
289.524	443
289.755	433
289.986	431
290.217	437
290.448	417
290.679	419
290.91	443
291.141	436
291.371	429
291.602	430
291.833	418
292.064	443
292.295	418
292.526	416
292.757	451
292.987	438
293.218	441
293.449	442
293.68	442
293.91	439
294.141	436
294.372	431
294.603	446
294.833	474
295.064	444
295.295	435
295.525	431
295.756	452
295.987	437
296.217	459
296.448	436
296.679	466
296.909	455
297.14	445
297.37	467
297.601	491
297.831	451
298.062	463
298.292	488
298.523	484
298.753	484
298.984	481
299.214	481
299.445	469
299.675	495
299.905	491
300.136	464
300.366	471
300.597	471
300.827	477
301.057	488
301.288	486
301.518	481
301.748	469
301.979	498
302.209	502
302.439	490
302.669	491
302.9	498
303.13	515
303.36	528
303.59	476
303.82	519
304.051	513
304.281	522
304.511	511
304.741	497
304.971	514
305.201	532
305.431	515
305.661	517
305.891	513
306.121	513
306.352	528
306.582	540
306.812	515
307.042	532
307.272	520
307.502	515
307.731	527
307.961	535
308.191	522
308.421	540
308.651	519
308.881	491
309.111	522
309.341	538
309.571	544
309.8	525
310.03	541
310.26	542
310.49	547
310.72	519
310.949	538
311.179	550
311.409	557
311.639	548
311.868	537
312.098	573
312.328	556
312.557	546
312.787	570
313.017	582
313.246	584
313.476	572
313.706	574
313.935	561
314.165	577
314.394	562
314.624	576
314.853	553
315.083	569
315.312	571
315.542	597
315.771	593
316.001	568
316.23	597
316.46	600
316.689	593
316.919	573
317.148	593
317.377	597
317.607	600
317.836	585
318.065	603
318.295	596
318.524	606
318.753	618
318.983	607
319.212	615
319.441	613
319.67	597
319.9	602
320.129	611
320.358	611
320.587	607
320.816	635
321.046	614
321.275	614
321.504	628
321.733	609
321.962	619
322.191	618
322.42	638
322.649	649
322.878	647
323.108	619
323.337	629
323.566	628
323.795	629
324.024	642
324.253	643
324.482	638
324.71	641
324.939	644
325.168	645
325.397	636
325.626	639
325.855	633
326.084	683
326.313	661
326.542	638
326.77	652
326.999	656
327.228	629
327.457	658
327.686	643
327.914	643
328.143	654
328.372	634
328.6	638
328.829	645
329.058	679
329.287	650
329.515	655
329.744	655
329.972	656
330.201	651
330.43	686
330.658	668
330.887	687
331.115	708
331.344	699
331.572	679
331.801	695
332.03	674
332.258	677
332.486	686
332.715	683
332.943	670
333.172	682
333.4	699
333.629	690
333.857	713
334.085	712
334.314	691
334.542	711
334.771	700
334.999	709
335.227	745
335.455	723
335.684	733
335.912	729
336.14	700
336.369	692
336.597	723
336.825	733
337.053	732
337.281	723
337.51	719
337.738	731
337.966	698
338.194	708
338.422	702
338.65	717
338.878	710
339.106	704
339.334	712
339.562	712
339.79	724
340.018	732
340.246	716
340.474	708
340.702	703
340.93	730
341.158	682
341.386	715
341.614	715
341.842	714
342.07	727
342.298	741
342.526	729
342.754	727
342.981	729
343.209	724
343.437	715
343.665	727
343.893	725
344.12	746
344.348	749
344.576	737
344.804	734
345.031	711
345.259	720
345.487	729
345.714	736
345.942	705
346.17	696
346.397	718
346.625	739
346.853	706
347.08	712
347.308	693
347.535	710
347.763	699
347.99	704
348.218	700
348.445	713
348.673	688
348.9	728
349.128	736
349.355	719
349.583	735
349.81	675
350.037	693
350.265	680
350.492	718
350.72	711
350.947	697
351.174	699
351.402	699
351.629	695
351.856	725
352.083	696
352.311	666
352.538	689
352.765	695
352.992	682
353.22	673
353.447	677
353.674	709
353.901	725
354.128	693
354.355	706
354.583	706
354.81	683
355.037	705
355.264	712
355.491	699
355.718	708
355.945	716
356.172	709
356.399	702
356.626	720
356.853	717
357.08	716
357.307	711
357.534	706
357.761	691
357.988	699
358.215	664
358.441	694
358.668	700
358.895	714
359.122	729
359.349	710
359.576	700
359.802	710
360.029	710
360.256	700
360.483	703
360.709	696
360.936	708
361.163	698
361.39	700
361.616	685
361.843	744
362.07	724
362.296	707
362.523	741
362.749	704
362.976	721
363.203	725
363.429	718
363.656	727
363.882	713
364.109	721
364.335	739
364.562	727
364.788	719
365.015	720
365.241	743
365.468	741
365.694	746
365.92	746
366.147	741
366.373	729
366.599	737
366.826	728
367.052	768
367.278	718
367.505	728
367.731	755
367.957	713
368.184	735
368.41	754
368.636	728
368.862	747
369.089	743
369.315	729
369.541	764
369.767	742
369.993	741
370.219	756
370.445	767
370.672	754
370.898	762
371.124	734
371.35	758
371.576	774
371.802	765
372.028	759
372.254	770
372.48	758
372.706	779
372.932	755
373.158	774
373.384	763
373.61	761
373.835	780
374.061	780
374.287	772
374.513	770
374.739	792
374.965	757
375.191	774
375.416	812
375.642	786
375.868	789
376.094	787
376.319	754
376.545	788
376.771	784
376.997	782
377.222	758
377.448	754
377.674	747
377.899	747
378.125	753
378.35	771
378.576	759
378.802	748
379.027	763
379.253	769
379.478	757
379.704	808
379.929	763
380.155	785
380.38	765
380.606	788
380.831	789
381.057	772
381.282	787
381.507	771
381.733	787
381.958	787
382.184	782
382.409	806
382.634	756
382.86	770
383.085	779
383.31	783
383.535	805
383.761	781
383.986	776
384.211	788
384.436	807
384.662	831
384.887	794
385.112	819
385.337	828
385.562	798
385.787	821
386.013	811
386.238	808
386.463	824
386.688	828
386.913	829
387.138	817
387.363	819
387.588	827
387.813	821
388.038	845
388.263	871
388.488	835
388.713	845
388.938	825
389.163	816
389.387	850
389.612	837
389.837	847
390.062	846
390.287	823
390.512	807
390.736	836
390.961	853
391.186	843
391.411	816
391.636	842
391.86	844
392.085	865
392.31	841
392.534	825
392.759	868
392.984	841
393.208	875
393.433	858
393.658	855
393.882	845
394.107	844
394.331	876
394.556	843
394.78	869
395.005	857
395.229	849
395.454	835
395.678	858
395.903	842
396.127	862
396.352	873
396.576	862
396.801	887
397.025	886
397.249	886
397.474	874
397.698	877
397.922	894
398.147	866
398.371	908
398.595	911
398.82	885
399.044	895
399.268	897
399.492	927
399.717	930
399.941	924
400.165	929
400.389	927
400.613	943
400.837	928
401.062	913
401.286	905
401.51	909
401.734	901
401.958	950
402.182	924
402.406	885
402.63	910
402.854	910
403.078	923
403.302	881
403.526	921
403.75	914
403.974	908
404.198	907
404.422	920
404.645	931
404.869	912
405.093	920
405.317	913
405.541	907
405.765	901
405.988	935
406.212	955
406.436	921
406.66	981
406.883	962
407.107	932
407.331	960
407.555	969
407.778	949
408.002	964
408.226	961
408.449	1010
408.673	963
408.896	938
409.12	972
409.344	972
409.567	946
409.791	953
410.014	932
410.238	939
410.461	942
410.685	917
410.908	935
411.132	914
411.355	923
411.578	914
411.802	911
412.025	919
412.249	958
412.472	938
412.695	898
412.919	938
413.142	929
413.365	915
413.589	916
413.812	889
414.035	923
414.258	916
414.482	873
414.705	908
414.928	894
415.151	927
415.374	903
415.597	903
415.821	887
416.044	888
416.267	890
416.49	920
416.713	891
416.936	887
417.159	876
417.382	870
417.605	880
417.828	895
418.051	892
418.274	879
418.497	850
418.72	857
418.943	850
419.166	872
419.389	908
419.611	933
419.834	893
420.057	891
420.28	876
420.503	881
420.726	860
420.948	867
421.171	856
421.394	876
421.617	869
421.839	880
422.062	865
422.285	859
422.507	847
422.73	834
422.953	845
423.175	839
423.398	874
423.621	847
423.843	853
424.066	854
424.288	876
424.511	854
424.733	873
424.956	855
425.178	876
425.401	850
425.623	853
425.846	878
426.068	870
426.291	848
426.513	870
426.735	862
426.958	826
427.18	839
427.402	871
427.625	862
427.847	834
428.069	855
428.292	859
428.514	846
428.736	844
428.958	854
429.181	835
429.403	837
429.625	836
429.847	845
430.069	847
430.292	853
430.514	827
430.736	879
430.958	843
431.18	858
431.402	880
431.624	843
431.846	825
432.068	842
432.29	854
432.512	863
432.734	855
432.956	852
433.178	840
433.4	869
433.622	852
433.844	879
434.066	876
434.287	831
434.509	853
434.731	840
434.953	845
435.175	835
435.397	857
435.618	877
435.84	837
436.062	825
436.284	843
436.505	834
436.727	836
436.949	830
437.17	847
437.392	845
437.614	800
437.835	795
438.057	838
438.278	842
438.5	817
438.721	841
438.943	830
439.165	842
439.386	832
439.608	820
439.829	840
440.05	821
440.272	829
440.493	832
440.715	829
440.936	831
441.158	838
441.379	842
441.6	835
441.822	855
442.043	853
442.264	837
442.486	819
442.707	831
442.928	845
443.149	835
443.371	847
443.592	865
443.813	851
444.034	816
444.255	803
444.476	859
444.698	843
444.919	843
445.14	942
445.361	888
445.582	855
445.803	840
446.024	819
446.245	828
446.466	819
446.687	833
446.908	827
447.129	797
447.35	801
447.571	805
447.792	815
448.013	795
448.234	796
448.455	795
448.675	786
448.896	780
449.117	791
449.338	781
449.559	806
449.779	791
450	803
450.221	790
450.442	790
450.662	769
450.883	803
451.104	789
451.324	795
451.545	772
451.766	802
451.986	781
452.207	775
452.428	809
452.648	771
452.869	793
453.089	768
453.31	774
453.53	770
453.751	768
453.971	774
454.192	798
454.412	766
454.633	771
454.853	756
455.073	766
455.294	748
455.514	769
455.734	781
455.955	794
456.175	743
456.395	737
456.616	775
456.836	740
457.056	770
457.276	775
457.497	765
457.717	798
457.937	798
458.157	807
458.377	779
458.598	801
458.818	793
459.038	786
459.258	808
459.478	794
459.698	808
459.918	804
460.138	803
460.358	819
460.578	819
460.798	861
461.018	843
461.238	847
461.458	860
461.678	857
461.898	857
462.118	847
462.338	856
462.558	827
462.777	870
462.997	872
463.217	873
463.437	878
463.657	858
463.876	860
464.096	870
464.316	884
464.536	891
464.755	867
464.975	872
465.195	828
465.414	851
465.634	847
465.854	835
466.073	790
466.293	832
466.512	821
466.732	822
466.951	847
467.171	826
467.391	814
467.61	825
467.829	819
468.049	811
468.268	817
468.488	834
468.707	825
468.927	815
469.146	843
469.365	811
469.585	822
469.804	857
470.023	844
470.243	839
470.462	834
470.681	831
470.901	835
471.12	837
471.339	833
471.558	829
471.777	853
471.997	866
472.216	843
472.435	846
472.654	836
472.873	858
473.092	861
473.311	844
473.53	836
473.749	834
473.968	843
474.187	858
474.406	874
474.625	875
474.844	901
475.063	877
475.282	885
475.501	905
475.72	892
475.939	879
476.158	876
476.377	894
476.596	915
476.814	932
477.033	918
477.252	917
477.471	949
477.69	942
477.908	936
478.127	964
478.346	950
478.564	962
478.783	959
479.002	997
479.22	983
479.439	979
479.658	967
479.876	965
480.095	985
480.313	980
480.532	996
480.751	1010
480.969	1010
481.188	999
481.406	994
481.624	985
481.843	987
482.061	986
482.28	974
482.498	1019
482.717	1057
482.935	1071
483.153	1011
483.372	1027
483.59	1050
483.808	1023
484.027	1053
484.245	1041
484.463	1041
484.681	1059
484.9	1052
485.118	1041
485.336	1047
485.554	1064
485.772	1040
485.99	1067
486.209	1059
486.427	1074
486.645	1068
486.863	1067
487.081	1061
487.299	1073
487.517	1074
487.735	1097
487.953	1066
488.171	1083
488.389	1094
488.607	1074
488.825	1081
489.043	1075
489.261	1084
489.479	1068
489.696	1081
489.914	1069
490.132	1093
490.35	1053
490.568	1095
490.786	1086
491.003	1067
491.221	1096
491.439	1096
491.657	1078
491.874	1105
492.092	1088
492.31	1099
492.527	1065
492.745	1076
492.963	1115
493.18	1083
493.398	1058
493.615	1107
493.833	1090
494.05	1041
494.268	1067
494.485	1084
494.703	1102
494.92	1130
495.138	1120
495.355	1129
495.573	1170
495.79	1106
496.008	1125
496.225	1097
496.442	1149
496.66	1171
496.877	1144
497.094	1175
497.312	1154
497.529	1165
497.746	1160
497.963	1174
498.181	1203
498.398	1174
498.615	1179
498.832	1217
499.049	1236
499.267	1258
499.484	1266
499.701	1269
499.918	1314
500.135	1290
500.352	1307
500.569	1301
500.786	1307
501.003	1324
501.22	1310
501.437	1291
501.654	1246
501.871	1227
502.088	1245
502.305	1215
502.522	1193
502.739	1183
502.956	1179
503.172	1143
503.389	1158
503.606	1138
503.823	1143
504.04	1125
504.256	1146
504.473	1114
504.69	1090
504.907	1107
505.123	1112
505.34	1111
505.557	1059
505.773	1054
505.99	1043
506.207	1040
506.423	1049
506.64	1041
506.856	1034
507.073	1012
507.289	993
507.506	1001
507.722	1028
507.939	973
508.155	988
508.372	1009
508.588	1011
508.805	967
509.021	968
509.238	945
509.454	965
509.67	970
509.887	933
510.103	955
510.319	985
510.536	943
510.752	943
510.968	933
511.184	946
511.401	945
511.617	919
511.833	935
512.049	939
512.265	949
512.481	948
512.698	910
512.914	939
513.13	917
513.346	928
513.562	955
513.778	936
513.994	917
514.21	910
514.426	925
514.642	933
514.858	922
515.074	920
515.29	941
515.506	958
515.721	959
515.937	968
516.153	953
516.369	947
516.585	942
516.801	969
517.016	940
517.232	951
517.448	941
517.664	958
517.879	963
518.095	964
518.311	972
518.527	942
518.742	945
518.958	956
519.173	903
519.389	941
519.605	949
519.82	947
520.036	951
520.251	922
520.467	917
520.682	934
520.898	924
521.113	902
521.329	930
521.544	912
521.76	890
521.975	879
522.19	864
522.406	885
522.621	891
522.836	902
523.052	883
523.267	900
523.482	879
523.698	889
523.913	867
524.128	881
524.343	865
524.559	897
524.774	863
524.989	869
525.204	869
525.419	885
525.634	871
525.849	846
526.064	866
526.28	851
526.495	850
526.71	884
526.925	848
527.14	883
527.355	879
527.57	857
527.785	870
527.999	857
528.214	826
528.429	853
528.644	847
528.859	839
529.074	835
529.289	832
529.503	836
529.718	867
529.933	839
530.148	834
530.363	831
530.577	840
530.792	835
531.007	853
531.221	837
531.436	809
531.651	829
531.865	855
532.08	846
532.295	839
532.509	798
532.724	810
532.938	840
533.153	867
533.367	820
533.582	821
533.796	809
534.011	820
534.225	788
534.44	817
534.654	801
534.868	834
535.083	803
535.297	829
535.511	809
535.726	805
535.94	793
536.154	799
536.369	794
536.583	805
536.797	815
537.011	808
537.225	820
537.44	789
537.654	793
537.868	776
538.082	794
538.296	803
538.51	778
538.724	789
538.938	766
539.153	769
539.367	792
539.581	787
539.795	763
540.009	777
540.222	789
540.436	745
540.65	772
540.864	749
541.078	767
541.292	775
541.506	775
541.72	765
541.934	774
542.147	757
542.361	787
542.575	758
542.789	770
543.002	742
543.216	745
543.43	760
543.644	734
543.857	766
544.071	778
544.285	757
544.498	762
544.712	750
544.925	766
545.139	741
545.352	763
545.566	757
545.779	731
545.993	745
546.206	737
546.42	733
546.633	753
546.847	739
547.06	703
547.274	742
547.487	738
547.7	744
547.914	764
548.127	733
548.34	745
548.554	747
548.767	745
548.98	738
549.193	738
549.407	720
549.62	753
549.833	733
550.046	727
550.259	733
550.473	745
550.686	743
550.899	741
551.112	740
551.325	739
551.538	723
551.751	711
551.964	738
552.177	732
552.39	705
552.603	727
552.816	703
553.029	701
553.242	713
553.455	703
553.667	705
553.88	705
554.093	710
554.306	680
554.519	685
554.732	717
554.944	701
555.157	691
555.37	697
555.583	670
555.795	663
556.008	701
556.221	693
556.433	667
556.646	690
556.859	654
557.071	651
557.284	653
557.496	680
557.709	664
557.921	663
558.134	648
558.346	651
558.559	683
558.771	663
558.984	644
559.196	642
559.409	653
559.621	657
559.833	623
560.046	633
560.258	662
560.47	653
560.683	637
560.895	650
561.107	635
561.32	640
