Data from Fe(NO3)3@0.1M.TitratingCurve.Agarose3%dH2O.NegLispCup.LampEnergy10.LIBS07252019_HRD10591_16-38-13-332.txt Node
Date: Thu Jul 25 16:38:13 EDT 2019
User: cochatt
Spectrometer: HR+D1059
Trigger mode: 1
Integration Time (sec): 1.000000E-1
Scans to average: 1
Electric dark correction enabled: true
Nonlinearity correction enabled: false
Boxcar width: 0
XAxis mode: Wavelengths
Number of Pixels in Spectrum: 2048
>>>>>Begin Spectral Data<<<<<
223.165	-16.81
223.4	-16.81
223.635	-16.81
223.869	-10.81
224.104	-16.81
224.338	-9.81
224.573	-17.81
224.808	-11.81
225.042	-21.81
225.277	-1.81
225.511	2.19
225.746	18.19
225.98	6.19
226.215	13.19
226.449	14.19
226.683	28.19
226.918	12.19
227.152	13.19
227.387	42.19
227.621	34.19
227.856	44.19
228.09	56.19
228.324	50.19
228.559	63.19
228.793	52.19
229.027	80.19
229.262	67.19
229.496	85.19
229.73	68.19
229.964	79.19
230.199	81.19
230.433	74.19
230.667	84.19
230.901	85.19
231.136	90.19
231.37	88.19
231.604	93.19
231.838	98.19
232.072	118.19
232.306	113.19
232.541	115.19
232.775	108.19
233.009	100.19
233.243	96.19
233.477	94.19
233.711	106.19
233.945	97.19
234.179	106.19
234.413	103.19
234.647	104.19
234.881	97.19
235.115	93.19
235.349	103.19
235.583	107.19
235.817	107.19
236.051	99.19
236.285	107.19
236.519	93.19
236.753	115.19
236.987	100.19
237.221	99.19
237.455	93.19
237.689	103.19
237.922	93.19
238.156	117.19
238.39	111.19
238.624	103.19
238.858	92.19
239.091	94.19
239.325	108.19
239.559	105.19
239.793	110.19
240.027	105.19
240.26	106.19
240.494	112.19
240.728	117.19
240.961	102.19
241.195	96.19
241.429	117.19
241.662	105.19
241.896	110.19
242.13	115.19
242.363	105.19
242.597	112.19
242.83	119.19
243.064	117.19
243.298	114.19
243.531	111.19
243.765	122.19
243.998	126.19
244.232	120.19
244.465	120.19
244.699	115.19
244.932	118.19
245.166	126.19
245.399	124.19
245.633	123.19
245.866	116.19
246.099	122.19
246.333	115.19
246.566	123.19
246.8	124.19
247.033	122.19
247.266	114.19
247.5	114.19
247.733	116.19
247.966	108.19
248.2	126.19
248.433	124.19
248.666	126.19
248.899	117.19
249.133	119.19
249.366	124.19
249.599	122.19
249.832	121.19
250.066	141.19
250.299	135.19
250.532	123.19
250.765	143.19
250.998	128.19
251.231	130.19
251.465	138.19
251.698	130.19
251.931	127.19
252.164	144.19
252.397	120.19
252.63	135.19
252.863	143.19
253.096	116.19
253.329	117.19
253.562	130.19
253.795	140.19
254.028	147.19
254.261	124.19
254.494	124.19
254.727	128.19
254.96	122.19
255.193	134.19
255.426	128.19
255.659	152.19
255.892	138.19
256.124	136.19
256.357	136.19
256.59	142.19
256.823	148.19
257.056	154.19
257.289	141.19
257.521	149.19
257.754	142.19
257.987	142.19
258.22	147.19
258.452	135.19
258.685	155.19
258.918	151.19
259.151	151.19
259.383	135.19
259.616	138.19
259.849	146.19
260.081	164.19
260.314	157.19
260.547	139.19
260.779	147.19
261.012	147.19
261.244	152.19
261.477	159.19
261.71	156.19
261.942	165.19
262.175	154.19
262.407	154.19
262.64	145.19
262.872	156.19
263.105	144.19
263.337	166.19
263.57	165.19
263.802	150.19
264.035	141.19
264.267	156.19
264.499	152.19
264.732	158.19
264.964	167.19
265.197	157.19
265.429	166.19
265.661	149.19
265.894	159.19
266.126	167.19
266.358	155.19
266.591	179.19
266.823	144.19
267.055	160.19
267.287	171.19
267.52	155.19
267.752	172.19
267.984	158.19
268.216	154.19
268.448	176.19
268.681	174.19
268.913	159.19
269.145	164.19
269.377	167.19
269.609	169.19
269.841	171.19
270.073	156.19
270.306	172.19
270.538	170.19
270.77	167.19
271.002	172.19
271.234	169.19
271.466	165.19
271.698	149.19
271.93	165.19
272.162	186.19
272.394	178.19
272.626	184.19
272.858	175.19
273.09	180.19
273.322	178.19
273.553	172.19
273.785	168.19
274.017	170.19
274.249	176.19
274.481	163.19
274.713	171.19
274.945	170.19
275.176	168.19
275.408	167.19
275.64	175.19
275.872	184.19
276.104	201.19
276.335	178.19
276.567	190.19
276.799	178.19
277.031	184.19
277.262	188.19
277.494	194.19
277.726	167.19
277.957	189.19
278.189	182.19
278.421	196.19
278.652	188.19
278.884	193.19
279.115	184.19
279.347	187.19
279.579	189.19
279.81	186.19
280.042	191.19
280.273	192.19
280.505	195.19
280.736	202.19
280.968	180.19
281.199	195.19
281.431	205.19
281.662	198.19
281.894	197.19
282.125	182.19
282.356	182.19
282.588	192.19
282.819	184.19
283.051	206.19
283.282	209.19
283.513	208.19
283.745	192.19
283.976	182.19
284.207	198.19
284.439	190.19
284.67	193.19
284.901	199.19
285.132	195.19
285.364	198.19
285.595	196.19
285.826	207.19
286.057	213.19
286.288	189.19
286.52	208.19
286.751	205.19
286.982	213.19
287.213	190.19
287.444	208.19
287.675	201.19
287.906	218.19
288.138	230.19
288.369	215.19
288.6	198.19
288.831	204.19
289.062	215.19
289.293	208.19
289.524	213.19
289.755	200.19
289.986	201.19
290.217	218.19
290.448	211.19
290.679	193.19
290.91	225.19
291.141	214.19
291.371	216.19
291.602	206.19
291.833	226.19
292.064	208.19
292.295	200.19
292.526	219.19
292.757	212.19
292.987	215.19
293.218	219.19
293.449	218.19
293.68	222.19
293.91	205.19
294.141	204.19
294.372	207.19
294.603	215.19
294.833	219.19
295.064	220.19
295.295	206.19
295.525	228.19
295.756	219.19
295.987	212.19
296.217	204.19
296.448	202.19
296.679	224.19
296.909	218.19
297.14	207.19
297.37	214.19
297.601	220.19
297.831	236.19
298.062	236.19
298.292	201.19
298.523	238.19
298.753	226.19
298.984	232.19
299.214	223.19
299.445	220.19
299.675	213.19
299.905	234.19
300.136	212.19
300.366	234.19
300.597	242.19
300.827	228.19
301.057	254.19
301.288	239.19
301.518	220.19
301.748	230.19
301.979	235.19
302.209	243.19
302.439	236.19
302.669	247.19
302.9	253.19
303.13	231.19
303.36	230.19
303.59	219.19
303.82	247.19
304.051	242.19
304.281	232.19
304.511	242.19
304.741	230.19
304.971	244.19
305.201	227.19
305.431	223.19
305.661	247.19
305.891	224.19
306.121	233.19
306.352	246.19
306.582	247.19
306.812	247.19
307.042	208.19
307.272	223.19
307.502	231.19
307.731	233.19
307.961	236.19
308.191	231.19
308.421	229.19
308.651	236.19
308.881	232.19
309.111	222.19
309.341	228.19
309.571	239.19
309.8	239.19
310.03	234.19
310.26	216.19
310.49	229.19
310.72	225.19
310.949	226.19
311.179	224.19
311.409	209.19
311.639	230.19
311.868	233.19
312.098	240.19
312.328	248.19
312.557	258.19
312.787	242.19
313.017	242.19
313.246	236.19
313.476	243.19
313.706	259.19
313.935	248.19
314.165	259.19
314.394	255.19
314.624	248.19
314.853	254.19
315.083	264.19
315.312	241.19
315.542	246.19
315.771	236.19
316.001	236.19
316.23	235.19
316.46	236.19
316.689	245.19
316.919	230.19
317.148	219.19
317.377	234.19
317.607	264.19
317.836	239.19
318.065	232.19
318.295	248.19
318.524	255.19
318.753	239.19
318.983	243.19
319.212	257.19
319.441	250.19
319.67	248.19
319.9	249.19
320.129	232.19
320.358	231.19
320.587	228.19
320.816	232.19
321.046	228.19
321.275	249.19
321.504	246.19
321.733	246.19
321.962	242.19
322.191	246.19
322.42	267.19
322.649	267.19
322.878	251.19
323.108	263.19
323.337	244.19
323.566	250.19
323.795	255.19
324.024	256.19
324.253	261.19
324.482	242.19
324.71	262.19
324.939	262.19
325.168	263.19
325.397	249.19
325.626	284.19
325.855	262.19
326.084	248.19
326.313	286.19
326.542	249.19
326.77	277.19
326.999	265.19
327.228	266.19
327.457	266.19
327.686	251.19
327.914	251.19
328.143	260.19
328.372	256.19
328.6	266.19
328.829	261.19
329.058	270.19
329.287	284.19
329.515	262.19
329.744	267.19
329.972	263.19
330.201	276.19
330.43	262.19
330.658	275.19
330.887	277.19
331.115	282.19
331.344	274.19
331.572	284.19
331.801	280.19
332.03	296.19
332.258	297.19
332.486	278.19
332.715	306.19
332.943	318.19
333.172	316.19
333.4	320.19
333.629	333.19
333.857	345.19
334.085	340.19
334.314	322.19
334.542	322.19
334.771	327.19
334.999	319.19
335.227	312.19
335.455	313.19
335.684	325.19
335.912	319.19
336.14	314.19
336.369	312.19
336.597	316.19
336.825	305.19
337.053	329.19
337.281	314.19
337.51	301.19
337.738	296.19
337.966	294.19
338.194	280.19
338.422	288.19
338.65	292.19
338.878	292.19
339.106	276.19
339.334	294.19
339.562	273.19
339.79	266.19
340.018	284.19
340.246	278.19
340.474	258.19
340.702	266.19
340.93	289.19
341.158	267.19
341.386	267.19
341.614	266.19
341.842	269.19
342.07	293.19
342.298	262.19
342.526	284.19
342.754	276.19
342.981	290.19
343.209	297.19
343.437	287.19
343.665	295.19
343.893	330.19
344.12	322.19
344.348	313.19
344.576	297.19
344.804	300.19
345.031	292.19
345.259	282.19
345.487	273.19
345.714	258.19
345.942	277.19
346.17	287.19
346.397	260.19
346.625	269.19
346.853	254.19
347.08	268.19
347.308	251.19
347.535	264.19
347.763	280.19
347.99	275.19
348.218	281.19
348.445	271.19
348.673	267.19
348.9	272.19
349.128	265.19
349.355	254.19
349.583	253.19
349.81	256.19
350.037	251.19
350.265	254.19
350.492	271.19
350.72	269.19
350.947	268.19
351.174	264.19
351.402	250.19
351.629	235.19
351.856	260.19
352.083	249.19
352.311	243.19
352.538	267.19
352.765	273.19
352.992	258.19
353.22	254.19
353.447	271.19
353.674	252.19
353.901	242.19
354.128	265.19
354.355	260.19
354.583	265.19
354.81	255.19
355.037	252.19
355.264	250.19
355.491	294.19
355.718	272.19
355.945	261.19
356.172	243.19
356.399	278.19
356.626	275.19
356.853	274.19
357.08	261.19
357.307	269.19
357.534	261.19
357.761	272.19
357.988	281.19
358.215	256.19
358.441	263.19
358.668	242.19
358.895	251.19
359.122	262.19
359.349	245.19
359.576	258.19
359.802	254.19
360.029	268.19
360.256	268.19
360.483	266.19
360.709	262.19
360.936	273.19
361.163	246.19
361.39	272.19
361.616	248.19
361.843	281.19
362.07	270.19
362.296	250.19
362.523	257.19
362.749	267.19
362.976	278.19
363.203	265.19
363.429	248.19
363.656	281.19
363.882	267.19
364.109	258.19
364.335	257.19
364.562	265.19
364.788	262.19
365.015	276.19
365.241	276.19
365.468	275.19
365.694	269.19
365.92	270.19
366.147	261.19
366.373	258.19
366.599	253.19
366.826	261.19
367.052	259.19
367.278	286.19
367.505	272.19
367.731	270.19
367.957	268.19
368.184	268.19
368.41	263.19
368.636	271.19
368.862	287.19
369.089	257.19
369.315	272.19
369.541	281.19
369.767	278.19
369.993	270.19
370.219	281.19
370.445	273.19
370.672	291.19
370.898	284.19
371.124	273.19
371.35	291.19
371.576	292.19
371.802	286.19
372.028	268.19
372.254	306.19
372.48	284.19
372.706	290.19
372.932	309.19
373.158	304.19
373.384	302.19
373.61	304.19
373.835	287.19
374.061	290.19
374.287	306.19
374.513	297.19
374.739	294.19
374.965	300.19
375.191	308.19
375.416	301.19
375.642	301.19
375.868	308.19
376.094	295.19
376.319	291.19
376.545	300.19
376.771	312.19
376.997	294.19
377.222	297.19
377.448	299.19
377.674	283.19
377.899	279.19
378.125	277.19
378.35	279.19
378.576	284.19
378.802	295.19
379.027	300.19
379.253	291.19
379.478	289.19
379.704	292.19
379.929	303.19
380.155	295.19
380.38	296.19
380.606	302.19
380.831	282.19
381.057	283.19
381.282	278.19
381.507	291.19
381.733	301.19
381.958	295.19
382.184	290.19
382.409	291.19
382.634	311.19
382.86	309.19
383.085	306.19
383.31	317.19
383.535	328.19
383.761	299.19
383.986	326.19
384.211	328.19
384.436	342.19
384.662	335.19
384.887	339.19
385.112	334.19
385.337	354.19
385.562	337.19
385.787	355.19
386.013	351.19
386.238	340.19
386.463	352.19
386.688	338.19
386.913	349.19
387.138	341.19
387.363	339.19
387.588	307.19
387.813	351.19
388.038	332.19
388.263	341.19
388.488	352.19
388.713	352.19
388.938	344.19
389.163	334.19
389.387	329.19
389.612	327.19
389.837	334.19
390.062	347.19
390.287	329.19
390.512	330.19
390.736	352.19
390.961	347.19
391.186	358.19
391.411	362.19
391.636	372.19
391.86	379.19
392.085	392.19
392.31	394.19
392.534	374.19
392.759	381.19
392.984	353.19
393.208	356.19
393.433	385.19
393.658	365.19
393.882	394.19
394.107	369.19
394.331	362.19
394.556	366.19
394.78	373.19
395.005	386.19
395.229	386.19
395.454	388.19
395.678	383.19
395.903	386.19
396.127	382.19
396.352	377.19
396.576	393.19
396.801	366.19
397.025	376.19
397.249	390.19
397.474	385.19
397.698	386.19
397.922	407.19
398.147	392.19
398.371	408.19
398.595	402.19
398.82	436.19
399.044	462.19
399.268	470.19
399.492	551.19
399.717	606.19
399.941	597.19
400.165	527.19
400.389	493.19
400.613	464.19
400.837	440.19
401.062	418.19
401.286	430.19
401.51	421.19
401.734	418.19
401.958	431.19
402.182	426.19
402.406	446.19
402.63	431.19
402.854	455.19
403.078	432.19
403.302	465.19
403.526	488.19
403.75	478.19
403.974	489.19
404.198	455.19
404.422	488.19
404.645	486.19
404.869	489.19
405.093	473.19
405.317	469.19
405.541	450.19
405.765	467.19
405.988	460.19
406.212	464.19
406.436	466.19
406.66	501.19
406.883	497.19
407.107	477.19
407.331	512.19
407.555	533.19
407.778	531.19
408.002	518.19
408.226	508.19
408.449	504.19
408.673	489.19
408.896	484.19
409.12	479.19
409.344	516.19
409.567	458.19
409.791	484.19
410.014	475.19
410.238	466.19
410.461	482.19
410.685	457.19
410.908	454.19
411.132	453.19
411.355	440.19
411.578	438.19
411.802	462.19
412.025	449.19
412.249	462.19
412.472	455.19
412.695	444.19
412.919	444.19
413.142	437.19
413.365	422.19
413.589	416.19
413.812	426.19
414.035	448.19
414.258	432.19
414.482	442.19
414.705	449.19
414.928	435.19
415.151	444.19
415.374	436.19
415.597	405.19
415.821	436.19
416.044	425.19
416.267	418.19
416.49	430.19
416.713	439.19
416.936	427.19
417.159	428.19
417.382	439.19
417.605	431.19
417.828	414.19
418.051	439.19
418.274	447.19
418.497	425.19
418.72	442.19
418.943	461.19
419.166	459.19
419.389	482.19
419.611	467.19
419.834	440.19
420.057	462.19
420.28	442.19
420.503	418.19
420.726	432.19
420.948	435.19
421.171	427.19
421.394	438.19
421.617	434.19
421.839	450.19
422.062	437.19
422.285	420.19
422.507	443.19
422.73	461.19
422.953	439.19
423.175	447.19
423.398	460.19
423.621	454.19
423.843	462.19
424.066	441.19
424.288	461.19
424.511	447.19
424.733	437.19
424.956	452.19
425.178	419.19
425.401	427.19
425.623	431.19
425.846	422.19
426.068	431.19
426.291	420.19
426.513	420.19
426.735	414.19
426.958	393.19
427.18	392.19
427.402	401.19
427.625	404.19
427.847	387.19
428.069	407.19
428.292	396.19
428.514	420.19
428.736	404.19
428.958	391.19
429.181	378.19
429.403	389.19
429.625	385.19
429.847	390.19
430.069	384.19
430.292	397.19
430.514	406.19
430.736	381.19
430.958	403.19
431.18	390.19
431.402	405.19
431.624	410.19
431.846	379.19
432.068	390.19
432.29	409.19
432.512	407.19
432.734	403.19
432.956	375.19
433.178	404.19
433.4	407.19
433.622	380.19
433.844	408.19
434.066	382.19
434.287	405.19
434.509	402.19
434.731	411.19
434.953	431.19
435.175	408.19
435.397	437.19
435.618	408.19
435.84	401.19
436.062	407.19
436.284	413.19
436.505	395.19
436.727	402.19
436.949	398.19
437.17	390.19
437.392	401.19
437.614	388.19
437.835	378.19
438.057	388.19
438.278	375.19
438.5	374.19
438.721	380.19
438.943	367.19
439.165	376.19
439.386	390.19
439.608	378.19
439.829	394.19
440.05	400.19
440.272	375.19
440.493	387.19
440.715	404.19
440.936	390.19
441.158	412.19
441.379	425.19
441.6	432.19
441.822	427.19
442.043	448.19
442.264	412.19
442.486	438.19
442.707	425.19
442.928	426.19
443.149	429.19
443.371	411.19
443.592	415.19
443.813	431.19
444.034	438.19
444.255	454.19
444.476	474.19
444.698	486.19
444.919	480.19
445.14	574.19
445.361	492.19
445.582	436.19
445.803	416.19
446.024	420.19
446.245	429.19
446.466	430.19
446.687	410.19
446.908	414.19
447.129	396.19
447.35	381.19
447.571	386.19
447.792	386.19
448.013	401.19
448.234	386.19
448.455	349.19
448.675	375.19
448.896	392.19
449.117	363.19
449.338	361.19
449.559	364.19
449.779	370.19
450	346.19
450.221	356.19
450.442	392.19
450.662	382.19
450.883	359.19
451.104	364.19
451.324	346.19
451.545	383.19
451.766	388.19
451.986	376.19
452.207	394.19
452.428	375.19
452.648	374.19
452.869	366.19
453.089	336.19
453.31	354.19
453.53	370.19
453.751	365.19
453.971	370.19
454.192	337.19
454.412	341.19
454.633	344.19
454.853	351.19
455.073	360.19
455.294	350.19
455.514	335.19
455.734	342.19
455.955	355.19
456.175	342.19
456.395	338.19
456.616	350.19
456.836	350.19
457.056	341.19
457.276	346.19
457.497	343.19
457.717	349.19
457.937	354.19
458.157	361.19
458.377	373.19
458.598	365.19
458.818	361.19
459.038	376.19
459.258	372.19
459.478	382.19
459.698	399.19
459.918	410.19
460.138	430.19
460.358	435.19
460.578	445.19
460.798	448.19
461.018	461.19
461.238	449.19
461.458	452.19
461.678	458.19
461.898	436.19
462.118	450.19
462.338	473.19
462.558	506.19
462.777	503.19
462.997	548.19
463.217	580.19
463.437	596.19
463.657	538.19
463.876	521.19
464.096	544.19
464.316	504.19
464.536	508.19
464.755	513.19
464.975	459.19
465.195	472.19
465.414	440.19
465.634	422.19
465.854	420.19
466.073	411.19
466.293	397.19
466.512	400.19
466.732	389.19
466.951	412.19
467.171	376.19
467.391	382.19
467.61	405.19
467.829	405.19
468.049	383.19
468.268	375.19
468.488	377.19
468.707	363.19
468.927	373.19
469.146	377.19
469.365	380.19
469.585	383.19
469.804	390.19
470.023	372.19
470.243	374.19
470.462	400.19
470.681	389.19
470.901	384.19
471.12	379.19
471.339	393.19
471.558	375.19
471.777	380.19
471.997	366.19
472.216	363.19
472.435	358.19
472.654	359.19
472.873	358.19
473.092	351.19
473.311	383.19
473.53	363.19
473.749	363.19
473.968	339.19
474.187	360.19
474.406	340.19
474.625	362.19
474.844	354.19
475.063	351.19
475.282	357.19
475.501	379.19
475.72	369.19
475.939	360.19
476.158	350.19
476.377	363.19
476.596	374.19
476.814	378.19
477.033	366.19
477.252	394.19
477.471	387.19
477.69	399.19
477.908	404.19
478.127	407.19
478.346	407.19
478.564	393.19
478.783	421.19
479.002	443.19
479.22	423.19
479.439	432.19
479.658	421.19
479.876	418.19
480.095	427.19
480.313	445.19
480.532	458.19
480.751	470.19
480.969	437.19
481.188	427.19
481.406	418.19
481.624	414.19
481.843	420.19
482.061	398.19
482.28	411.19
482.498	394.19
482.717	380.19
482.935	401.19
483.153	395.19
483.372	418.19
483.59	401.19
483.808	397.19
484.027	412.19
484.245	398.19
484.463	409.19
484.681	417.19
484.9	418.19
485.118	430.19
485.336	413.19
485.554	414.19
485.772	431.19
485.99	420.19
486.209	435.19
486.427	404.19
486.645	413.19
486.863	417.19
487.081	403.19
487.299	396.19
487.517	423.19
487.735	430.19
487.953	429.19
488.171	444.19
488.389	408.19
488.607	422.19
488.825	407.19
489.043	407.19
489.261	404.19
489.479	412.19
489.696	400.19
489.914	419.19
490.132	435.19
490.35	433.19
490.568	427.19
490.786	400.19
491.003	419.19
491.221	412.19
491.439	432.19
491.657	411.19
491.874	447.19
492.092	431.19
492.31	447.19
492.527	436.19
492.745	428.19
492.963	456.19
493.18	429.19
493.398	453.19
493.615	451.19
493.833	441.19
494.05	437.19
494.268	440.19
494.485	448.19
494.703	430.19
494.92	445.19
495.138	460.19
495.355	444.19
495.573	443.19
495.79	442.19
496.008	451.19
496.225	471.19
496.442	453.19
496.66	460.19
496.877	471.19
497.094	471.19
497.312	481.19
497.529	500.19
497.746	487.19
497.963	519.19
498.181	532.19
498.398	560.19
498.615	577.19
498.832	615.19
499.049	653.19
499.267	687.19
499.484	750.19
499.701	827.19
499.918	875.19
500.135	1006.19
500.352	1126.19
500.569	1156.19
500.786	1126.19
501.003	1064.19
501.22	969.19
501.437	869.19
501.654	756.19
501.871	706.19
