Data from Fe(NO3)3@0.025M.TitratingCurve.Agarose3%dH2O.NegLispCup.LampEnergy10.LIBS07252019_HRD10591_16-54-31-335.txt Node
Date: Thu Jul 25 16:54:31 EDT 2019
User: cochatt
Spectrometer: HR+D1059
Trigger mode: 1
Integration Time (sec): 1.000000E-1
Scans to average: 1
Electric dark correction enabled: true
Nonlinearity correction enabled: false
Boxcar width: 0
XAxis mode: Wavelengths
Number of Pixels in Spectrum: 2048
>>>>>Begin Spectral Data<<<<<
223.165	-15.81
223.4	-15.81
223.635	-15.81
223.869	-15.81
224.104	-19.81
224.338	-10.81
224.573	-20.81
224.808	-13.81
225.042	-9.81
225.277	-5.81
225.511	-6.81
225.746	-6.81
225.98	12.19
226.215	25.19
226.449	22.19
226.683	17.19
226.918	29.19
227.152	20.19
227.387	14.19
227.621	20.19
227.856	44.19
228.09	50.19
228.324	38.19
228.559	42.19
228.793	32.19
229.027	67.19
229.262	87.19
229.496	75.19
229.73	88.19
229.964	86.19
230.199	88.19
230.433	105.19
230.667	95.19
230.901	97.19
231.136	96.19
231.37	102.19
231.604	95.19
231.838	102.19
232.072	95.19
232.306	91.19
232.541	99.19
232.775	107.19
233.009	103.19
233.243	111.19
233.477	92.19
233.711	98.19
233.945	105.19
234.179	114.19
234.413	103.19
234.647	120.19
234.881	118.19
235.115	122.19
235.349	110.19
235.583	128.19
235.817	106.19
236.051	118.19
236.285	112.19
236.519	105.19
236.753	112.19
236.987	123.19
237.221	142.19
237.455	107.19
237.689	122.19
237.922	132.19
238.156	110.19
238.39	114.19
238.624	131.19
238.858	126.19
239.091	122.19
239.325	117.19
239.559	110.19
239.793	124.19
240.027	113.19
240.26	120.19
240.494	115.19
240.728	119.19
240.961	140.19
241.195	128.19
241.429	132.19
241.662	123.19
241.896	120.19
242.13	118.19
242.363	131.19
242.597	124.19
242.83	115.19
243.064	130.19
243.298	136.19
243.531	120.19
243.765	138.19
243.998	112.19
244.232	125.19
244.465	139.19
244.699	129.19
244.932	132.19
245.166	123.19
245.399	126.19
245.633	140.19
245.866	136.19
246.099	141.19
246.333	133.19
246.566	142.19
246.8	151.19
247.033	164.19
247.266	138.19
247.5	134.19
247.733	137.19
247.966	148.19
248.2	134.19
248.433	158.19
248.666	144.19
248.899	143.19
249.133	158.19
249.366	153.19
249.599	139.19
249.832	140.19
250.066	140.19
250.299	163.19
250.532	160.19
250.765	158.19
250.998	161.19
251.231	162.19
251.465	158.19
251.698	155.19
251.931	152.19
252.164	158.19
252.397	161.19
252.63	168.19
252.863	168.19
253.096	154.19
253.329	156.19
253.562	162.19
253.795	169.19
254.028	177.19
254.261	175.19
254.494	166.19
254.727	161.19
254.96	194.19
255.193	166.19
255.426	158.19
255.659	155.19
255.892	170.19
256.124	177.19
256.357	180.19
256.59	182.19
256.823	177.19
257.056	170.19
257.289	185.19
257.521	176.19
257.754	172.19
257.987	177.19
258.22	196.19
258.452	200.19
258.685	174.19
258.918	186.19
259.151	189.19
259.383	185.19
259.616	199.19
259.849	196.19
260.081	210.19
260.314	210.19
260.547	194.19
260.779	191.19
261.012	185.19
261.244	186.19
261.477	184.19
261.71	189.19
261.942	198.19
262.175	199.19
262.407	176.19
262.64	196.19
262.872	201.19
263.105	194.19
263.337	208.19
263.57	210.19
263.802	189.19
264.035	194.19
264.267	188.19
264.499	207.19
264.732	188.19
264.964	204.19
265.197	213.19
265.429	204.19
265.661	203.19
265.894	205.19
266.126	211.19
266.358	190.19
266.591	198.19
266.823	217.19
267.055	210.19
267.287	210.19
267.52	210.19
267.752	207.19
267.984	227.19
268.216	204.19
268.448	198.19
268.681	198.19
268.913	202.19
269.145	208.19
269.377	207.19
269.609	204.19
269.841	209.19
270.073	208.19
270.306	212.19
270.538	183.19
270.77	210.19
271.002	222.19
271.234	227.19
271.466	227.19
271.698	219.19
271.93	220.19
272.162	221.19
272.394	226.19
272.626	210.19
272.858	214.19
273.09	215.19
273.322	237.19
273.553	235.19
273.785	243.19
274.017	238.19
274.249	258.19
274.481	229.19
274.713	252.19
274.945	262.19
275.176	254.19
275.408	254.19
275.64	235.19
275.872	255.19
276.104	244.19
276.335	243.19
276.567	251.19
276.799	224.19
277.031	236.19
277.262	245.19
277.494	228.19
277.726	238.19
277.957	230.19
278.189	254.19
278.421	244.19
278.652	254.19
278.884	239.19
279.115	240.19
279.347	249.19
279.579	226.19
279.81	256.19
280.042	238.19
280.273	239.19
280.505	243.19
280.736	268.19
280.968	253.19
281.199	265.19
281.431	250.19
281.662	279.19
281.894	260.19
282.125	275.19
282.356	261.19
282.588	269.19
282.819	238.19
283.051	262.19
283.282	272.19
283.513	274.19
283.745	275.19
283.976	245.19
284.207	252.19
284.439	267.19
284.67	248.19
284.901	270.19
285.132	266.19
285.364	252.19
285.595	255.19
285.826	266.19
286.057	264.19
286.288	251.19
286.52	279.19
286.751	264.19
286.982	272.19
287.213	286.19
287.444	262.19
287.675	270.19
287.906	282.19
288.138	268.19
288.369	276.19
288.6	283.19
288.831	283.19
289.062	278.19
289.293	271.19
289.524	285.19
289.755	280.19
289.986	263.19
290.217	298.19
290.448	293.19
290.679	290.19
290.91	271.19
291.141	288.19
291.371	298.19
291.602	298.19
291.833	297.19
292.064	302.19
292.295	268.19
292.526	291.19
292.757	274.19
292.987	292.19
293.218	275.19
293.449	295.19
293.68	288.19
293.91	293.19
294.141	287.19
294.372	290.19
294.603	273.19
294.833	275.19
295.064	290.19
295.295	288.19
295.525	286.19
295.756	290.19
295.987	282.19
296.217	302.19
296.448	301.19
296.679	306.19
296.909	294.19
297.14	293.19
297.37	313.19
297.601	304.19
297.831	304.19
298.062	308.19
298.292	292.19
298.523	309.19
298.753	311.19
298.984	292.19
299.214	310.19
299.445	299.19
299.675	310.19
299.905	304.19
300.136	307.19
300.366	315.19
300.597	294.19
300.827	291.19
301.057	308.19
301.288	310.19
301.518	317.19
301.748	317.19
301.979	323.19
302.209	318.19
302.439	318.19
302.669	306.19
302.9	308.19
303.13	319.19
303.36	321.19
303.59	343.19
303.82	315.19
304.051	322.19
304.281	323.19
304.511	315.19
304.741	325.19
304.971	316.19
305.201	314.19
305.431	310.19
305.661	329.19
305.891	319.19
306.121	326.19
306.352	307.19
306.582	318.19
306.812	333.19
307.042	324.19
307.272	327.19
307.502	333.19
307.731	304.19
307.961	323.19
308.191	327.19
308.421	335.19
308.651	333.19
308.881	351.19
309.111	311.19
309.341	313.19
309.571	322.19
309.8	322.19
310.03	335.19
310.26	329.19
310.49	323.19
310.72	337.19
310.949	327.19
311.179	327.19
311.409	318.19
311.639	313.19
311.868	325.19
312.098	341.19
312.328	323.19
312.557	356.19
312.787	339.19
313.017	327.19
313.246	322.19
313.476	345.19
313.706	323.19
313.935	342.19
314.165	355.19
314.394	355.19
314.624	331.19
314.853	343.19
315.083	331.19
315.312	358.19
315.542	350.19
315.771	338.19
316.001	342.19
316.23	358.19
316.46	347.19
316.689	350.19
316.919	336.19
317.148	341.19
317.377	342.19
317.607	338.19
317.836	341.19
318.065	346.19
318.295	344.19
318.524	340.19
318.753	354.19
318.983	364.19
319.212	345.19
319.441	355.19
319.67	359.19
319.9	337.19
320.129	333.19
320.358	357.19
320.587	343.19
320.816	351.19
321.046	360.19
321.275	355.19
321.504	360.19
321.733	351.19
321.962	333.19
322.191	373.19
322.42	360.19
322.649	371.19
322.878	358.19
323.108	351.19
323.337	353.19
323.566	343.19
323.795	376.19
324.024	357.19
324.253	369.19
324.482	357.19
324.71	361.19
324.939	360.19
325.168	384.19
325.397	366.19
325.626	369.19
325.855	378.19
326.084	382.19
326.313	375.19
326.542	388.19
326.77	381.19
326.999	385.19
327.228	370.19
327.457	367.19
327.686	369.19
327.914	392.19
328.143	406.19
328.372	391.19
328.6	378.19
328.829	372.19
329.058	392.19
329.287	380.19
329.515	378.19
329.744	361.19
329.972	391.19
330.201	392.19
330.43	390.19
330.658	390.19
330.887	393.19
331.115	377.19
331.344	396.19
331.572	399.19
331.801	400.19
332.03	404.19
332.258	398.19
332.486	419.19
332.715	411.19
332.943	428.19
333.172	434.19
333.4	436.19
333.629	424.19
333.857	442.19
334.085	475.19
334.314	455.19
334.542	458.19
334.771	445.19
334.999	426.19
335.227	436.19
335.455	456.19
335.684	437.19
335.912	423.19
336.14	442.19
336.369	416.19
336.597	432.19
336.825	436.19
337.053	438.19
337.281	420.19
337.51	424.19
337.738	434.19
337.966	416.19
338.194	417.19
338.422	417.19
338.65	410.19
338.878	436.19
339.106	428.19
339.334	417.19
339.562	418.19
339.79	400.19
340.018	388.19
340.246	393.19
340.474	395.19
340.702	397.19
340.93	394.19
341.158	409.19
341.386	392.19
341.614	409.19
341.842	413.19
342.07	397.19
342.298	395.19
342.526	395.19
342.754	420.19
342.981	411.19
343.209	416.19
343.437	420.19
343.665	428.19
343.893	445.19
344.12	440.19
344.348	425.19
344.576	439.19
344.804	415.19
345.031	405.19
345.259	408.19
345.487	416.19
345.714	407.19
345.942	410.19
346.17	394.19
346.397	376.19
346.625	412.19
346.853	404.19
347.08	386.19
347.308	405.19
347.535	405.19
347.763	407.19
347.99	404.19
348.218	391.19
348.445	374.19
348.673	378.19
348.9	394.19
349.128	376.19
349.355	400.19
349.583	388.19
349.81	380.19
350.037	394.19
350.265	391.19
350.492	383.19
350.72	370.19
350.947	396.19
351.174	402.19
351.402	400.19
351.629	397.19
351.856	381.19
352.083	380.19
352.311	382.19
352.538	374.19
352.765	380.19
352.992	386.19
353.22	383.19
353.447	393.19
353.674	379.19
353.901	378.19
354.128	389.19
354.355	385.19
354.583	380.19
354.81	395.19
355.037	390.19
355.264	388.19
355.491	374.19
355.718	374.19
355.945	387.19
356.172	390.19
356.399	388.19
356.626	375.19
356.853	398.19
357.08	382.19
357.307	372.19
357.534	372.19
357.761	395.19
357.988	402.19
358.215	385.19
358.441	383.19
358.668	385.19
358.895	393.19
359.122	406.19
359.349	392.19
359.576	390.19
359.802	384.19
360.029	407.19
360.256	396.19
360.483	373.19
360.709	382.19
360.936	380.19
361.163	404.19
361.39	383.19
361.616	397.19
361.843	376.19
362.07	386.19
362.296	396.19
362.523	373.19
362.749	384.19
362.976	387.19
363.203	398.19
363.429	376.19
363.656	413.19
363.882	397.19
364.109	375.19
364.335	386.19
364.562	402.19
364.788	392.19
365.015	401.19
365.241	414.19
365.468	382.19
365.694	366.19
365.92	402.19
366.147	416.19
366.373	391.19
366.599	391.19
366.826	387.19
367.052	377.19
367.278	403.19
367.505	410.19
367.731	417.19
367.957	399.19
368.184	403.19
368.41	418.19
368.636	390.19
368.862	391.19
369.089	400.19
369.315	402.19
369.541	394.19
369.767	395.19
369.993	396.19
370.219	392.19
370.445	412.19
370.672	409.19
370.898	410.19
371.124	406.19
371.35	417.19
371.576	425.19
371.802	415.19
372.028	442.19
372.254	428.19
372.48	408.19
372.706	433.19
372.932	427.19
373.158	446.19
373.384	448.19
373.61	439.19
373.835	430.19
374.061	432.19
374.287	419.19
374.513	422.19
374.739	429.19
374.965	448.19
375.191	452.19
375.416	448.19
375.642	424.19
375.868	445.19
376.094	437.19
376.319	422.19
376.545	424.19
376.771	430.19
376.997	434.19
377.222	423.19
377.448	434.19
377.674	426.19
377.899	403.19
378.125	414.19
378.35	428.19
378.576	414.19
378.802	428.19
379.027	434.19
379.253	430.19
379.478	420.19
379.704	414.19
379.929	423.19
380.155	430.19
380.38	442.19
380.606	451.19
380.831	416.19
381.057	420.19
381.282	441.19
381.507	437.19
381.733	435.19
381.958	430.19
382.184	433.19
382.409	433.19
382.634	454.19
382.86	428.19
383.085	426.19
383.31	448.19
383.535	451.19
383.761	451.19
383.986	455.19
384.211	459.19
384.436	476.19
384.662	463.19
384.887	471.19
385.112	463.19
385.337	460.19
385.562	459.19
385.787	468.19
386.013	514.19
386.238	491.19
386.463	500.19
386.688	487.19
386.913	485.19
387.138	491.19
387.363	507.19
387.588	482.19
387.813	473.19
388.038	467.19
388.263	501.19
388.488	483.19
388.713	490.19
388.938	479.19
389.163	482.19
389.387	496.19
389.612	487.19
389.837	481.19
390.062	495.19
390.287	491.19
390.512	479.19
390.736	498.19
390.961	511.19
391.186	498.19
391.411	500.19
391.636	509.19
391.86	518.19
392.085	516.19
392.31	506.19
392.534	523.19
392.759	505.19
392.984	522.19
393.208	504.19
393.433	528.19
393.658	495.19
393.882	514.19
394.107	510.19
394.331	487.19
394.556	518.19
394.78	518.19
395.005	506.19
395.229	510.19
395.454	519.19
395.678	537.19
395.903	543.19
396.127	539.19
396.352	537.19
396.576	512.19
396.801	495.19
397.025	526.19
397.249	565.19
397.474	544.19
397.698	537.19
397.922	568.19
398.147	545.19
398.371	548.19
398.595	595.19
398.82	567.19
399.044	635.19
399.268	647.19
399.492	681.19
399.717	668.19
399.941	704.19
400.165	676.19
400.389	677.19
400.613	626.19
400.837	614.19
401.062	624.19
401.286	591.19
401.51	596.19
401.734	579.19
401.958	598.19
402.182	596.19
402.406	571.19
402.63	573.19
402.854	571.19
403.078	588.19
403.302	576.19
403.526	589.19
403.75	620.19
403.974	598.19
404.198	603.19
404.422	609.19
404.645	633.19
404.869	631.19
405.093	629.19
405.317	612.19
405.541	624.19
405.765	614.19
405.988	614.19
406.212	628.19
406.436	628.19
406.66	643.19
406.883	627.19
407.107	647.19
407.331	661.19
407.555	689.19
407.778	671.19
408.002	653.19
408.226	672.19
408.449	648.19
408.673	635.19
408.896	644.19
409.12	634.19
409.344	638.19
409.567	604.19
409.791	603.19
410.014	631.19
410.238	615.19
410.461	614.19
410.685	612.19
410.908	596.19
411.132	626.19
411.355	608.19
411.578	603.19
411.802	592.19
412.025	589.19
412.249	610.19
412.472	595.19
412.695	582.19
412.919	587.19
413.142	592.19
413.365	560.19
413.589	582.19
413.812	576.19
414.035	601.19
414.258	585.19
414.482	594.19
414.705	555.19
414.928	571.19
415.151	583.19
415.374	571.19
415.597	574.19
415.821	564.19
416.044	590.19
416.267	579.19
416.49	568.19
416.713	580.19
416.936	574.19
417.159	579.19
417.382	545.19
417.605	575.19
417.828	581.19
418.051	577.19
418.274	545.19
418.497	550.19
418.72	560.19
418.943	537.19
419.166	592.19
419.389	618.19
419.611	623.19
419.834	571.19
420.057	590.19
420.28	554.19
420.503	544.19
420.726	565.19
420.948	542.19
421.171	569.19
421.394	544.19
421.617	558.19
421.839	551.19
422.062	545.19
422.285	561.19
422.507	555.19
422.73	563.19
422.953	567.19
423.175	553.19
423.398	558.19
423.621	542.19
423.843	577.19
424.066	548.19
424.288	568.19
424.511	548.19
424.733	567.19
424.956	565.19
425.178	578.19
425.401	529.19
425.623	558.19
425.846	548.19
426.068	547.19
426.291	536.19
426.513	553.19
426.735	528.19
426.958	533.19
427.18	535.19
427.402	547.19
427.625	519.19
427.847	522.19
428.069	551.19
428.292	524.19
428.514	535.19
428.736	530.19
428.958	514.19
429.181	501.19
429.403	518.19
429.625	499.19
429.847	499.19
430.069	518.19
430.292	512.19
430.514	500.19
430.736	533.19
430.958	519.19
431.18	499.19
431.402	531.19
431.624	514.19
431.846	542.19
432.068	520.19
432.29	502.19
432.512	503.19
432.734	517.19
432.956	515.19
433.178	550.19
433.4	505.19
433.622	538.19
433.844	562.19
434.066	529.19
434.287	539.19
434.509	539.19
434.731	538.19
434.953	548.19
435.175	552.19
435.397	541.19
435.618	554.19
435.84	540.19
436.062	501.19
436.284	509.19
436.505	512.19
436.727	509.19
436.949	518.19
437.17	503.19
437.392	498.19
437.614	518.19
437.835	507.19
438.057	499.19
438.278	507.19
438.5	492.19
438.721	509.19
438.943	508.19
439.165	468.19
439.386	495.19
439.608	501.19
439.829	517.19
440.05	518.19
440.272	487.19
440.493	509.19
440.715	499.19
440.936	529.19
441.158	516.19
441.379	516.19
441.6	538.19
441.822	536.19
442.043	543.19
442.264	529.19
442.486	508.19
442.707	543.19
442.928	536.19
443.149	537.19
443.371	522.19
443.592	546.19
443.813	540.19
444.034	545.19
444.255	536.19
444.476	568.19
444.698	578.19
444.919	584.19
445.14	702.19
445.361	614.19
445.582	548.19
445.803	534.19
446.024	520.19
446.245	537.19
446.466	558.19
446.687	494.19
446.908	517.19
447.129	499.19
447.35	501.19
447.571	477.19
447.792	474.19
448.013	485.19
448.234	468.19
448.455	475.19
448.675	482.19
448.896	448.19
449.117	486.19
449.338	465.19
449.559	475.19
449.779	468.19
450	471.19
450.221	485.19
450.442	495.19
450.662	491.19
450.883	462.19
451.104	503.19
451.324	484.19
451.545	483.19
451.766	463.19
451.986	464.19
452.207	445.19
452.428	446.19
452.648	461.19
452.869	452.19
453.089	467.19
453.31	465.19
453.53	464.19
453.751	450.19
453.971	462.19
454.192	444.19
454.412	452.19
454.633	468.19
454.853	440.19
455.073	442.19
455.294	433.19
455.514	441.19
455.734	454.19
455.955	458.19
456.175	442.19
456.395	450.19
456.616	463.19
456.836	463.19
457.056	445.19
457.276	440.19
457.497	446.19
457.717	464.19
457.937	475.19
458.157	468.19
458.377	466.19
458.598	479.19
458.818	496.19
459.038	527.19
459.258	529.19
459.478	503.19
459.698	510.19
459.918	527.19
460.138	522.19
460.358	558.19
460.578	546.19
460.798	546.19
461.018	572.19
461.238	570.19
461.458	581.19
461.678	580.19
461.898	593.19
462.118	577.19
462.338	593.19
462.558	595.19
462.777	617.19
462.997	631.19
463.217	652.19
463.437	650.19
463.657	637.19
463.876	615.19
464.096	619.19
464.316	597.19
464.536	608.19
464.755	590.19
464.975	589.19
465.195	582.19
465.414	554.19
465.634	521.19
465.854	530.19
466.073	510.19
466.293	519.19
466.512	499.19
466.732	480.19
466.951	496.19
467.171	503.19
467.391	480.19
467.61	496.19
467.829	489.19
468.049	503.19
468.268	478.19
468.488	466.19
468.707	464.19
468.927	486.19
469.146	472.19
469.365	473.19
469.585	465.19
469.804	480.19
470.023	512.19
470.243	500.19
470.462	491.19
470.681	476.19
470.901	504.19
471.12	483.19
471.339	494.19
471.558	502.19
471.777	502.19
471.997	495.19
472.216	453.19
472.435	500.19
472.654	480.19
472.873	505.19
473.092	508.19
473.311	512.19
473.53	480.19
473.749	481.19
473.968	494.19
474.187	497.19
474.406	463.19
474.625	484.19
474.844	485.19
475.063	483.19
475.282	495.19
475.501	487.19
475.72	472.19
475.939	481.19
476.158	497.19
476.377	502.19
476.596	518.19
476.814	515.19
477.033	488.19
477.252	545.19
477.471	524.19
477.69	515.19
477.908	544.19
478.127	574.19
478.346	561.19
478.564	569.19
478.783	574.19
479.002	578.19
479.22	563.19
479.439	585.19
479.658	570.19
479.876	593.19
480.095	568.19
480.313	595.19
480.532	597.19
480.751	571.19
480.969	592.19
481.188	586.19
481.406	601.19
481.624	577.19
481.843	565.19
482.061	574.19
482.28	572.19
482.498	576.19
482.717	574.19
482.935	565.19
483.153	579.19
483.372	576.19
483.59	570.19
483.808	584.19
484.027	587.19
484.245	586.19
484.463	565.19
484.681	562.19
484.9	570.19
485.118	599.19
485.336	575.19
485.554	573.19
485.772	575.19
485.99	547.19
486.209	577.19
486.427	594.19
486.645	597.19
486.863	583.19
487.081	585.19
487.299	571.19
487.517	595.19
487.735	583.19
487.953	562.19
488.171	586.19
488.389	580.19
488.607	578.19
488.825	587.19
489.043	596.19
489.261	601.19
489.479	565.19
489.696	594.19
489.914	570.19
490.132	572.19
490.35	588.19
490.568	598.19
490.786	576.19
491.003	562.19
491.221	590.19
491.439	598.19
491.657	597.19
491.874	591.19
492.092	599.19
492.31	604.19
492.527	590.19
492.745	593.19
492.963	609.19
493.18	613.19
493.398	594.19
493.615	606.19
493.833	611.19
494.05	607.19
494.268	594.19
494.485	605.19
494.703	591.19
494.92	620.19
495.138	616.19
495.355	621.19
495.573	620.19
495.79	616.19
496.008	638.19
496.225	644.19
496.442	640.19
496.66	680.19
496.877	670.19
497.094	672.19
497.312	649.19
497.529	691.19
497.746	691.19
497.963	705.19
498.181	721.19
498.398	744.19
498.615	766.19
498.832	802.19
499.049	863.19
499.267	843.19
499.484	913.19
499.701	997.19
499.918	1024.19
500.135	1089.19
500.352	1146.19
500.569	1185.19
500.786	1166.19
501.003	1123.19
501.22	1056.19
501.437	1014.19
501.654	951.19
