Data from Fe(NO3)3@0.1M.TitratingCurve.Agarose3%dH2O.NegLispCup.LampEnergy10.LIBS07252019_HRD10591_16-37-35-331.txt Node
Date: Thu Jul 25 16:37:35 EDT 2019
User: cochatt
Spectrometer: HR+D1059
Trigger mode: 1
Integration Time (sec): 1.000000E-1
Scans to average: 1
Electric dark correction enabled: true
Nonlinearity correction enabled: false
Boxcar width: 0
XAxis mode: Wavelengths
Number of Pixels in Spectrum: 2048
>>>>>Begin Spectral Data<<<<<
223.165	-22.25
223.4	-22.25
223.635	-22.25
223.869	-12.25
224.104	-26.25
224.338	-19.25
224.573	-1.25
224.808	-18.25
225.042	-22.25
225.277	0.75
225.511	-7.25
225.746	3.75
225.98	13.75
226.215	5.75
226.449	17.75
226.683	25.75
226.918	32.75
227.152	28.75
227.387	40.75
227.621	36.75
227.856	31.75
228.09	41.75
228.324	63.75
228.559	65.75
228.793	48.75
229.027	69.75
229.262	67.75
229.496	72.75
229.73	89.75
229.964	76.75
230.199	80.75
230.433	80.75
230.667	82.75
230.901	90.75
231.136	84.75
231.37	86.75
231.604	80.75
231.838	86.75
232.072	82.75
232.306	98.75
232.541	88.75
232.775	80.75
233.009	89.75
233.243	96.75
233.477	99.75
233.711	86.75
233.945	80.75
234.179	91.75
234.413	110.75
234.647	99.75
234.881	106.75
235.115	90.75
235.349	89.75
235.583	92.75
235.817	105.75
236.051	88.75
236.285	85.75
236.519	84.75
236.753	103.75
236.987	100.75
237.221	89.75
237.455	99.75
237.689	93.75
237.922	101.75
238.156	93.75
238.39	88.75
238.624	89.75
238.858	98.75
239.091	90.75
239.325	94.75
239.559	84.75
239.793	97.75
240.027	84.75
240.26	99.75
240.494	109.75
240.728	98.75
240.961	99.75
241.195	106.75
241.429	123.75
241.662	95.75
241.896	105.75
242.13	96.75
242.363	108.75
242.597	97.75
242.83	107.75
243.064	107.75
243.298	83.75
243.531	100.75
243.765	100.75
243.998	92.75
244.232	102.75
244.465	96.75
244.699	99.75
244.932	107.75
245.166	96.75
245.399	94.75
245.633	107.75
245.866	105.75
246.099	99.75
246.333	101.75
246.566	125.75
246.8	107.75
247.033	101.75
247.266	114.75
247.5	98.75
247.733	100.75
247.966	106.75
248.2	109.75
248.433	107.75
248.666	98.75
248.899	118.75
249.133	109.75
249.366	101.75
249.599	107.75
249.832	116.75
250.066	110.75
250.299	109.75
250.532	110.75
250.765	122.75
250.998	115.75
251.231	106.75
251.465	116.75
251.698	115.75
251.931	117.75
252.164	122.75
252.397	116.75
252.63	117.75
252.863	122.75
253.096	109.75
253.329	101.75
253.562	119.75
253.795	132.75
254.028	118.75
254.261	117.75
254.494	117.75
254.727	120.75
254.96	109.75
255.193	123.75
255.426	110.75
255.659	122.75
255.892	115.75
256.124	125.75
256.357	116.75
256.59	120.75
256.823	119.75
257.056	110.75
257.289	106.75
257.521	108.75
257.754	110.75
257.987	106.75
258.22	107.75
258.452	131.75
258.685	120.75
258.918	129.75
259.151	127.75
259.383	116.75
259.616	108.75
259.849	122.75
260.081	118.75
260.314	128.75
260.547	111.75
260.779	127.75
261.012	117.75
261.244	124.75
261.477	117.75
261.71	116.75
261.942	109.75
262.175	118.75
262.407	109.75
262.64	129.75
262.872	134.75
263.105	122.75
263.337	110.75
263.57	131.75
263.802	118.75
264.035	126.75
264.267	125.75
264.499	120.75
264.732	135.75
264.964	125.75
265.197	121.75
265.429	129.75
265.661	138.75
265.894	125.75
266.126	131.75
266.358	127.75
266.591	124.75
266.823	141.75
267.055	137.75
267.287	135.75
267.52	125.75
267.752	127.75
267.984	137.75
268.216	138.75
268.448	135.75
268.681	125.75
268.913	119.75
269.145	142.75
269.377	117.75
269.609	134.75
269.841	139.75
270.073	150.75
270.306	134.75
270.538	141.75
270.77	118.75
271.002	135.75
271.234	138.75
271.466	159.75
271.698	138.75
271.93	129.75
272.162	145.75
272.394	138.75
272.626	147.75
272.858	147.75
273.09	133.75
273.322	138.75
273.553	136.75
273.785	143.75
274.017	126.75
274.249	141.75
274.481	138.75
274.713	147.75
274.945	146.75
275.176	139.75
275.408	149.75
275.64	153.75
275.872	141.75
276.104	139.75
276.335	155.75
276.567	134.75
276.799	123.75
277.031	139.75
277.262	142.75
277.494	144.75
277.726	150.75
277.957	146.75
278.189	144.75
278.421	142.75
278.652	156.75
278.884	155.75
279.115	158.75
279.347	149.75
279.579	158.75
279.81	140.75
280.042	131.75
280.273	138.75
280.505	145.75
280.736	162.75
280.968	140.75
281.199	147.75
281.431	156.75
281.662	147.75
281.894	154.75
282.125	154.75
282.356	166.75
282.588	143.75
282.819	161.75
283.051	141.75
283.282	146.75
283.513	165.75
283.745	157.75
283.976	146.75
284.207	139.75
284.439	150.75
284.67	150.75
284.901	147.75
285.132	167.75
285.364	157.75
285.595	155.75
285.826	150.75
286.057	164.75
286.288	150.75
286.52	167.75
286.751	159.75
286.982	155.75
287.213	151.75
287.444	158.75
287.675	167.75
287.906	161.75
288.138	167.75
288.369	172.75
288.6	166.75
288.831	150.75
289.062	174.75
289.293	172.75
289.524	156.75
289.755	163.75
289.986	167.75
290.217	158.75
290.448	150.75
290.679	160.75
290.91	156.75
291.141	158.75
291.371	167.75
291.602	173.75
291.833	170.75
292.064	171.75
292.295	171.75
292.526	161.75
292.757	177.75
292.987	152.75
293.218	162.75
293.449	178.75
293.68	172.75
293.91	160.75
294.141	169.75
294.372	165.75
294.603	159.75
294.833	164.75
295.064	155.75
295.295	168.75
295.525	160.75
295.756	162.75
295.987	164.75
296.217	165.75
296.448	148.75
296.679	146.75
296.909	176.75
297.14	161.75
297.37	172.75
297.601	170.75
297.831	173.75
298.062	167.75
298.292	171.75
298.523	163.75
298.753	161.75
298.984	170.75
299.214	171.75
299.445	168.75
299.675	166.75
299.905	175.75
300.136	169.75
300.366	186.75
300.597	173.75
300.827	183.75
301.057	179.75
301.288	180.75
301.518	181.75
301.748	177.75
301.979	185.75
302.209	185.75
302.439	183.75
302.669	175.75
302.9	172.75
303.13	206.75
303.36	184.75
303.59	171.75
303.82	167.75
304.051	184.75
304.281	178.75
304.511	173.75
304.741	159.75
304.971	161.75
305.201	188.75
305.431	192.75
305.661	182.75
305.891	185.75
306.121	168.75
306.352	181.75
306.582	170.75
306.812	178.75
307.042	182.75
307.272	188.75
307.502	172.75
307.731	185.75
307.961	179.75
308.191	180.75
308.421	175.75
308.651	172.75
308.881	166.75
309.111	164.75
309.341	177.75
309.571	190.75
309.8	159.75
310.03	187.75
310.26	174.75
310.49	163.75
310.72	165.75
310.949	179.75
311.179	168.75
311.409	178.75
311.639	183.75
311.868	172.75
312.098	189.75
312.328	200.75
312.557	191.75
312.787	166.75
313.017	186.75
313.246	179.75
313.476	181.75
313.706	189.75
313.935	182.75
314.165	185.75
314.394	187.75
314.624	186.75
314.853	176.75
315.083	195.75
315.312	185.75
315.542	172.75
315.771	179.75
316.001	185.75
316.23	188.75
316.46	185.75
316.689	201.75
316.919	177.75
317.148	173.75
317.377	181.75
317.607	174.75
317.836	181.75
318.065	193.75
318.295	170.75
318.524	185.75
318.753	186.75
318.983	187.75
319.212	184.75
319.441	190.75
319.67	193.75
319.9	183.75
320.129	181.75
320.358	178.75
320.587	181.75
320.816	185.75
321.046	195.75
321.275	174.75
321.504	187.75
321.733	199.75
321.962	181.75
322.191	183.75
322.42	183.75
322.649	180.75
322.878	194.75
323.108	188.75
323.337	187.75
323.566	169.75
323.795	175.75
324.024	195.75
324.253	196.75
324.482	179.75
324.71	185.75
324.939	180.75
325.168	184.75
325.397	195.75
325.626	194.75
325.855	201.75
326.084	201.75
326.313	193.75
326.542	175.75
326.77	183.75
326.999	179.75
327.228	177.75
327.457	188.75
327.686	206.75
327.914	178.75
328.143	199.75
328.372	199.75
328.6	197.75
328.829	185.75
329.058	194.75
329.287	196.75
329.515	194.75
329.744	196.75
329.972	187.75
330.201	205.75
330.43	190.75
330.658	190.75
330.887	195.75
331.115	194.75
331.344	199.75
331.572	205.75
331.801	197.75
332.03	212.75
332.258	218.75
332.486	194.75
332.715	211.75
332.943	215.75
333.172	229.75
333.4	243.75
333.629	243.75
333.857	234.75
334.085	241.75
334.314	255.75
334.542	233.75
334.771	235.75
334.999	237.75
335.227	229.75
335.455	246.75
335.684	222.75
335.912	213.75
336.14	225.75
336.369	220.75
336.597	231.75
336.825	213.75
337.053	216.75
337.281	227.75
337.51	210.75
337.738	229.75
337.966	228.75
338.194	222.75
338.422	210.75
338.65	214.75
338.878	207.75
339.106	201.75
339.334	198.75
339.562	195.75
339.79	203.75
340.018	191.75
340.246	207.75
340.474	188.75
340.702	197.75
340.93	210.75
341.158	185.75
341.386	203.75
341.614	189.75
341.842	193.75
342.07	210.75
342.298	206.75
342.526	189.75
342.754	196.75
342.981	209.75
343.209	207.75
343.437	199.75
343.665	215.75
343.893	235.75
344.12	231.75
344.348	222.75
344.576	227.75
344.804	217.75
345.031	210.75
345.259	196.75
345.487	202.75
345.714	198.75
345.942	199.75
346.17	203.75
346.397	194.75
346.625	215.75
346.853	190.75
347.08	208.75
347.308	195.75
347.535	199.75
347.763	208.75
347.99	199.75
348.218	200.75
348.445	202.75
348.673	194.75
348.9	206.75
349.128	201.75
349.355	182.75
349.583	213.75
349.81	203.75
350.037	205.75
350.265	193.75
350.492	206.75
350.72	199.75
350.947	172.75
351.174	198.75
351.402	184.75
351.629	189.75
351.856	182.75
352.083	196.75
352.311	190.75
352.538	185.75
352.765	187.75
352.992	193.75
353.22	184.75
353.447	194.75
353.674	183.75
353.901	188.75
354.128	193.75
354.355	191.75
354.583	204.75
354.81	193.75
355.037	185.75
355.264	178.75
355.491	177.75
355.718	187.75
355.945	191.75
356.172	185.75
356.399	215.75
356.626	209.75
356.853	206.75
357.08	197.75
357.307	201.75
357.534	227.75
357.761	182.75
357.988	184.75
358.215	196.75
358.441	209.75
358.668	186.75
358.895	201.75
359.122	187.75
359.349	199.75
359.576	196.75
359.802	188.75
360.029	190.75
360.256	204.75
360.483	193.75
360.709	198.75
360.936	201.75
361.163	203.75
361.39	192.75
361.616	192.75
361.843	196.75
362.07	180.75
362.296	196.75
362.523	186.75
362.749	213.75
362.976	207.75
363.203	187.75
363.429	185.75
363.656	205.75
363.882	195.75
364.109	206.75
364.335	201.75
364.562	197.75
364.788	194.75
365.015	205.75
365.241	181.75
365.468	202.75
365.694	201.75
365.92	188.75
366.147	194.75
366.373	207.75
366.599	205.75
366.826	191.75
367.052	190.75
367.278	203.75
367.505	204.75
367.731	196.75
367.957	197.75
368.184	211.75
368.41	210.75
368.636	214.75
368.862	198.75
369.089	192.75
369.315	209.75
369.541	199.75
369.767	204.75
369.993	212.75
370.219	204.75
370.445	219.75
370.672	212.75
370.898	211.75
371.124	227.75
371.35	216.75
371.576	219.75
371.802	218.75
372.028	215.75
372.254	227.75
372.48	226.75
372.706	220.75
372.932	223.75
373.158	216.75
373.384	234.75
373.61	233.75
373.835	211.75
374.061	217.75
374.287	229.75
374.513	223.75
374.739	219.75
374.965	233.75
375.191	241.75
375.416	241.75
375.642	239.75
375.868	228.75
376.094	226.75
376.319	249.75
376.545	227.75
376.771	227.75
376.997	222.75
377.222	214.75
377.448	216.75
377.674	221.75
377.899	219.75
378.125	232.75
378.35	224.75
378.576	229.75
378.802	226.75
379.027	210.75
379.253	227.75
379.478	219.75
379.704	238.75
379.929	228.75
380.155	222.75
380.38	213.75
380.606	210.75
380.831	213.75
381.057	219.75
381.282	209.75
381.507	234.75
381.733	232.75
381.958	227.75
382.184	225.75
382.409	228.75
382.634	255.75
382.86	234.75
383.085	237.75
383.31	238.75
383.535	253.75
383.761	238.75
383.986	243.75
384.211	243.75
384.436	264.75
384.662	276.75
384.887	252.75
385.112	247.75
385.337	258.75
385.562	270.75
385.787	261.75
386.013	266.75
386.238	269.75
386.463	263.75
386.688	262.75
386.913	263.75
387.138	262.75
387.363	259.75
387.588	278.75
387.813	269.75
388.038	263.75
388.263	265.75
388.488	253.75
388.713	265.75
388.938	269.75
389.163	250.75
389.387	266.75
389.612	278.75
389.837	264.75
390.062	282.75
390.287	265.75
390.512	267.75
390.736	260.75
390.961	263.75
391.186	276.75
391.411	268.75
391.636	289.75
391.86	303.75
392.085	285.75
392.31	312.75
392.534	294.75
392.759	298.75
392.984	314.75
393.208	297.75
393.433	270.75
393.658	302.75
393.882	294.75
394.107	275.75
394.331	300.75
394.556	306.75
394.78	287.75
395.005	282.75
395.229	281.75
395.454	289.75
395.678	285.75
395.903	294.75
396.127	299.75
396.352	285.75
396.576	320.75
396.801	296.75
397.025	294.75
397.249	287.75
397.474	303.75
397.698	314.75
397.922	285.75
398.147	313.75
398.371	319.75
398.595	326.75
398.82	326.75
399.044	339.75
399.268	368.75
399.492	405.75
399.717	472.75
399.941	465.75
400.165	424.75
400.389	378.75
400.613	342.75
400.837	346.75
401.062	338.75
401.286	345.75
401.51	338.75
401.734	334.75
401.958	340.75
402.182	341.75
402.406	352.75
402.63	360.75
402.854	336.75
403.078	361.75
403.302	349.75
403.526	365.75
403.75	372.75
403.974	367.75
404.198	369.75
404.422	361.75
404.645	360.75
404.869	358.75
405.093	381.75
405.317	376.75
405.541	343.75
405.765	365.75
405.988	339.75
406.212	366.75
406.436	362.75
406.66	368.75
406.883	366.75
407.107	362.75
407.331	393.75
407.555	409.75
407.778	406.75
408.002	407.75
408.226	415.75
408.449	395.75
408.673	389.75
408.896	353.75
409.12	393.75
409.344	381.75
409.567	363.75
409.791	393.75
410.014	366.75
410.238	374.75
410.461	377.75
410.685	366.75
410.908	358.75
411.132	383.75
411.355	357.75
411.578	347.75
411.802	350.75
412.025	361.75
412.249	366.75
412.472	352.75
412.695	350.75
412.919	341.75
413.142	361.75
413.365	347.75
413.589	345.75
413.812	314.75
414.035	345.75
414.258	348.75
414.482	350.75
414.705	345.75
414.928	361.75
415.151	338.75
415.374	343.75
415.597	349.75
415.821	339.75
416.044	341.75
416.267	317.75
416.49	359.75
416.713	344.75
416.936	333.75
417.159	335.75
417.382	328.75
417.605	331.75
417.828	327.75
418.051	349.75
418.274	325.75
418.497	317.75
418.72	352.75
418.943	335.75
419.166	378.75
419.389	404.75
419.611	360.75
419.834	387.75
420.057	362.75
420.28	349.75
420.503	330.75
420.726	348.75
420.948	340.75
421.171	332.75
421.394	335.75
421.617	319.75
421.839	343.75
422.062	355.75
422.285	336.75
422.507	347.75
422.73	341.75
422.953	351.75
423.175	334.75
423.398	341.75
423.621	371.75
423.843	367.75
424.066	354.75
424.288	339.75
424.511	370.75
424.733	351.75
424.956	334.75
425.178	343.75
425.401	338.75
425.623	335.75
425.846	328.75
426.068	325.75
426.291	338.75
426.513	328.75
426.735	332.75
426.958	323.75
427.18	324.75
427.402	349.75
427.625	326.75
427.847	323.75
428.069	315.75
428.292	320.75
428.514	289.75
428.736	305.75
428.958	318.75
429.181	307.75
429.403	300.75
429.625	311.75
429.847	301.75
430.069	319.75
430.292	332.75
430.514	322.75
430.736	301.75
430.958	315.75
431.18	294.75
431.402	317.75
431.624	335.75
431.846	320.75
432.068	335.75
432.29	317.75
432.512	311.75
432.734	318.75
432.956	302.75
433.178	316.75
433.4	312.75
433.622	314.75
433.844	306.75
434.066	318.75
434.287	319.75
434.509	340.75
434.731	321.75
434.953	344.75
435.175	345.75
435.397	347.75
435.618	323.75
435.84	333.75
436.062	326.75
436.284	341.75
436.505	319.75
436.727	314.75
436.949	321.75
437.17	312.75
437.392	318.75
437.614	316.75
437.835	300.75
438.057	305.75
438.278	291.75
438.5	284.75
438.721	313.75
438.943	310.75
439.165	320.75
439.386	287.75
439.608	310.75
439.829	313.75
440.05	317.75
440.272	301.75
440.493	333.75
440.715	320.75
440.936	308.75
441.158	315.75
441.379	333.75
441.6	344.75
441.822	357.75
442.043	342.75
442.264	338.75
442.486	360.75
442.707	337.75
442.928	350.75
443.149	337.75
443.371	345.75
443.592	348.75
443.813	315.75
444.034	334.75
444.255	349.75
444.476	353.75
444.698	382.75
444.919	393.75
445.14	502.75
445.361	417.75
445.582	359.75
445.803	349.75
446.024	325.75
446.245	351.75
446.466	340.75
446.687	318.75
446.908	326.75
447.129	309.75
447.35	330.75
447.571	322.75
447.792	305.75
448.013	302.75
448.234	299.75
448.455	295.75
448.675	283.75
448.896	297.75
449.117	293.75
449.338	295.75
449.559	285.75
449.779	304.75
450	295.75
450.221	281.75
450.442	285.75
450.662	313.75
450.883	294.75
451.104	317.75
451.324	309.75
451.545	297.75
451.766	324.75
451.986	283.75
452.207	291.75
452.428	299.75
452.648	281.75
452.869	301.75
453.089	299.75
453.31	291.75
453.53	284.75
453.751	291.75
453.971	265.75
454.192	275.75
454.412	279.75
454.633	300.75
454.853	293.75
455.073	278.75
455.294	277.75
455.514	299.75
455.734	280.75
455.955	259.75
456.175	274.75
456.395	286.75
456.616	284.75
456.836	282.75
457.056	280.75
457.276	281.75
457.497	277.75
457.717	289.75
457.937	267.75
458.157	278.75
458.377	287.75
458.598	288.75
458.818	309.75
459.038	286.75
459.258	295.75
459.478	322.75
459.698	327.75
459.918	339.75
460.138	350.75
460.358	369.75
460.578	345.75
460.798	343.75
461.018	374.75
461.238	355.75
461.458	360.75
461.678	364.75
461.898	363.75
462.118	378.75
462.338	391.75
462.558	390.75
462.777	396.75
462.997	421.75
463.217	440.75
463.437	465.75
463.657	438.75
463.876	406.75
464.096	391.75
464.316	414.75
464.536	413.75
464.755	397.75
464.975	378.75
465.195	371.75
465.414	337.75
465.634	337.75
465.854	328.75
466.073	302.75
466.293	321.75
466.512	306.75
466.732	310.75
466.951	320.75
467.171	317.75
467.391	300.75
467.61	323.75
467.829	327.75
468.049	327.75
468.268	307.75
468.488	300.75
468.707	302.75
468.927	309.75
469.146	313.75
469.365	310.75
469.585	301.75
469.804	280.75
470.023	310.75
470.243	297.75
470.462	315.75
470.681	334.75
470.901	319.75
471.12	310.75
471.339	323.75
471.558	298.75
471.777	293.75
471.997	317.75
472.216	297.75
472.435	300.75
472.654	290.75
472.873	298.75
473.092	279.75
473.311	294.75
473.53	282.75
473.749	294.75
473.968	292.75
474.187	304.75
474.406	298.75
474.625	289.75
474.844	281.75
475.063	303.75
475.282	281.75
475.501	309.75
475.72	314.75
475.939	307.75
476.158	301.75
476.377	319.75
476.596	305.75
476.814	294.75
477.033	322.75
477.252	311.75
477.471	318.75
477.69	333.75
477.908	331.75
478.127	315.75
478.346	342.75
478.564	353.75
478.783	351.75
479.002	350.75
479.22	335.75
479.439	354.75
479.658	353.75
479.876	355.75
480.095	362.75
480.313	363.75
480.532	378.75
480.751	369.75
480.969	340.75
481.188	354.75
481.406	350.75
481.624	367.75
481.843	322.75
482.061	339.75
482.28	318.75
482.498	344.75
482.717	341.75
482.935	357.75
483.153	335.75
483.372	325.75
483.59	326.75
483.808	331.75
484.027	329.75
484.245	336.75
484.463	337.75
484.681	354.75
484.9	341.75
485.118	352.75
485.336	330.75
485.554	337.75
485.772	334.75
485.99	335.75
486.209	330.75
486.427	326.75
486.645	313.75
486.863	343.75
487.081	328.75
487.299	333.75
487.517	353.75
487.735	356.75
487.953	363.75
488.171	352.75
488.389	331.75
488.607	334.75
488.825	344.75
489.043	325.75
489.261	327.75
489.479	347.75
489.696	323.75
489.914	342.75
490.132	351.75
490.35	349.75
490.568	328.75
490.786	346.75
491.003	347.75
491.221	351.75
491.439	349.75
491.657	361.75
491.874	369.75
492.092	362.75
492.31	363.75
492.527	357.75
492.745	371.75
492.963	362.75
493.18	353.75
493.398	366.75
493.615	347.75
493.833	359.75
494.05	364.75
494.268	352.75
494.485	364.75
494.703	359.75
494.92	357.75
495.138	369.75
495.355	369.75
495.573	381.75
495.79	382.75
496.008	385.75
496.225	362.75
496.442	379.75
496.66	383.75
496.877	379.75
497.094	381.75
497.312	376.75
497.529	393.75
497.746	398.75
497.963	435.75
498.181	413.75
498.398	436.75
498.615	446.75
498.832	503.75
499.049	535.75
499.267	543.75
499.484	578.75
499.701	646.75
499.918	693.75
500.135	777.75
500.352	846.75
500.569	889.75
500.786	863.75
501.003	802.75
501.22	755.75
501.437	699.75
501.654	620.75
501.871	586.75
502.088	521.75
502.305	509.75
