Data from Fe(NO3)3@0.1M.TitratingCurve.Agarose3%dH2O.NegLispCup.LampEnergy10.LIBS07252019_HRD10591_16-40-14-332.txt Node
Date: Thu Jul 25 16:40:14 EDT 2019
User: cochatt
Spectrometer: HR+D1059
Trigger mode: 1
Integration Time (sec): 1.000000E-1
Scans to average: 1
Electric dark correction enabled: true
Nonlinearity correction enabled: false
Boxcar width: 0
XAxis mode: Wavelengths
Number of Pixels in Spectrum: 2048
>>>>>Begin Spectral Data<<<<<
223.165	3.62
223.4	3.62
223.635	3.62
223.869	-16.38
224.104	-16.38
224.338	-26.38
224.573	-10.38
224.808	2.62
225.042	-0.38
225.277	2.62
225.511	-17.38
225.746	-2.38
225.98	-4.38
226.215	0.62
226.449	15.62
226.683	9.62
226.918	25.62
227.152	33.62
227.387	29.62
227.621	34.62
227.856	57.62
228.09	37.62
228.324	54.62
228.559	65.62
228.793	69.62
229.027	73.62
229.262	71.62
229.496	75.62
229.73	74.62
229.964	86.62
230.199	73.62
230.433	95.62
230.667	89.62
230.901	86.62
231.136	92.62
231.37	97.62
231.604	97.62
231.838	101.62
232.072	92.62
232.306	91.62
232.541	106.62
232.775	107.62
233.009	109.62
233.243	97.62
233.477	111.62
233.711	97.62
233.945	95.62
234.179	90.62
234.413	92.62
234.647	114.62
234.881	91.62
235.115	102.62
235.349	97.62
235.583	97.62
235.817	97.62
236.051	103.62
236.285	95.62
236.519	82.62
236.753	94.62
236.987	97.62
237.221	97.62
237.455	92.62
237.689	102.62
237.922	76.62
238.156	91.62
238.39	84.62
238.624	97.62
238.858	82.62
239.091	89.62
239.325	79.62
239.559	84.62
239.793	110.62
240.027	95.62
240.26	95.62
240.494	98.62
240.728	102.62
240.961	113.62
241.195	103.62
241.429	93.62
241.662	98.62
241.896	105.62
242.13	89.62
242.363	107.62
242.597	109.62
242.83	108.62
243.064	106.62
243.298	98.62
243.531	110.62
243.765	117.62
243.998	102.62
244.232	109.62
244.465	101.62
244.699	107.62
244.932	97.62
245.166	109.62
245.399	114.62
245.633	113.62
245.866	110.62
246.099	107.62
246.333	99.62
246.566	121.62
246.8	117.62
247.033	120.62
247.266	114.62
247.5	99.62
247.733	109.62
247.966	89.62
248.2	133.62
248.433	119.62
248.666	111.62
248.899	111.62
249.133	103.62
249.366	103.62
249.599	113.62
249.832	106.62
250.066	118.62
250.299	115.62
250.532	125.62
250.765	114.62
250.998	104.62
251.231	117.62
251.465	109.62
251.698	115.62
251.931	101.62
252.164	109.62
252.397	105.62
252.63	129.62
252.863	125.62
253.096	113.62
253.329	118.62
253.562	122.62
253.795	105.62
254.028	129.62
254.261	120.62
254.494	107.62
254.727	120.62
254.96	111.62
255.193	133.62
255.426	131.62
255.659	133.62
255.892	132.62
256.124	140.62
256.357	133.62
256.59	115.62
256.823	124.62
257.056	120.62
257.289	119.62
257.521	125.62
257.754	120.62
257.987	123.62
258.22	137.62
258.452	123.62
258.685	124.62
258.918	128.62
259.151	126.62
259.383	125.62
259.616	135.62
259.849	127.62
260.081	133.62
260.314	115.62
260.547	131.62
260.779	128.62
261.012	115.62
261.244	123.62
261.477	122.62
261.71	124.62
261.942	139.62
262.175	133.62
262.407	121.62
262.64	123.62
262.872	137.62
263.105	135.62
263.337	137.62
263.57	140.62
263.802	135.62
264.035	135.62
264.267	133.62
264.499	129.62
264.732	136.62
264.964	126.62
265.197	134.62
265.429	138.62
265.661	129.62
265.894	146.62
266.126	116.62
266.358	121.62
266.591	137.62
266.823	144.62
267.055	146.62
267.287	147.62
267.52	148.62
267.752	146.62
267.984	144.62
268.216	131.62
268.448	137.62
268.681	131.62
268.913	123.62
269.145	144.62
269.377	135.62
269.609	136.62
269.841	151.62
270.073	133.62
270.306	141.62
270.538	161.62
270.77	139.62
271.002	133.62
271.234	137.62
271.466	163.62
271.698	141.62
271.93	138.62
272.162	145.62
272.394	147.62
272.626	141.62
272.858	143.62
273.09	128.62
273.322	161.62
273.553	148.62
273.785	161.62
274.017	162.62
274.249	161.62
274.481	151.62
274.713	158.62
274.945	160.62
275.176	160.62
275.408	149.62
275.64	151.62
275.872	152.62
276.104	161.62
276.335	158.62
276.567	155.62
276.799	139.62
277.031	156.62
277.262	163.62
277.494	147.62
277.726	155.62
277.957	162.62
278.189	159.62
278.421	169.62
278.652	155.62
278.884	159.62
279.115	153.62
279.347	143.62
279.579	158.62
279.81	162.62
280.042	159.62
280.273	159.62
280.505	146.62
280.736	165.62
280.968	166.62
281.199	151.62
281.431	155.62
281.662	158.62
281.894	161.62
282.125	147.62
282.356	157.62
282.588	164.62
282.819	173.62
283.051	169.62
283.282	163.62
283.513	180.62
283.745	179.62
283.976	164.62
284.207	166.62
284.439	145.62
284.67	166.62
284.901	171.62
285.132	165.62
285.364	148.62
285.595	173.62
285.826	166.62
286.057	163.62
286.288	167.62
286.52	181.62
286.751	169.62
286.982	177.62
287.213	155.62
287.444	186.62
287.675	174.62
287.906	152.62
288.138	163.62
288.369	167.62
288.6	172.62
288.831	153.62
289.062	173.62
289.293	162.62
289.524	179.62
289.755	185.62
289.986	187.62
290.217	175.62
290.448	178.62
290.679	189.62
290.91	164.62
291.141	158.62
291.371	179.62
291.602	168.62
291.833	171.62
292.064	169.62
292.295	178.62
292.526	165.62
292.757	166.62
292.987	177.62
293.218	165.62
293.449	169.62
293.68	171.62
293.91	155.62
294.141	167.62
294.372	177.62
294.603	159.62
294.833	157.62
295.064	177.62
295.295	179.62
295.525	177.62
295.756	176.62
295.987	166.62
296.217	188.62
296.448	167.62
296.679	183.62
296.909	180.62
297.14	173.62
297.37	185.62
297.601	171.62
297.831	178.62
298.062	180.62
298.292	183.62
298.523	186.62
298.753	180.62
298.984	183.62
299.214	188.62
299.445	168.62
299.675	170.62
299.905	171.62
300.136	177.62
300.366	181.62
300.597	182.62
300.827	210.62
301.057	191.62
301.288	195.62
301.518	178.62
301.748	194.62
301.979	203.62
302.209	193.62
302.439	185.62
302.669	185.62
302.9	167.62
303.13	197.62
303.36	181.62
303.59	181.62
303.82	172.62
304.051	182.62
304.281	172.62
304.511	194.62
304.741	182.62
304.971	199.62
305.201	197.62
305.431	198.62
305.661	182.62
305.891	185.62
306.121	186.62
306.352	197.62
306.582	177.62
306.812	191.62
307.042	181.62
307.272	185.62
307.502	197.62
307.731	182.62
307.961	199.62
308.191	191.62
308.421	182.62
308.651	189.62
308.881	172.62
309.111	186.62
309.341	186.62
309.571	174.62
309.8	193.62
310.03	179.62
310.26	201.62
310.49	190.62
310.72	176.62
310.949	186.62
311.179	197.62
311.409	185.62
311.639	200.62
311.868	194.62
312.098	201.62
312.328	193.62
312.557	192.62
312.787	198.62
313.017	183.62
313.246	203.62
313.476	195.62
313.706	177.62
313.935	207.62
314.165	187.62
314.394	203.62
314.624	182.62
314.853	198.62
315.083	199.62
315.312	211.62
315.542	198.62
315.771	191.62
316.001	206.62
316.23	197.62
316.46	203.62
316.689	178.62
316.919	195.62
317.148	206.62
317.377	193.62
317.607	185.62
317.836	191.62
318.065	195.62
318.295	185.62
318.524	196.62
318.753	209.62
318.983	173.62
319.212	206.62
319.441	191.62
319.67	191.62
319.9	188.62
320.129	199.62
320.358	202.62
320.587	180.62
320.816	186.62
321.046	205.62
321.275	190.62
321.504	205.62
321.733	200.62
321.962	202.62
322.191	196.62
322.42	204.62
322.649	201.62
322.878	196.62
323.108	194.62
323.337	206.62
323.566	206.62
323.795	207.62
324.024	210.62
324.253	198.62
324.482	200.62
324.71	196.62
324.939	213.62
325.168	190.62
325.397	215.62
325.626	198.62
325.855	209.62
326.084	204.62
326.313	213.62
326.542	211.62
326.77	217.62
326.999	205.62
327.228	223.62
327.457	214.62
327.686	199.62
327.914	193.62
328.143	214.62
328.372	234.62
328.6	198.62
328.829	217.62
329.058	203.62
329.287	210.62
329.515	207.62
329.744	198.62
329.972	197.62
330.201	204.62
330.43	230.62
330.658	210.62
330.887	216.62
331.115	216.62
331.344	230.62
331.572	214.62
331.801	222.62
332.03	222.62
332.258	242.62
332.486	245.62
332.715	249.62
332.943	238.62
333.172	259.62
333.4	238.62
333.629	280.62
333.857	277.62
334.085	263.62
334.314	249.62
334.542	253.62
334.771	261.62
334.999	273.62
335.227	237.62
335.455	247.62
335.684	228.62
335.912	259.62
336.14	247.62
336.369	230.62
336.597	229.62
336.825	247.62
337.053	227.62
337.281	255.62
337.51	228.62
337.738	229.62
337.966	233.62
338.194	223.62
338.422	224.62
338.65	237.62
338.878	226.62
339.106	216.62
339.334	221.62
339.562	227.62
339.79	223.62
340.018	221.62
340.246	217.62
340.474	195.62
340.702	223.62
340.93	222.62
341.158	215.62
341.386	231.62
341.614	213.62
341.842	214.62
342.07	205.62
342.298	207.62
342.526	218.62
342.754	230.62
342.981	214.62
343.209	230.62
343.437	236.62
343.665	250.62
343.893	237.62
344.12	258.62
344.348	248.62
344.576	230.62
344.804	235.62
345.031	225.62
345.259	228.62
345.487	213.62
345.714	215.62
345.942	224.62
346.17	211.62
346.397	205.62
346.625	223.62
346.853	214.62
347.08	208.62
347.308	203.62
347.535	210.62
347.763	205.62
347.99	220.62
348.218	221.62
348.445	218.62
348.673	201.62
348.9	215.62
349.128	215.62
349.355	203.62
349.583	221.62
349.81	209.62
350.037	215.62
350.265	223.62
350.492	208.62
350.72	227.62
350.947	214.62
351.174	221.62
351.402	226.62
351.629	196.62
351.856	219.62
352.083	210.62
352.311	195.62
352.538	199.62
352.765	216.62
352.992	200.62
353.22	203.62
353.447	196.62
353.674	220.62
353.901	202.62
354.128	214.62
354.355	197.62
354.583	206.62
354.81	203.62
355.037	210.62
355.264	200.62
355.491	219.62
355.718	210.62
355.945	201.62
356.172	210.62
356.399	222.62
356.626	207.62
356.853	211.62
357.08	207.62
357.307	225.62
357.534	209.62
357.761	207.62
357.988	215.62
358.215	207.62
358.441	223.62
358.668	215.62
358.895	216.62
359.122	228.62
359.349	220.62
359.576	215.62
359.802	224.62
360.029	215.62
360.256	208.62
360.483	227.62
360.709	211.62
360.936	222.62
361.163	212.62
361.39	201.62
361.616	207.62
361.843	216.62
362.07	226.62
362.296	215.62
362.523	215.62
362.749	209.62
362.976	206.62
363.203	221.62
363.429	226.62
363.656	212.62
363.882	219.62
364.109	216.62
364.335	205.62
364.562	210.62
364.788	209.62
365.015	218.62
365.241	205.62
365.468	223.62
365.694	204.62
365.92	218.62
366.147	206.62
366.373	213.62
366.599	213.62
366.826	201.62
367.052	205.62
367.278	212.62
367.505	204.62
367.731	210.62
367.957	211.62
368.184	213.62
368.41	196.62
368.636	218.62
368.862	216.62
369.089	222.62
369.315	221.62
369.541	206.62
369.767	228.62
369.993	211.62
370.219	215.62
370.445	216.62
370.672	225.62
370.898	226.62
371.124	226.62
371.35	223.62
371.576	231.62
371.802	221.62
372.028	213.62
372.254	229.62
372.48	232.62
372.706	210.62
372.932	228.62
373.158	208.62
373.384	221.62
373.61	240.62
373.835	237.62
374.061	206.62
374.287	237.62
374.513	227.62
374.739	250.62
374.965	245.62
375.191	235.62
375.416	226.62
375.642	254.62
375.868	235.62
376.094	255.62
376.319	230.62
376.545	226.62
376.771	242.62
376.997	223.62
377.222	221.62
377.448	216.62
377.674	238.62
377.899	238.62
378.125	236.62
378.35	221.62
378.576	239.62
378.802	218.62
379.027	246.62
379.253	241.62
379.478	238.62
379.704	217.62
379.929	227.62
380.155	213.62
380.38	229.62
380.606	225.62
380.831	226.62
381.057	239.62
381.282	213.62
381.507	244.62
381.733	225.62
381.958	209.62
382.184	227.62
382.409	236.62
382.634	244.62
382.86	229.62
383.085	253.62
383.31	243.62
383.535	234.62
383.761	254.62
383.986	250.62
384.211	262.62
384.436	263.62
384.662	251.62
384.887	259.62
385.112	267.62
385.337	259.62
385.562	247.62
385.787	265.62
386.013	286.62
386.238	262.62
386.463	264.62
386.688	263.62
386.913	267.62
387.138	271.62
387.363	260.62
387.588	282.62
387.813	255.62
388.038	274.62
388.263	259.62
388.488	276.62
388.713	265.62
388.938	253.62
389.163	253.62
389.387	258.62
389.612	263.62
389.837	260.62
390.062	256.62
390.287	284.62
390.512	271.62
390.736	262.62
390.961	279.62
391.186	272.62
391.411	267.62
391.636	277.62
391.86	301.62
392.085	285.62
392.31	301.62
392.534	294.62
392.759	282.62
392.984	279.62
393.208	275.62
393.433	273.62
393.658	279.62
393.882	272.62
394.107	293.62
394.331	282.62
394.556	281.62
394.78	281.62
395.005	298.62
395.229	301.62
395.454	291.62
395.678	287.62
395.903	302.62
396.127	307.62
396.352	279.62
396.576	279.62
396.801	294.62
397.025	286.62
397.249	292.62
397.474	319.62
397.698	298.62
397.922	313.62
398.147	301.62
398.371	303.62
398.595	322.62
398.82	330.62
399.044	342.62
399.268	364.62
399.492	403.62
399.717	478.62
399.941	435.62
400.165	401.62
400.389	389.62
400.613	357.62
400.837	327.62
401.062	334.62
401.286	316.62
401.51	324.62
401.734	352.62
401.958	326.62
402.182	318.62
402.406	320.62
402.63	320.62
402.854	341.62
403.078	323.62
403.302	321.62
403.526	362.62
403.75	387.62
403.974	375.62
404.198	367.62
404.422	362.62
404.645	371.62
404.869	360.62
405.093	365.62
405.317	349.62
405.541	360.62
405.765	343.62
405.988	346.62
406.212	371.62
406.436	353.62
406.66	346.62
406.883	369.62
407.107	394.62
407.331	387.62
407.555	409.62
407.778	402.62
408.002	410.62
408.226	377.62
408.449	399.62
408.673	372.62
408.896	374.62
409.12	364.62
409.344	367.62
409.567	344.62
409.791	357.62
410.014	347.62
410.238	345.62
410.461	375.62
410.685	354.62
410.908	350.62
411.132	364.62
411.355	351.62
411.578	347.62
411.802	346.62
412.025	338.62
412.249	362.62
412.472	348.62
412.695	346.62
412.919	345.62
413.142	332.62
413.365	346.62
413.589	339.62
413.812	334.62
414.035	332.62
414.258	341.62
414.482	337.62
414.705	345.62
414.928	341.62
415.151	337.62
415.374	334.62
415.597	344.62
415.821	343.62
416.044	327.62
416.267	321.62
416.49	309.62
416.713	316.62
416.936	339.62
417.159	325.62
417.382	320.62
417.605	328.62
417.828	328.62
418.051	319.62
418.274	355.62
418.497	323.62
418.72	341.62
418.943	338.62
419.166	354.62
419.389	374.62
419.611	371.62
419.834	357.62
420.057	355.62
420.28	334.62
420.503	329.62
420.726	342.62
420.948	323.62
421.171	338.62
421.394	332.62
421.617	332.62
421.839	325.62
422.062	339.62
422.285	324.62
422.507	335.62
422.73	340.62
422.953	352.62
423.175	360.62
423.398	356.62
423.621	342.62
423.843	341.62
424.066	351.62
424.288	360.62
424.511	357.62
424.733	350.62
424.956	356.62
425.178	352.62
425.401	331.62
425.623	327.62
425.846	327.62
426.068	306.62
426.291	298.62
426.513	320.62
426.735	313.62
426.958	309.62
427.18	308.62
427.402	315.62
427.625	306.62
427.847	291.62
428.069	297.62
428.292	292.62
428.514	298.62
428.736	306.62
428.958	315.62
429.181	302.62
429.403	313.62
429.625	303.62
429.847	291.62
430.069	309.62
430.292	299.62
430.514	288.62
430.736	315.62
430.958	303.62
431.18	299.62
431.402	314.62
431.624	301.62
431.846	299.62
432.068	317.62
432.29	325.62
432.512	315.62
432.734	314.62
432.956	311.62
433.178	313.62
433.4	309.62
433.622	311.62
433.844	323.62
434.066	324.62
434.287	310.62
434.509	313.62
434.731	341.62
434.953	351.62
435.175	340.62
435.397	347.62
435.618	353.62
435.84	307.62
436.062	308.62
436.284	332.62
436.505	343.62
436.727	301.62
436.949	321.62
437.17	331.62
437.392	321.62
437.614	324.62
437.835	299.62
438.057	292.62
438.278	287.62
438.5	300.62
438.721	321.62
438.943	327.62
439.165	309.62
439.386	314.62
439.608	331.62
439.829	325.62
440.05	317.62
440.272	338.62
440.493	319.62
440.715	324.62
440.936	329.62
441.158	349.62
441.379	348.62
441.6	360.62
441.822	353.62
442.043	361.62
442.264	361.62
442.486	350.62
442.707	332.62
442.928	341.62
443.149	361.62
443.371	344.62
443.592	352.62
443.813	349.62
444.034	355.62
444.255	360.62
444.476	366.62
444.698	396.62
444.919	391.62
445.14	488.62
445.361	438.62
445.582	383.62
445.803	336.62
446.024	337.62
446.245	337.62
446.466	348.62
446.687	346.62
446.908	328.62
447.129	315.62
447.35	309.62
447.571	325.62
447.792	321.62
448.013	299.62
448.234	319.62
448.455	295.62
448.675	302.62
448.896	315.62
449.117	309.62
449.338	305.62
449.559	301.62
449.779	315.62
450	304.62
450.221	303.62
450.442	309.62
450.662	297.62
450.883	315.62
451.104	323.62
451.324	325.62
451.545	300.62
451.766	308.62
451.986	316.62
452.207	323.62
452.428	289.62
452.648	303.62
452.869	314.62
453.089	290.62
453.31	286.62
453.53	284.62
453.751	272.62
453.971	291.62
454.192	301.62
454.412	289.62
454.633	297.62
454.853	300.62
455.073	302.62
455.294	307.62
455.514	298.62
455.734	289.62
455.955	287.62
456.175	293.62
456.395	303.62
456.616	275.62
456.836	277.62
457.056	297.62
457.276	278.62
457.497	276.62
457.717	298.62
457.937	301.62
458.157	265.62
458.377	277.62
458.598	310.62
458.818	289.62
459.038	313.62
459.258	299.62
459.478	299.62
459.698	332.62
459.918	327.62
460.138	348.62
460.358	361.62
460.578	352.62
460.798	353.62
461.018	373.62
461.238	358.62
461.458	353.62
461.678	361.62
461.898	370.62
462.118	374.62
462.338	385.62
462.558	394.62
462.777	397.62
462.997	421.62
463.217	452.62
463.437	449.62
463.657	411.62
463.876	409.62
464.096	404.62
464.316	395.62
464.536	414.62
464.755	403.62
464.975	385.62
465.195	373.62
465.414	346.62
465.634	352.62
465.854	325.62
466.073	307.62
466.293	324.62
466.512	327.62
466.732	321.62
466.951	321.62
467.171	311.62
467.391	284.62
467.61	304.62
467.829	316.62
468.049	317.62
468.268	311.62
468.488	317.62
468.707	311.62
468.927	314.62
469.146	308.62
469.365	320.62
469.585	319.62
469.804	307.62
470.023	315.62
470.243	353.62
470.462	347.62
470.681	299.62
470.901	327.62
471.12	311.62
471.339	321.62
471.558	303.62
471.777	318.62
471.997	307.62
472.216	309.62
472.435	301.62
472.654	307.62
472.873	281.62
473.092	300.62
473.311	288.62
473.53	277.62
473.749	288.62
473.968	294.62
474.187	289.62
474.406	306.62
474.625	292.62
474.844	286.62
475.063	301.62
475.282	296.62
475.501	296.62
475.72	321.62
475.939	310.62
476.158	307.62
476.377	306.62
476.596	291.62
476.814	314.62
477.033	305.62
477.252	323.62
477.471	306.62
477.69	337.62
477.908	299.62
478.127	317.62
478.346	346.62
478.564	337.62
478.783	326.62
479.002	352.62
479.22	357.62
479.439	362.62
479.658	343.62
479.876	327.62
480.095	352.62
480.313	365.62
480.532	358.62
480.751	357.62
480.969	333.62
481.188	341.62
481.406	329.62
481.624	329.62
481.843	323.62
482.061	326.62
482.28	313.62
482.498	345.62
482.717	308.62
482.935	321.62
483.153	347.62
483.372	318.62
483.59	340.62
483.808	337.62
484.027	322.62
484.245	326.62
484.463	323.62
484.681	339.62
484.9	337.62
485.118	347.62
485.336	332.62
485.554	329.62
485.772	324.62
485.99	331.62
486.209	331.62
486.427	331.62
486.645	342.62
486.863	323.62
487.081	325.62
487.299	343.62
487.517	336.62
487.735	349.62
487.953	328.62
488.171	348.62
488.389	355.62
488.607	324.62
488.825	336.62
489.043	321.62
489.261	336.62
489.479	328.62
489.696	337.62
489.914	317.62
490.132	340.62
490.35	348.62
490.568	343.62
490.786	344.62
491.003	351.62
491.221	331.62
491.439	342.62
491.657	366.62
491.874	354.62
492.092	359.62
492.31	360.62
492.527	347.62
492.745	342.62
492.963	358.62
493.18	360.62
493.398	366.62
493.615	352.62
493.833	359.62
494.05	354.62
494.268	361.62
494.485	339.62
494.703	363.62
494.92	359.62
495.138	356.62
495.355	371.62
495.573	351.62
495.79	357.62
496.008	358.62
496.225	363.62
496.442	347.62
496.66	357.62
496.877	372.62
497.094	375.62
497.312	383.62
497.529	378.62
497.746	398.62
497.963	400.62
498.181	418.62
498.398	402.62
498.615	438.62
498.832	446.62
499.049	461.62
499.267	530.62
499.484	545.62
499.701	595.62
499.918	650.62
500.135	719.62
500.352	827.62
500.569	839.62
500.786	820.62
501.003	790.62
501.22	708.62
501.437	642.62
501.654	595.62
501.871	537.62
502.088	501.62
502.305	479.62
