Data from Fe(NO3)3@0.05M.TitratingCurve.Agarose3%dH2O.NegLispCup.LampEnergy10.LIBS07252019_HRD10591_16-46-47-334.txt Node
Date: Thu Jul 25 16:46:47 EDT 2019
User: cochatt
Spectrometer: HR+D1059
Trigger mode: 1
Integration Time (sec): 1.000000E-1
Scans to average: 1
Electric dark correction enabled: true
Nonlinearity correction enabled: false
Boxcar width: 0
XAxis mode: Wavelengths
Number of Pixels in Spectrum: 2048
>>>>>Begin Spectral Data<<<<<
223.165	-26.38
223.4	-26.38
223.635	-26.38
223.869	-22.38
224.104	-19.38
224.338	-13.38
224.573	-16.38
224.808	-26.38
225.042	4.62
225.277	-8.38
225.511	2.62
225.746	11.62
225.98	7.62
226.215	26.62
226.449	21.62
226.683	6.62
226.918	19.62
227.152	31.62
227.387	29.62
227.621	48.62
227.856	41.62
228.09	62.62
228.324	52.62
228.559	52.62
228.793	79.62
229.027	133.62
229.262	134.62
229.496	123.62
229.73	136.62
229.964	135.62
230.199	139.62
230.433	146.62
230.667	150.62
230.901	148.62
231.136	153.62
231.37	154.62
231.604	163.62
231.838	168.62
232.072	180.62
232.306	181.62
232.541	174.62
232.775	174.62
233.009	155.62
233.243	170.62
233.477	163.62
233.711	185.62
233.945	174.62
234.179	175.62
234.413	205.62
234.647	201.62
234.881	194.62
235.115	195.62
235.349	198.62
235.583	204.62
235.817	198.62
236.051	190.62
236.285	192.62
236.519	208.62
236.753	211.62
236.987	216.62
237.221	203.62
237.455	199.62
237.689	224.62
237.922	222.62
238.156	219.62
238.39	227.62
238.624	243.62
238.858	244.62
239.091	231.62
239.325	224.62
239.559	225.62
239.793	241.62
240.027	255.62
240.26	242.62
240.494	250.62
240.728	257.62
240.961	255.62
241.195	244.62
241.429	256.62
241.662	244.62
241.896	238.62
242.13	242.62
242.363	259.62
242.597	259.62
242.83	252.62
243.064	254.62
243.298	261.62
243.531	278.62
243.765	283.62
243.998	277.62
244.232	270.62
244.465	275.62
244.699	264.62
244.932	280.62
245.166	280.62
245.399	273.62
245.633	278.62
245.866	299.62
246.099	286.62
246.333	290.62
246.566	299.62
246.8	302.62
247.033	283.62
247.266	302.62
247.5	310.62
247.733	302.62
247.966	298.62
248.2	312.62
248.433	317.62
248.666	331.62
248.899	324.62
249.133	326.62
249.366	345.62
249.599	357.62
249.832	345.62
250.066	327.62
250.299	338.62
250.532	328.62
250.765	329.62
250.998	346.62
251.231	343.62
251.465	334.62
251.698	348.62
251.931	331.62
252.164	342.62
252.397	364.62
252.63	380.62
252.863	380.62
253.096	382.62
253.329	386.62
253.562	391.62
253.795	391.62
254.028	385.62
254.261	418.62
254.494	400.62
254.727	383.62
254.96	386.62
255.193	391.62
255.426	406.62
255.659	393.62
255.892	357.62
256.124	397.62
256.357	406.62
256.59	418.62
256.823	409.62
257.056	400.62
257.289	397.62
257.521	406.62
257.754	417.62
257.987	428.62
258.22	410.62
258.452	402.62
258.685	417.62
258.918	443.62
259.151	447.62
259.383	425.62
259.616	426.62
259.849	458.62
260.081	519.62
260.314	561.62
260.547	448.62
260.779	464.62
261.012	470.62
261.244	452.62
261.477	465.62
261.71	469.62
261.942	433.62
262.175	459.62
262.407	483.62
262.64	445.62
262.872	480.62
263.105	502.62
263.337	499.62
263.57	500.62
263.802	452.62
264.035	449.62
264.267	464.62
264.499	458.62
264.732	440.62
264.964	442.62
265.197	447.62
265.429	454.62
265.661	440.62
265.894	453.62
266.126	478.62
266.358	479.62
266.591	469.62
266.823	495.62
267.055	484.62
267.287	467.62
267.52	487.62
267.752	499.62
267.984	474.62
268.216	489.62
268.448	499.62
268.681	500.62
268.913	497.62
269.145	510.62
269.377	488.62
269.609	516.62
269.841	516.62
270.073	502.62
270.306	531.62
270.538	526.62
270.77	500.62
271.002	519.62
271.234	534.62
271.466	558.62
271.698	532.62
271.93	535.62
272.162	562.62
272.394	536.62
272.626	567.62
272.858	558.62
273.09	558.62
273.322	554.62
273.553	570.62
273.785	600.62
274.017	622.62
274.249	638.62
274.481	636.62
274.713	651.62
274.945	702.62
275.176	706.62
275.408	673.62
275.64	649.62
275.872	647.62
276.104	636.62
276.335	612.62
276.567	578.62
276.799	596.62
277.031	626.62
277.262	593.62
277.494	604.62
277.726	582.62
277.957	608.62
278.189	613.62
278.421	596.62
278.652	627.62
278.884	602.62
279.115	611.62
279.347	608.62
279.579	619.62
279.81	582.62
280.042	616.62
280.273	617.62
280.505	630.62
280.736	596.62
280.968	634.62
281.199	629.62
281.431	604.62
281.662	611.62
281.894	641.62
282.125	636.62
282.356	636.62
282.588	616.62
282.819	614.62
283.051	654.62
283.282	634.62
283.513	641.62
283.745	650.62
283.976	659.62
284.207	655.62
284.439	679.62
284.67	674.62
284.901	666.62
285.132	635.62
285.364	683.62
285.595	670.62
285.826	671.62
286.057	665.62
286.288	656.62
286.52	684.62
286.751	675.62
286.982	670.62
287.213	677.62
287.444	679.62
287.675	698.62
287.906	682.62
288.138	688.62
288.369	670.62
288.6	694.62
288.831	678.62
289.062	699.62
289.293	689.62
289.524	713.62
289.755	703.62
289.986	703.62
290.217	692.62
290.448	705.62
290.679	700.62
290.91	687.62
291.141	697.62
291.371	674.62
291.602	674.62
291.833	690.62
292.064	700.62
292.295	678.62
292.526	697.62
292.757	689.62
292.987	684.62
293.218	692.62
293.449	736.62
293.68	706.62
293.91	724.62
294.141	722.62
294.372	702.62
294.603	698.62
294.833	719.62
295.064	727.62
295.295	721.62
295.525	718.62
295.756	704.62
295.987	687.62
296.217	717.62
296.448	710.62
296.679	733.62
296.909	708.62
297.14	770.62
297.37	758.62
297.601	760.62
297.831	756.62
298.062	739.62
298.292	754.62
298.523	797.62
298.753	782.62
298.984	748.62
299.214	780.62
299.445	754.62
299.675	755.62
299.905	755.62
300.136	778.62
300.366	776.62
300.597	778.62
300.827	795.62
301.057	758.62
301.288	784.62
301.518	795.62
301.748	796.62
301.979	804.62
302.209	827.62
302.439	806.62
302.669	795.62
302.9	828.62
303.13	826.62
303.36	803.62
303.59	818.62
303.82	807.62
304.051	792.62
304.281	804.62
304.511	820.62
304.741	800.62
304.971	784.62
305.201	815.62
305.431	801.62
305.661	811.62
305.891	817.62
306.121	831.62
306.352	814.62
306.582	826.62
306.812	802.62
307.042	785.62
307.272	825.62
307.502	838.62
307.731	848.62
307.961	800.62
308.191	815.62
308.421	843.62
308.651	851.62
308.881	807.62
309.111	820.62
309.341	792.62
309.571	797.62
309.8	807.62
310.03	837.62
310.26	814.62
310.49	815.62
310.72	851.62
310.949	828.62
311.179	841.62
311.409	828.62
311.639	815.62
311.868	870.62
312.098	861.62
312.328	854.62
312.557	839.62
312.787	843.62
313.017	844.62
313.246	868.62
313.476	862.62
313.706	864.62
313.935	868.62
314.165	861.62
314.394	867.62
314.624	881.62
314.853	880.62
315.083	907.62
315.312	910.62
315.542	894.62
315.771	893.62
316.001	898.62
316.23	904.62
316.46	874.62
316.689	913.62
316.919	882.62
317.148	897.62
317.377	923.62
317.607	907.62
317.836	874.62
318.065	885.62
318.295	924.62
318.524	870.62
318.753	903.62
318.983	902.62
319.212	871.62
319.441	895.62
319.67	910.62
319.9	898.62
320.129	905.62
320.358	906.62
320.587	910.62
320.816	916.62
321.046	912.62
321.275	877.62
321.504	908.62
321.733	883.62
321.962	912.62
322.191	936.62
322.42	938.62
322.649	919.62
322.878	944.62
323.108	927.62
323.337	919.62
323.566	919.62
323.795	948.62
324.024	913.62
324.253	904.62
324.482	935.62
324.71	925.62
324.939	914.62
325.168	929.62
325.397	920.62
325.626	934.62
325.855	964.62
326.084	971.62
326.313	987.62
326.542	991.62
326.77	1000.62
326.999	1027.62
327.228	967.62
327.457	974.62
327.686	967.62
327.914	969.62
328.143	983.62
328.372	984.62
328.6	991.62
328.829	971.62
329.058	985.62
329.287	972.62
329.515	980.62
329.744	966.62
329.972	968.62
330.201	1020.62
330.43	1031.62
330.658	1026.62
330.887	1003.62
331.115	1006.62
331.344	1000.62
331.572	1006.62
331.801	1022.62
332.03	1027.62
332.258	1030.62
332.486	1063.62
332.715	1096.62
332.943	1062.62
333.172	1090.62
333.4	1118.62
333.629	1114.62
333.857	1130.62
334.085	1131.62
334.314	1145.62
334.542	1160.62
334.771	1168.62
334.999	1143.62
335.227	1161.62
335.455	1180.62
335.684	1169.62
335.912	1182.62
336.14	1158.62
336.369	1143.62
336.597	1138.62
336.825	1137.62
337.053	1114.62
337.281	1119.62
337.51	1109.62
337.738	1112.62
337.966	1096.62
338.194	1072.62
338.422	1094.62
338.65	1075.62
338.878	1117.62
339.106	1114.62
339.334	1091.62
339.562	1043.62
339.79	1082.62
340.018	1042.62
340.246	1030.62
340.474	1050.62
340.702	1034.62
340.93	1079.62
341.158	1078.62
341.386	1043.62
341.614	1052.62
341.842	1043.62
342.07	1073.62
342.298	1030.62
342.526	1050.62
342.754	1035.62
342.981	1063.62
343.209	1065.62
343.437	1073.62
343.665	1080.62
343.893	1120.62
344.12	1140.62
344.348	1136.62
344.576	1096.62
344.804	1109.62
345.031	1079.62
345.259	1098.62
345.487	1072.62
345.714	1072.62
345.942	1051.62
346.17	1039.62
346.397	1052.62
346.625	1039.62
346.853	1042.62
347.08	999.62
347.308	1020.62
347.535	1003.62
347.763	1035.62
347.99	979.62
348.218	1010.62
348.445	999.62
348.673	980.62
348.9	992.62
349.128	991.62
349.355	1016.62
349.583	997.62
349.81	987.62
350.037	991.62
350.265	1003.62
350.492	1024.62
350.72	1006.62
350.947	1029.62
351.174	997.62
351.402	988.62
351.629	982.62
351.856	994.62
352.083	989.62
352.311	958.62
352.538	992.62
352.765	991.62
352.992	953.62
353.22	964.62
353.447	998.62
353.674	998.62
353.901	998.62
354.128	1006.62
354.355	991.62
354.583	998.62
354.81	967.62
355.037	989.62
355.264	977.62
355.491	972.62
355.718	986.62
355.945	1008.62
356.172	1006.62
356.399	981.62
356.626	1028.62
356.853	1030.62
357.08	991.62
357.307	1038.62
357.534	996.62
357.761	1004.62
357.988	979.62
358.215	1014.62
358.441	1033.62
358.668	1038.62
358.895	1030.62
359.122	999.62
359.349	995.62
359.576	1009.62
359.802	999.62
360.029	1014.62
360.256	989.62
360.483	994.62
360.709	1023.62
360.936	1029.62
361.163	1036.62
361.39	1002.62
361.616	1004.62
361.843	1050.62
362.07	1032.62
362.296	1033.62
362.523	1005.62
362.749	1014.62
362.976	994.62
363.203	1023.62
363.429	1041.62
363.656	1029.62
363.882	1020.62
364.109	1044.62
364.335	1022.62
364.562	1022.62
364.788	1035.62
365.015	1048.62
365.241	1045.62
365.468	1033.62
365.694	1021.62
365.92	1048.62
366.147	1003.62
366.373	1031.62
366.599	1000.62
366.826	1029.62
367.052	1051.62
367.278	1023.62
367.505	1032.62
367.731	1028.62
367.957	1031.62
368.184	1022.62
368.41	1065.62
368.636	1044.62
368.862	1066.62
369.089	1076.62
369.315	1056.62
369.541	1059.62
369.767	1079.62
369.993	1064.62
370.219	1064.62
370.445	1067.62
370.672	1082.62
370.898	1080.62
371.124	1102.62
371.35	1115.62
371.576	1102.62
371.802	1095.62
372.028	1127.62
372.254	1166.62
372.48	1131.62
372.706	1152.62
372.932	1139.62
373.158	1157.62
373.384	1142.62
373.61	1151.62
373.835	1142.62
374.061	1149.62
374.287	1147.62
374.513	1177.62
374.739	1178.62
374.965	1189.62
375.191	1186.62
375.416	1178.62
375.642	1167.62
375.868	1185.62
376.094	1157.62
376.319	1159.62
376.545	1159.62
376.771	1166.62
376.997	1136.62
377.222	1097.62
377.448	1101.62
377.674	1107.62
377.899	1132.62
378.125	1082.62
378.35	1083.62
378.576	1106.62
378.802	1086.62
379.027	1146.62
379.253	1117.62
379.478	1089.62
379.704	1134.62
379.929	1111.62
380.155	1128.62
380.38	1131.62
380.606	1135.62
380.831	1140.62
381.057	1162.62
381.282	1134.62
381.507	1144.62
381.733	1168.62
381.958	1173.62
382.184	1203.62
382.409	1226.62
382.634	1208.62
382.86	1219.62
383.085	1195.62
383.31	1178.62
383.535	1248.62
383.761	1205.62
383.986	1199.62
384.211	1207.62
384.436	1243.62
384.662	1234.62
384.887	1233.62
385.112	1249.62
385.337	1300.62
385.562	1297.62
385.787	1295.62
386.013	1327.62
386.238	1306.62
386.463	1299.62
386.688	1295.62
386.913	1302.62
387.138	1276.62
387.363	1336.62
387.588	1319.62
387.813	1308.62
388.038	1296.62
388.263	1333.62
388.488	1346.62
388.713	1326.62
388.938	1354.62
389.163	1330.62
389.387	1340.62
389.612	1336.62
389.837	1332.62
390.062	1310.62
390.287	1349.62
390.512	1350.62
390.736	1306.62
390.961	1359.62
391.186	1348.62
391.411	1389.62
391.636	1379.62
391.86	1362.62
392.085	1397.62
392.31	1412.62
392.534	1418.62
392.759	1424.62
392.984	1426.62
393.208	1368.62
393.433	1412.62
393.658	1408.62
393.882	1440.62
394.107	1387.62
394.331	1379.62
394.556	1377.62
394.78	1415.62
395.005	1424.62
395.229	1436.62
395.454	1424.62
395.678	1448.62
395.903	1420.62
396.127	1490.62
396.352	1433.62
396.576	1441.62
396.801	1419.62
397.025	1470.62
397.249	1473.62
397.474	1480.62
397.698	1466.62
397.922	1509.62
398.147	1519.62
398.371	1511.62
398.595	1576.62
398.82	1605.62
399.044	1665.62
399.268	1727.62
399.492	1775.62
399.717	1854.62
399.941	1877.62
400.165	1866.62
400.389	1845.62
400.613	1737.62
400.837	1731.62
401.062	1675.62
401.286	1635.62
401.51	1632.62
401.734	1610.62
401.958	1590.62
402.182	1603.62
402.406	1618.62
402.63	1575.62
402.854	1618.62
403.078	1617.62
403.302	1596.62
403.526	1624.62
403.75	1653.62
403.974	1641.62
404.198	1607.62
404.422	1697.62
404.645	1650.62
404.869	1704.62
405.093	1641.62
405.317	1651.62
405.541	1680.62
405.765	1708.62
405.988	1679.62
406.212	1726.62
406.436	1730.62
406.66	1753.62
406.883	1733.62
407.107	1825.62
407.331	1811.62
407.555	1854.62
407.778	1860.62
408.002	1862.62
408.226	1834.62
408.449	1864.62
408.673	1794.62
408.896	1769.62
409.12	1726.62
409.344	1746.62
409.567	1698.62
409.791	1702.62
410.014	1712.62
410.238	1705.62
410.461	1700.62
410.685	1716.62
410.908	1692.62
411.132	1706.62
411.355	1660.62
411.578	1664.62
411.802	1663.62
412.025	1659.62
412.249	1680.62
412.472	1663.62
412.695	1662.62
412.919	1643.62
413.142	1652.62
413.365	1646.62
413.589	1657.62
413.812	1620.62
414.035	1616.62
414.258	1630.62
414.482	1598.62
414.705	1596.62
414.928	1630.62
415.151	1604.62
415.374	1618.62
415.597	1583.62
415.821	1546.62
416.044	1560.62
416.267	1537.62
416.49	1557.62
416.713	1550.62
416.936	1529.62
417.159	1519.62
417.382	1502.62
417.605	1526.62
417.828	1525.62
418.051	1543.62
418.274	1554.62
418.497	1565.62
418.72	1573.62
418.943	1561.62
419.166	1626.62
419.389	1741.62
419.611	1675.62
419.834	1660.62
420.057	1601.62
420.28	1539.62
420.503	1520.62
420.726	1536.62
420.948	1540.62
421.171	1510.62
421.394	1517.62
421.617	1518.62
421.839	1499.62
422.062	1541.62
422.285	1495.62
422.507	1558.62
422.73	1541.62
422.953	1542.62
423.175	1549.62
423.398	1531.62
423.621	1494.62
423.843	1526.62
424.066	1523.62
424.288	1531.62
424.511	1501.62
424.733	1518.62
424.956	1545.62
425.178	1533.62
425.401	1500.62
425.623	1486.62
425.846	1472.62
426.068	1498.62
426.291	1488.62
426.513	1525.62
426.735	1521.62
426.958	1482.62
427.18	1492.62
427.402	1499.62
427.625	1494.62
427.847	1444.62
428.069	1488.62
428.292	1472.62
428.514	1442.62
428.736	1430.62
428.958	1469.62
429.181	1412.62
429.403	1417.62
429.625	1474.62
429.847	1483.62
430.069	1457.62
430.292	1433.62
430.514	1460.62
430.736	1462.62
430.958	1461.62
431.18	1468.62
431.402	1459.62
431.624	1445.62
431.846	1434.62
432.068	1429.62
432.29	1472.62
432.512	1458.62
432.734	1491.62
432.956	1454.62
433.178	1494.62
433.4	1454.62
433.622	1464.62
433.844	1488.62
434.066	1490.62
434.287	1474.62
434.509	1478.62
434.731	1488.62
434.953	1530.62
435.175	1545.62
435.397	1550.62
435.618	1518.62
435.84	1481.62
436.062	1441.62
436.284	1492.62
436.505	1456.62
436.727	1460.62
436.949	1428.62
437.17	1458.62
437.392	1433.62
437.614	1423.62
437.835	1410.62
438.057	1414.62
438.278	1394.62
438.5	1428.62
438.721	1418.62
438.943	1402.62
439.165	1392.62
439.386	1401.62
439.608	1406.62
439.829	1420.62
440.05	1436.62
440.272	1426.62
440.493	1417.62
440.715	1468.62
440.936	1464.62
441.158	1465.62
441.379	1471.62
441.6	1544.62
441.822	1505.62
442.043	1500.62
442.264	1495.62
442.486	1480.62
442.707	1500.62
442.928	1484.62
443.149	1500.62
443.371	1485.62
443.592	1490.62
443.813	1521.62
444.034	1484.62
444.255	1536.62
444.476	1568.62
444.698	1586.62
444.919	1624.62
445.14	1645.62
445.361	1584.62
445.582	1544.62
445.803	1490.62
446.024	1492.62
446.245	1478.62
446.466	1472.62
446.687	1414.62
446.908	1470.62
447.129	1393.62
447.35	1398.62
447.571	1380.62
447.792	1355.62
448.013	1359.62
448.234	1342.62
448.455	1306.62
448.675	1339.62
448.896	1312.62
449.117	1307.62
449.338	1318.62
449.559	1315.62
449.779	1296.62
450	1323.62
450.221	1301.62
450.442	1303.62
450.662	1300.62
450.883	1345.62
451.104	1332.62
451.324	1296.62
451.545	1319.62
451.766	1307.62
451.986	1300.62
452.207	1295.62
452.428	1286.62
452.648	1287.62
452.869	1265.62
453.089	1234.62
453.31	1291.62
453.53	1234.62
453.751	1268.62
453.971	1267.62
454.192	1248.62
454.412	1237.62
454.633	1234.62
454.853	1280.62
455.073	1244.62
455.294	1250.62
455.514	1250.62
455.734	1236.62
455.955	1227.62
456.175	1244.62
456.395	1243.62
456.616	1272.62
456.836	1297.62
457.056	1266.62
457.276	1218.62
457.497	1273.62
457.717	1259.62
457.937	1270.62
458.157	1301.62
458.377	1257.62
458.598	1319.62
458.818	1330.62
459.038	1369.62
459.258	1381.62
459.478	1428.62
459.698	1458.62
459.918	1445.62
460.138	1480.62
460.358	1514.62
460.578	1512.62
460.798	1538.62
461.018	1547.62
461.238	1554.62
461.458	1561.62
461.678	1556.62
461.898	1611.62
462.118	1573.62
462.338	1675.62
462.558	1712.62
462.777	1699.62
462.997	1736.62
463.217	1774.62
463.437	1782.62
463.657	1730.62
463.876	1723.62
464.096	1759.62
464.316	1679.62
464.536	1709.62
464.755	1698.62
464.975	1643.62
465.195	1613.62
465.414	1525.62
465.634	1475.62
465.854	1496.62
466.073	1460.62
466.293	1458.62
466.512	1459.62
466.732	1477.62
466.951	1446.62
467.171	1391.62
467.391	1413.62
467.61	1374.62
467.829	1379.62
468.049	1387.62
468.268	1384.62
468.488	1354.62
468.707	1354.62
468.927	1394.62
469.146	1391.62
469.365	1390.62
469.585	1388.62
469.804	1403.62
470.023	1418.62
470.243	1392.62
470.462	1421.62
470.681	1414.62
470.901	1410.62
471.12	1426.62
471.339	1407.62
471.558	1402.62
471.777	1415.62
471.997	1429.62
472.216	1423.62
472.435	1406.62
472.654	1393.62
472.873	1366.62
473.092	1404.62
473.311	1374.62
473.53	1380.62
473.749	1391.62
473.968	1367.62
474.187	1374.62
474.406	1394.62
474.625	1414.62
474.844	1390.62
475.063	1400.62
475.282	1441.62
475.501	1408.62
475.72	1416.62
475.939	1413.62
476.158	1488.62
476.377	1474.62
476.596	1495.62
476.814	1539.62
477.033	1484.62
477.252	1475.62
477.471	1543.62
477.69	1561.62
477.908	1601.62
478.127	1583.62
478.346	1595.62
478.564	1646.62
478.783	1576.62
479.002	1659.62
479.22	1663.62
479.439	1702.62
479.658	1714.62
479.876	1672.62
480.095	1701.62
480.313	1751.62
480.532	1719.62
480.751	1707.62
480.969	1721.62
481.188	1756.62
481.406	1756.62
481.624	1705.62
481.843	1658.62
482.061	1666.62
482.28	1696.62
482.498	1735.62
482.717	1674.62
482.935	1682.62
483.153	1702.62
483.372	1655.62
483.59	1659.62
483.808	1667.62
484.027	1663.62
484.245	1690.62
484.463	1672.62
484.681	1676.62
484.9	1688.62
485.118	1729.62
485.336	1722.62
485.554	1697.62
485.772	1732.62
485.99	1729.62
486.209	1724.62
486.427	1740.62
486.645	1725.62
486.863	1707.62
487.081	1718.62
487.299	1746.62
487.517	1749.62
487.735	1720.62
487.953	1734.62
488.171	1776.62
488.389	1722.62
488.607	1722.62
488.825	1696.62
489.043	1736.62
489.261	1719.62
489.479	1714.62
489.696	1693.62
489.914	1736.62
490.132	1710.62
490.35	1696.62
490.568	1725.62
490.786	1774.62
491.003	1739.62
491.221	1730.62
491.439	1742.62
491.657	1723.62
491.874	1765.62
492.092	1806.62
