Data from Fe(NO3)3@0.05M.TitratingCurve.Agarose3%dH2O.NegLispCup.LampEnergy10.LIBS07252019_HRD10591_16-47-37-334.txt Node
Date: Thu Jul 25 16:47:37 EDT 2019
User: cochatt
Spectrometer: HR+D1059
Trigger mode: 1
Integration Time (sec): 1.000000E-1
Scans to average: 1
Electric dark correction enabled: true
Nonlinearity correction enabled: false
Boxcar width: 0
XAxis mode: Wavelengths
Number of Pixels in Spectrum: 2048
>>>>>Begin Spectral Data<<<<<
223.165	-23.62
223.4	-23.62
223.635	-23.62
223.869	-30.62
224.104	-15.62
224.338	-10.62
224.573	-25.62
224.808	-18.62
225.042	-1.62
225.277	-14.62
225.511	6.38
225.746	7.38
225.98	0.38
226.215	32.38
226.449	20.38
226.683	9.38
226.918	32.38
227.152	32.38
227.387	37.38
227.621	46.38
227.856	48.38
228.09	36.38
228.324	56.38
228.559	52.38
228.793	73.38
229.027	73.38
229.262	85.38
229.496	83.38
229.73	86.38
229.964	82.38
230.199	106.38
230.433	94.38
230.667	82.38
230.901	83.38
231.136	112.38
231.37	99.38
231.604	96.38
231.838	98.38
232.072	99.38
232.306	108.38
232.541	106.38
232.775	117.38
233.009	96.38
233.243	96.38
233.477	88.38
233.711	118.38
233.945	116.38
234.179	118.38
234.413	94.38
234.647	124.38
234.881	122.38
235.115	103.38
235.349	102.38
235.583	102.38
235.817	110.38
236.051	115.38
236.285	111.38
236.519	115.38
236.753	107.38
236.987	125.38
237.221	108.38
237.455	112.38
237.689	107.38
237.922	127.38
238.156	107.38
238.39	119.38
238.624	117.38
238.858	120.38
239.091	118.38
239.325	103.38
239.559	120.38
239.793	124.38
240.027	127.38
240.26	132.38
240.494	134.38
240.728	118.38
240.961	121.38
241.195	120.38
241.429	132.38
241.662	122.38
241.896	119.38
242.13	106.38
242.363	125.38
242.597	124.38
242.83	142.38
243.064	115.38
243.298	124.38
243.531	107.38
243.765	118.38
243.998	124.38
244.232	130.38
244.465	123.38
244.699	122.38
244.932	118.38
245.166	133.38
245.399	119.38
245.633	125.38
245.866	149.38
246.099	136.38
246.333	141.38
246.566	130.38
246.8	124.38
247.033	132.38
247.266	132.38
247.5	133.38
247.733	118.38
247.966	133.38
248.2	134.38
248.433	130.38
248.666	145.38
248.899	145.38
249.133	148.38
249.366	149.38
249.599	150.38
249.832	149.38
250.066	140.38
250.299	155.38
250.532	140.38
250.765	132.38
250.998	146.38
251.231	153.38
251.465	143.38
251.698	153.38
251.931	147.38
252.164	143.38
252.397	143.38
252.63	165.38
252.863	164.38
253.096	148.38
253.329	136.38
253.562	145.38
253.795	148.38
254.028	157.38
254.261	169.38
254.494	156.38
254.727	143.38
254.96	169.38
255.193	174.38
255.426	164.38
255.659	157.38
255.892	154.38
256.124	154.38
256.357	142.38
256.59	173.38
256.823	158.38
257.056	164.38
257.289	153.38
257.521	147.38
257.754	165.38
257.987	148.38
258.22	168.38
258.452	158.38
258.685	166.38
258.918	172.38
259.151	169.38
259.383	169.38
259.616	165.38
259.849	168.38
260.081	206.38
260.314	208.38
260.547	183.38
260.779	176.38
261.012	181.38
261.244	180.38
261.477	184.38
261.71	173.38
261.942	165.38
262.175	179.38
262.407	172.38
262.64	164.38
262.872	187.38
263.105	194.38
263.337	205.38
263.57	184.38
263.802	187.38
264.035	162.38
264.267	170.38
264.499	173.38
264.732	170.38
264.964	169.38
265.197	184.38
265.429	184.38
265.661	180.38
265.894	177.38
266.126	166.38
266.358	169.38
266.591	173.38
266.823	184.38
267.055	180.38
267.287	178.38
267.52	188.38
267.752	177.38
267.984	182.38
268.216	175.38
268.448	182.38
268.681	182.38
268.913	202.38
269.145	189.38
269.377	195.38
269.609	196.38
269.841	202.38
270.073	194.38
270.306	171.38
270.538	195.38
270.77	193.38
271.002	192.38
271.234	210.38
271.466	203.38
271.698	180.38
271.93	189.38
272.162	193.38
272.394	192.38
272.626	202.38
272.858	212.38
273.09	197.38
273.322	203.38
273.553	215.38
273.785	206.38
274.017	229.38
274.249	244.38
274.481	237.38
274.713	221.38
274.945	242.38
275.176	263.38
275.408	259.38
275.64	234.38
275.872	228.38
276.104	229.38
276.335	224.38
276.567	210.38
276.799	200.38
277.031	213.38
277.262	201.38
277.494	210.38
277.726	208.38
277.957	219.38
278.189	201.38
278.421	196.38
278.652	202.38
278.884	217.38
279.115	202.38
279.347	221.38
279.579	203.38
279.81	210.38
280.042	205.38
280.273	218.38
280.505	225.38
280.736	215.38
280.968	217.38
281.199	213.38
281.431	224.38
281.662	204.38
281.894	207.38
282.125	217.38
282.356	217.38
282.588	222.38
282.819	207.38
283.051	221.38
283.282	225.38
283.513	227.38
283.745	237.38
283.976	249.38
284.207	240.38
284.439	214.38
284.67	237.38
284.901	209.38
285.132	229.38
285.364	236.38
285.595	216.38
285.826	236.38
286.057	240.38
286.288	231.38
286.52	242.38
286.751	255.38
286.982	237.38
287.213	230.38
287.444	235.38
287.675	243.38
287.906	241.38
288.138	225.38
288.369	245.38
288.6	235.38
288.831	234.38
289.062	231.38
289.293	244.38
289.524	244.38
289.755	237.38
289.986	226.38
290.217	240.38
290.448	228.38
290.679	254.38
290.91	236.38
291.141	238.38
291.371	249.38
291.602	244.38
291.833	233.38
292.064	242.38
292.295	245.38
292.526	255.38
292.757	236.38
292.987	231.38
293.218	244.38
293.449	224.38
293.68	252.38
293.91	237.38
294.141	244.38
294.372	245.38
294.603	280.38
294.833	241.38
295.064	246.38
295.295	261.38
295.525	250.38
295.756	242.38
295.987	233.38
296.217	260.38
296.448	240.38
296.679	250.38
296.909	267.38
297.14	260.38
297.37	254.38
297.601	254.38
297.831	254.38
298.062	260.38
298.292	239.38
298.523	270.38
298.753	261.38
298.984	246.38
299.214	250.38
299.445	244.38
299.675	251.38
299.905	272.38
300.136	256.38
300.366	275.38
300.597	282.38
300.827	268.38
301.057	258.38
301.288	281.38
301.518	254.38
301.748	275.38
301.979	286.38
302.209	261.38
302.439	259.38
302.669	276.38
302.9	272.38
303.13	253.38
303.36	281.38
303.59	290.38
303.82	266.38
304.051	291.38
304.281	274.38
304.511	268.38
304.741	278.38
304.971	271.38
305.201	272.38
305.431	268.38
305.661	284.38
305.891	271.38
306.121	282.38
306.352	293.38
306.582	277.38
306.812	277.38
307.042	274.38
307.272	257.38
307.502	267.38
307.731	262.38
307.961	264.38
308.191	278.38
308.421	280.38
308.651	281.38
308.881	282.38
309.111	281.38
309.341	267.38
309.571	266.38
309.8	281.38
310.03	289.38
310.26	280.38
310.49	290.38
310.72	291.38
310.949	276.38
311.179	264.38
311.409	270.38
311.639	292.38
311.868	282.38
312.098	290.38
312.328	279.38
312.557	292.38
312.787	294.38
313.017	283.38
313.246	306.38
313.476	279.38
313.706	290.38
313.935	312.38
314.165	300.38
314.394	304.38
314.624	294.38
314.853	284.38
315.083	286.38
315.312	284.38
315.542	296.38
315.771	304.38
316.001	297.38
316.23	296.38
316.46	286.38
316.689	282.38
316.919	315.38
317.148	286.38
317.377	309.38
317.607	299.38
317.836	277.38
318.065	312.38
318.295	304.38
318.524	312.38
318.753	297.38
318.983	273.38
319.212	301.38
319.441	325.38
319.67	308.38
319.9	295.38
320.129	299.38
320.358	297.38
320.587	295.38
320.816	304.38
321.046	334.38
321.275	311.38
321.504	311.38
321.733	295.38
321.962	299.38
322.191	308.38
322.42	310.38
322.649	314.38
322.878	309.38
323.108	291.38
323.337	307.38
323.566	312.38
323.795	295.38
324.024	307.38
324.253	313.38
324.482	288.38
324.71	322.38
324.939	312.38
325.168	295.38
325.397	286.38
325.626	311.38
325.855	310.38
326.084	332.38
326.313	316.38
326.542	321.38
326.77	324.38
326.999	333.38
327.228	325.38
327.457	316.38
327.686	324.38
327.914	329.38
328.143	314.38
328.372	328.38
328.6	326.38
328.829	306.38
329.058	312.38
329.287	309.38
329.515	333.38
329.744	324.38
329.972	311.38
330.201	329.38
330.43	328.38
330.658	340.38
330.887	347.38
331.115	326.38
331.344	337.38
331.572	327.38
331.801	346.38
332.03	350.38
332.258	361.38
332.486	380.38
332.715	381.38
332.943	377.38
333.172	383.38
333.4	353.38
333.629	370.38
333.857	381.38
334.085	376.38
334.314	382.38
334.542	397.38
334.771	391.38
334.999	362.38
335.227	386.38
335.455	378.38
335.684	386.38
335.912	364.38
336.14	358.38
336.369	375.38
336.597	384.38
336.825	378.38
337.053	358.38
337.281	370.38
337.51	360.38
337.738	348.38
337.966	347.38
338.194	347.38
338.422	364.38
338.65	356.38
338.878	356.38
339.106	345.38
339.334	339.38
339.562	338.38
339.79	331.38
340.018	342.38
340.246	332.38
340.474	345.38
340.702	337.38
340.93	345.38
341.158	340.38
341.386	352.38
341.614	347.38
341.842	372.38
342.07	345.38
342.298	359.38
342.526	351.38
342.754	326.38
342.981	359.38
343.209	363.38
343.437	365.38
343.665	371.38
343.893	372.38
344.12	388.38
344.348	399.38
344.576	375.38
344.804	376.38
345.031	342.38
345.259	338.38
345.487	335.38
345.714	344.38
345.942	331.38
346.17	344.38
346.397	321.38
346.625	335.38
346.853	341.38
347.08	328.38
347.308	344.38
347.535	330.38
347.763	339.38
347.99	315.38
348.218	340.38
348.445	350.38
348.673	310.38
348.9	333.38
349.128	342.38
349.355	332.38
349.583	338.38
349.81	334.38
350.037	324.38
350.265	336.38
350.492	349.38
350.72	345.38
350.947	325.38
351.174	316.38
351.402	321.38
351.629	330.38
351.856	324.38
352.083	333.38
352.311	332.38
352.538	326.38
352.765	333.38
352.992	331.38
353.22	322.38
353.447	334.38
353.674	343.38
353.901	327.38
354.128	339.38
354.355	328.38
354.583	320.38
354.81	327.38
355.037	319.38
355.264	337.38
355.491	330.38
355.718	341.38
355.945	325.38
356.172	329.38
356.399	318.38
356.626	349.38
356.853	343.38
357.08	357.38
357.307	360.38
357.534	342.38
357.761	344.38
357.988	341.38
358.215	333.38
358.441	344.38
358.668	338.38
358.895	332.38
359.122	342.38
359.349	312.38
359.576	325.38
359.802	335.38
360.029	328.38
360.256	327.38
360.483	319.38
360.709	330.38
360.936	334.38
361.163	351.38
361.39	334.38
361.616	358.38
361.843	345.38
362.07	331.38
362.296	342.38
362.523	339.38
362.749	347.38
362.976	341.38
363.203	318.38
363.429	337.38
363.656	327.38
363.882	327.38
364.109	348.38
364.335	345.38
364.562	333.38
364.788	371.38
365.015	332.38
365.241	351.38
365.468	357.38
365.694	344.38
365.92	334.38
366.147	329.38
366.373	333.38
366.599	346.38
366.826	348.38
367.052	346.38
367.278	347.38
367.505	350.38
367.731	347.38
367.957	355.38
368.184	326.38
368.41	342.38
368.636	348.38
368.862	358.38
369.089	348.38
369.315	324.38
369.541	351.38
369.767	351.38
369.993	340.38
370.219	369.38
370.445	358.38
370.672	358.38
370.898	362.38
371.124	342.38
371.35	385.38
371.576	364.38
371.802	374.38
372.028	389.38
372.254	375.38
372.48	380.38
372.706	388.38
372.932	388.38
373.158	397.38
373.384	396.38
373.61	408.38
373.835	395.38
374.061	372.38
374.287	374.38
374.513	394.38
374.739	426.38
374.965	420.38
375.191	409.38
375.416	407.38
375.642	384.38
375.868	376.38
376.094	395.38
376.319	381.38
376.545	380.38
376.771	369.38
376.997	389.38
377.222	361.38
377.448	378.38
377.674	382.38
377.899	380.38
378.125	355.38
378.35	356.38
378.576	357.38
378.802	382.38
379.027	376.38
379.253	377.38
379.478	385.38
379.704	391.38
379.929	393.38
380.155	383.38
380.38	386.38
380.606	372.38
380.831	381.38
381.057	400.38
381.282	365.38
381.507	399.38
381.733	380.38
381.958	399.38
382.184	408.38
382.409	413.38
382.634	415.38
382.86	402.38
383.085	404.38
383.31	394.38
383.535	414.38
383.761	415.38
383.986	408.38
384.211	414.38
384.436	442.38
384.662	447.38
384.887	427.38
385.112	421.38
385.337	452.38
385.562	449.38
385.787	445.38
386.013	462.38
386.238	468.38
386.463	453.38
386.688	441.38
386.913	448.38
387.138	440.38
387.363	436.38
387.588	433.38
387.813	461.38
388.038	457.38
388.263	448.38
388.488	463.38
388.713	455.38
388.938	453.38
389.163	457.38
389.387	436.38
389.612	432.38
389.837	444.38
390.062	459.38
390.287	462.38
390.512	462.38
390.736	452.38
390.961	469.38
391.186	475.38
391.411	481.38
391.636	493.38
391.86	486.38
392.085	492.38
392.31	483.38
392.534	490.38
392.759	507.38
392.984	498.38
393.208	468.38
393.433	486.38
393.658	478.38
393.882	487.38
394.107	466.38
394.331	470.38
394.556	477.38
394.78	478.38
395.005	482.38
395.229	505.38
395.454	486.38
395.678	502.38
395.903	517.38
396.127	482.38
396.352	490.38
396.576	488.38
396.801	500.38
397.025	498.38
397.249	516.38
397.474	524.38
397.698	517.38
397.922	533.38
398.147	512.38
398.371	544.38
398.595	539.38
398.82	570.38
399.044	596.38
399.268	608.38
399.492	645.38
399.717	674.38
399.941	693.38
400.165	695.38
400.389	644.38
400.613	644.38
400.837	602.38
401.062	571.38
401.286	580.38
401.51	564.38
401.734	562.38
401.958	561.38
402.182	571.38
402.406	566.38
402.63	570.38
402.854	569.38
403.078	566.38
403.302	585.38
403.526	570.38
403.75	591.38
403.974	557.38
404.198	555.38
404.422	586.38
404.645	580.38
404.869	578.38
405.093	587.38
405.317	595.38
405.541	583.38
405.765	565.38
405.988	580.38
406.212	604.38
406.436	616.38
406.66	645.38
406.883	628.38
407.107	637.38
407.331	631.38
407.555	644.38
407.778	660.38
408.002	642.38
408.226	648.38
408.449	648.38
408.673	626.38
408.896	608.38
409.12	609.38
409.344	616.38
409.567	595.38
409.791	588.38
410.014	617.38
410.238	584.38
410.461	553.38
410.685	589.38
410.908	580.38
411.132	574.38
411.355	569.38
411.578	560.38
411.802	586.38
412.025	590.38
412.249	588.38
412.472	586.38
412.695	564.38
412.919	569.38
413.142	598.38
413.365	583.38
413.589	547.38
413.812	565.38
414.035	565.38
414.258	558.38
414.482	552.38
414.705	568.38
414.928	562.38
415.151	570.38
415.374	554.38
415.597	575.38
415.821	551.38
416.044	564.38
416.267	556.38
416.49	571.38
416.713	562.38
416.936	561.38
417.159	558.38
417.382	548.38
417.605	539.38
417.828	571.38
418.051	575.38
418.274	536.38
418.497	524.38
418.72	569.38
418.943	562.38
419.166	577.38
419.389	608.38
419.611	621.38
419.834	573.38
420.057	593.38
420.28	568.38
420.503	535.38
420.726	555.38
420.948	544.38
421.171	550.38
421.394	540.38
421.617	550.38
421.839	569.38
422.062	540.38
422.285	565.38
422.507	552.38
422.73	557.38
422.953	562.38
423.175	552.38
423.398	572.38
423.621	532.38
423.843	550.38
424.066	571.38
424.288	552.38
424.511	550.38
424.733	572.38
424.956	546.38
425.178	569.38
425.401	572.38
425.623	546.38
425.846	559.38
426.068	530.38
426.291	529.38
426.513	548.38
426.735	530.38
426.958	538.38
427.18	552.38
427.402	543.38
427.625	531.38
427.847	531.38
428.069	511.38
428.292	542.38
428.514	522.38
428.736	526.38
428.958	521.38
429.181	533.38
429.403	518.38
429.625	505.38
429.847	522.38
430.069	516.38
430.292	537.38
430.514	499.38
430.736	540.38
430.958	528.38
431.18	517.38
431.402	524.38
431.624	525.38
431.846	518.38
432.068	522.38
432.29	525.38
432.512	544.38
432.734	551.38
432.956	500.38
433.178	536.38
433.4	528.38
433.622	531.38
433.844	525.38
434.066	526.38
434.287	519.38
434.509	553.38
434.731	539.38
434.953	543.38
435.175	562.38
435.397	563.38
435.618	534.38
435.84	556.38
436.062	518.38
436.284	526.38
436.505	532.38
436.727	531.38
436.949	516.38
437.17	507.38
437.392	516.38
437.614	522.38
437.835	514.38
438.057	515.38
438.278	550.38
438.5	544.38
438.721	546.38
438.943	525.38
439.165	497.38
439.386	532.38
439.608	532.38
439.829	555.38
440.05	544.38
440.272	525.38
440.493	538.38
440.715	564.38
440.936	542.38
441.158	557.38
441.379	543.38
441.6	566.38
441.822	583.38
442.043	576.38
442.264	580.38
442.486	541.38
442.707	548.38
442.928	580.38
443.149	548.38
443.371	562.38
443.592	568.38
443.813	567.38
444.034	569.38
444.255	584.38
444.476	600.38
444.698	608.38
444.919	611.38
445.14	707.38
445.361	640.38
445.582	600.38
445.803	587.38
446.024	570.38
446.245	570.38
446.466	547.38
446.687	526.38
446.908	541.38
447.129	543.38
447.35	523.38
447.571	537.38
447.792	524.38
448.013	520.38
448.234	510.38
448.455	492.38
448.675	493.38
448.896	519.38
449.117	523.38
449.338	488.38
449.559	499.38
449.779	469.38
450	488.38
450.221	494.38
450.442	490.38
450.662	498.38
450.883	519.38
451.104	492.38
451.324	501.38
451.545	503.38
451.766	499.38
451.986	503.38
452.207	480.38
452.428	473.38
452.648	460.38
452.869	467.38
453.089	466.38
453.31	456.38
453.53	449.38
453.751	467.38
453.971	478.38
454.192	493.38
454.412	446.38
454.633	472.38
454.853	465.38
455.073	469.38
455.294	470.38
455.514	460.38
455.734	457.38
455.955	471.38
456.175	455.38
456.395	469.38
456.616	447.38
456.836	448.38
457.056	504.38
457.276	467.38
457.497	459.38
457.717	482.38
457.937	450.38
458.157	476.38
458.377	493.38
458.598	481.38
458.818	489.38
459.038	493.38
459.258	525.38
459.478	531.38
459.698	539.38
459.918	546.38
460.138	532.38
460.358	576.38
460.578	595.38
460.798	587.38
461.018	595.38
461.238	604.38
461.458	599.38
461.678	598.38
461.898	618.38
462.118	613.38
462.338	635.38
462.558	671.38
462.777	640.38
462.997	662.38
463.217	677.38
463.437	700.38
463.657	700.38
463.876	667.38
464.096	672.38
464.316	676.38
464.536	661.38
464.755	653.38
464.975	636.38
465.195	609.38
465.414	593.38
465.634	563.38
465.854	557.38
466.073	549.38
466.293	569.38
466.512	562.38
466.732	544.38
466.951	538.38
467.171	540.38
467.391	548.38
467.61	532.38
467.829	513.38
468.049	519.38
468.268	520.38
468.488	500.38
468.707	496.38
468.927	519.38
469.146	538.38
469.365	513.38
469.585	513.38
469.804	569.38
470.023	534.38
470.243	542.38
470.462	534.38
470.681	549.38
470.901	541.38
471.12	540.38
471.339	547.38
471.558	562.38
471.777	528.38
471.997	542.38
472.216	526.38
472.435	524.38
472.654	523.38
472.873	498.38
473.092	512.38
473.311	541.38
473.53	520.38
473.749	530.38
473.968	515.38
474.187	530.38
474.406	500.38
474.625	538.38
474.844	543.38
475.063	540.38
475.282	520.38
475.501	530.38
475.72	539.38
475.939	548.38
476.158	558.38
476.377	560.38
476.596	569.38
476.814	601.38
477.033	545.38
477.252	564.38
477.471	566.38
477.69	584.38
477.908	584.38
478.127	609.38
478.346	588.38
478.564	604.38
478.783	588.38
479.002	601.38
479.22	637.38
479.439	644.38
479.658	626.38
479.876	619.38
480.095	630.38
480.313	632.38
480.532	635.38
480.751	647.38
480.969	637.38
481.188	635.38
481.406	615.38
481.624	652.38
481.843	616.38
482.061	626.38
482.28	608.38
482.498	622.38
482.717	621.38
482.935	622.38
483.153	610.38
483.372	600.38
483.59	612.38
483.808	619.38
484.027	606.38
484.245	614.38
484.463	636.38
484.681	616.38
484.9	615.38
485.118	638.38
485.336	621.38
485.554	630.38
485.772	618.38
485.99	637.38
486.209	625.38
486.427	604.38
486.645	606.38
486.863	646.38
487.081	632.38
487.299	624.38
487.517	608.38
487.735	610.38
487.953	645.38
488.171	611.38
488.389	658.38
488.607	618.38
488.825	608.38
489.043	630.38
489.261	638.38
489.479	650.38
489.696	608.38
489.914	642.38
490.132	637.38
490.35	635.38
490.568	627.38
490.786	634.38
491.003	633.38
491.221	644.38
491.439	638.38
491.657	646.38
491.874	639.38
492.092	662.38
492.31	677.38
492.527	664.38
492.745	646.38
492.963	640.38
493.18	660.38
493.398	660.38
493.615	659.38
493.833	672.38
494.05	640.38
494.268	674.38
494.485	673.38
494.703	657.38
494.92	665.38
495.138	659.38
495.355	662.38
495.573	672.38
495.79	682.38
496.008	669.38
496.225	674.38
496.442	672.38
496.66	689.38
496.877	710.38
497.094	710.38
497.312	718.38
497.529	713.38
497.746	743.38
497.963	758.38
498.181	770.38
498.398	813.38
498.615	875.38
498.832	872.38
499.049	898.38
499.267	938.38
499.484	1005.38
499.701	1030.38
499.918	1117.38
500.135	1164.38
500.352	1250.38
500.569	1242.38
500.786	1221.38
501.003	1233.38
501.22	1162.38
501.437	1126.38
501.654	1032.38
