Data from Fe(NO3)3@0.0125M.TitratingCurve.Agarose3%dH2O.NegLispCup.LampEnergy10.LIBS07252019_HRD10591_17-00-39-337.txt Node
Date: Thu Jul 25 17:00:39 EDT 2019
User: cochatt
Spectrometer: HR+D1059
Trigger mode: 1
Integration Time (sec): 1.000000E-1
Scans to average: 1
Electric dark correction enabled: true
Nonlinearity correction enabled: false
Boxcar width: 0
XAxis mode: Wavelengths
Number of Pixels in Spectrum: 2048
>>>>>Begin Spectral Data<<<<<
223.165	-4.44
223.4	-4.44
223.635	-4.44
223.869	-14.44
224.104	-8.44
224.338	-28.44
224.573	-12.44
224.808	-9.44
225.042	-0.44
225.277	7.56
225.511	-9.44
225.746	-7.44
225.98	5.56
226.215	-1.44
226.449	9.56
226.683	11.56
226.918	22.56
227.152	39.56
227.387	23.56
227.621	35.56
227.856	41.56
228.09	55.56
228.324	50.56
228.559	48.56
228.793	54.56
229.027	70.56
229.262	79.56
229.496	85.56
229.73	78.56
229.964	99.56
230.199	99.56
230.433	89.56
230.667	90.56
230.901	111.56
231.136	86.56
231.37	105.56
231.604	101.56
231.838	116.56
232.072	108.56
232.306	109.56
232.541	127.56
232.775	102.56
233.009	114.56
233.243	111.56
233.477	97.56
233.711	98.56
233.945	105.56
234.179	109.56
234.413	112.56
234.647	123.56
234.881	117.56
235.115	108.56
235.349	99.56
235.583	110.56
235.817	111.56
236.051	89.56
236.285	114.56
236.519	115.56
236.753	114.56
236.987	115.56
237.221	117.56
237.455	115.56
237.689	118.56
237.922	92.56
238.156	106.56
238.39	113.56
238.624	123.56
238.858	125.56
239.091	105.56
239.325	113.56
239.559	119.56
239.793	119.56
240.027	136.56
240.26	128.56
240.494	109.56
240.728	117.56
240.961	116.56
241.195	124.56
241.429	121.56
241.662	119.56
241.896	120.56
242.13	125.56
242.363	126.56
242.597	137.56
242.83	132.56
243.064	129.56
243.298	126.56
243.531	136.56
243.765	126.56
243.998	124.56
244.232	131.56
244.465	127.56
244.699	132.56
244.932	129.56
245.166	120.56
245.399	125.56
245.633	123.56
245.866	123.56
246.099	138.56
246.333	139.56
246.566	135.56
246.8	119.56
247.033	128.56
247.266	138.56
247.5	136.56
247.733	142.56
247.966	144.56
248.2	146.56
248.433	145.56
248.666	151.56
248.899	140.56
249.133	137.56
249.366	134.56
249.599	138.56
249.832	139.56
250.066	147.56
250.299	149.56
250.532	152.56
250.765	147.56
250.998	165.56
251.231	139.56
251.465	145.56
251.698	153.56
251.931	141.56
252.164	167.56
252.397	154.56
252.63	151.56
252.863	158.56
253.096	141.56
253.329	147.56
253.562	160.56
253.795	149.56
254.028	147.56
254.261	159.56
254.494	169.56
254.727	157.56
254.96	147.56
255.193	156.56
255.426	147.56
255.659	149.56
255.892	169.56
256.124	152.56
256.357	155.56
256.59	175.56
256.823	158.56
257.056	159.56
257.289	155.56
257.521	169.56
257.754	156.56
257.987	170.56
258.22	176.56
258.452	187.56
258.685	164.56
258.918	174.56
259.151	177.56
259.383	164.56
259.616	177.56
259.849	181.56
260.081	196.56
260.314	208.56
260.547	157.56
260.779	180.56
261.012	188.56
261.244	183.56
261.477	180.56
261.71	193.56
261.942	170.56
262.175	187.56
262.407	194.56
262.64	185.56
262.872	195.56
263.105	189.56
263.337	212.56
263.57	195.56
263.802	185.56
264.035	190.56
264.267	179.56
264.499	185.56
264.732	188.56
264.964	203.56
265.197	184.56
265.429	165.56
265.661	188.56
265.894	177.56
266.126	197.56
266.358	197.56
266.591	196.56
266.823	193.56
267.055	182.56
267.287	194.56
267.52	185.56
267.752	197.56
267.984	181.56
268.216	198.56
268.448	203.56
268.681	212.56
268.913	187.56
269.145	197.56
269.377	200.56
269.609	195.56
269.841	199.56
270.073	181.56
270.306	202.56
270.538	194.56
270.77	211.56
271.002	202.56
271.234	215.56
271.466	221.56
271.698	217.56
271.93	208.56
272.162	217.56
272.394	227.56
272.626	200.56
272.858	207.56
273.09	213.56
273.322	206.56
273.553	216.56
273.785	209.56
274.017	228.56
274.249	225.56
274.481	234.56
274.713	225.56
274.945	257.56
275.176	259.56
275.408	264.56
275.64	239.56
275.872	249.56
276.104	236.56
276.335	214.56
276.567	214.56
276.799	225.56
277.031	227.56
277.262	241.56
277.494	242.56
277.726	232.56
277.957	236.56
278.189	240.56
278.421	228.56
278.652	232.56
278.884	215.56
279.115	231.56
279.347	236.56
279.579	244.56
279.81	257.56
280.042	225.56
280.273	229.56
280.505	240.56
280.736	233.56
280.968	238.56
281.199	255.56
281.431	220.56
281.662	232.56
281.894	243.56
282.125	232.56
282.356	247.56
282.588	243.56
282.819	242.56
283.051	245.56
283.282	251.56
283.513	244.56
283.745	247.56
283.976	243.56
284.207	241.56
284.439	247.56
284.67	265.56
284.901	249.56
285.132	252.56
285.364	242.56
285.595	262.56
285.826	258.56
286.057	266.56
286.288	251.56
286.52	273.56
286.751	266.56
286.982	267.56
287.213	275.56
287.444	277.56
287.675	258.56
287.906	275.56
288.138	252.56
288.369	259.56
288.6	260.56
288.831	268.56
289.062	273.56
289.293	265.56
289.524	264.56
289.755	279.56
289.986	263.56
290.217	271.56
290.448	260.56
290.679	278.56
290.91	270.56
291.141	264.56
291.371	253.56
291.602	256.56
291.833	274.56
292.064	302.56
292.295	276.56
292.526	270.56
292.757	268.56
292.987	267.56
293.218	255.56
293.449	279.56
293.68	284.56
293.91	285.56
294.141	292.56
294.372	294.56
294.603	268.56
294.833	299.56
295.064	286.56
295.295	282.56
295.525	265.56
295.756	295.56
295.987	292.56
296.217	265.56
296.448	279.56
296.679	288.56
296.909	280.56
297.14	299.56
297.37	292.56
297.601	299.56
297.831	301.56
298.062	269.56
298.292	292.56
298.523	303.56
298.753	303.56
298.984	279.56
299.214	301.56
299.445	295.56
299.675	286.56
299.905	300.56
300.136	306.56
300.366	295.56
300.597	305.56
300.827	283.56
301.057	291.56
301.288	316.56
301.518	310.56
301.748	297.56
301.979	303.56
302.209	309.56
302.439	322.56
302.669	309.56
302.9	318.56
303.13	305.56
303.36	310.56
303.59	302.56
303.82	308.56
304.051	310.56
304.281	313.56
304.511	321.56
304.741	322.56
304.971	313.56
305.201	317.56
305.431	310.56
305.661	319.56
305.891	313.56
306.121	319.56
306.352	325.56
306.582	316.56
306.812	292.56
307.042	322.56
307.272	308.56
307.502	333.56
307.731	336.56
307.961	321.56
308.191	316.56
308.421	305.56
308.651	310.56
308.881	323.56
309.111	317.56
309.341	327.56
309.571	324.56
309.8	316.56
310.03	323.56
310.26	337.56
310.49	327.56
310.72	339.56
310.949	333.56
311.179	322.56
311.409	324.56
311.639	332.56
311.868	307.56
312.098	332.56
312.328	337.56
312.557	339.56
312.787	332.56
313.017	315.56
313.246	350.56
313.476	336.56
313.706	329.56
313.935	344.56
314.165	328.56
314.394	332.56
314.624	360.56
314.853	347.56
315.083	346.56
315.312	356.56
315.542	345.56
315.771	337.56
316.001	332.56
316.23	341.56
316.46	348.56
316.689	356.56
316.919	348.56
317.148	344.56
317.377	356.56
317.607	345.56
317.836	348.56
318.065	348.56
318.295	346.56
318.524	345.56
318.753	357.56
318.983	352.56
319.212	334.56
319.441	358.56
319.67	359.56
319.9	352.56
320.129	338.56
320.358	339.56
320.587	350.56
320.816	363.56
321.046	352.56
321.275	364.56
321.504	372.56
321.733	357.56
321.962	379.56
322.191	380.56
322.42	351.56
322.649	349.56
322.878	348.56
323.108	363.56
323.337	362.56
323.566	364.56
323.795	359.56
324.024	359.56
324.253	368.56
324.482	368.56
324.71	359.56
324.939	367.56
325.168	367.56
325.397	364.56
325.626	375.56
325.855	370.56
326.084	371.56
326.313	396.56
326.542	375.56
326.77	385.56
326.999	382.56
327.228	378.56
327.457	356.56
327.686	376.56
327.914	371.56
328.143	357.56
328.372	385.56
328.6	378.56
328.829	367.56
329.058	368.56
329.287	380.56
329.515	391.56
329.744	381.56
329.972	398.56
330.201	384.56
330.43	392.56
330.658	376.56
330.887	386.56
331.115	400.56
331.344	416.56
331.572	401.56
331.801	395.56
332.03	394.56
332.258	401.56
332.486	376.56
332.715	417.56
332.943	404.56
333.172	419.56
333.4	406.56
333.629	419.56
333.857	439.56
334.085	432.56
334.314	441.56
334.542	434.56
334.771	438.56
334.999	444.56
335.227	437.56
335.455	463.56
335.684	437.56
335.912	447.56
336.14	436.56
336.369	436.56
336.597	427.56
336.825	446.56
337.053	420.56
337.281	427.56
337.51	428.56
337.738	429.56
337.966	417.56
338.194	404.56
338.422	423.56
338.65	415.56
338.878	408.56
339.106	407.56
339.334	419.56
339.562	408.56
339.79	411.56
340.018	405.56
340.246	416.56
340.474	410.56
340.702	415.56
340.93	383.56
341.158	395.56
341.386	407.56
341.614	409.56
341.842	385.56
342.07	414.56
342.298	423.56
342.526	397.56
342.754	398.56
342.981	417.56
343.209	410.56
343.437	423.56
343.665	424.56
343.893	433.56
344.12	427.56
344.348	443.56
344.576	419.56
344.804	428.56
345.031	437.56
345.259	416.56
345.487	407.56
345.714	405.56
345.942	391.56
346.17	389.56
346.397	408.56
346.625	401.56
346.853	405.56
347.08	402.56
347.308	399.56
347.535	402.56
347.763	400.56
347.99	391.56
348.218	411.56
348.445	388.56
348.673	409.56
348.9	388.56
349.128	393.56
349.355	407.56
349.583	403.56
349.81	394.56
350.037	379.56
350.265	393.56
350.492	412.56
350.72	381.56
350.947	377.56
351.174	389.56
351.402	388.56
351.629	401.56
351.856	377.56
352.083	380.56
352.311	399.56
352.538	405.56
352.765	381.56
352.992	387.56
353.22	360.56
353.447	391.56
353.674	412.56
353.901	402.56
354.128	388.56
354.355	376.56
354.583	381.56
354.81	397.56
355.037	397.56
355.264	379.56
355.491	390.56
355.718	391.56
355.945	388.56
356.172	401.56
356.399	390.56
356.626	395.56
356.853	392.56
357.08	391.56
357.307	400.56
357.534	391.56
357.761	379.56
357.988	419.56
358.215	428.56
358.441	387.56
358.668	414.56
358.895	395.56
359.122	394.56
359.349	401.56
359.576	390.56
359.802	390.56
360.029	410.56
360.256	409.56
360.483	395.56
360.709	384.56
360.936	414.56
361.163	397.56
361.39	405.56
361.616	392.56
361.843	407.56
362.07	401.56
362.296	389.56
362.523	408.56
362.749	407.56
362.976	390.56
363.203	425.56
363.429	412.56
363.656	397.56
363.882	419.56
364.109	421.56
364.335	393.56
364.562	419.56
364.788	399.56
365.015	423.56
365.241	400.56
365.468	412.56
365.694	407.56
365.92	412.56
366.147	399.56
366.373	415.56
366.599	400.56
366.826	405.56
367.052	408.56
367.278	408.56
367.505	404.56
367.731	409.56
367.957	421.56
368.184	417.56
368.41	411.56
368.636	411.56
368.862	426.56
369.089	420.56
369.315	408.56
369.541	428.56
369.767	417.56
369.993	426.56
370.219	408.56
370.445	418.56
370.672	437.56
370.898	447.56
371.124	445.56
371.35	411.56
371.576	416.56
371.802	423.56
372.028	422.56
372.254	441.56
372.48	439.56
372.706	440.56
372.932	442.56
373.158	431.56
373.384	455.56
373.61	461.56
373.835	440.56
374.061	459.56
374.287	428.56
374.513	481.56
374.739	478.56
374.965	458.56
375.191	463.56
375.416	461.56
375.642	446.56
375.868	476.56
376.094	456.56
376.319	447.56
376.545	440.56
376.771	450.56
376.997	431.56
377.222	443.56
377.448	442.56
377.674	432.56
377.899	414.56
378.125	425.56
378.35	437.56
378.576	431.56
378.802	436.56
379.027	441.56
379.253	426.56
379.478	435.56
379.704	459.56
379.929	440.56
380.155	451.56
380.38	420.56
380.606	422.56
380.831	445.56
381.057	436.56
381.282	447.56
381.507	439.56
381.733	448.56
381.958	452.56
382.184	470.56
382.409	475.56
382.634	460.56
382.86	443.56
383.085	467.56
383.31	472.56
383.535	468.56
383.761	456.56
383.986	474.56
384.211	460.56
384.436	482.56
384.662	475.56
384.887	471.56
385.112	469.56
385.337	478.56
385.562	476.56
385.787	507.56
386.013	488.56
386.238	481.56
386.463	498.56
386.688	502.56
386.913	470.56
387.138	509.56
387.363	505.56
387.588	482.56
387.813	478.56
388.038	499.56
388.263	497.56
388.488	492.56
388.713	498.56
388.938	507.56
389.163	481.56
389.387	493.56
389.612	495.56
389.837	512.56
390.062	514.56
390.287	512.56
390.512	480.56
390.736	512.56
390.961	517.56
391.186	499.56
391.411	544.56
391.636	504.56
391.86	519.56
392.085	527.56
392.31	541.56
392.534	533.56
392.759	540.56
392.984	535.56
393.208	530.56
393.433	544.56
393.658	548.56
393.882	511.56
394.107	530.56
394.331	541.56
394.556	507.56
394.78	537.56
395.005	526.56
395.229	509.56
395.454	545.56
395.678	543.56
395.903	550.56
396.127	532.56
396.352	550.56
396.576	531.56
396.801	542.56
397.025	567.56
397.249	528.56
397.474	535.56
397.698	557.56
397.922	551.56
398.147	549.56
398.371	569.56
398.595	581.56
398.82	600.56
399.044	580.56
399.268	627.56
399.492	642.56
399.717	667.56
399.941	664.56
400.165	653.56
400.389	637.56
400.613	599.56
400.837	606.56
401.062	612.56
401.286	600.56
401.51	583.56
401.734	586.56
401.958	585.56
402.182	603.56
402.406	597.56
402.63	579.56
402.854	588.56
403.078	584.56
403.302	599.56
403.526	595.56
403.75	607.56
403.974	598.56
404.198	597.56
404.422	600.56
404.645	593.56
404.869	622.56
405.093	609.56
405.317	601.56
405.541	607.56
405.765	605.56
405.988	611.56
406.212	615.56
406.436	616.56
406.66	628.56
406.883	621.56
407.107	655.56
407.331	671.56
407.555	666.56
407.778	667.56
408.002	673.56
408.226	663.56
408.449	680.56
408.673	642.56
408.896	637.56
409.12	653.56
409.344	634.56
409.567	607.56
409.791	615.56
410.014	632.56
410.238	616.56
410.461	629.56
410.685	620.56
410.908	634.56
411.132	627.56
411.355	611.56
411.578	649.56
411.802	620.56
412.025	612.56
412.249	609.56
412.472	585.56
412.695	595.56
412.919	601.56
413.142	581.56
413.365	586.56
413.589	601.56
413.812	601.56
414.035	601.56
414.258	597.56
414.482	600.56
414.705	604.56
414.928	590.56
415.151	583.56
415.374	595.56
415.597	599.56
415.821	580.56
416.044	568.56
416.267	583.56
416.49	585.56
416.713	568.56
416.936	563.56
417.159	565.56
417.382	534.56
417.605	555.56
417.828	562.56
418.051	565.56
418.274	580.56
418.497	563.56
418.72	548.56
418.943	545.56
419.166	592.56
419.389	620.56
419.611	606.56
419.834	589.56
420.057	588.56
420.28	572.56
420.503	578.56
420.726	569.56
420.948	553.56
421.171	559.56
421.394	564.56
421.617	543.56
421.839	573.56
422.062	582.56
422.285	552.56
422.507	576.56
422.73	567.56
422.953	552.56
423.175	549.56
423.398	563.56
423.621	555.56
423.843	568.56
424.066	556.56
424.288	556.56
424.511	555.56
424.733	583.56
424.956	550.56
425.178	543.56
425.401	559.56
425.623	567.56
425.846	559.56
426.068	547.56
426.291	551.56
426.513	581.56
426.735	577.56
426.958	552.56
427.18	542.56
427.402	544.56
427.625	552.56
427.847	554.56
428.069	546.56
428.292	560.56
428.514	537.56
428.736	525.56
428.958	562.56
429.181	553.56
429.403	551.56
429.625	554.56
429.847	547.56
430.069	562.56
430.292	568.56
430.514	525.56
430.736	547.56
430.958	560.56
431.18	549.56
431.402	541.56
431.624	564.56
431.846	546.56
432.068	551.56
432.29	555.56
432.512	539.56
432.734	525.56
432.956	551.56
433.178	552.56
433.4	537.56
433.622	546.56
433.844	562.56
434.066	552.56
434.287	562.56
434.509	563.56
434.731	592.56
434.953	535.56
435.175	533.56
435.397	570.56
435.618	586.56
435.84	569.56
436.062	559.56
436.284	571.56
436.505	540.56
436.727	535.56
436.949	555.56
437.17	529.56
437.392	534.56
437.614	530.56
437.835	529.56
438.057	536.56
438.278	543.56
438.5	547.56
438.721	552.56
438.943	519.56
439.165	512.56
439.386	511.56
439.608	510.56
439.829	531.56
440.05	526.56
440.272	519.56
440.493	536.56
440.715	550.56
440.936	541.56
441.158	541.56
441.379	560.56
441.6	570.56
441.822	565.56
442.043	568.56
442.264	543.56
442.486	545.56
442.707	549.56
442.928	568.56
443.149	556.56
443.371	549.56
443.592	573.56
443.813	544.56
444.034	559.56
444.255	554.56
444.476	566.56
444.698	600.56
444.919	586.56
445.14	663.56
445.361	609.56
445.582	555.56
445.803	561.56
446.024	549.56
446.245	557.56
446.466	546.56
446.687	549.56
446.908	531.56
447.129	541.56
447.35	539.56
447.571	522.56
447.792	493.56
448.013	529.56
448.234	523.56
448.455	510.56
448.675	501.56
448.896	519.56
449.117	495.56
449.338	511.56
449.559	527.56
449.779	497.56
450	487.56
450.221	486.56
450.442	472.56
450.662	497.56
450.883	521.56
451.104	498.56
451.324	507.56
451.545	509.56
451.766	516.56
451.986	489.56
452.207	509.56
452.428	501.56
452.648	502.56
452.869	494.56
453.089	473.56
453.31	501.56
453.53	485.56
453.751	501.56
453.971	459.56
454.192	482.56
454.412	466.56
454.633	474.56
454.853	468.56
455.073	483.56
455.294	467.56
455.514	499.56
455.734	484.56
455.955	483.56
456.175	487.56
456.395	473.56
456.616	467.56
456.836	476.56
457.056	497.56
457.276	472.56
457.497	491.56
457.717	479.56
457.937	489.56
458.157	509.56
458.377	502.56
458.598	511.56
458.818	499.56
459.038	529.56
459.258	510.56
459.478	543.56
459.698	542.56
459.918	547.56
460.138	567.56
460.358	533.56
460.578	565.56
460.798	578.56
461.018	575.56
461.238	599.56
461.458	589.56
461.678	593.56
461.898	584.56
462.118	576.56
462.338	629.56
462.558	616.56
462.777	621.56
462.997	621.56
463.217	641.56
463.437	671.56
463.657	632.56
463.876	635.56
464.096	659.56
464.316	619.56
464.536	629.56
464.755	608.56
464.975	589.56
465.195	612.56
465.414	589.56
465.634	570.56
465.854	559.56
466.073	558.56
466.293	554.56
466.512	531.56
466.732	534.56
466.951	533.56
467.171	550.56
467.391	546.56
467.61	522.56
467.829	523.56
468.049	529.56
468.268	516.56
468.488	513.56
468.707	537.56
468.927	532.56
469.146	518.56
469.365	534.56
469.585	560.56
469.804	553.56
470.023	540.56
470.243	541.56
470.462	525.56
470.681	537.56
470.901	521.56
471.12	549.56
471.339	560.56
471.558	544.56
471.777	556.56
471.997	544.56
472.216	534.56
472.435	541.56
472.654	533.56
472.873	565.56
473.092	535.56
473.311	534.56
473.53	523.56
473.749	533.56
473.968	538.56
474.187	527.56
474.406	529.56
474.625	546.56
474.844	523.56
475.063	552.56
475.282	526.56
475.501	576.56
475.72	520.56
475.939	572.56
476.158	563.56
476.377	558.56
476.596	557.56
476.814	577.56
477.033	563.56
477.252	593.56
477.471	589.56
477.69	587.56
477.908	606.56
478.127	615.56
478.346	615.56
478.564	628.56
478.783	607.56
479.002	607.56
479.22	625.56
479.439	653.56
479.658	640.56
479.876	605.56
480.095	631.56
480.313	616.56
480.532	625.56
480.751	636.56
480.969	635.56
481.188	632.56
481.406	637.56
481.624	654.56
481.843	645.56
482.061	649.56
482.28	641.56
482.498	638.56
482.717	610.56
482.935	638.56
483.153	619.56
483.372	633.56
483.59	653.56
483.808	653.56
484.027	626.56
484.245	639.56
484.463	639.56
484.681	643.56
484.9	632.56
485.118	665.56
485.336	637.56
485.554	669.56
485.772	652.56
485.99	651.56
486.209	670.56
486.427	665.56
486.645	641.56
486.863	664.56
487.081	640.56
487.299	639.56
487.517	672.56
487.735	655.56
487.953	668.56
488.171	661.56
488.389	657.56
488.607	660.56
488.825	632.56
489.043	645.56
489.261	647.56
489.479	687.56
489.696	661.56
489.914	667.56
490.132	673.56
490.35	673.56
490.568	671.56
490.786	669.56
491.003	650.56
491.221	673.56
491.439	672.56
491.657	666.56
491.874	669.56
492.092	671.56
492.31	672.56
492.527	677.56
492.745	683.56
492.963	664.56
493.18	653.56
493.398	691.56
493.615	687.56
493.833	708.56
494.05	689.56
494.268	667.56
494.485	689.56
494.703	705.56
494.92	685.56
495.138	684.56
495.355	692.56
495.573	700.56
495.79	693.56
496.008	714.56
496.225	718.56
496.442	704.56
496.66	733.56
496.877	732.56
497.094	736.56
497.312	754.56
497.529	775.56
497.746	771.56
497.963	773.56
498.181	795.56
498.398	815.56
498.615	843.56
498.832	869.56
499.049	891.56
499.267	897.56
499.484	947.56
499.701	1010.56
499.918	1047.56
500.135	1041.56
500.352	1082.56
500.569	1081.56
500.786	1088.56
501.003	1089.56
501.22	1061.56
501.437	1016.56
501.654	964.56
