Data from Fe(NO3)3@0.1M.TitratingCurve.Agarose3%dH2O.NegLispCup.LampEnergy10.LIBS07252019_HRD10591_16-40-51-332.txt Node
Date: Thu Jul 25 16:40:51 EDT 2019
User: cochatt
Spectrometer: HR+D1059
Trigger mode: 1
Integration Time (sec): 1.000000E-1
Scans to average: 1
Electric dark correction enabled: true
Nonlinearity correction enabled: false
Boxcar width: 0
XAxis mode: Wavelengths
Number of Pixels in Spectrum: 2048
>>>>>Begin Spectral Data<<<<<
223.165	-13.88
223.4	-13.88
223.635	-13.88
223.869	-26.88
224.104	-22.88
224.338	-10.88
224.573	0.12
224.808	-15.88
225.042	-1.88
225.277	2.12
225.511	-5.88
225.746	8.12
225.98	9.12
226.215	-3.88
226.449	4.12
226.683	7.12
226.918	25.12
227.152	46.12
227.387	37.12
227.621	37.12
227.856	51.12
228.09	33.12
228.324	53.12
228.559	58.12
228.793	65.12
229.027	87.12
229.262	100.12
229.496	98.12
229.73	114.12
229.964	93.12
230.199	116.12
230.433	122.12
230.667	104.12
230.901	122.12
231.136	128.12
231.37	116.12
231.604	121.12
231.838	106.12
232.072	126.12
232.306	134.12
232.541	119.12
232.775	128.12
233.009	125.12
233.243	120.12
233.477	125.12
233.711	128.12
233.945	124.12
234.179	121.12
234.413	132.12
234.647	128.12
234.881	139.12
235.115	122.12
235.349	119.12
235.583	124.12
235.817	132.12
236.051	126.12
236.285	120.12
236.519	144.12
236.753	125.12
236.987	139.12
237.221	137.12
237.455	142.12
237.689	121.12
237.922	132.12
238.156	129.12
238.39	144.12
238.624	138.12
238.858	133.12
239.091	127.12
239.325	128.12
239.559	136.12
239.793	131.12
240.027	138.12
240.26	125.12
240.494	128.12
240.728	134.12
240.961	131.12
241.195	124.12
241.429	157.12
241.662	144.12
241.896	140.12
242.13	146.12
242.363	136.12
242.597	146.12
242.83	143.12
243.064	157.12
243.298	159.12
243.531	149.12
243.765	157.12
243.998	155.12
244.232	165.12
244.465	148.12
244.699	152.12
244.932	156.12
245.166	166.12
245.399	173.12
245.633	168.12
245.866	180.12
246.099	159.12
246.333	166.12
246.566	171.12
246.8	160.12
247.033	165.12
247.266	177.12
247.5	157.12
247.733	157.12
247.966	177.12
248.2	172.12
248.433	167.12
248.666	177.12
248.899	180.12
249.133	171.12
249.366	170.12
249.599	197.12
249.832	181.12
250.066	189.12
250.299	197.12
250.532	176.12
250.765	174.12
250.998	192.12
251.231	188.12
251.465	179.12
251.698	193.12
251.931	185.12
252.164	181.12
252.397	185.12
252.63	185.12
252.863	194.12
253.096	204.12
253.329	218.12
253.562	200.12
253.795	195.12
254.028	197.12
254.261	186.12
254.494	196.12
254.727	198.12
254.96	202.12
255.193	201.12
255.426	192.12
255.659	212.12
255.892	207.12
256.124	189.12
256.357	206.12
256.59	186.12
256.823	197.12
257.056	203.12
257.289	210.12
257.521	202.12
257.754	197.12
257.987	220.12
258.22	232.12
258.452	229.12
258.685	215.12
258.918	217.12
259.151	224.12
259.383	216.12
259.616	212.12
259.849	219.12
260.081	233.12
260.314	223.12
260.547	227.12
260.779	226.12
261.012	228.12
261.244	240.12
261.477	223.12
261.71	236.12
261.942	241.12
262.175	240.12
262.407	243.12
262.64	222.12
262.872	247.12
263.105	233.12
263.337	228.12
263.57	247.12
263.802	241.12
264.035	224.12
264.267	235.12
264.499	230.12
264.732	237.12
264.964	254.12
265.197	251.12
265.429	233.12
265.661	241.12
265.894	236.12
266.126	249.12
266.358	238.12
266.591	245.12
266.823	246.12
267.055	242.12
267.287	257.12
267.52	237.12
267.752	255.12
267.984	240.12
268.216	263.12
268.448	275.12
268.681	260.12
268.913	245.12
269.145	260.12
269.377	253.12
269.609	243.12
269.841	276.12
270.073	265.12
270.306	281.12
270.538	250.12
270.77	277.12
271.002	260.12
271.234	271.12
271.466	256.12
271.698	256.12
271.93	276.12
272.162	285.12
272.394	270.12
272.626	273.12
272.858	261.12
273.09	268.12
273.322	280.12
273.553	264.12
273.785	276.12
274.017	293.12
274.249	271.12
274.481	278.12
274.713	278.12
274.945	304.12
275.176	291.12
275.408	287.12
275.64	304.12
275.872	276.12
276.104	285.12
276.335	306.12
276.567	291.12
276.799	300.12
277.031	312.12
277.262	284.12
277.494	305.12
277.726	297.12
277.957	306.12
278.189	306.12
278.421	324.12
278.652	301.12
278.884	296.12
279.115	313.12
279.347	304.12
279.579	296.12
279.81	299.12
280.042	323.12
280.273	305.12
280.505	303.12
280.736	324.12
280.968	318.12
281.199	312.12
281.431	304.12
281.662	317.12
281.894	318.12
282.125	329.12
282.356	320.12
282.588	337.12
282.819	326.12
283.051	322.12
283.282	306.12
283.513	313.12
283.745	340.12
283.976	320.12
284.207	333.12
284.439	335.12
284.67	334.12
284.901	335.12
285.132	323.12
285.364	325.12
285.595	320.12
285.826	330.12
286.057	328.12
286.288	341.12
286.52	350.12
286.751	337.12
286.982	341.12
287.213	333.12
287.444	348.12
287.675	355.12
287.906	355.12
288.138	363.12
288.369	346.12
288.6	346.12
288.831	350.12
289.062	355.12
289.293	353.12
289.524	338.12
289.755	369.12
289.986	352.12
290.217	370.12
290.448	343.12
290.679	363.12
290.91	357.12
291.141	368.12
291.371	360.12
291.602	347.12
291.833	364.12
292.064	353.12
292.295	357.12
292.526	354.12
292.757	355.12
292.987	349.12
293.218	345.12
293.449	365.12
293.68	373.12
293.91	372.12
294.141	344.12
294.372	340.12
294.603	351.12
294.833	340.12
295.064	368.12
295.295	353.12
295.525	365.12
295.756	383.12
295.987	372.12
296.217	380.12
296.448	356.12
296.679	373.12
296.909	371.12
297.14	375.12
297.37	402.12
297.601	382.12
297.831	388.12
298.062	371.12
298.292	382.12
298.523	393.12
298.753	394.12
298.984	385.12
299.214	408.12
299.445	368.12
299.675	386.12
299.905	391.12
300.136	388.12
300.366	388.12
300.597	393.12
300.827	390.12
301.057	408.12
301.288	402.12
301.518	395.12
301.748	394.12
301.979	402.12
302.209	392.12
302.439	415.12
302.669	398.12
302.9	402.12
303.13	412.12
303.36	403.12
303.59	410.12
303.82	408.12
304.051	392.12
304.281	418.12
304.511	418.12
304.741	431.12
304.971	412.12
305.201	399.12
305.431	406.12
305.661	412.12
305.891	405.12
306.121	383.12
306.352	414.12
306.582	408.12
306.812	395.12
307.042	406.12
307.272	394.12
307.502	399.12
307.731	391.12
307.961	412.12
308.191	395.12
308.421	396.12
308.651	414.12
308.881	404.12
309.111	414.12
309.341	408.12
309.571	426.12
309.8	414.12
310.03	405.12
310.26	408.12
310.49	426.12
310.72	416.12
310.949	407.12
311.179	389.12
311.409	416.12
311.639	399.12
311.868	426.12
312.098	417.12
312.328	428.12
312.557	430.12
312.787	429.12
313.017	416.12
313.246	439.12
313.476	428.12
313.706	437.12
313.935	442.12
314.165	444.12
314.394	425.12
314.624	425.12
314.853	434.12
315.083	440.12
315.312	438.12
315.542	433.12
315.771	436.12
316.001	447.12
316.23	421.12
316.46	416.12
316.689	433.12
316.919	447.12
317.148	427.12
317.377	437.12
317.607	449.12
317.836	440.12
318.065	432.12
318.295	422.12
318.524	437.12
318.753	429.12
318.983	420.12
319.212	401.12
319.441	431.12
319.67	422.12
319.9	451.12
320.129	445.12
320.358	447.12
320.587	435.12
320.816	429.12
321.046	435.12
321.275	418.12
321.504	453.12
321.733	455.12
321.962	448.12
322.191	440.12
322.42	438.12
322.649	413.12
322.878	440.12
323.108	459.12
323.337	458.12
323.566	435.12
323.795	439.12
324.024	448.12
324.253	441.12
324.482	444.12
324.71	457.12
324.939	448.12
325.168	454.12
325.397	444.12
325.626	456.12
325.855	456.12
326.084	469.12
326.313	458.12
326.542	477.12
326.77	472.12
326.999	483.12
327.228	482.12
327.457	460.12
327.686	450.12
327.914	462.12
328.143	467.12
328.372	464.12
328.6	487.12
328.829	480.12
329.058	480.12
329.287	468.12
329.515	457.12
329.744	470.12
329.972	490.12
330.201	482.12
330.43	485.12
330.658	486.12
330.887	494.12
331.115	488.12
331.344	487.12
331.572	500.12
331.801	516.12
332.03	513.12
332.258	525.12
332.486	522.12
332.715	533.12
332.943	569.12
333.172	555.12
333.4	568.12
333.629	571.12
333.857	617.12
334.085	604.12
334.314	615.12
334.542	599.12
334.771	595.12
334.999	572.12
335.227	570.12
335.455	576.12
335.684	580.12
335.912	595.12
336.14	560.12
336.369	561.12
336.597	571.12
336.825	574.12
337.053	557.12
337.281	556.12
337.51	542.12
337.738	545.12
337.966	544.12
338.194	517.12
338.422	533.12
338.65	510.12
338.878	534.12
339.106	502.12
339.334	524.12
339.562	514.12
339.79	510.12
340.018	493.12
340.246	512.12
340.474	514.12
340.702	516.12
340.93	498.12
341.158	512.12
341.386	484.12
341.614	500.12
341.842	481.12
342.07	510.12
342.298	490.12
342.526	492.12
342.754	488.12
342.981	525.12
343.209	505.12
343.437	525.12
343.665	569.12
343.893	588.12
344.12	578.12
344.348	566.12
344.576	556.12
344.804	547.12
345.031	541.12
345.259	524.12
345.487	514.12
345.714	485.12
345.942	493.12
346.17	482.12
346.397	480.12
346.625	475.12
346.853	502.12
347.08	490.12
347.308	489.12
347.535	486.12
347.763	490.12
347.99	496.12
348.218	493.12
348.445	492.12
348.673	489.12
348.9	489.12
349.128	490.12
349.355	474.12
349.583	477.12
349.81	476.12
350.037	482.12
350.265	477.12
350.492	477.12
350.72	478.12
350.947	466.12
351.174	474.12
351.402	472.12
351.629	472.12
351.856	485.12
352.083	461.12
352.311	472.12
352.538	478.12
352.765	462.12
352.992	478.12
353.22	458.12
353.447	460.12
353.674	460.12
353.901	455.12
354.128	473.12
354.355	453.12
354.583	466.12
354.81	468.12
355.037	499.12
355.264	480.12
355.491	471.12
355.718	472.12
355.945	468.12
356.172	473.12
356.399	487.12
356.626	480.12
356.853	478.12
357.08	490.12
357.307	493.12
357.534	473.12
357.761	460.12
357.988	471.12
358.215	444.12
358.441	472.12
358.668	484.12
358.895	480.12
359.122	488.12
359.349	470.12
359.576	477.12
359.802	466.12
360.029	462.12
360.256	476.12
360.483	476.12
360.709	465.12
360.936	489.12
361.163	476.12
361.39	454.12
361.616	478.12
361.843	477.12
362.07	473.12
362.296	471.12
362.523	496.12
362.749	484.12
362.976	482.12
363.203	505.12
363.429	476.12
363.656	462.12
363.882	490.12
364.109	474.12
364.335	470.12
364.562	451.12
364.788	463.12
365.015	467.12
365.241	471.12
365.468	482.12
365.694	474.12
365.92	465.12
366.147	468.12
366.373	489.12
366.599	481.12
366.826	487.12
367.052	488.12
367.278	494.12
367.505	467.12
367.731	473.12
367.957	487.12
368.184	484.12
368.41	481.12
368.636	484.12
368.862	505.12
369.089	497.12
369.315	493.12
369.541	507.12
369.767	497.12
369.993	500.12
370.219	492.12
370.445	520.12
370.672	498.12
370.898	510.12
371.124	515.12
371.35	524.12
371.576	515.12
371.802	507.12
372.028	526.12
372.254	520.12
372.48	529.12
372.706	556.12
372.932	557.12
373.158	539.12
373.384	539.12
373.61	548.12
373.835	538.12
374.061	503.12
374.287	524.12
374.513	538.12
374.739	576.12
374.965	563.12
375.191	550.12
375.416	560.12
375.642	566.12
375.868	533.12
376.094	519.12
376.319	522.12
376.545	517.12
376.771	547.12
376.997	566.12
377.222	524.12
377.448	516.12
377.674	518.12
377.899	529.12
378.125	505.12
378.35	520.12
378.576	492.12
378.802	524.12
379.027	514.12
379.253	526.12
379.478	507.12
379.704	534.12
379.929	529.12
380.155	540.12
380.38	526.12
380.606	537.12
380.831	512.12
381.057	525.12
381.282	496.12
381.507	492.12
381.733	534.12
381.958	531.12
382.184	542.12
382.409	538.12
382.634	532.12
382.86	546.12
383.085	540.12
383.31	565.12
383.535	572.12
383.761	585.12
383.986	584.12
384.211	569.12
384.436	598.12
384.662	602.12
384.887	600.12
385.112	586.12
385.337	624.12
385.562	568.12
385.787	621.12
386.013	608.12
386.238	611.12
386.463	622.12
386.688	633.12
386.913	621.12
387.138	594.12
387.363	602.12
387.588	591.12
387.813	638.12
388.038	628.12
388.263	612.12
388.488	603.12
388.713	588.12
388.938	621.12
389.163	608.12
389.387	610.12
389.612	589.12
389.837	603.12
390.062	600.12
390.287	620.12
390.512	610.12
390.736	628.12
390.961	624.12
391.186	629.12
391.411	642.12
391.636	654.12
391.86	674.12
392.085	656.12
392.31	683.12
392.534	674.12
392.759	665.12
392.984	634.12
393.208	634.12
393.433	657.12
393.658	642.12
393.882	657.12
394.107	651.12
394.331	657.12
394.556	654.12
394.78	679.12
395.005	683.12
395.229	656.12
395.454	660.12
395.678	697.12
395.903	688.12
396.127	670.12
396.352	647.12
396.576	646.12
396.801	688.12
397.025	669.12
397.249	676.12
397.474	688.12
397.698	705.12
397.922	718.12
398.147	696.12
398.371	702.12
398.595	737.12
398.82	769.12
399.044	784.12
399.268	846.12
399.492	969.12
399.717	1050.12
399.941	1033.12
400.165	937.12
400.389	866.12
400.613	804.12
400.837	804.12
401.062	775.12
401.286	788.12
401.51	772.12
401.734	777.12
401.958	786.12
402.182	764.12
402.406	766.12
402.63	771.12
402.854	800.12
403.078	796.12
403.302	826.12
403.526	792.12
403.75	804.12
403.974	824.12
404.198	825.12
404.422	837.12
404.645	841.12
404.869	825.12
405.093	826.12
405.317	826.12
405.541	813.12
405.765	820.12
405.988	796.12
406.212	812.12
406.436	797.12
406.66	857.12
406.883	827.12
407.107	899.12
407.331	960.12
407.555	932.12
407.778	911.12
408.002	906.12
408.226	908.12
408.449	889.12
408.673	856.12
408.896	831.12
409.12	828.12
409.344	844.12
409.567	820.12
409.791	847.12
410.014	849.12
410.238	839.12
410.461	831.12
410.685	835.12
410.908	817.12
411.132	795.12
411.355	774.12
411.578	779.12
411.802	784.12
412.025	802.12
412.249	812.12
412.472	809.12
412.695	776.12
412.919	753.12
413.142	789.12
413.365	771.12
413.589	784.12
413.812	777.12
414.035	778.12
414.258	744.12
414.482	773.12
414.705	768.12
414.928	775.12
415.151	768.12
415.374	784.12
415.597	740.12
415.821	761.12
416.044	732.12
416.267	748.12
416.49	732.12
416.713	739.12
416.936	734.12
417.159	733.12
417.382	727.12
417.605	731.12
417.828	760.12
418.051	747.12
418.274	756.12
418.497	749.12
418.72	754.12
418.943	748.12
419.166	790.12
419.389	818.12
419.611	833.12
419.834	772.12
420.057	786.12
420.28	761.12
420.503	726.12
420.726	742.12
420.948	734.12
421.171	715.12
421.394	748.12
421.617	736.12
421.839	744.12
422.062	735.12
422.285	734.12
422.507	739.12
422.73	781.12
422.953	775.12
423.175	762.12
423.398	742.12
423.621	775.12
423.843	764.12
424.066	788.12
424.288	752.12
424.511	749.12
424.733	752.12
424.956	722.12
425.178	767.12
425.401	744.12
425.623	740.12
425.846	720.12
426.068	721.12
426.291	715.12
426.513	722.12
426.735	709.12
426.958	703.12
427.18	708.12
427.402	691.12
427.625	686.12
427.847	701.12
428.069	701.12
428.292	716.12
428.514	686.12
428.736	676.12
428.958	677.12
429.181	646.12
429.403	667.12
429.625	664.12
429.847	674.12
430.069	666.12
430.292	665.12
430.514	650.12
430.736	686.12
430.958	690.12
431.18	665.12
431.402	662.12
431.624	681.12
431.846	696.12
432.068	698.12
432.29	675.12
432.512	681.12
432.734	704.12
432.956	660.12
433.178	664.12
433.4	679.12
433.622	700.12
433.844	721.12
434.066	714.12
434.287	705.12
434.509	719.12
434.731	736.12
434.953	730.12
435.175	757.12
435.397	732.12
435.618	724.12
435.84	685.12
436.062	675.12
436.284	714.12
436.505	700.12
436.727	692.12
436.949	681.12
437.17	677.12
437.392	690.12
437.614	644.12
437.835	660.12
438.057	646.12
438.278	650.12
438.5	662.12
438.721	666.12
438.943	688.12
439.165	651.12
439.386	675.12
439.608	699.12
439.829	666.12
440.05	662.12
440.272	683.12
440.493	693.12
440.715	693.12
440.936	720.12
441.158	704.12
441.379	733.12
441.6	753.12
441.822	749.12
442.043	725.12
442.264	779.12
442.486	745.12
442.707	748.12
442.928	737.12
443.149	732.12
443.371	726.12
443.592	750.12
443.813	712.12
444.034	792.12
444.255	779.12
444.476	805.12
444.698	810.12
444.919	859.12
445.14	880.12
445.361	835.12
445.582	768.12
445.803	716.12
446.024	710.12
446.245	744.12
446.466	706.12
446.687	677.12
446.908	685.12
447.129	678.12
447.35	683.12
447.571	685.12
447.792	648.12
448.013	646.12
448.234	657.12
448.455	668.12
448.675	654.12
448.896	639.12
449.117	632.12
449.338	639.12
449.559	637.12
449.779	632.12
450	630.12
450.221	639.12
450.442	610.12
450.662	663.12
450.883	666.12
451.104	644.12
451.324	656.12
451.545	641.12
451.766	628.12
451.986	636.12
452.207	620.12
452.428	638.12
452.648	613.12
452.869	618.12
453.089	615.12
453.31	610.12
453.53	592.12
453.751	616.12
453.971	601.12
454.192	592.12
454.412	588.12
454.633	608.12
454.853	611.12
455.073	612.12
455.294	584.12
455.514	605.12
455.734	602.12
455.955	598.12
456.175	589.12
456.395	589.12
456.616	582.12
456.836	596.12
457.056	615.12
457.276	585.12
457.497	609.12
457.717	588.12
457.937	591.12
458.157	608.12
458.377	619.12
458.598	610.12
458.818	622.12
459.038	660.12
459.258	671.12
459.478	684.12
459.698	675.12
459.918	712.12
460.138	731.12
460.358	757.12
460.578	766.12
460.798	749.12
461.018	779.12
461.238	755.12
461.458	787.12
461.678	768.12
461.898	782.12
462.118	787.12
462.338	809.12
462.558	839.12
462.777	868.12
462.997	913.12
463.217	961.12
463.437	975.12
463.657	891.12
463.876	863.12
464.096	890.12
464.316	871.12
464.536	875.12
464.755	843.12
464.975	813.12
465.195	803.12
465.414	749.12
465.634	705.12
465.854	722.12
466.073	709.12
466.293	697.12
466.512	679.12
466.732	665.12
466.951	656.12
467.171	666.12
467.391	667.12
467.61	654.12
467.829	641.12
468.049	664.12
468.268	631.12
468.488	650.12
468.707	647.12
468.927	647.12
469.146	646.12
469.365	667.12
469.585	604.12
469.804	638.12
470.023	680.12
470.243	646.12
470.462	672.12
470.681	679.12
470.901	669.12
471.12	655.12
471.339	660.12
471.558	644.12
471.777	639.12
471.997	629.12
472.216	621.12
472.435	630.12
472.654	619.12
472.873	628.12
473.092	608.12
473.311	641.12
473.53	650.12
473.749	629.12
473.968	605.12
474.187	603.12
474.406	616.12
474.625	617.12
474.844	604.12
475.063	632.12
475.282	632.12
475.501	616.12
475.72	625.12
475.939	632.12
476.158	638.12
476.377	644.12
476.596	658.12
476.814	659.12
477.033	663.12
477.252	668.12
477.471	696.12
477.69	704.12
477.908	717.12
478.127	718.12
478.346	701.12
478.564	718.12
478.783	723.12
479.002	725.12
479.22	726.12
479.439	721.12
479.658	755.12
479.876	768.12
480.095	758.12
480.313	794.12
480.532	780.12
480.751	765.12
480.969	747.12
481.188	708.12
481.406	745.12
481.624	737.12
481.843	708.12
482.061	710.12
482.28	696.12
482.498	688.12
482.717	671.12
482.935	694.12
483.153	679.12
483.372	688.12
483.59	701.12
483.808	697.12
484.027	698.12
484.245	692.12
484.463	715.12
484.681	713.12
484.9	718.12
485.118	738.12
485.336	715.12
485.554	706.12
485.772	712.12
485.99	738.12
486.209	713.12
486.427	702.12
486.645	708.12
486.863	700.12
487.081	724.12
487.299	713.12
487.517	714.12
487.735	756.12
487.953	740.12
488.171	736.12
488.389	714.12
488.607	700.12
488.825	690.12
489.043	725.12
489.261	713.12
489.479	728.12
489.696	705.12
489.914	715.12
490.132	701.12
490.35	742.12
490.568	728.12
490.786	733.12
491.003	729.12
491.221	736.12
491.439	736.12
491.657	716.12
491.874	740.12
492.092	739.12
492.31	752.12
492.527	754.12
492.745	768.12
492.963	760.12
493.18	734.12
493.398	745.12
493.615	747.12
493.833	749.12
494.05	758.12
494.268	748.12
494.485	766.12
494.703	766.12
494.92	771.12
495.138	775.12
495.355	780.12
495.573	777.12
495.79	755.12
496.008	804.12
496.225	799.12
496.442	798.12
496.66	801.12
496.877	838.12
497.094	830.12
497.312	840.12
497.529	854.12
497.746	853.12
497.963	912.12
498.181	926.12
498.398	937.12
498.615	995.12
498.832	1042.12
499.049	1101.12
499.267	1174.12
499.484	1325.12
499.701	1410.12
499.918	1515.12
500.135	1643.12
500.352	1800.12
500.569	1892.12
500.786	1837.12
501.003	1736.12
501.22	1606.12
501.437	1456.12
