Data from Fe(NO3)3@0.05M.TitratingCurve.Agarose3%dH2O.NegLispCup.LampEnergy10.LIBS07252019_HRD10591_16-47-49-334.txt Node
Date: Thu Jul 25 16:47:49 EDT 2019
User: cochatt
Spectrometer: HR+D1059
Trigger mode: 1
Integration Time (sec): 1.000000E-1
Scans to average: 1
Electric dark correction enabled: true
Nonlinearity correction enabled: false
Boxcar width: 0
XAxis mode: Wavelengths
Number of Pixels in Spectrum: 2048
>>>>>Begin Spectral Data<<<<<
223.165	-11.75
223.4	-11.75
223.635	-11.75
223.869	-6.75
224.104	-37.75
224.338	-11.75
224.573	-14.75
224.808	-12.75
225.042	2.25
225.277	-1.75
225.511	-5.75
225.746	19.25
225.98	15.25
226.215	3.25
226.449	6.25
226.683	12.25
226.918	13.25
227.152	31.25
227.387	31.25
227.621	32.25
227.856	35.25
228.09	45.25
228.324	55.25
228.559	59.25
228.793	63.25
229.027	72.25
229.262	67.25
229.496	85.25
229.73	85.25
229.964	87.25
230.199	76.25
230.433	76.25
230.667	101.25
230.901	97.25
231.136	98.25
231.37	87.25
231.604	89.25
231.838	87.25
232.072	80.25
232.306	99.25
232.541	83.25
232.775	92.25
233.009	95.25
233.243	94.25
233.477	92.25
233.711	91.25
233.945	100.25
234.179	86.25
234.413	113.25
234.647	102.25
234.881	107.25
235.115	90.25
235.349	103.25
235.583	88.25
235.817	80.25
236.051	74.25
236.285	81.25
236.519	88.25
236.753	80.25
236.987	95.25
237.221	98.25
237.455	97.25
237.689	103.25
237.922	95.25
238.156	96.25
238.39	95.25
238.624	97.25
238.858	91.25
239.091	100.25
239.325	91.25
239.559	103.25
239.793	97.25
240.027	106.25
240.26	92.25
240.494	99.25
240.728	115.25
240.961	104.25
241.195	100.25
241.429	102.25
241.662	100.25
241.896	91.25
242.13	98.25
242.363	95.25
242.597	87.25
242.83	85.25
243.064	87.25
243.298	95.25
243.531	95.25
243.765	96.25
243.998	103.25
244.232	104.25
244.465	97.25
244.699	103.25
244.932	99.25
245.166	99.25
245.399	103.25
245.633	107.25
245.866	104.25
246.099	101.25
246.333	102.25
246.566	94.25
246.8	91.25
247.033	105.25
247.266	89.25
247.5	108.25
247.733	102.25
247.966	102.25
248.2	97.25
248.433	103.25
248.666	105.25
248.899	98.25
249.133	107.25
249.366	107.25
249.599	104.25
249.832	101.25
250.066	113.25
250.299	106.25
250.532	108.25
250.765	111.25
250.998	86.25
251.231	106.25
251.465	117.25
251.698	119.25
251.931	113.25
252.164	113.25
252.397	112.25
252.63	102.25
252.863	111.25
253.096	116.25
253.329	119.25
253.562	107.25
253.795	90.25
254.028	119.25
254.261	120.25
254.494	123.25
254.727	123.25
254.96	106.25
255.193	108.25
255.426	114.25
255.659	108.25
255.892	116.25
256.124	106.25
256.357	105.25
256.59	105.25
256.823	114.25
257.056	115.25
257.289	98.25
257.521	111.25
257.754	121.25
257.987	115.25
258.22	120.25
258.452	125.25
258.685	125.25
258.918	102.25
259.151	125.25
259.383	127.25
259.616	129.25
259.849	119.25
260.081	139.25
260.314	137.25
260.547	129.25
260.779	126.25
261.012	127.25
261.244	131.25
261.477	125.25
261.71	134.25
261.942	117.25
262.175	122.25
262.407	134.25
262.64	132.25
262.872	136.25
263.105	123.25
263.337	139.25
263.57	127.25
263.802	131.25
264.035	104.25
264.267	121.25
264.499	121.25
264.732	123.25
264.964	123.25
265.197	115.25
265.429	125.25
265.661	120.25
265.894	118.25
266.126	112.25
266.358	135.25
266.591	115.25
266.823	135.25
267.055	133.25
267.287	128.25
267.52	117.25
267.752	121.25
267.984	118.25
268.216	121.25
268.448	140.25
268.681	120.25
268.913	131.25
269.145	123.25
269.377	132.25
269.609	131.25
269.841	141.25
270.073	125.25
270.306	120.25
270.538	127.25
270.77	121.25
271.002	129.25
271.234	141.25
271.466	136.25
271.698	141.25
271.93	129.25
272.162	132.25
272.394	150.25
272.626	131.25
272.858	135.25
273.09	146.25
273.322	141.25
273.553	149.25
273.785	147.25
274.017	129.25
274.249	141.25
274.481	173.25
274.713	164.25
274.945	183.25
275.176	166.25
275.408	157.25
275.64	164.25
275.872	161.25
276.104	141.25
276.335	137.25
276.567	151.25
276.799	113.25
277.031	136.25
277.262	144.25
277.494	148.25
277.726	142.25
277.957	144.25
278.189	138.25
278.421	132.25
278.652	143.25
278.884	169.25
279.115	146.25
279.347	132.25
279.579	141.25
279.81	124.25
280.042	147.25
280.273	135.25
280.505	135.25
280.736	133.25
280.968	153.25
281.199	143.25
281.431	144.25
281.662	140.25
281.894	147.25
282.125	156.25
282.356	151.25
282.588	161.25
282.819	152.25
283.051	146.25
283.282	157.25
283.513	149.25
283.745	139.25
283.976	131.25
284.207	154.25
284.439	145.25
284.67	155.25
284.901	165.25
285.132	152.25
285.364	156.25
285.595	153.25
285.826	154.25
286.057	155.25
286.288	147.25
286.52	154.25
286.751	149.25
286.982	148.25
287.213	163.25
287.444	149.25
287.675	142.25
287.906	143.25
288.138	147.25
288.369	149.25
288.6	167.25
288.831	166.25
289.062	150.25
289.293	152.25
289.524	138.25
289.755	148.25
289.986	156.25
290.217	139.25
290.448	166.25
290.679	154.25
290.91	164.25
291.141	159.25
291.371	147.25
291.602	149.25
291.833	161.25
292.064	155.25
292.295	163.25
292.526	159.25
292.757	158.25
292.987	164.25
293.218	168.25
293.449	145.25
293.68	147.25
293.91	162.25
294.141	143.25
294.372	149.25
294.603	161.25
294.833	168.25
295.064	164.25
295.295	161.25
295.525	168.25
295.756	162.25
295.987	165.25
296.217	163.25
296.448	161.25
296.679	171.25
296.909	164.25
297.14	149.25
297.37	150.25
297.601	172.25
297.831	169.25
298.062	165.25
298.292	171.25
298.523	167.25
298.753	156.25
298.984	168.25
299.214	174.25
299.445	158.25
299.675	168.25
299.905	172.25
300.136	179.25
300.366	164.25
300.597	163.25
300.827	165.25
301.057	163.25
301.288	168.25
301.518	164.25
301.748	169.25
301.979	186.25
302.209	176.25
302.439	170.25
302.669	168.25
302.9	174.25
303.13	160.25
303.36	184.25
303.59	173.25
303.82	181.25
304.051	162.25
304.281	183.25
304.511	177.25
304.741	173.25
304.971	162.25
305.201	183.25
305.431	183.25
305.661	170.25
305.891	177.25
306.121	171.25
306.352	175.25
306.582	171.25
306.812	181.25
307.042	172.25
307.272	158.25
307.502	174.25
307.731	168.25
307.961	189.25
308.191	191.25
308.421	165.25
308.651	168.25
308.881	152.25
309.111	161.25
309.341	168.25
309.571	170.25
309.8	171.25
310.03	179.25
310.26	192.25
310.49	147.25
310.72	176.25
310.949	163.25
311.179	173.25
311.409	164.25
311.639	172.25
311.868	173.25
312.098	184.25
312.328	189.25
312.557	189.25
312.787	178.25
313.017	175.25
313.246	185.25
313.476	173.25
313.706	161.25
313.935	198.25
314.165	180.25
314.394	182.25
314.624	172.25
314.853	187.25
315.083	190.25
315.312	176.25
315.542	192.25
315.771	177.25
316.001	192.25
316.23	190.25
316.46	185.25
316.689	182.25
316.919	186.25
317.148	188.25
317.377	198.25
317.607	183.25
317.836	168.25
318.065	170.25
318.295	182.25
318.524	182.25
318.753	169.25
318.983	195.25
319.212	188.25
319.441	192.25
319.67	169.25
319.9	196.25
320.129	182.25
320.358	185.25
320.587	180.25
320.816	190.25
321.046	187.25
321.275	194.25
321.504	187.25
321.733	178.25
321.962	192.25
322.191	193.25
322.42	201.25
322.649	171.25
322.878	188.25
323.108	170.25
323.337	183.25
323.566	201.25
323.795	178.25
324.024	191.25
324.253	184.25
324.482	186.25
324.71	188.25
324.939	194.25
325.168	187.25
325.397	195.25
325.626	195.25
325.855	201.25
326.084	202.25
326.313	196.25
326.542	190.25
326.77	193.25
326.999	195.25
327.228	199.25
327.457	203.25
327.686	204.25
327.914	198.25
328.143	189.25
328.372	189.25
328.6	189.25
328.829	194.25
329.058	167.25
329.287	197.25
329.515	203.25
329.744	206.25
329.972	189.25
330.201	204.25
330.43	197.25
330.658	193.25
330.887	191.25
331.115	183.25
331.344	203.25
331.572	209.25
331.801	188.25
332.03	224.25
332.258	213.25
332.486	216.25
332.715	207.25
332.943	213.25
333.172	201.25
333.4	243.25
333.629	226.25
333.857	218.25
334.085	219.25
334.314	226.25
334.542	243.25
334.771	212.25
334.999	221.25
335.227	228.25
335.455	232.25
335.684	222.25
335.912	215.25
336.14	204.25
336.369	211.25
336.597	213.25
336.825	234.25
337.053	229.25
337.281	230.25
337.51	205.25
337.738	204.25
337.966	213.25
338.194	203.25
338.422	181.25
338.65	206.25
338.878	192.25
339.106	211.25
339.334	215.25
339.562	193.25
339.79	212.25
340.018	204.25
340.246	195.25
340.474	203.25
340.702	195.25
340.93	194.25
341.158	193.25
341.386	194.25
341.614	188.25
341.842	201.25
342.07	204.25
342.298	196.25
342.526	195.25
342.754	195.25
342.981	211.25
343.209	215.25
343.437	211.25
343.665	205.25
343.893	221.25
344.12	241.25
344.348	240.25
344.576	225.25
344.804	211.25
345.031	195.25
345.259	200.25
345.487	208.25
345.714	215.25
345.942	212.25
346.17	197.25
346.397	200.25
346.625	196.25
346.853	206.25
347.08	192.25
347.308	191.25
347.535	192.25
347.763	198.25
347.99	227.25
348.218	200.25
348.445	202.25
348.673	196.25
348.9	202.25
349.128	196.25
349.355	193.25
349.583	199.25
349.81	195.25
350.037	187.25
350.265	203.25
350.492	188.25
350.72	194.25
350.947	202.25
351.174	184.25
351.402	182.25
351.629	204.25
351.856	180.25
352.083	207.25
352.311	191.25
352.538	195.25
352.765	207.25
352.992	204.25
353.22	184.25
353.447	213.25
353.674	191.25
353.901	205.25
354.128	196.25
354.355	197.25
354.583	195.25
354.81	182.25
355.037	197.25
355.264	202.25
355.491	203.25
355.718	210.25
355.945	200.25
356.172	191.25
356.399	206.25
356.626	212.25
356.853	222.25
357.08	196.25
357.307	197.25
357.534	219.25
357.761	211.25
357.988	190.25
358.215	226.25
358.441	208.25
358.668	216.25
358.895	199.25
359.122	211.25
359.349	200.25
359.576	209.25
359.802	207.25
360.029	202.25
360.256	208.25
360.483	219.25
360.709	195.25
360.936	191.25
361.163	202.25
361.39	197.25
361.616	203.25
361.843	213.25
362.07	196.25
362.296	202.25
362.523	210.25
362.749	205.25
362.976	209.25
363.203	210.25
363.429	182.25
363.656	204.25
363.882	214.25
364.109	215.25
364.335	201.25
364.562	212.25
364.788	195.25
365.015	211.25
365.241	201.25
365.468	195.25
365.694	217.25
365.92	187.25
366.147	197.25
366.373	220.25
366.599	204.25
366.826	200.25
367.052	188.25
367.278	194.25
367.505	205.25
367.731	203.25
367.957	192.25
368.184	206.25
368.41	210.25
368.636	215.25
368.862	223.25
369.089	203.25
369.315	221.25
369.541	214.25
369.767	205.25
369.993	204.25
370.219	227.25
370.445	231.25
370.672	226.25
370.898	217.25
371.124	213.25
371.35	220.25
371.576	197.25
371.802	212.25
372.028	219.25
372.254	223.25
372.48	217.25
372.706	215.25
372.932	225.25
373.158	221.25
373.384	260.25
373.61	241.25
373.835	241.25
374.061	224.25
374.287	234.25
374.513	238.25
374.739	231.25
374.965	242.25
375.191	257.25
375.416	235.25
375.642	252.25
375.868	244.25
376.094	262.25
376.319	242.25
376.545	228.25
376.771	229.25
376.997	219.25
377.222	207.25
377.448	229.25
377.674	217.25
377.899	228.25
378.125	224.25
378.35	226.25
378.576	222.25
378.802	211.25
379.027	232.25
379.253	220.25
379.478	219.25
379.704	239.25
379.929	230.25
380.155	224.25
380.38	219.25
380.606	224.25
380.831	235.25
381.057	236.25
381.282	236.25
381.507	226.25
381.733	228.25
381.958	230.25
382.184	264.25
382.409	267.25
382.634	251.25
382.86	232.25
383.085	239.25
383.31	263.25
383.535	252.25
383.761	253.25
383.986	254.25
384.211	255.25
384.436	261.25
384.662	234.25
384.887	251.25
385.112	267.25
385.337	249.25
385.562	263.25
385.787	263.25
386.013	292.25
386.238	306.25
386.463	273.25
386.688	274.25
386.913	239.25
387.138	266.25
387.363	247.25
387.588	244.25
387.813	273.25
388.038	273.25
388.263	261.25
388.488	277.25
388.713	265.25
388.938	269.25
389.163	289.25
389.387	271.25
389.612	260.25
389.837	258.25
390.062	240.25
390.287	273.25
390.512	263.25
390.736	274.25
390.961	293.25
391.186	272.25
391.411	266.25
391.636	275.25
391.86	275.25
392.085	292.25
392.31	296.25
392.534	284.25
392.759	281.25
392.984	295.25
393.208	296.25
393.433	295.25
393.658	271.25
393.882	277.25
394.107	279.25
394.331	298.25
394.556	293.25
394.78	280.25
395.005	292.25
395.229	280.25
395.454	294.25
395.678	280.25
395.903	283.25
396.127	281.25
396.352	303.25
396.576	297.25
396.801	299.25
397.025	306.25
397.249	285.25
397.474	307.25
397.698	312.25
397.922	300.25
398.147	308.25
398.371	309.25
398.595	320.25
398.82	312.25
399.044	338.25
399.268	367.25
399.492	402.25
399.717	435.25
399.941	413.25
400.165	393.25
400.389	377.25
400.613	360.25
400.837	336.25
401.062	337.25
401.286	337.25
401.51	333.25
401.734	337.25
401.958	345.25
402.182	313.25
402.406	322.25
402.63	334.25
402.854	328.25
403.078	355.25
403.302	336.25
403.526	351.25
403.75	345.25
403.974	363.25
404.198	371.25
404.422	386.25
404.645	374.25
404.869	367.25
405.093	353.25
405.317	356.25
405.541	358.25
405.765	373.25
405.988	339.25
406.212	356.25
406.436	356.25
406.66	381.25
406.883	381.25
407.107	371.25
407.331	387.25
407.555	391.25
407.778	386.25
408.002	378.25
408.226	389.25
408.449	373.25
408.673	389.25
408.896	365.25
409.12	359.25
409.344	378.25
409.567	351.25
409.791	347.25
410.014	367.25
410.238	351.25
410.461	364.25
410.685	380.25
410.908	354.25
411.132	351.25
411.355	349.25
411.578	345.25
411.802	330.25
412.025	348.25
412.249	343.25
412.472	355.25
412.695	353.25
412.919	342.25
413.142	339.25
413.365	355.25
413.589	337.25
413.812	329.25
414.035	335.25
414.258	345.25
414.482	339.25
414.705	357.25
414.928	339.25
415.151	333.25
415.374	348.25
415.597	336.25
415.821	337.25
416.044	342.25
416.267	358.25
416.49	361.25
416.713	332.25
416.936	336.25
417.159	325.25
417.382	333.25
417.605	335.25
417.828	339.25
418.051	356.25
418.274	349.25
418.497	342.25
418.72	346.25
418.943	338.25
419.166	377.25
419.389	372.25
419.611	373.25
419.834	364.25
420.057	371.25
420.28	363.25
420.503	357.25
420.726	337.25
420.948	334.25
421.171	320.25
421.394	337.25
421.617	329.25
421.839	346.25
422.062	352.25
422.285	331.25
422.507	351.25
422.73	345.25
422.953	336.25
423.175	354.25
423.398	365.25
423.621	348.25
423.843	363.25
424.066	360.25
424.288	355.25
424.511	360.25
424.733	353.25
424.956	355.25
425.178	354.25
425.401	322.25
425.623	342.25
425.846	334.25
426.068	342.25
426.291	334.25
426.513	327.25
426.735	336.25
426.958	342.25
427.18	336.25
427.402	330.25
427.625	331.25
427.847	330.25
428.069	318.25
428.292	321.25
428.514	320.25
428.736	319.25
428.958	322.25
429.181	324.25
429.403	304.25
429.625	337.25
429.847	300.25
430.069	321.25
430.292	318.25
430.514	330.25
430.736	322.25
430.958	334.25
431.18	331.25
431.402	319.25
431.624	359.25
431.846	339.25
432.068	313.25
432.29	335.25
432.512	300.25
432.734	327.25
432.956	328.25
433.178	339.25
433.4	333.25
433.622	341.25
433.844	356.25
434.066	341.25
434.287	316.25
434.509	320.25
434.731	334.25
434.953	336.25
435.175	342.25
435.397	345.25
435.618	323.25
435.84	320.25
436.062	339.25
436.284	344.25
436.505	329.25
436.727	333.25
436.949	340.25
437.17	328.25
437.392	323.25
437.614	314.25
437.835	336.25
438.057	320.25
438.278	320.25
438.5	319.25
438.721	337.25
438.943	332.25
439.165	322.25
439.386	335.25
439.608	327.25
439.829	333.25
440.05	343.25
440.272	331.25
440.493	348.25
440.715	320.25
440.936	349.25
441.158	355.25
441.379	359.25
441.6	368.25
441.822	357.25
442.043	359.25
442.264	342.25
442.486	345.25
442.707	353.25
442.928	354.25
443.149	375.25
443.371	332.25
443.592	358.25
443.813	371.25
444.034	367.25
444.255	373.25
444.476	397.25
444.698	387.25
444.919	404.25
445.14	470.25
445.361	419.25
445.582	363.25
445.803	379.25
446.024	358.25
446.245	365.25
446.466	358.25
446.687	356.25
446.908	344.25
447.129	332.25
447.35	328.25
447.571	362.25
447.792	333.25
448.013	320.25
448.234	330.25
448.455	324.25
448.675	323.25
448.896	320.25
449.117	317.25
449.338	319.25
449.559	327.25
449.779	328.25
450	324.25
450.221	315.25
450.442	332.25
450.662	303.25
450.883	311.25
451.104	317.25
451.324	325.25
451.545	323.25
451.766	319.25
451.986	311.25
452.207	311.25
452.428	324.25
452.648	318.25
452.869	291.25
453.089	311.25
453.31	307.25
453.53	308.25
453.751	289.25
453.971	298.25
454.192	323.25
454.412	287.25
454.633	299.25
454.853	291.25
455.073	285.25
455.294	294.25
455.514	308.25
455.734	298.25
455.955	314.25
456.175	314.25
456.395	276.25
456.616	268.25
456.836	298.25
457.056	285.25
457.276	286.25
457.497	301.25
457.717	286.25
457.937	299.25
458.157	315.25
458.377	305.25
458.598	305.25
458.818	306.25
459.038	303.25
459.258	316.25
459.478	326.25
459.698	334.25
459.918	337.25
460.138	346.25
460.358	359.25
460.578	348.25
460.798	379.25
461.018	356.25
461.238	356.25
461.458	389.25
461.678	383.25
461.898	374.25
462.118	388.25
462.338	392.25
462.558	398.25
462.777	410.25
462.997	441.25
463.217	444.25
463.437	458.25
463.657	436.25
463.876	421.25
464.096	405.25
464.316	420.25
464.536	410.25
464.755	391.25
464.975	407.25
465.195	373.25
465.414	380.25
465.634	343.25
465.854	358.25
466.073	339.25
466.293	327.25
466.512	334.25
466.732	337.25
466.951	336.25
467.171	337.25
467.391	343.25
467.61	342.25
467.829	332.25
468.049	348.25
468.268	320.25
468.488	314.25
468.707	315.25
468.927	327.25
469.146	325.25
469.365	339.25
469.585	311.25
469.804	340.25
470.023	338.25
470.243	343.25
470.462	344.25
470.681	343.25
470.901	329.25
471.12	326.25
471.339	337.25
471.558	341.25
471.777	332.25
471.997	330.25
472.216	314.25
472.435	324.25
472.654	338.25
472.873	328.25
473.092	307.25
473.311	308.25
473.53	336.25
473.749	312.25
473.968	319.25
474.187	328.25
474.406	310.25
474.625	339.25
474.844	320.25
475.063	319.25
475.282	321.25
475.501	330.25
475.72	321.25
475.939	322.25
476.158	333.25
476.377	352.25
476.596	336.25
476.814	352.25
477.033	329.25
477.252	354.25
477.471	358.25
477.69	347.25
477.908	353.25
478.127	371.25
478.346	367.25
478.564	383.25
478.783	376.25
479.002	360.25
479.22	394.25
479.439	402.25
479.658	377.25
479.876	372.25
480.095	381.25
480.313	385.25
480.532	393.25
480.751	383.25
480.969	376.25
481.188	396.25
481.406	388.25
481.624	376.25
481.843	385.25
482.061	385.25
482.28	368.25
482.498	371.25
482.717	375.25
482.935	387.25
483.153	375.25
483.372	387.25
483.59	378.25
483.808	362.25
484.027	372.25
484.245	368.25
484.463	377.25
484.681	379.25
484.9	395.25
485.118	384.25
485.336	379.25
485.554	378.25
485.772	391.25
485.99	377.25
486.209	374.25
486.427	383.25
486.645	380.25
486.863	379.25
487.081	387.25
487.299	383.25
487.517	380.25
487.735	378.25
487.953	389.25
488.171	397.25
488.389	399.25
488.607	388.25
488.825	392.25
489.043	402.25
489.261	392.25
489.479	391.25
489.696	352.25
489.914	381.25
490.132	387.25
490.35	385.25
490.568	401.25
490.786	379.25
491.003	396.25
491.221	397.25
491.439	397.25
491.657	379.25
491.874	387.25
492.092	403.25
492.31	410.25
492.527	411.25
492.745	417.25
492.963	407.25
493.18	404.25
493.398	402.25
493.615	415.25
493.833	408.25
494.05	403.25
494.268	407.25
494.485	399.25
494.703	398.25
494.92	420.25
495.138	424.25
495.355	407.25
495.573	402.25
495.79	421.25
496.008	419.25
496.225	415.25
496.442	425.25
496.66	412.25
496.877	415.25
497.094	419.25
497.312	434.25
497.529	417.25
497.746	437.25
497.963	422.25
498.181	471.25
498.398	471.25
498.615	505.25
498.832	501.25
499.049	541.25
499.267	533.25
499.484	600.25
499.701	633.25
499.918	663.25
500.135	743.25
500.352	795.25
500.569	829.25
500.786	835.25
501.003	767.25
501.22	728.25
501.437	645.25
501.654	636.25
501.871	575.25
502.088	554.25
502.305	523.25
