Data from Fe(NO3)3@0.0125M.TitratingCurve.Agarose3%dH2O.NegLispCup.LampEnergy10.LIBS07252019_HRD10591_16-58-31-336.txt Node
Date: Thu Jul 25 16:58:31 EDT 2019
User: cochatt
Spectrometer: HR+D1059
Trigger mode: 1
Integration Time (sec): 1.000000E-1
Scans to average: 1
Electric dark correction enabled: true
Nonlinearity correction enabled: false
Boxcar width: 0
XAxis mode: Wavelengths
Number of Pixels in Spectrum: 2048
>>>>>Begin Spectral Data<<<<<
223.165	-10.44
223.4	-10.44
223.635	-10.44
223.869	-16.44
224.104	-19.44
224.338	-10.44
224.573	-3.44
224.808	-8.44
225.042	-11.44
225.277	-5.44
225.511	-12.44
225.746	-3.44
225.98	13.56
226.215	28.56
226.449	6.56
226.683	8.56
226.918	14.56
227.152	29.56
227.387	40.56
227.621	43.56
227.856	52.56
228.09	51.56
228.324	49.56
228.559	49.56
228.793	62.56
229.027	85.56
229.262	82.56
229.496	101.56
229.73	83.56
229.964	93.56
230.199	91.56
230.433	104.56
230.667	105.56
230.901	92.56
231.136	109.56
231.37	97.56
231.604	105.56
231.838	118.56
232.072	116.56
232.306	103.56
232.541	97.56
232.775	129.56
233.009	115.56
233.243	93.56
233.477	101.56
233.711	110.56
233.945	104.56
234.179	122.56
234.413	107.56
234.647	121.56
234.881	127.56
235.115	137.56
235.349	119.56
235.583	117.56
235.817	121.56
236.051	116.56
236.285	118.56
236.519	118.56
236.753	120.56
236.987	109.56
237.221	113.56
237.455	122.56
237.689	132.56
237.922	116.56
238.156	126.56
238.39	127.56
238.624	111.56
238.858	129.56
239.091	127.56
239.325	116.56
239.559	129.56
239.793	125.56
240.027	128.56
240.26	140.56
240.494	125.56
240.728	123.56
240.961	117.56
241.195	137.56
241.429	137.56
241.662	134.56
241.896	116.56
242.13	135.56
242.363	148.56
242.597	135.56
242.83	138.56
243.064	140.56
243.298	154.56
243.531	142.56
243.765	130.56
243.998	139.56
244.232	154.56
244.465	139.56
244.699	147.56
244.932	123.56
245.166	151.56
245.399	152.56
245.633	129.56
245.866	147.56
246.099	127.56
246.333	152.56
246.566	141.56
246.8	149.56
247.033	140.56
247.266	153.56
247.5	141.56
247.733	153.56
247.966	156.56
248.2	157.56
248.433	148.56
248.666	145.56
248.899	163.56
249.133	149.56
249.366	150.56
249.599	164.56
249.832	177.56
250.066	167.56
250.299	151.56
250.532	150.56
250.765	161.56
250.998	154.56
251.231	167.56
251.465	176.56
251.698	175.56
251.931	165.56
252.164	169.56
252.397	160.56
252.63	162.56
252.863	171.56
253.096	179.56
253.329	188.56
253.562	162.56
253.795	173.56
254.028	176.56
254.261	188.56
254.494	169.56
254.727	184.56
254.96	185.56
255.193	173.56
255.426	193.56
255.659	174.56
255.892	179.56
256.124	182.56
256.357	185.56
256.59	189.56
256.823	194.56
257.056	195.56
257.289	186.56
257.521	209.56
257.754	195.56
257.987	191.56
258.22	198.56
258.452	198.56
258.685	193.56
258.918	224.56
259.151	211.56
259.383	197.56
259.616	196.56
259.849	205.56
260.081	206.56
260.314	201.56
260.547	196.56
260.779	196.56
261.012	201.56
261.244	205.56
261.477	221.56
261.71	201.56
261.942	219.56
262.175	209.56
262.407	192.56
262.64	196.56
262.872	212.56
263.105	201.56
263.337	221.56
263.57	214.56
263.802	232.56
264.035	227.56
264.267	238.56
264.499	223.56
264.732	225.56
264.964	216.56
265.197	216.56
265.429	216.56
265.661	222.56
265.894	231.56
266.126	223.56
266.358	225.56
266.591	240.56
266.823	225.56
267.055	219.56
267.287	229.56
267.52	248.56
267.752	241.56
267.984	241.56
268.216	236.56
268.448	237.56
268.681	229.56
268.913	232.56
269.145	232.56
269.377	237.56
269.609	272.56
269.841	241.56
270.073	264.56
270.306	268.56
270.538	268.56
270.77	236.56
271.002	259.56
271.234	247.56
271.466	260.56
271.698	252.56
271.93	253.56
272.162	256.56
272.394	257.56
272.626	252.56
272.858	261.56
273.09	244.56
273.322	259.56
273.553	256.56
273.785	260.56
274.017	257.56
274.249	271.56
274.481	283.56
274.713	264.56
274.945	272.56
275.176	254.56
275.408	259.56
275.64	264.56
275.872	262.56
276.104	272.56
276.335	278.56
276.567	264.56
276.799	285.56
277.031	269.56
277.262	274.56
277.494	271.56
277.726	264.56
277.957	299.56
278.189	301.56
278.421	294.56
278.652	292.56
278.884	299.56
279.115	272.56
279.347	274.56
279.579	293.56
279.81	305.56
280.042	304.56
280.273	279.56
280.505	272.56
280.736	293.56
280.968	280.56
281.199	282.56
281.431	311.56
281.662	314.56
281.894	307.56
282.125	310.56
282.356	306.56
282.588	306.56
282.819	288.56
283.051	303.56
283.282	308.56
283.513	310.56
283.745	313.56
283.976	311.56
284.207	321.56
284.439	322.56
284.67	321.56
284.901	324.56
285.132	295.56
285.364	317.56
285.595	315.56
285.826	310.56
286.057	310.56
286.288	326.56
286.52	333.56
286.751	320.56
286.982	321.56
287.213	320.56
287.444	354.56
287.675	347.56
287.906	333.56
288.138	337.56
288.369	329.56
288.6	328.56
288.831	343.56
289.062	318.56
289.293	322.56
289.524	335.56
289.755	309.56
289.986	338.56
290.217	343.56
290.448	325.56
290.679	351.56
290.91	344.56
291.141	341.56
291.371	339.56
291.602	339.56
291.833	320.56
292.064	343.56
292.295	347.56
292.526	359.56
292.757	338.56
292.987	334.56
293.218	317.56
293.449	339.56
293.68	335.56
293.91	356.56
294.141	359.56
294.372	370.56
294.603	341.56
294.833	359.56
295.064	337.56
295.295	343.56
295.525	354.56
295.756	361.56
295.987	356.56
296.217	348.56
296.448	348.56
296.679	359.56
296.909	375.56
297.14	367.56
297.37	367.56
297.601	359.56
297.831	391.56
298.062	360.56
298.292	367.56
298.523	368.56
298.753	372.56
298.984	363.56
299.214	372.56
299.445	379.56
299.675	367.56
299.905	379.56
300.136	385.56
300.366	368.56
300.597	386.56
300.827	381.56
301.057	361.56
301.288	401.56
301.518	390.56
301.748	374.56
301.979	396.56
302.209	385.56
302.439	388.56
302.669	394.56
302.9	365.56
303.13	374.56
303.36	390.56
303.59	399.56
303.82	401.56
304.051	415.56
304.281	391.56
304.511	394.56
304.741	389.56
304.971	413.56
305.201	383.56
305.431	398.56
305.661	384.56
305.891	394.56
306.121	409.56
306.352	397.56
306.582	394.56
306.812	390.56
307.042	401.56
307.272	400.56
307.502	402.56
307.731	380.56
307.961	405.56
308.191	387.56
308.421	388.56
308.651	396.56
308.881	392.56
309.111	388.56
309.341	383.56
309.571	403.56
309.8	393.56
310.03	399.56
310.26	393.56
310.49	427.56
310.72	430.56
310.949	394.56
311.179	419.56
311.409	432.56
311.639	421.56
311.868	416.56
312.098	426.56
312.328	410.56
312.557	443.56
312.787	427.56
313.017	427.56
313.246	432.56
313.476	415.56
313.706	443.56
313.935	423.56
314.165	437.56
314.394	435.56
314.624	423.56
314.853	423.56
315.083	436.56
315.312	438.56
315.542	445.56
315.771	411.56
316.001	449.56
316.23	435.56
316.46	425.56
316.689	435.56
316.919	436.56
317.148	450.56
317.377	431.56
317.607	441.56
317.836	443.56
318.065	431.56
318.295	437.56
318.524	435.56
318.753	445.56
318.983	434.56
319.212	435.56
319.441	430.56
319.67	434.56
319.9	446.56
320.129	456.56
320.358	447.56
320.587	449.56
320.816	460.56
321.046	440.56
321.275	437.56
321.504	450.56
321.733	443.56
321.962	454.56
322.191	442.56
322.42	451.56
322.649	456.56
322.878	460.56
323.108	437.56
323.337	446.56
323.566	465.56
323.795	461.56
324.024	445.56
324.253	474.56
324.482	472.56
324.71	467.56
324.939	454.56
325.168	448.56
325.397	460.56
325.626	489.56
325.855	493.56
326.084	473.56
326.313	499.56
326.542	489.56
326.77	498.56
326.999	477.56
327.228	457.56
327.457	494.56
327.686	482.56
327.914	464.56
328.143	482.56
328.372	486.56
328.6	487.56
328.829	496.56
329.058	487.56
329.287	480.56
329.515	491.56
329.744	461.56
329.972	475.56
330.201	515.56
330.43	500.56
330.658	497.56
330.887	508.56
331.115	485.56
331.344	509.56
331.572	487.56
331.801	513.56
332.03	497.56
332.258	510.56
332.486	543.56
332.715	533.56
332.943	522.56
333.172	536.56
333.4	544.56
333.629	549.56
333.857	563.56
334.085	600.56
334.314	568.56
334.542	564.56
334.771	557.56
334.999	566.56
335.227	579.56
335.455	564.56
335.684	538.56
335.912	561.56
336.14	583.56
336.369	578.56
336.597	543.56
336.825	552.56
337.053	556.56
337.281	546.56
337.51	543.56
337.738	534.56
337.966	545.56
338.194	540.56
338.422	545.56
338.65	540.56
338.878	548.56
339.106	540.56
339.334	529.56
339.562	529.56
339.79	495.56
340.018	506.56
340.246	529.56
340.474	530.56
340.702	522.56
340.93	512.56
341.158	503.56
341.386	523.56
341.614	501.56
341.842	511.56
342.07	535.56
342.298	532.56
342.526	516.56
342.754	529.56
342.981	513.56
343.209	511.56
343.437	525.56
343.665	545.56
343.893	547.56
344.12	539.56
344.348	532.56
344.576	555.56
344.804	539.56
345.031	544.56
345.259	515.56
345.487	533.56
345.714	518.56
345.942	520.56
346.17	522.56
346.397	527.56
346.625	498.56
346.853	519.56
347.08	496.56
347.308	505.56
347.535	520.56
347.763	499.56
347.99	513.56
348.218	508.56
348.445	501.56
348.673	493.56
348.9	505.56
349.128	500.56
349.355	500.56
349.583	496.56
349.81	496.56
350.037	508.56
350.265	509.56
350.492	496.56
350.72	490.56
350.947	495.56
351.174	524.56
351.402	489.56
351.629	501.56
351.856	503.56
352.083	496.56
352.311	502.56
352.538	486.56
352.765	488.56
352.992	504.56
353.22	500.56
353.447	477.56
353.674	483.56
353.901	469.56
354.128	482.56
354.355	496.56
354.583	485.56
354.81	469.56
355.037	493.56
355.264	499.56
355.491	478.56
355.718	494.56
355.945	487.56
356.172	501.56
356.399	483.56
356.626	488.56
356.853	513.56
357.08	511.56
357.307	499.56
357.534	491.56
357.761	479.56
357.988	487.56
358.215	501.56
358.441	492.56
358.668	497.56
358.895	487.56
359.122	470.56
359.349	496.56
359.576	483.56
359.802	512.56
360.029	477.56
360.256	487.56
360.483	514.56
360.709	472.56
360.936	505.56
361.163	493.56
361.39	513.56
361.616	497.56
361.843	504.56
362.07	502.56
362.296	485.56
362.523	521.56
362.749	488.56
362.976	508.56
363.203	508.56
363.429	529.56
363.656	507.56
363.882	516.56
364.109	509.56
364.335	520.56
364.562	483.56
364.788	507.56
365.015	496.56
365.241	503.56
365.468	513.56
365.694	521.56
365.92	499.56
366.147	499.56
366.373	514.56
366.599	520.56
366.826	502.56
367.052	517.56
367.278	497.56
367.505	517.56
367.731	517.56
367.957	516.56
368.184	516.56
368.41	528.56
368.636	518.56
368.862	521.56
369.089	534.56
369.315	509.56
369.541	512.56
369.767	530.56
369.993	520.56
370.219	550.56
370.445	549.56
370.672	535.56
370.898	545.56
371.124	555.56
371.35	533.56
371.576	578.56
371.802	544.56
372.028	561.56
372.254	543.56
372.48	548.56
372.706	551.56
372.932	539.56
373.158	560.56
373.384	558.56
373.61	573.56
373.835	584.56
374.061	524.56
374.287	541.56
374.513	549.56
374.739	543.56
374.965	577.56
375.191	576.56
375.416	581.56
375.642	584.56
375.868	564.56
376.094	555.56
376.319	559.56
376.545	557.56
376.771	565.56
376.997	581.56
377.222	539.56
377.448	549.56
377.674	536.56
377.899	560.56
378.125	538.56
378.35	547.56
378.576	561.56
378.802	546.56
379.027	522.56
379.253	533.56
379.478	565.56
379.704	532.56
379.929	551.56
380.155	535.56
380.38	547.56
380.606	548.56
380.831	556.56
381.057	558.56
381.282	556.56
381.507	560.56
381.733	549.56
381.958	552.56
382.184	556.56
382.409	549.56
382.634	579.56
382.86	563.56
383.085	548.56
383.31	547.56
383.535	588.56
383.761	588.56
383.986	579.56
384.211	593.56
384.436	597.56
384.662	592.56
384.887	610.56
385.112	606.56
385.337	605.56
385.562	604.56
385.787	596.56
386.013	640.56
386.238	610.56
386.463	622.56
386.688	625.56
386.913	609.56
387.138	612.56
387.363	628.56
387.588	611.56
387.813	597.56
388.038	613.56
388.263	628.56
388.488	625.56
388.713	602.56
388.938	617.56
389.163	605.56
389.387	608.56
389.612	621.56
389.837	645.56
390.062	596.56
390.287	615.56
390.512	626.56
390.736	620.56
390.961	638.56
391.186	636.56
391.411	635.56
391.636	647.56
391.86	628.56
392.085	650.56
392.31	641.56
392.534	649.56
392.759	653.56
392.984	633.56
393.208	642.56
393.433	623.56
393.658	651.56
393.882	631.56
394.107	617.56
394.331	636.56
394.556	634.56
394.78	662.56
395.005	646.56
395.229	664.56
395.454	660.56
395.678	662.56
395.903	663.56
396.127	666.56
396.352	662.56
396.576	665.56
396.801	667.56
397.025	668.56
397.249	704.56
397.474	674.56
397.698	658.56
397.922	695.56
398.147	689.56
398.371	705.56
398.595	716.56
398.82	737.56
399.044	723.56
399.268	771.56
399.492	786.56
399.717	816.56
399.941	852.56
400.165	794.56
400.389	796.56
400.613	768.56
400.837	731.56
401.062	738.56
401.286	764.56
401.51	723.56
401.734	729.56
401.958	716.56
402.182	738.56
402.406	736.56
402.63	744.56
402.854	765.56
403.078	739.56
403.302	752.56
403.526	737.56
403.75	753.56
403.974	768.56
404.198	744.56
404.422	751.56
404.645	757.56
404.869	763.56
405.093	743.56
405.317	769.56
405.541	751.56
405.765	752.56
405.988	733.56
406.212	767.56
406.436	782.56
406.66	794.56
406.883	780.56
407.107	828.56
407.331	823.56
407.555	820.56
407.778	842.56
408.002	846.56
408.226	847.56
408.449	863.56
408.673	805.56
408.896	801.56
409.12	815.56
409.344	833.56
409.567	812.56
409.791	807.56
410.014	771.56
410.238	773.56
410.461	774.56
410.685	807.56
410.908	796.56
411.132	807.56
411.355	738.56
411.578	766.56
411.802	763.56
412.025	787.56
412.249	757.56
412.472	781.56
412.695	745.56
412.919	734.56
413.142	718.56
413.365	741.56
413.589	765.56
413.812	751.56
414.035	765.56
414.258	757.56
414.482	731.56
414.705	768.56
414.928	736.56
415.151	742.56
415.374	719.56
415.597	712.56
415.821	717.56
416.044	712.56
416.267	700.56
416.49	718.56
416.713	708.56
416.936	710.56
417.159	695.56
417.382	705.56
417.605	711.56
417.828	726.56
418.051	696.56
418.274	735.56
418.497	673.56
418.72	727.56
418.943	702.56
419.166	747.56
419.389	759.56
419.611	773.56
419.834	730.56
420.057	744.56
420.28	721.56
420.503	712.56
420.726	680.56
420.948	688.56
421.171	657.56
421.394	675.56
421.617	690.56
421.839	721.56
422.062	676.56
422.285	701.56
422.507	683.56
422.73	722.56
422.953	689.56
423.175	689.56
423.398	695.56
423.621	700.56
423.843	704.56
424.066	698.56
424.288	703.56
424.511	709.56
424.733	687.56
424.956	687.56
425.178	663.56
425.401	687.56
425.623	718.56
425.846	693.56
426.068	684.56
426.291	723.56
426.513	680.56
426.735	679.56
426.958	701.56
427.18	676.56
427.402	678.56
427.625	680.56
427.847	654.56
428.069	679.56
428.292	662.56
428.514	672.56
428.736	663.56
428.958	678.56
429.181	650.56
429.403	663.56
429.625	649.56
429.847	649.56
430.069	665.56
430.292	661.56
430.514	650.56
430.736	681.56
430.958	664.56
431.18	667.56
431.402	672.56
431.624	653.56
431.846	657.56
432.068	676.56
432.29	667.56
432.512	652.56
432.734	662.56
432.956	657.56
433.178	670.56
433.4	694.56
433.622	641.56
433.844	669.56
434.066	678.56
434.287	663.56
434.509	654.56
434.731	699.56
434.953	669.56
435.175	708.56
435.397	703.56
435.618	669.56
435.84	668.56
436.062	668.56
436.284	673.56
436.505	673.56
436.727	684.56
436.949	666.56
437.17	666.56
437.392	638.56
437.614	650.56
437.835	639.56
438.057	630.56
438.278	633.56
438.5	643.56
438.721	653.56
438.943	633.56
439.165	614.56
439.386	635.56
439.608	663.56
439.829	667.56
440.05	663.56
440.272	671.56
440.493	652.56
440.715	650.56
440.936	647.56
441.158	683.56
441.379	659.56
441.6	658.56
441.822	671.56
442.043	680.56
442.264	673.56
442.486	668.56
442.707	664.56
442.928	676.56
443.149	684.56
443.371	671.56
443.592	683.56
443.813	678.56
444.034	677.56
444.255	699.56
444.476	706.56
444.698	724.56
444.919	718.56
445.14	786.56
445.361	707.56
445.582	695.56
445.803	663.56
446.024	658.56
446.245	660.56
446.466	658.56
446.687	641.56
446.908	683.56
447.129	640.56
447.35	662.56
447.571	641.56
447.792	623.56
448.013	631.56
448.234	624.56
448.455	640.56
448.675	636.56
448.896	614.56
449.117	616.56
449.338	584.56
449.559	626.56
449.779	604.56
450	604.56
450.221	605.56
450.442	597.56
450.662	615.56
450.883	596.56
451.104	619.56
451.324	610.56
451.545	591.56
451.766	622.56
451.986	595.56
452.207	598.56
452.428	617.56
452.648	607.56
452.869	592.56
453.089	555.56
453.31	587.56
453.53	575.56
453.751	581.56
453.971	606.56
454.192	567.56
454.412	595.56
454.633	580.56
454.853	561.56
455.073	559.56
455.294	589.56
455.514	584.56
455.734	583.56
455.955	579.56
456.175	589.56
456.395	581.56
456.616	583.56
456.836	589.56
457.056	582.56
457.276	540.56
457.497	583.56
457.717	587.56
457.937	601.56
458.157	610.56
458.377	613.56
458.598	595.56
458.818	593.56
459.038	624.56
459.258	643.56
459.478	663.56
459.698	649.56
459.918	638.56
460.138	664.56
460.358	700.56
460.578	673.56
460.798	702.56
461.018	712.56
461.238	711.56
461.458	705.56
461.678	698.56
461.898	710.56
462.118	691.56
462.338	742.56
462.558	764.56
462.777	753.56
462.997	761.56
463.217	783.56
463.437	803.56
463.657	769.56
463.876	769.56
464.096	772.56
464.316	736.56
464.536	744.56
464.755	749.56
464.975	725.56
465.195	717.56
465.414	685.56
465.634	669.56
465.854	672.56
466.073	665.56
466.293	677.56
466.512	639.56
466.732	647.56
466.951	646.56
467.171	627.56
467.391	635.56
467.61	636.56
467.829	649.56
468.049	622.56
468.268	616.56
468.488	611.56
468.707	606.56
468.927	614.56
469.146	623.56
469.365	619.56
469.585	619.56
469.804	625.56
470.023	654.56
470.243	635.56
470.462	626.56
470.681	660.56
470.901	636.56
471.12	631.56
471.339	619.56
471.558	646.56
471.777	668.56
471.997	629.56
472.216	625.56
472.435	626.56
472.654	636.56
472.873	632.56
473.092	604.56
473.311	628.56
473.53	613.56
473.749	641.56
473.968	642.56
474.187	623.56
474.406	623.56
474.625	626.56
474.844	637.56
475.063	645.56
475.282	636.56
475.501	639.56
475.72	632.56
475.939	637.56
476.158	654.56
476.377	665.56
476.596	643.56
476.814	665.56
477.033	655.56
477.252	670.56
477.471	674.56
477.69	676.56
477.908	679.56
478.127	705.56
478.346	709.56
478.564	697.56
478.783	713.56
479.002	734.56
479.22	735.56
479.439	740.56
479.658	722.56
479.876	733.56
480.095	737.56
480.313	748.56
480.532	765.56
480.751	744.56
480.969	731.56
481.188	771.56
481.406	748.56
481.624	747.56
481.843	723.56
482.061	719.56
482.28	701.56
482.498	722.56
482.717	721.56
482.935	718.56
483.153	748.56
483.372	712.56
483.59	751.56
483.808	731.56
484.027	758.56
484.245	741.56
484.463	744.56
484.681	780.56
484.9	726.56
485.118	755.56
485.336	776.56
485.554	741.56
485.772	773.56
485.99	763.56
486.209	762.56
486.427	743.56
486.645	745.56
486.863	763.56
487.081	745.56
487.299	766.56
487.517	725.56
487.735	744.56
487.953	773.56
488.171	766.56
488.389	776.56
488.607	745.56
488.825	761.56
489.043	742.56
489.261	763.56
489.479	749.56
489.696	769.56
489.914	764.56
490.132	750.56
490.35	743.56
490.568	750.56
490.786	755.56
491.003	777.56
491.221	803.56
491.439	786.56
491.657	769.56
491.874	763.56
492.092	788.56
492.31	774.56
492.527	794.56
492.745	782.56
492.963	799.56
493.18	781.56
493.398	788.56
493.615	777.56
493.833	818.56
494.05	753.56
494.268	784.56
494.485	813.56
494.703	812.56
494.92	778.56
495.138	809.56
495.355	813.56
495.573	792.56
495.79	800.56
496.008	812.56
496.225	829.56
496.442	849.56
496.66	855.56
496.877	849.56
497.094	859.56
497.312	877.56
497.529	851.56
497.746	885.56
497.963	884.56
498.181	933.56
498.398	953.56
498.615	988.56
498.832	1003.56
499.049	1043.56
499.267	1087.56
499.484	1100.56
499.701	1131.56
499.918	1159.56
500.135	1299.56
500.352	1333.56
500.569	1348.56
500.786	1370.56
501.003	1309.56
501.22	1303.56
501.437	1255.56
