Data from Fe(NO3)3@0.0125M.TitratingCurve.Agarose3%dH2O.NegLispCup.LampEnergy10.LIBS07252019_HRD10591_16-59-10-337.txt Node
Date: Thu Jul 25 16:59:10 EDT 2019
User: cochatt
Spectrometer: HR+D1059
Trigger mode: 1
Integration Time (sec): 1.000000E-1
Scans to average: 1
Electric dark correction enabled: true
Nonlinearity correction enabled: false
Boxcar width: 0
XAxis mode: Wavelengths
Number of Pixels in Spectrum: 2048
>>>>>Begin Spectral Data<<<<<
223.165	-13.19
223.4	-13.19
223.635	-13.19
223.869	-27.19
224.104	-28.19
224.338	0.81
224.573	-4.19
224.808	-21.19
225.042	-16.19
225.277	-1.19
225.511	-6.19
225.746	-5.19
225.98	14.81
226.215	2.81
226.449	15.81
226.683	24.81
226.918	33.81
227.152	29.81
227.387	36.81
227.621	36.81
227.856	52.81
228.09	39.81
228.324	58.81
228.559	68.81
228.793	67.81
229.027	74.81
229.262	101.81
229.496	98.81
229.73	87.81
229.964	93.81
230.199	111.81
230.433	105.81
230.667	102.81
230.901	93.81
231.136	98.81
231.37	120.81
231.604	122.81
231.838	122.81
232.072	112.81
232.306	128.81
232.541	114.81
232.775	119.81
233.009	114.81
233.243	120.81
233.477	129.81
233.711	127.81
233.945	121.81
234.179	129.81
234.413	121.81
234.647	127.81
234.881	135.81
235.115	113.81
235.349	130.81
235.583	146.81
235.817	133.81
236.051	114.81
236.285	119.81
236.519	137.81
236.753	140.81
236.987	129.81
237.221	136.81
237.455	131.81
237.689	126.81
237.922	122.81
238.156	135.81
238.39	134.81
238.624	144.81
238.858	139.81
239.091	133.81
239.325	131.81
239.559	134.81
239.793	153.81
240.027	145.81
240.26	126.81
240.494	130.81
240.728	134.81
240.961	147.81
241.195	151.81
241.429	140.81
241.662	142.81
241.896	152.81
242.13	156.81
242.363	139.81
242.597	133.81
242.83	145.81
243.064	159.81
243.298	156.81
243.531	155.81
243.765	143.81
243.998	166.81
244.232	162.81
244.465	161.81
244.699	159.81
244.932	174.81
245.166	167.81
245.399	173.81
245.633	154.81
245.866	167.81
246.099	173.81
246.333	161.81
246.566	164.81
246.8	143.81
247.033	155.81
247.266	165.81
247.5	155.81
247.733	191.81
247.966	187.81
248.2	170.81
248.433	183.81
248.666	185.81
248.899	190.81
249.133	170.81
249.366	191.81
249.599	184.81
249.832	193.81
250.066	202.81
250.299	193.81
250.532	190.81
250.765	173.81
250.998	197.81
251.231	198.81
251.465	201.81
251.698	177.81
251.931	219.81
252.164	199.81
252.397	202.81
252.63	209.81
252.863	182.81
253.096	187.81
253.329	203.81
253.562	193.81
253.795	202.81
254.028	218.81
254.261	213.81
254.494	200.81
254.727	200.81
254.96	235.81
255.193	211.81
255.426	209.81
255.659	208.81
255.892	208.81
256.124	224.81
256.357	229.81
256.59	205.81
256.823	202.81
257.056	209.81
257.289	234.81
257.521	209.81
257.754	210.81
257.987	231.81
258.22	222.81
258.452	238.81
258.685	228.81
258.918	238.81
259.151	228.81
259.383	221.81
259.616	229.81
259.849	235.81
260.081	252.81
260.314	253.81
260.547	237.81
260.779	233.81
261.012	243.81
261.244	243.81
261.477	251.81
261.71	257.81
261.942	254.81
262.175	256.81
262.407	247.81
262.64	257.81
262.872	243.81
263.105	248.81
263.337	259.81
263.57	257.81
263.802	245.81
264.035	255.81
264.267	247.81
264.499	227.81
264.732	258.81
264.964	257.81
265.197	262.81
265.429	244.81
265.661	233.81
265.894	263.81
266.126	286.81
266.358	275.81
266.591	258.81
266.823	266.81
267.055	283.81
267.287	267.81
267.52	270.81
267.752	271.81
267.984	268.81
268.216	263.81
268.448	293.81
268.681	281.81
268.913	266.81
269.145	291.81
269.377	294.81
269.609	278.81
269.841	273.81
270.073	289.81
270.306	294.81
270.538	296.81
270.77	278.81
271.002	293.81
271.234	282.81
271.466	298.81
271.698	295.81
271.93	289.81
272.162	309.81
272.394	305.81
272.626	295.81
272.858	302.81
273.09	291.81
273.322	286.81
273.553	303.81
273.785	304.81
274.017	324.81
274.249	339.81
274.481	327.81
274.713	325.81
274.945	336.81
275.176	339.81
275.408	333.81
275.64	329.81
275.872	353.81
276.104	340.81
276.335	341.81
276.567	322.81
276.799	321.81
277.031	339.81
277.262	335.81
277.494	325.81
277.726	333.81
277.957	346.81
278.189	335.81
278.421	327.81
278.652	342.81
278.884	337.81
279.115	331.81
279.347	349.81
279.579	333.81
279.81	334.81
280.042	339.81
280.273	325.81
280.505	347.81
280.736	330.81
280.968	332.81
281.199	338.81
281.431	365.81
281.662	369.81
281.894	359.81
282.125	341.81
282.356	358.81
282.588	351.81
282.819	344.81
283.051	361.81
283.282	366.81
283.513	375.81
283.745	372.81
283.976	351.81
284.207	368.81
284.439	373.81
284.67	370.81
284.901	375.81
285.132	383.81
285.364	357.81
285.595	378.81
285.826	377.81
286.057	395.81
286.288	381.81
286.52	391.81
286.751	388.81
286.982	392.81
287.213	384.81
287.444	393.81
287.675	404.81
287.906	380.81
288.138	403.81
288.369	401.81
288.6	414.81
288.831	391.81
289.062	379.81
289.293	392.81
289.524	391.81
289.755	395.81
289.986	402.81
290.217	402.81
290.448	399.81
290.679	404.81
290.91	415.81
291.141	408.81
291.371	431.81
291.602	409.81
291.833	401.81
292.064	410.81
292.295	425.81
292.526	438.81
292.757	408.81
292.987	421.81
293.218	414.81
293.449	411.81
293.68	419.81
293.91	434.81
294.141	409.81
294.372	421.81
294.603	415.81
294.833	414.81
295.064	430.81
295.295	442.81
295.525	418.81
295.756	425.81
295.987	430.81
296.217	425.81
296.448	433.81
296.679	432.81
296.909	439.81
297.14	401.81
297.37	448.81
297.601	455.81
297.831	449.81
298.062	424.81
298.292	441.81
298.523	447.81
298.753	461.81
298.984	449.81
299.214	432.81
299.445	439.81
299.675	475.81
299.905	463.81
300.136	447.81
300.366	463.81
300.597	462.81
300.827	465.81
301.057	449.81
301.288	461.81
301.518	467.81
301.748	457.81
301.979	479.81
302.209	467.81
302.439	459.81
302.669	471.81
302.9	468.81
303.13	482.81
303.36	470.81
303.59	473.81
303.82	473.81
304.051	474.81
304.281	476.81
304.511	494.81
304.741	478.81
304.971	459.81
305.201	485.81
305.431	477.81
305.661	478.81
305.891	486.81
306.121	496.81
306.352	491.81
306.582	464.81
306.812	488.81
307.042	478.81
307.272	486.81
307.502	500.81
307.731	499.81
307.961	485.81
308.191	489.81
308.421	497.81
308.651	476.81
308.881	497.81
309.111	513.81
309.341	492.81
309.571	499.81
309.8	516.81
310.03	487.81
310.26	507.81
310.49	493.81
310.72	483.81
310.949	521.81
311.179	492.81
311.409	509.81
311.639	530.81
311.868	530.81
312.098	533.81
312.328	531.81
312.557	522.81
312.787	545.81
313.017	535.81
313.246	534.81
313.476	538.81
313.706	564.81
313.935	537.81
314.165	545.81
314.394	550.81
314.624	535.81
314.853	541.81
315.083	558.81
315.312	519.81
315.542	572.81
315.771	547.81
316.001	566.81
316.23	539.81
316.46	540.81
316.689	540.81
316.919	554.81
317.148	555.81
317.377	552.81
317.607	573.81
317.836	551.81
318.065	541.81
318.295	569.81
318.524	574.81
318.753	567.81
318.983	594.81
319.212	548.81
319.441	574.81
319.67	567.81
319.9	529.81
320.129	578.81
320.358	566.81
320.587	549.81
320.816	573.81
321.046	580.81
321.275	563.81
321.504	573.81
321.733	597.81
321.962	579.81
322.191	571.81
322.42	584.81
322.649	586.81
322.878	582.81
323.108	587.81
323.337	577.81
323.566	581.81
323.795	583.81
324.024	581.81
324.253	587.81
324.482	615.81
324.71	599.81
324.939	621.81
325.168	610.81
325.397	609.81
325.626	611.81
325.855	616.81
326.084	606.81
326.313	593.81
326.542	631.81
326.77	611.81
326.999	610.81
327.228	598.81
327.457	605.81
327.686	626.81
327.914	621.81
328.143	602.81
328.372	631.81
328.6	611.81
328.829	613.81
329.058	617.81
329.287	614.81
329.515	635.81
329.744	622.81
329.972	622.81
330.201	613.81
330.43	641.81
330.658	617.81
330.887	627.81
331.115	633.81
331.344	633.81
331.572	654.81
331.801	627.81
332.03	619.81
332.258	645.81
332.486	626.81
332.715	643.81
332.943	657.81
333.172	657.81
333.4	665.81
333.629	678.81
333.857	653.81
334.085	657.81
334.314	666.81
334.542	674.81
334.771	662.81
334.999	676.81
335.227	681.81
335.455	650.81
335.684	689.81
335.912	677.81
336.14	646.81
336.369	659.81
336.597	679.81
336.825	655.81
337.053	677.81
337.281	671.81
337.51	649.81
337.738	670.81
337.966	663.81
338.194	677.81
338.422	658.81
338.65	650.81
338.878	681.81
339.106	646.81
339.334	683.81
339.562	652.81
339.79	649.81
340.018	662.81
340.246	665.81
340.474	648.81
340.702	663.81
340.93	651.81
341.158	667.81
341.386	635.81
341.614	632.81
341.842	657.81
342.07	642.81
342.298	653.81
342.526	658.81
342.754	644.81
342.981	641.81
343.209	655.81
343.437	670.81
343.665	682.81
343.893	669.81
344.12	686.81
344.348	679.81
344.576	646.81
344.804	676.81
345.031	674.81
345.259	691.81
345.487	675.81
345.714	667.81
345.942	660.81
346.17	662.81
346.397	689.81
346.625	646.81
346.853	666.81
347.08	663.81
347.308	668.81
347.535	671.81
347.763	657.81
347.99	636.81
348.218	649.81
348.445	649.81
348.673	651.81
348.9	639.81
349.128	651.81
349.355	637.81
349.583	657.81
349.81	655.81
350.037	633.81
350.265	668.81
350.492	666.81
350.72	648.81
350.947	655.81
351.174	625.81
351.402	655.81
351.629	659.81
351.856	628.81
352.083	647.81
352.311	655.81
352.538	640.81
352.765	636.81
352.992	660.81
353.22	627.81
353.447	657.81
353.674	636.81
353.901	634.81
354.128	652.81
354.355	639.81
354.583	642.81
354.81	665.81
355.037	631.81
355.264	660.81
355.491	641.81
355.718	641.81
355.945	655.81
356.172	631.81
356.399	648.81
356.626	655.81
356.853	659.81
357.08	622.81
357.307	655.81
357.534	644.81
357.761	640.81
357.988	660.81
358.215	642.81
358.441	653.81
358.668	652.81
358.895	654.81
359.122	636.81
359.349	642.81
359.576	649.81
359.802	656.81
360.029	678.81
360.256	660.81
360.483	650.81
360.709	657.81
360.936	644.81
361.163	671.81
361.39	662.81
361.616	675.81
361.843	662.81
362.07	662.81
362.296	681.81
362.523	658.81
362.749	647.81
362.976	655.81
363.203	669.81
363.429	671.81
363.656	648.81
363.882	655.81
364.109	676.81
364.335	675.81
364.562	661.81
364.788	679.81
365.015	674.81
365.241	675.81
365.468	682.81
365.694	661.81
365.92	651.81
366.147	678.81
366.373	645.81
366.599	698.81
366.826	699.81
367.052	651.81
367.278	676.81
367.505	679.81
367.731	685.81
367.957	682.81
368.184	674.81
368.41	673.81
368.636	686.81
368.862	712.81
369.089	693.81
369.315	679.81
369.541	685.81
369.767	687.81
369.993	685.81
370.219	697.81
370.445	710.81
370.672	694.81
370.898	684.81
371.124	717.81
371.35	704.81
371.576	712.81
371.802	709.81
372.028	721.81
372.254	709.81
372.48	699.81
372.706	691.81
372.932	704.81
373.158	708.81
373.384	722.81
373.61	708.81
373.835	729.81
374.061	711.81
374.287	701.81
374.513	716.81
374.739	737.81
374.965	714.81
375.191	715.81
375.416	724.81
375.642	699.81
375.868	714.81
376.094	705.81
376.319	703.81
376.545	718.81
376.771	713.81
376.997	697.81
377.222	687.81
377.448	690.81
377.674	710.81
377.899	691.81
378.125	681.81
378.35	701.81
378.576	691.81
378.802	705.81
379.027	720.81
379.253	691.81
379.478	694.81
379.704	706.81
379.929	707.81
380.155	693.81
380.38	696.81
380.606	669.81
380.831	705.81
381.057	728.81
381.282	719.81
381.507	706.81
381.733	712.81
381.958	735.81
382.184	722.81
382.409	687.81
382.634	714.81
382.86	718.81
383.085	719.81
383.31	740.81
383.535	735.81
383.761	722.81
383.986	734.81
384.211	720.81
384.436	722.81
384.662	735.81
384.887	744.81
385.112	770.81
385.337	763.81
385.562	751.81
385.787	762.81
386.013	765.81
386.238	745.81
386.463	770.81
386.688	756.81
386.913	740.81
387.138	766.81
387.363	783.81
387.588	731.81
387.813	768.81
388.038	749.81
388.263	771.81
388.488	766.81
388.713	781.81
388.938	766.81
389.163	737.81
389.387	772.81
389.612	760.81
389.837	788.81
390.062	775.81
390.287	792.81
390.512	767.81
390.736	778.81
390.961	750.81
391.186	782.81
391.411	795.81
391.636	795.81
391.86	793.81
392.085	791.81
392.31	763.81
392.534	778.81
392.759	787.81
392.984	800.81
393.208	790.81
393.433	791.81
393.658	788.81
393.882	793.81
394.107	778.81
394.331	785.81
394.556	777.81
394.78	785.81
395.005	770.81
395.229	801.81
395.454	815.81
395.678	794.81
395.903	814.81
396.127	826.81
396.352	788.81
396.576	788.81
396.801	808.81
397.025	803.81
397.249	802.81
397.474	830.81
397.698	797.81
397.922	809.81
398.147	831.81
398.371	829.81
398.595	822.81
398.82	862.81
399.044	826.81
399.268	839.81
399.492	853.81
399.717	873.81
399.941	870.81
400.165	887.81
400.389	893.81
400.613	877.81
400.837	859.81
401.062	871.81
401.286	854.81
401.51	833.81
401.734	862.81
401.958	859.81
402.182	865.81
402.406	837.81
402.63	843.81
402.854	858.81
403.078	853.81
403.302	859.81
403.526	842.81
403.75	855.81
403.974	859.81
404.198	853.81
404.422	828.81
404.645	835.81
404.869	859.81
405.093	877.81
405.317	871.81
405.541	846.81
405.765	893.81
405.988	867.81
406.212	870.81
406.436	880.81
406.66	877.81
406.883	886.81
407.107	872.81
407.331	873.81
407.555	897.81
407.778	901.81
408.002	871.81
408.226	904.81
408.449	913.81
408.673	905.81
408.896	890.81
409.12	878.81
409.344	891.81
409.567	880.81
409.791	854.81
410.014	857.81
410.238	881.81
410.461	893.81
410.685	889.81
410.908	863.81
411.132	879.81
411.355	869.81
411.578	849.81
411.802	861.81
412.025	858.81
412.249	880.81
412.472	868.81
412.695	862.81
412.919	868.81
413.142	844.81
413.365	830.81
413.589	858.81
413.812	850.81
414.035	834.81
414.258	849.81
414.482	842.81
414.705	839.81
414.928	831.81
415.151	840.81
415.374	823.81
415.597	813.81
415.821	830.81
416.044	826.81
416.267	809.81
416.49	843.81
416.713	823.81
416.936	825.81
417.159	823.81
417.382	821.81
417.605	824.81
417.828	834.81
418.051	807.81
418.274	793.81
418.497	813.81
418.72	801.81
418.943	788.81
419.166	839.81
419.389	871.81
419.611	850.81
419.834	849.81
420.057	819.81
420.28	814.81
420.503	789.81
420.726	787.81
420.948	775.81
421.171	787.81
421.394	809.81
421.617	813.81
421.839	789.81
422.062	803.81
422.285	792.81
422.507	804.81
422.73	786.81
422.953	803.81
423.175	810.81
423.398	790.81
423.621	791.81
423.843	789.81
424.066	814.81
424.288	793.81
424.511	790.81
424.733	785.81
424.956	794.81
425.178	829.81
425.401	794.81
425.623	781.81
425.846	789.81
426.068	800.81
426.291	807.81
426.513	783.81
426.735	799.81
426.958	773.81
427.18	802.81
427.402	803.81
427.625	794.81
427.847	787.81
428.069	778.81
428.292	778.81
428.514	766.81
428.736	788.81
428.958	813.81
429.181	760.81
429.403	779.81
429.625	787.81
429.847	811.81
430.069	792.81
430.292	783.81
430.514	770.81
430.736	795.81
430.958	793.81
431.18	774.81
431.402	761.81
431.624	767.81
431.846	782.81
432.068	773.81
432.29	792.81
432.512	779.81
432.734	809.81
432.956	758.81
433.178	805.81
433.4	793.81
433.622	816.81
433.844	815.81
434.066	778.81
434.287	797.81
434.509	778.81
434.731	802.81
434.953	787.81
435.175	793.81
435.397	807.81
435.618	789.81
435.84	785.81
436.062	799.81
436.284	792.81
436.505	763.81
436.727	785.81
436.949	783.81
437.17	762.81
437.392	757.81
437.614	751.81
437.835	784.81
438.057	787.81
438.278	758.81
438.5	761.81
438.721	753.81
438.943	779.81
439.165	746.81
439.386	779.81
439.608	743.81
439.829	769.81
440.05	762.81
440.272	752.81
440.493	787.81
440.715	788.81
440.936	794.81
441.158	773.81
441.379	766.81
441.6	778.81
441.822	779.81
442.043	797.81
442.264	769.81
442.486	773.81
442.707	772.81
442.928	799.81
443.149	762.81
443.371	766.81
443.592	763.81
443.813	779.81
444.034	778.81
444.255	774.81
444.476	785.81
444.698	789.81
444.919	787.81
445.14	900.81
445.361	809.81
445.582	777.81
445.803	789.81
446.024	777.81
446.245	767.81
446.466	751.81
446.687	750.81
446.908	766.81
447.129	756.81
447.35	732.81
447.571	772.81
447.792	768.81
448.013	755.81
448.234	710.81
448.455	726.81
448.675	726.81
448.896	704.81
449.117	710.81
449.338	728.81
449.559	746.81
449.779	733.81
450	725.81
450.221	718.81
450.442	746.81
450.662	691.81
450.883	724.81
451.104	708.81
451.324	713.81
451.545	712.81
451.766	718.81
451.986	719.81
452.207	731.81
452.428	739.81
452.648	729.81
452.869	706.81
453.089	719.81
453.31	714.81
453.53	724.81
453.751	719.81
453.971	721.81
454.192	720.81
454.412	695.81
454.633	689.81
454.853	697.81
455.073	707.81
455.294	708.81
455.514	699.81
455.734	694.81
455.955	698.81
456.175	689.81
456.395	732.81
456.616	698.81
456.836	701.81
457.056	711.81
457.276	696.81
457.497	708.81
457.717	711.81
457.937	705.81
458.157	714.81
458.377	720.81
458.598	717.81
458.818	702.81
459.038	729.81
459.258	750.81
459.478	773.81
459.698	758.81
459.918	742.81
460.138	768.81
460.358	772.81
460.578	768.81
460.798	766.81
461.018	739.81
461.238	776.81
461.458	785.81
461.678	773.81
461.898	771.81
462.118	790.81
462.338	805.81
462.558	797.81
462.777	827.81
462.997	811.81
463.217	820.81
463.437	815.81
463.657	819.81
463.876	840.81
464.096	830.81
464.316	788.81
464.536	799.81
464.755	791.81
464.975	782.81
465.195	782.81
465.414	810.81
465.634	784.81
465.854	777.81
466.073	769.81
466.293	763.81
466.512	755.81
466.732	783.81
466.951	756.81
467.171	739.81
467.391	770.81
467.61	739.81
467.829	771.81
468.049	754.81
468.268	750.81
468.488	736.81
468.707	777.81
468.927	770.81
469.146	769.81
469.365	752.81
469.585	795.81
469.804	753.81
470.023	739.81
470.243	765.81
470.462	755.81
470.681	749.81
470.901	753.81
471.12	775.81
471.339	767.81
471.558	767.81
471.777	788.81
471.997	789.81
472.216	781.81
472.435	771.81
472.654	779.81
472.873	774.81
473.092	777.81
473.311	784.81
473.53	777.81
473.749	779.81
473.968	797.81
474.187	790.81
474.406	777.81
474.625	791.81
474.844	806.81
475.063	803.81
475.282	833.81
475.501	815.81
475.72	842.81
475.939	804.81
476.158	831.81
476.377	835.81
476.596	846.81
476.814	826.81
477.033	826.81
477.252	850.81
477.471	847.81
477.69	842.81
477.908	863.81
478.127	889.81
478.346	879.81
478.564	870.81
478.783	892.81
479.002	887.81
479.22	877.81
479.439	909.81
479.658	904.81
479.876	883.81
480.095	897.81
480.313	937.81
480.532	921.81
480.751	940.81
480.969	930.81
481.188	936.81
481.406	945.81
481.624	918.81
481.843	935.81
482.061	936.81
482.28	931.81
482.498	972.81
482.717	932.81
482.935	930.81
483.153	916.81
483.372	905.81
483.59	945.81
483.808	919.81
484.027	940.81
484.245	950.81
484.463	969.81
484.681	971.81
484.9	955.81
485.118	949.81
485.336	955.81
485.554	950.81
485.772	955.81
485.99	950.81
486.209	935.81
486.427	979.81
486.645	943.81
486.863	982.81
487.081	987.81
487.299	997.81
487.517	960.81
487.735	961.81
487.953	978.81
488.171	944.81
488.389	975.81
488.607	941.81
488.825	982.81
489.043	978.81
489.261	958.81
489.479	957.81
489.696	947.81
489.914	969.81
490.132	950.81
490.35	962.81
490.568	991.81
490.786	988.81
491.003	953.81
491.221	992.81
491.439	964.81
491.657	982.81
491.874	984.81
492.092	1015.81
492.31	1007.81
492.527	1015.81
492.745	1012.81
492.963	986.81
493.18	989.81
493.398	1011.81
493.615	1007.81
493.833	1011.81
494.05	1005.81
494.268	1011.81
494.485	1009.81
494.703	982.81
494.92	1008.81
495.138	998.81
495.355	991.81
495.573	1024.81
495.79	1020.81
496.008	1026.81
496.225	1039.81
496.442	1024.81
496.66	1027.81
496.877	1045.81
497.094	1057.81
497.312	1054.81
497.529	1077.81
497.746	1067.81
497.963	1096.81
498.181	1094.81
498.398	1122.81
498.615	1139.81
498.832	1134.81
499.049	1186.81
499.267	1139.81
499.484	1150.81
499.701	1186.81
499.918	1176.81
500.135	1234.81
500.352	1295.81
500.569	1233.81
500.786	1254.81
501.003	1233.81
501.22	1222.81
