Data from Fe(NO3)3@0.1M.TitratingCurve.Agarose3%dH2O.NegLispCup.LampEnergy10.LIBS07252019_HRD10591_16-41-07-345.txt Node
Date: Thu Jul 25 16:41:07 EDT 2019
User: cochatt
Spectrometer: HR+D1059
Trigger mode: 1
Integration Time (sec): 1.000000E-1
Scans to average: 1
Electric dark correction enabled: true
Nonlinearity correction enabled: false
Boxcar width: 0
XAxis mode: Wavelengths
Number of Pixels in Spectrum: 2048
>>>>>Begin Spectral Data<<<<<
223.165	-2.38
223.4	-2.38
223.635	-2.38
223.869	-16.38
224.104	-27.38
224.338	-14.38
224.573	-20.38
224.808	-8.38
225.042	-8.38
225.277	-2.38
225.511	3.62
225.746	1.62
225.98	8.62
226.215	0.62
226.449	22.62
226.683	3.62
226.918	31.62
227.152	27.62
227.387	30.62
227.621	25.62
227.856	36.62
228.09	44.62
228.324	35.62
228.559	54.62
228.793	58.62
229.027	80.62
229.262	93.62
229.496	53.62
229.73	83.62
229.964	86.62
230.199	91.62
230.433	88.62
230.667	93.62
230.901	87.62
231.136	90.62
231.37	91.62
231.604	92.62
231.838	90.62
232.072	97.62
232.306	99.62
232.541	86.62
232.775	88.62
233.009	98.62
233.243	92.62
233.477	98.62
233.711	90.62
233.945	96.62
234.179	78.62
234.413	90.62
234.647	92.62
234.881	96.62
235.115	89.62
235.349	92.62
235.583	89.62
235.817	102.62
236.051	99.62
236.285	88.62
236.519	96.62
236.753	94.62
236.987	94.62
237.221	100.62
237.455	106.62
237.689	81.62
237.922	105.62
238.156	86.62
238.39	85.62
238.624	87.62
238.858	113.62
239.091	99.62
239.325	86.62
239.559	91.62
239.793	92.62
240.027	87.62
240.26	97.62
240.494	97.62
240.728	77.62
240.961	88.62
241.195	86.62
241.429	109.62
241.662	109.62
241.896	90.62
242.13	97.62
242.363	102.62
242.597	106.62
242.83	93.62
243.064	102.62
243.298	94.62
243.531	85.62
243.765	100.62
243.998	97.62
244.232	86.62
244.465	81.62
244.699	90.62
244.932	98.62
245.166	91.62
245.399	103.62
245.633	98.62
245.866	97.62
246.099	107.62
246.333	115.62
246.566	105.62
246.8	116.62
247.033	113.62
247.266	105.62
247.5	108.62
247.733	108.62
247.966	99.62
248.2	105.62
248.433	99.62
248.666	117.62
248.899	115.62
249.133	108.62
249.366	105.62
249.599	116.62
249.832	113.62
250.066	124.62
250.299	130.62
250.532	111.62
250.765	105.62
250.998	106.62
251.231	108.62
251.465	123.62
251.698	99.62
251.931	116.62
252.164	106.62
252.397	119.62
252.63	100.62
252.863	119.62
253.096	115.62
253.329	113.62
253.562	118.62
253.795	115.62
254.028	125.62
254.261	137.62
254.494	122.62
254.727	109.62
254.96	123.62
255.193	118.62
255.426	117.62
255.659	114.62
255.892	109.62
256.124	123.62
256.357	120.62
256.59	116.62
256.823	121.62
257.056	119.62
257.289	120.62
257.521	126.62
257.754	120.62
257.987	106.62
258.22	119.62
258.452	123.62
258.685	120.62
258.918	134.62
259.151	132.62
259.383	135.62
259.616	122.62
259.849	106.62
260.081	129.62
260.314	115.62
260.547	128.62
260.779	135.62
261.012	122.62
261.244	110.62
261.477	125.62
261.71	114.62
261.942	131.62
262.175	124.62
262.407	131.62
262.64	133.62
262.872	133.62
263.105	135.62
263.337	148.62
263.57	133.62
263.802	132.62
264.035	141.62
264.267	133.62
264.499	112.62
264.732	119.62
264.964	117.62
265.197	121.62
265.429	135.62
265.661	126.62
265.894	128.62
266.126	128.62
266.358	134.62
266.591	119.62
266.823	143.62
267.055	128.62
267.287	151.62
267.52	141.62
267.752	131.62
267.984	124.62
268.216	135.62
268.448	142.62
268.681	132.62
268.913	145.62
269.145	138.62
269.377	135.62
269.609	134.62
269.841	138.62
270.073	128.62
270.306	122.62
270.538	141.62
270.77	138.62
271.002	147.62
271.234	134.62
271.466	149.62
271.698	139.62
271.93	125.62
272.162	135.62
272.394	147.62
272.626	139.62
272.858	137.62
273.09	147.62
273.322	140.62
273.553	135.62
273.785	143.62
274.017	155.62
274.249	134.62
274.481	145.62
274.713	145.62
274.945	136.62
275.176	139.62
275.408	148.62
275.64	155.62
275.872	154.62
276.104	145.62
276.335	119.62
276.567	129.62
276.799	136.62
277.031	154.62
277.262	152.62
277.494	135.62
277.726	153.62
277.957	159.62
278.189	149.62
278.421	154.62
278.652	133.62
278.884	167.62
279.115	157.62
279.347	161.62
279.579	142.62
279.81	140.62
280.042	166.62
280.273	131.62
280.505	153.62
280.736	157.62
280.968	155.62
281.199	135.62
281.431	159.62
281.662	149.62
281.894	153.62
282.125	152.62
282.356	165.62
282.588	156.62
282.819	170.62
283.051	149.62
283.282	155.62
283.513	167.62
283.745	156.62
283.976	141.62
284.207	168.62
284.439	176.62
284.67	157.62
284.901	169.62
285.132	155.62
285.364	155.62
285.595	172.62
285.826	163.62
286.057	171.62
286.288	164.62
286.52	176.62
286.751	175.62
286.982	170.62
287.213	163.62
287.444	184.62
287.675	177.62
287.906	182.62
288.138	176.62
288.369	178.62
288.6	165.62
288.831	164.62
289.062	187.62
289.293	167.62
289.524	171.62
289.755	170.62
289.986	175.62
290.217	169.62
290.448	155.62
290.679	170.62
290.91	171.62
291.141	172.62
291.371	188.62
291.602	162.62
291.833	175.62
292.064	173.62
292.295	171.62
292.526	180.62
292.757	183.62
292.987	164.62
293.218	177.62
293.449	162.62
293.68	178.62
293.91	163.62
294.141	181.62
294.372	157.62
294.603	162.62
294.833	172.62
295.064	179.62
295.295	165.62
295.525	159.62
295.756	178.62
295.987	165.62
296.217	173.62
296.448	179.62
296.679	172.62
296.909	191.62
297.14	177.62
297.37	164.62
297.601	181.62
297.831	183.62
298.062	181.62
298.292	181.62
298.523	195.62
298.753	189.62
298.984	188.62
299.214	175.62
299.445	174.62
299.675	189.62
299.905	184.62
300.136	164.62
300.366	181.62
300.597	183.62
300.827	191.62
301.057	208.62
301.288	191.62
301.518	189.62
301.748	182.62
301.979	202.62
302.209	195.62
302.439	187.62
302.669	188.62
302.9	201.62
303.13	176.62
303.36	202.62
303.59	183.62
303.82	181.62
304.051	187.62
304.281	190.62
304.511	188.62
304.741	185.62
304.971	187.62
305.201	192.62
305.431	183.62
305.661	189.62
305.891	184.62
306.121	192.62
306.352	182.62
306.582	199.62
306.812	183.62
307.042	189.62
307.272	189.62
307.502	195.62
307.731	202.62
307.961	193.62
308.191	170.62
308.421	193.62
308.651	194.62
308.881	192.62
309.111	172.62
309.341	178.62
309.571	182.62
309.8	183.62
310.03	188.62
310.26	192.62
310.49	184.62
310.72	200.62
310.949	195.62
311.179	194.62
311.409	189.62
311.639	168.62
311.868	195.62
312.098	211.62
312.328	207.62
312.557	201.62
312.787	186.62
313.017	177.62
313.246	201.62
313.476	193.62
313.706	209.62
313.935	192.62
314.165	209.62
314.394	205.62
314.624	199.62
314.853	201.62
315.083	191.62
315.312	215.62
315.542	200.62
315.771	194.62
316.001	194.62
316.23	199.62
316.46	192.62
316.689	199.62
316.919	187.62
317.148	196.62
317.377	201.62
317.607	193.62
317.836	205.62
318.065	201.62
318.295	191.62
318.524	190.62
318.753	194.62
318.983	200.62
319.212	186.62
319.441	200.62
319.67	200.62
319.9	214.62
320.129	191.62
320.358	199.62
320.587	202.62
320.816	185.62
321.046	193.62
321.275	195.62
321.504	203.62
321.733	201.62
321.962	203.62
322.191	212.62
322.42	208.62
322.649	202.62
322.878	211.62
323.108	213.62
323.337	194.62
323.566	204.62
323.795	200.62
324.024	216.62
324.253	218.62
324.482	205.62
324.71	197.62
324.939	211.62
325.168	218.62
325.397	205.62
325.626	205.62
325.855	203.62
326.084	227.62
326.313	210.62
326.542	210.62
326.77	212.62
326.999	204.62
327.228	221.62
327.457	211.62
327.686	221.62
327.914	217.62
328.143	219.62
328.372	206.62
328.6	220.62
328.829	217.62
329.058	214.62
329.287	225.62
329.515	215.62
329.744	211.62
329.972	218.62
330.201	205.62
330.43	208.62
330.658	214.62
330.887	219.62
331.115	223.62
331.344	210.62
331.572	225.62
331.801	221.62
332.03	225.62
332.258	238.62
332.486	232.62
332.715	261.62
332.943	241.62
333.172	255.62
333.4	266.62
333.629	275.62
333.857	265.62
334.085	244.62
334.314	251.62
334.542	258.62
334.771	247.62
334.999	267.62
335.227	251.62
335.455	251.62
335.684	246.62
335.912	271.62
336.14	240.62
336.369	258.62
336.597	239.62
336.825	226.62
337.053	233.62
337.281	245.62
337.51	232.62
337.738	241.62
337.966	235.62
338.194	217.62
338.422	233.62
338.65	236.62
338.878	227.62
339.106	223.62
339.334	233.62
339.562	217.62
339.79	232.62
340.018	229.62
340.246	218.62
340.474	213.62
340.702	232.62
340.93	234.62
341.158	229.62
341.386	241.62
341.614	227.62
341.842	224.62
342.07	224.62
342.298	242.62
342.526	224.62
342.754	221.62
342.981	220.62
343.209	230.62
343.437	258.62
343.665	247.62
343.893	264.62
344.12	259.62
344.348	256.62
344.576	231.62
344.804	235.62
345.031	235.62
345.259	222.62
345.487	231.62
345.714	223.62
345.942	215.62
346.17	229.62
346.397	209.62
346.625	218.62
346.853	214.62
347.08	227.62
347.308	219.62
347.535	218.62
347.763	221.62
347.99	218.62
348.218	230.62
348.445	212.62
348.673	200.62
348.9	220.62
349.128	212.62
349.355	221.62
349.583	225.62
349.81	226.62
350.037	217.62
350.265	199.62
350.492	228.62
350.72	217.62
350.947	223.62
351.174	222.62
351.402	207.62
351.629	209.62
351.856	198.62
352.083	208.62
352.311	221.62
352.538	199.62
352.765	218.62
352.992	202.62
353.22	211.62
353.447	216.62
353.674	211.62
353.901	222.62
354.128	212.62
354.355	215.62
354.583	224.62
354.81	200.62
355.037	215.62
355.264	220.62
355.491	234.62
355.718	201.62
355.945	218.62
356.172	201.62
356.399	222.62
356.626	233.62
356.853	209.62
357.08	229.62
357.307	209.62
357.534	208.62
357.761	221.62
357.988	221.62
358.215	210.62
358.441	214.62
358.668	220.62
358.895	218.62
359.122	220.62
359.349	220.62
359.576	209.62
359.802	212.62
360.029	205.62
360.256	201.62
360.483	215.62
360.709	209.62
360.936	197.62
361.163	229.62
361.39	210.62
361.616	215.62
361.843	212.62
362.07	213.62
362.296	216.62
362.523	213.62
362.749	216.62
362.976	213.62
363.203	221.62
363.429	224.62
363.656	214.62
363.882	203.62
364.109	225.62
364.335	205.62
364.562	224.62
364.788	220.62
365.015	218.62
365.241	223.62
365.468	239.62
365.694	216.62
365.92	208.62
366.147	204.62
366.373	220.62
366.599	225.62
366.826	221.62
367.052	218.62
367.278	212.62
367.505	196.62
367.731	203.62
367.957	216.62
368.184	220.62
368.41	234.62
368.636	220.62
368.862	219.62
369.089	226.62
369.315	229.62
369.541	221.62
369.767	223.62
369.993	229.62
370.219	227.62
370.445	234.62
370.672	223.62
370.898	227.62
371.124	236.62
371.35	248.62
371.576	244.62
371.802	248.62
372.028	239.62
372.254	224.62
372.48	239.62
372.706	254.62
372.932	249.62
373.158	235.62
373.384	232.62
373.61	252.62
373.835	231.62
374.061	218.62
374.287	244.62
374.513	250.62
374.739	232.62
374.965	248.62
375.191	259.62
375.416	243.62
375.642	243.62
375.868	233.62
376.094	243.62
376.319	249.62
376.545	243.62
376.771	230.62
376.997	235.62
377.222	223.62
377.448	243.62
377.674	233.62
377.899	232.62
378.125	240.62
378.35	252.62
378.576	240.62
378.802	237.62
379.027	236.62
379.253	237.62
379.478	225.62
379.704	236.62
379.929	241.62
380.155	226.62
380.38	261.62
380.606	248.62
380.831	247.62
381.057	238.62
381.282	225.62
381.507	235.62
381.733	252.62
381.958	242.62
382.184	230.62
382.409	258.62
382.634	253.62
382.86	245.62
383.085	247.62
383.31	248.62
383.535	246.62
383.761	280.62
383.986	248.62
384.211	272.62
384.436	252.62
384.662	286.62
384.887	263.62
385.112	264.62
385.337	280.62
385.562	267.62
385.787	253.62
386.013	274.62
386.238	266.62
386.463	272.62
386.688	264.62
386.913	263.62
387.138	287.62
387.363	257.62
387.588	266.62
387.813	268.62
388.038	265.62
388.263	257.62
388.488	267.62
388.713	278.62
388.938	269.62
389.163	271.62
389.387	278.62
389.612	266.62
389.837	276.62
390.062	266.62
390.287	269.62
390.512	268.62
390.736	269.62
390.961	272.62
391.186	281.62
391.411	300.62
391.636	292.62
391.86	304.62
392.085	317.62
392.31	296.62
392.534	275.62
392.759	289.62
392.984	293.62
393.208	290.62
393.433	271.62
393.658	283.62
393.882	306.62
394.107	288.62
394.331	287.62
394.556	289.62
394.78	282.62
395.005	282.62
395.229	295.62
395.454	296.62
395.678	294.62
395.903	284.62
396.127	281.62
396.352	299.62
396.576	292.62
396.801	295.62
397.025	297.62
397.249	300.62
397.474	295.62
397.698	306.62
397.922	300.62
398.147	313.62
398.371	314.62
398.595	316.62
398.82	324.62
399.044	341.62
399.268	362.62
399.492	407.62
399.717	447.62
399.941	427.62
400.165	405.62
400.389	388.62
400.613	333.62
400.837	354.62
401.062	339.62
401.286	323.62
401.51	336.62
401.734	335.62
401.958	321.62
402.182	340.62
402.406	333.62
402.63	346.62
402.854	344.62
403.078	350.62
403.302	346.62
403.526	371.62
403.75	364.62
403.974	373.62
404.198	375.62
404.422	375.62
404.645	351.62
404.869	348.62
405.093	353.62
405.317	358.62
405.541	348.62
405.765	355.62
405.988	354.62
406.212	349.62
406.436	348.62
406.66	369.62
406.883	357.62
407.107	388.62
407.331	383.62
407.555	412.62
407.778	405.62
408.002	394.62
408.226	373.62
408.449	370.62
408.673	358.62
408.896	374.62
409.12	367.62
409.344	363.62
409.567	375.62
409.791	362.62
410.014	370.62
410.238	357.62
410.461	339.62
410.685	353.62
410.908	357.62
411.132	343.62
411.355	332.62
411.578	346.62
411.802	339.62
412.025	331.62
412.249	370.62
412.472	344.62
412.695	331.62
412.919	353.62
413.142	351.62
413.365	341.62
413.589	356.62
413.812	349.62
414.035	340.62
414.258	339.62
414.482	341.62
414.705	336.62
414.928	330.62
415.151	327.62
415.374	343.62
415.597	333.62
415.821	335.62
416.044	331.62
416.267	328.62
416.49	334.62
416.713	356.62
416.936	343.62
417.159	313.62
417.382	311.62
417.605	353.62
417.828	339.62
418.051	327.62
418.274	348.62
418.497	332.62
418.72	338.62
418.943	356.62
419.166	349.62
419.389	356.62
419.611	361.62
419.834	356.62
420.057	346.62
420.28	314.62
420.503	344.62
420.726	336.62
420.948	324.62
421.171	313.62
421.394	319.62
421.617	339.62
421.839	321.62
422.062	370.62
422.285	331.62
422.507	340.62
422.73	344.62
422.953	343.62
423.175	344.62
423.398	325.62
423.621	345.62
423.843	354.62
424.066	337.62
424.288	349.62
424.511	352.62
424.733	346.62
424.956	328.62
425.178	329.62
425.401	328.62
425.623	335.62
425.846	327.62
426.068	321.62
426.291	315.62
426.513	315.62
426.735	347.62
426.958	333.62
427.18	323.62
427.402	320.62
427.625	327.62
427.847	318.62
428.069	304.62
428.292	314.62
428.514	318.62
428.736	302.62
428.958	305.62
429.181	287.62
429.403	299.62
429.625	305.62
429.847	305.62
430.069	295.62
430.292	317.62
430.514	316.62
430.736	302.62
430.958	301.62
431.18	297.62
431.402	321.62
431.624	325.62
431.846	311.62
432.068	287.62
432.29	303.62
432.512	305.62
432.734	296.62
432.956	313.62
433.178	322.62
433.4	316.62
433.622	316.62
433.844	309.62
434.066	313.62
434.287	306.62
434.509	325.62
434.731	331.62
434.953	336.62
435.175	354.62
435.397	340.62
435.618	324.62
435.84	334.62
436.062	321.62
436.284	318.62
436.505	319.62
436.727	307.62
436.949	307.62
437.17	298.62
437.392	326.62
437.614	313.62
437.835	305.62
438.057	290.62
438.278	295.62
438.5	297.62
438.721	291.62
438.943	325.62
439.165	310.62
439.386	295.62
439.608	295.62
439.829	305.62
440.05	320.62
440.272	331.62
440.493	329.62
440.715	331.62
440.936	327.62
441.158	325.62
441.379	339.62
441.6	338.62
441.822	362.62
442.043	350.62
442.264	346.62
442.486	336.62
442.707	332.62
442.928	348.62
443.149	368.62
443.371	343.62
443.592	360.62
443.813	349.62
444.034	337.62
444.255	375.62
444.476	385.62
444.698	387.62
444.919	422.62
445.14	485.62
445.361	405.62
445.582	356.62
445.803	341.62
446.024	346.62
446.245	318.62
446.466	321.62
446.687	321.62
446.908	341.62
447.129	323.62
447.35	301.62
447.571	312.62
447.792	335.62
448.013	307.62
448.234	311.62
448.455	301.62
448.675	307.62
448.896	301.62
449.117	311.62
449.338	313.62
449.559	317.62
449.779	304.62
450	301.62
450.221	291.62
450.442	294.62
450.662	299.62
450.883	320.62
451.104	303.62
451.324	309.62
451.545	286.62
451.766	291.62
451.986	288.62
452.207	303.62
452.428	292.62
452.648	289.62
452.869	277.62
453.089	272.62
453.31	288.62
453.53	269.62
453.751	291.62
453.971	281.62
454.192	296.62
454.412	287.62
454.633	275.62
454.853	296.62
455.073	304.62
455.294	285.62
455.514	275.62
455.734	296.62
455.955	287.62
456.175	276.62
456.395	263.62
456.616	265.62
456.836	275.62
457.056	269.62
457.276	263.62
457.497	265.62
457.717	290.62
457.937	270.62
458.157	279.62
458.377	281.62
458.598	276.62
458.818	285.62
459.038	299.62
459.258	309.62
459.478	314.62
459.698	324.62
459.918	322.62
460.138	335.62
460.358	333.62
460.578	364.62
460.798	358.62
461.018	352.62
461.238	345.62
461.458	355.62
461.678	347.62
461.898	339.62
462.118	360.62
462.338	369.62
462.558	383.62
462.777	392.62
462.997	399.62
463.217	435.62
463.437	420.62
463.657	400.62
463.876	393.62
464.096	393.62
464.316	395.62
464.536	402.62
464.755	408.62
464.975	385.62
465.195	368.62
465.414	343.62
465.634	330.62
465.854	324.62
466.073	310.62
466.293	314.62
466.512	307.62
466.732	301.62
466.951	310.62
467.171	299.62
467.391	305.62
467.61	316.62
467.829	305.62
468.049	300.62
468.268	290.62
468.488	268.62
468.707	291.62
468.927	292.62
469.146	299.62
469.365	287.62
469.585	309.62
469.804	291.62
470.023	298.62
470.243	303.62
470.462	309.62
470.681	335.62
470.901	328.62
471.12	301.62
471.339	319.62
471.558	315.62
471.777	295.62
471.997	323.62
472.216	322.62
472.435	302.62
472.654	283.62
472.873	287.62
473.092	281.62
473.311	279.62
473.53	275.62
473.749	292.62
473.968	303.62
474.187	294.62
474.406	260.62
474.625	274.62
474.844	280.62
475.063	271.62
475.282	288.62
475.501	292.62
475.72	300.62
475.939	300.62
476.158	280.62
476.377	285.62
476.596	296.62
476.814	317.62
477.033	296.62
477.252	293.62
477.471	305.62
477.69	315.62
477.908	335.62
478.127	335.62
478.346	335.62
478.564	323.62
478.783	340.62
479.002	353.62
479.22	346.62
479.439	321.62
479.658	348.62
479.876	340.62
480.095	335.62
480.313	352.62
480.532	357.62
480.751	363.62
480.969	344.62
481.188	322.62
481.406	312.62
481.624	337.62
481.843	297.62
482.061	306.62
482.28	323.62
482.498	313.62
482.717	314.62
482.935	307.62
483.153	308.62
483.372	321.62
483.59	332.62
483.808	323.62
484.027	314.62
484.245	320.62
484.463	332.62
484.681	343.62
484.9	344.62
485.118	311.62
485.336	333.62
485.554	335.62
485.772	301.62
485.99	304.62
486.209	324.62
486.427	336.62
486.645	331.62
486.863	330.62
487.081	323.62
487.299	324.62
487.517	334.62
487.735	323.62
487.953	342.62
488.171	315.62
488.389	337.62
488.607	332.62
488.825	329.62
489.043	326.62
489.261	327.62
489.479	337.62
489.696	327.62
489.914	315.62
490.132	336.62
490.35	338.62
490.568	331.62
490.786	327.62
491.003	322.62
491.221	341.62
491.439	332.62
491.657	327.62
491.874	345.62
492.092	356.62
492.31	348.62
492.527	351.62
492.745	359.62
492.963	321.62
493.18	336.62
493.398	343.62
493.615	329.62
493.833	328.62
494.05	361.62
494.268	347.62
494.485	351.62
494.703	341.62
494.92	360.62
495.138	353.62
495.355	353.62
495.573	347.62
495.79	341.62
496.008	345.62
496.225	369.62
496.442	361.62
496.66	371.62
496.877	357.62
497.094	375.62
497.312	371.62
497.529	368.62
497.746	388.62
497.963	403.62
498.181	403.62
498.398	406.62
498.615	416.62
498.832	451.62
499.049	489.62
499.267	518.62
499.484	539.62
499.701	575.62
499.918	653.62
500.135	711.62
500.352	819.62
500.569	835.62
500.786	835.62
501.003	753.62
501.22	676.62
501.437	623.62
501.654	570.62
501.871	529.62
502.088	484.62
502.305	463.62
502.522	452.62
