Data from Fe(NO3)3@0.05M.TitratingCurve.Agarose3%dH2O.NegLispCup.LampEnergy10.LIBS07252019_HRD10591_16-45-52-334.txt Node
Date: Thu Jul 25 16:45:52 EDT 2019
User: cochatt
Spectrometer: HR+D1059
Trigger mode: 1
Integration Time (sec): 1.000000E-1
Scans to average: 1
Electric dark correction enabled: true
Nonlinearity correction enabled: false
Boxcar width: 0
XAxis mode: Wavelengths
Number of Pixels in Spectrum: 2048
>>>>>Begin Spectral Data<<<<<
223.165	-10.25
223.4	-10.25
223.635	-10.25
223.869	-18.25
224.104	-23.25
224.338	-8.25
224.573	-14.25
224.808	-16.25
225.042	-13.25
225.277	-22.25
225.511	-6.25
225.746	-8.25
225.98	18.75
226.215	9.75
226.449	26.75
226.683	15.75
226.918	33.75
227.152	35.75
227.387	42.75
227.621	41.75
227.856	39.75
228.09	46.75
228.324	41.75
228.559	64.75
228.793	73.75
229.027	115.75
229.262	110.75
229.496	131.75
229.73	143.75
229.964	136.75
230.199	132.75
230.433	135.75
230.667	152.75
230.901	143.75
231.136	165.75
231.37	143.75
231.604	163.75
231.838	157.75
232.072	165.75
232.306	164.75
232.541	172.75
232.775	182.75
233.009	170.75
233.243	179.75
233.477	172.75
233.711	188.75
233.945	202.75
234.179	191.75
234.413	187.75
234.647	188.75
234.881	210.75
235.115	207.75
235.349	200.75
235.583	180.75
235.817	170.75
236.051	187.75
236.285	192.75
236.519	225.75
236.753	207.75
236.987	212.75
237.221	201.75
237.455	214.75
237.689	209.75
237.922	213.75
238.156	223.75
238.39	209.75
238.624	262.75
238.858	257.75
239.091	225.75
239.325	229.75
239.559	223.75
239.793	235.75
240.027	290.75
240.26	259.75
240.494	234.75
240.728	238.75
240.961	267.75
241.195	245.75
241.429	250.75
241.662	260.75
241.896	246.75
242.13	241.75
242.363	248.75
242.597	226.75
242.83	259.75
243.064	243.75
243.298	274.75
243.531	284.75
243.765	265.75
243.998	266.75
244.232	245.75
244.465	263.75
244.699	267.75
244.932	285.75
245.166	277.75
245.399	280.75
245.633	272.75
245.866	271.75
246.099	279.75
246.333	270.75
246.566	291.75
246.8	297.75
247.033	288.75
247.266	285.75
247.5	283.75
247.733	286.75
247.966	294.75
248.2	293.75
248.433	300.75
248.666	314.75
248.899	322.75
249.133	342.75
249.366	349.75
249.599	357.75
249.832	339.75
250.066	321.75
250.299	321.75
250.532	326.75
250.765	335.75
250.998	325.75
251.231	335.75
251.465	343.75
251.698	329.75
251.931	330.75
252.164	333.75
252.397	348.75
252.63	355.75
252.863	373.75
253.096	397.75
253.329	391.75
253.562	371.75
253.795	393.75
254.028	411.75
254.261	407.75
254.494	391.75
254.727	361.75
254.96	369.75
255.193	405.75
255.426	389.75
255.659	360.75
255.892	357.75
256.124	355.75
256.357	395.75
256.59	390.75
256.823	399.75
257.056	372.75
257.289	382.75
257.521	383.75
257.754	374.75
257.987	373.75
258.22	402.75
258.452	405.75
258.685	410.75
258.918	441.75
259.151	427.75
259.383	428.75
259.616	415.75
259.849	459.75
260.081	497.75
260.314	561.75
260.547	446.75
260.779	455.75
261.012	492.75
261.244	474.75
261.477	471.75
261.71	480.75
261.942	446.75
262.175	428.75
262.407	412.75
262.64	446.75
262.872	465.75
263.105	484.75
263.337	500.75
263.57	487.75
263.802	437.75
264.035	425.75
264.267	426.75
264.499	413.75
264.732	411.75
264.964	428.75
265.197	418.75
265.429	451.75
265.661	441.75
265.894	420.75
266.126	447.75
266.358	413.75
266.591	424.75
266.823	464.75
267.055	450.75
267.287	433.75
267.52	451.75
267.752	428.75
267.984	458.75
268.216	453.75
268.448	458.75
268.681	465.75
268.913	462.75
269.145	470.75
269.377	473.75
269.609	485.75
269.841	451.75
270.073	468.75
270.306	455.75
270.538	481.75
270.77	483.75
271.002	481.75
271.234	484.75
271.466	494.75
271.698	496.75
271.93	521.75
272.162	518.75
272.394	523.75
272.626	504.75
272.858	510.75
273.09	524.75
273.322	521.75
273.553	539.75
273.785	554.75
274.017	593.75
274.249	637.75
274.481	635.75
274.713	650.75
274.945	719.75
275.176	713.75
275.408	669.75
275.64	631.75
275.872	633.75
276.104	601.75
276.335	540.75
276.567	522.75
276.799	527.75
277.031	570.75
277.262	549.75
277.494	538.75
277.726	537.75
277.957	547.75
278.189	570.75
278.421	558.75
278.652	542.75
278.884	558.75
279.115	540.75
279.347	552.75
279.579	557.75
279.81	538.75
280.042	549.75
280.273	547.75
280.505	548.75
280.736	550.75
280.968	563.75
281.199	577.75
281.431	574.75
281.662	556.75
281.894	563.75
282.125	565.75
282.356	575.75
282.588	590.75
282.819	582.75
283.051	567.75
283.282	570.75
283.513	589.75
283.745	590.75
283.976	608.75
284.207	598.75
284.439	604.75
284.67	603.75
284.901	638.75
285.132	614.75
285.364	599.75
285.595	605.75
285.826	606.75
286.057	602.75
286.288	595.75
286.52	604.75
286.751	612.75
286.982	621.75
287.213	619.75
287.444	619.75
287.675	626.75
287.906	603.75
288.138	617.75
288.369	615.75
288.6	624.75
288.831	593.75
289.062	632.75
289.293	620.75
289.524	610.75
289.755	610.75
289.986	641.75
290.217	605.75
290.448	630.75
290.679	629.75
290.91	621.75
291.141	625.75
291.371	615.75
291.602	642.75
291.833	645.75
292.064	647.75
292.295	638.75
292.526	654.75
292.757	634.75
292.987	633.75
293.218	620.75
293.449	622.75
293.68	638.75
293.91	636.75
294.141	634.75
294.372	647.75
294.603	654.75
294.833	653.75
295.064	645.75
295.295	651.75
295.525	630.75
295.756	639.75
295.987	661.75
296.217	670.75
296.448	667.75
296.679	663.75
296.909	660.75
297.14	686.75
297.37	651.75
297.601	651.75
297.831	662.75
298.062	676.75
298.292	683.75
298.523	696.75
298.753	701.75
298.984	685.75
299.214	673.75
299.445	686.75
299.675	677.75
299.905	683.75
300.136	670.75
300.366	703.75
300.597	686.75
300.827	678.75
301.057	690.75
301.288	669.75
301.518	687.75
301.748	718.75
301.979	694.75
302.209	735.75
302.439	734.75
302.669	734.75
302.9	711.75
303.13	706.75
303.36	716.75
303.59	713.75
303.82	709.75
304.051	730.75
304.281	724.75
304.511	707.75
304.741	746.75
304.971	729.75
305.201	739.75
305.431	714.75
305.661	747.75
305.891	725.75
306.121	742.75
306.352	718.75
306.582	700.75
306.812	724.75
307.042	740.75
307.272	730.75
307.502	721.75
307.731	716.75
307.961	717.75
308.191	710.75
308.421	726.75
308.651	728.75
308.881	717.75
309.111	727.75
309.341	714.75
309.571	734.75
309.8	737.75
310.03	750.75
310.26	754.75
310.49	732.75
310.72	734.75
310.949	736.75
311.179	744.75
311.409	721.75
311.639	744.75
311.868	745.75
312.098	734.75
312.328	760.75
312.557	754.75
312.787	766.75
313.017	746.75
313.246	750.75
313.476	761.75
313.706	761.75
313.935	745.75
314.165	776.75
314.394	790.75
314.624	793.75
314.853	749.75
315.083	783.75
315.312	786.75
315.542	798.75
315.771	769.75
316.001	770.75
316.23	796.75
316.46	799.75
316.689	801.75
316.919	797.75
317.148	810.75
317.377	782.75
317.607	804.75
317.836	769.75
318.065	792.75
318.295	779.75
318.524	781.75
318.753	779.75
318.983	795.75
319.212	803.75
319.441	804.75
319.67	822.75
319.9	791.75
320.129	822.75
320.358	809.75
320.587	769.75
320.816	813.75
321.046	815.75
321.275	823.75
321.504	829.75
321.733	823.75
321.962	815.75
322.191	833.75
322.42	817.75
322.649	806.75
322.878	818.75
323.108	795.75
323.337	833.75
323.566	823.75
323.795	831.75
324.024	837.75
324.253	831.75
324.482	830.75
324.71	842.75
324.939	845.75
325.168	841.75
325.397	819.75
325.626	840.75
325.855	829.75
326.084	872.75
326.313	867.75
326.542	836.75
326.77	852.75
326.999	846.75
327.228	846.75
327.457	874.75
327.686	864.75
327.914	858.75
328.143	854.75
328.372	878.75
328.6	879.75
328.829	884.75
329.058	855.75
329.287	857.75
329.515	890.75
329.744	899.75
329.972	882.75
330.201	846.75
330.43	885.75
330.658	871.75
330.887	903.75
331.115	925.75
331.344	916.75
331.572	902.75
331.801	911.75
332.03	935.75
332.258	920.75
332.486	910.75
332.715	918.75
332.943	939.75
333.172	945.75
333.4	942.75
333.629	959.75
333.857	983.75
334.085	987.75
334.314	992.75
334.542	995.75
334.771	984.75
334.999	987.75
335.227	990.75
335.455	976.75
335.684	999.75
335.912	992.75
336.14	965.75
336.369	967.75
336.597	970.75
336.825	971.75
337.053	958.75
337.281	988.75
337.51	989.75
337.738	988.75
337.966	961.75
338.194	962.75
338.422	956.75
338.65	943.75
338.878	931.75
339.106	946.75
339.334	943.75
339.562	945.75
339.79	928.75
340.018	940.75
340.246	935.75
340.474	917.75
340.702	922.75
340.93	917.75
341.158	935.75
341.386	924.75
341.614	928.75
341.842	911.75
342.07	902.75
342.298	932.75
342.526	942.75
342.754	933.75
342.981	922.75
343.209	935.75
343.437	957.75
343.665	940.75
343.893	970.75
344.12	987.75
344.348	987.75
344.576	981.75
344.804	980.75
345.031	930.75
345.259	942.75
345.487	941.75
345.714	900.75
345.942	922.75
346.17	894.75
346.397	928.75
346.625	891.75
346.853	909.75
347.08	890.75
347.308	873.75
347.535	884.75
347.763	899.75
347.99	917.75
348.218	889.75
348.445	898.75
348.673	884.75
348.9	891.75
349.128	904.75
349.355	900.75
349.583	889.75
349.81	857.75
350.037	857.75
350.265	858.75
350.492	884.75
350.72	865.75
350.947	863.75
351.174	895.75
351.402	885.75
351.629	837.75
351.856	866.75
352.083	860.75
352.311	882.75
352.538	866.75
352.765	860.75
352.992	861.75
353.22	859.75
353.447	890.75
353.674	878.75
353.901	893.75
354.128	873.75
354.355	888.75
354.583	873.75
354.81	849.75
355.037	872.75
355.264	873.75
355.491	851.75
355.718	875.75
355.945	843.75
356.172	893.75
356.399	885.75
356.626	908.75
356.853	930.75
357.08	900.75
357.307	899.75
357.534	884.75
357.761	892.75
357.988	882.75
358.215	928.75
358.441	926.75
358.668	890.75
358.895	884.75
359.122	893.75
359.349	867.75
359.576	869.75
359.802	886.75
360.029	893.75
360.256	887.75
360.483	891.75
360.709	903.75
360.936	891.75
361.163	899.75
361.39	906.75
361.616	919.75
361.843	903.75
362.07	924.75
362.296	920.75
362.523	892.75
362.749	922.75
362.976	911.75
363.203	908.75
363.429	904.75
363.656	882.75
363.882	878.75
364.109	900.75
364.335	919.75
364.562	911.75
364.788	941.75
365.015	922.75
365.241	892.75
365.468	915.75
365.694	882.75
365.92	902.75
366.147	897.75
366.373	895.75
366.599	892.75
366.826	887.75
367.052	909.75
367.278	955.75
367.505	905.75
367.731	906.75
367.957	919.75
368.184	928.75
368.41	956.75
368.636	930.75
368.862	930.75
369.089	951.75
369.315	903.75
369.541	945.75
369.767	918.75
369.993	935.75
370.219	937.75
370.445	945.75
370.672	984.75
370.898	957.75
371.124	960.75
371.35	964.75
371.576	983.75
371.802	990.75
372.028	993.75
372.254	1009.75
372.48	959.75
372.706	966.75
372.932	1007.75
373.158	972.75
373.384	1039.75
373.61	1064.75
373.835	1059.75
374.061	1018.75
374.287	1017.75
374.513	1010.75
374.739	1057.75
374.965	1070.75
375.191	1062.75
375.416	1040.75
375.642	1010.75
375.868	1027.75
376.094	998.75
376.319	981.75
376.545	991.75
376.771	1009.75
376.997	988.75
377.222	997.75
377.448	973.75
377.674	980.75
377.899	976.75
378.125	994.75
378.35	976.75
378.576	925.75
378.802	998.75
379.027	963.75
379.253	998.75
379.478	941.75
379.704	998.75
379.929	994.75
380.155	976.75
380.38	985.75
380.606	981.75
380.831	983.75
381.057	999.75
381.282	982.75
381.507	1002.75
381.733	1066.75
381.958	1052.75
382.184	1049.75
382.409	1011.75
382.634	1020.75
382.86	1069.75
383.085	1058.75
383.31	1006.75
383.535	1047.75
383.761	1074.75
383.986	1066.75
384.211	1073.75
384.436	1062.75
384.662	1054.75
384.887	1095.75
385.112	1074.75
385.337	1066.75
385.562	1071.75
385.787	1108.75
386.013	1134.75
386.238	1138.75
386.463	1145.75
386.688	1131.75
386.913	1122.75
387.138	1147.75
387.363	1163.75
387.588	1121.75
387.813	1140.75
388.038	1133.75
388.263	1185.75
388.488	1147.75
388.713	1141.75
388.938	1159.75
389.163	1155.75
389.387	1164.75
389.612	1122.75
389.837	1151.75
390.062	1149.75
390.287	1167.75
390.512	1135.75
390.736	1153.75
390.961	1157.75
391.186	1157.75
391.411	1187.75
391.636	1197.75
391.86	1211.75
392.085	1195.75
392.31	1221.75
392.534	1206.75
392.759	1227.75
392.984	1227.75
393.208	1206.75
393.433	1192.75
393.658	1168.75
393.882	1185.75
394.107	1175.75
394.331	1212.75
394.556	1228.75
394.78	1206.75
395.005	1183.75
395.229	1219.75
395.454	1233.75
395.678	1226.75
395.903	1228.75
396.127	1222.75
396.352	1252.75
396.576	1247.75
396.801	1242.75
397.025	1263.75
397.249	1274.75
397.474	1268.75
397.698	1294.75
397.922	1286.75
398.147	1308.75
398.371	1302.75
398.595	1338.75
398.82	1384.75
399.044	1367.75
399.268	1418.75
399.492	1515.75
399.717	1570.75
399.941	1579.75
400.165	1530.75
400.389	1534.75
400.613	1439.75
400.837	1410.75
401.062	1390.75
401.286	1362.75
401.51	1357.75
401.734	1395.75
401.958	1361.75
402.182	1380.75
402.406	1381.75
402.63	1366.75
402.854	1365.75
403.078	1346.75
403.302	1370.75
403.526	1380.75
403.75	1398.75
403.974	1397.75
404.198	1406.75
404.422	1371.75
404.645	1446.75
404.869	1429.75
405.093	1411.75
405.317	1385.75
405.541	1395.75
405.765	1429.75
405.988	1393.75
406.212	1430.75
406.436	1466.75
406.66	1505.75
406.883	1450.75
407.107	1516.75
407.331	1526.75
407.555	1582.75
407.778	1577.75
408.002	1529.75
408.226	1545.75
408.449	1550.75
408.673	1526.75
408.896	1520.75
409.12	1506.75
409.344	1499.75
409.567	1475.75
409.791	1468.75
410.014	1462.75
410.238	1468.75
410.461	1457.75
410.685	1430.75
410.908	1429.75
411.132	1449.75
411.355	1402.75
411.578	1429.75
411.802	1450.75
412.025	1424.75
412.249	1397.75
412.472	1437.75
412.695	1439.75
412.919	1402.75
413.142	1398.75
413.365	1403.75
413.589	1382.75
413.812	1413.75
414.035	1349.75
414.258	1398.75
414.482	1376.75
414.705	1401.75
414.928	1376.75
415.151	1363.75
415.374	1347.75
415.597	1377.75
415.821	1374.75
416.044	1381.75
416.267	1326.75
416.49	1331.75
416.713	1334.75
416.936	1360.75
417.159	1329.75
417.382	1341.75
417.605	1313.75
417.828	1289.75
418.051	1338.75
418.274	1319.75
418.497	1317.75
418.72	1326.75
418.943	1313.75
419.166	1427.75
419.389	1503.75
419.611	1471.75
419.834	1397.75
420.057	1365.75
420.28	1358.75
420.503	1324.75
420.726	1312.75
420.948	1301.75
421.171	1303.75
421.394	1299.75
421.617	1324.75
421.839	1349.75
422.062	1309.75
422.285	1275.75
422.507	1309.75
422.73	1287.75
422.953	1269.75
423.175	1310.75
423.398	1300.75
423.621	1316.75
423.843	1307.75
424.066	1288.75
424.288	1289.75
424.511	1310.75
424.733	1345.75
424.956	1306.75
425.178	1301.75
425.401	1309.75
425.623	1298.75
425.846	1265.75
426.068	1318.75
426.291	1308.75
426.513	1301.75
426.735	1273.75
426.958	1303.75
427.18	1301.75
427.402	1316.75
427.625	1302.75
427.847	1260.75
428.069	1274.75
428.292	1275.75
428.514	1274.75
428.736	1266.75
428.958	1299.75
429.181	1266.75
429.403	1262.75
429.625	1266.75
429.847	1250.75
430.069	1243.75
430.292	1291.75
430.514	1259.75
430.736	1278.75
430.958	1286.75
431.18	1251.75
431.402	1252.75
431.624	1288.75
431.846	1232.75
432.068	1231.75
432.29	1287.75
432.512	1256.75
432.734	1272.75
432.956	1283.75
433.178	1316.75
433.4	1291.75
433.622	1274.75
433.844	1291.75
434.066	1272.75
434.287	1282.75
434.509	1301.75
434.731	1326.75
434.953	1329.75
435.175	1323.75
435.397	1321.75
435.618	1303.75
435.84	1288.75
436.062	1284.75
436.284	1284.75
436.505	1261.75
436.727	1258.75
436.949	1260.75
437.17	1267.75
437.392	1223.75
437.614	1248.75
437.835	1220.75
438.057	1234.75
438.278	1222.75
438.5	1267.75
438.721	1255.75
438.943	1236.75
439.165	1208.75
439.386	1211.75
439.608	1245.75
439.829	1240.75
440.05	1249.75
440.272	1266.75
440.493	1286.75
440.715	1260.75
440.936	1245.75
441.158	1271.75
441.379	1257.75
441.6	1307.75
441.822	1308.75
442.043	1304.75
442.264	1319.75
442.486	1318.75
442.707	1271.75
442.928	1274.75
443.149	1321.75
443.371	1293.75
443.592	1338.75
443.813	1303.75
444.034	1340.75
444.255	1307.75
444.476	1331.75
444.698	1383.75
444.919	1390.75
445.14	1448.75
445.361	1411.75
445.582	1386.75
445.803	1292.75
446.024	1286.75
446.245	1291.75
446.466	1311.75
446.687	1299.75
446.908	1221.75
447.129	1220.75
447.35	1188.75
447.571	1231.75
447.792	1201.75
448.013	1196.75
448.234	1195.75
448.455	1181.75
448.675	1198.75
448.896	1170.75
449.117	1158.75
449.338	1181.75
449.559	1157.75
449.779	1143.75
450	1140.75
450.221	1166.75
450.442	1161.75
450.662	1132.75
450.883	1157.75
451.104	1153.75
451.324	1156.75
451.545	1148.75
451.766	1172.75
451.986	1146.75
452.207	1114.75
452.428	1126.75
452.648	1147.75
452.869	1126.75
453.089	1101.75
453.31	1123.75
453.53	1096.75
453.751	1101.75
453.971	1108.75
454.192	1127.75
454.412	1094.75
454.633	1103.75
454.853	1089.75
455.073	1116.75
455.294	1125.75
455.514	1101.75
455.734	1096.75
455.955	1105.75
456.175	1082.75
456.395	1094.75
456.616	1112.75
456.836	1097.75
457.056	1109.75
457.276	1109.75
457.497	1110.75
457.717	1140.75
457.937	1137.75
458.157	1124.75
458.377	1125.75
458.598	1163.75
458.818	1195.75
459.038	1193.75
459.258	1180.75
459.478	1233.75
459.698	1225.75
459.918	1267.75
460.138	1259.75
460.358	1303.75
460.578	1316.75
460.798	1337.75
461.018	1335.75
461.238	1351.75
461.458	1347.75
461.678	1333.75
461.898	1376.75
462.118	1384.75
462.338	1415.75
462.558	1399.75
462.777	1412.75
462.997	1476.75
463.217	1470.75
463.437	1527.75
463.657	1508.75
463.876	1484.75
464.096	1465.75
464.316	1475.75
464.536	1452.75
464.755	1424.75
464.975	1406.75
465.195	1327.75
465.414	1376.75
465.634	1312.75
465.854	1281.75
466.073	1296.75
466.293	1285.75
466.512	1246.75
466.732	1229.75
466.951	1252.75
467.171	1240.75
467.391	1222.75
467.61	1217.75
467.829	1221.75
468.049	1225.75
468.268	1215.75
468.488	1211.75
468.707	1188.75
468.927	1217.75
469.146	1269.75
469.365	1233.75
469.585	1225.75
469.804	1209.75
470.023	1253.75
470.243	1223.75
470.462	1240.75
470.681	1240.75
470.901	1230.75
471.12	1246.75
471.339	1236.75
471.558	1242.75
471.777	1230.75
471.997	1237.75
472.216	1221.75
472.435	1231.75
472.654	1215.75
472.873	1212.75
473.092	1220.75
473.311	1237.75
473.53	1245.75
473.749	1224.75
473.968	1203.75
474.187	1265.75
474.406	1225.75
474.625	1187.75
474.844	1224.75
475.063	1226.75
475.282	1254.75
475.501	1248.75
475.72	1283.75
475.939	1270.75
476.158	1294.75
476.377	1351.75
476.596	1356.75
476.814	1383.75
477.033	1320.75
477.252	1328.75
477.471	1356.75
477.69	1364.75
477.908	1393.75
478.127	1397.75
478.346	1388.75
478.564	1407.75
478.783	1406.75
479.002	1419.75
479.22	1445.75
479.439	1493.75
479.658	1473.75
479.876	1459.75
480.095	1462.75
480.313	1484.75
480.532	1492.75
480.751	1478.75
480.969	1472.75
481.188	1503.75
481.406	1515.75
481.624	1462.75
481.843	1462.75
482.061	1486.75
482.28	1469.75
482.498	1486.75
482.717	1452.75
482.935	1481.75
483.153	1496.75
483.372	1485.75
483.59	1494.75
483.808	1499.75
484.027	1482.75
484.245	1493.75
484.463	1498.75
484.681	1521.75
484.9	1493.75
485.118	1564.75
485.336	1505.75
485.554	1483.75
485.772	1491.75
485.99	1500.75
486.209	1527.75
486.427	1500.75
486.645	1513.75
486.863	1516.75
487.081	1491.75
487.299	1529.75
487.517	1522.75
487.735	1503.75
487.953	1531.75
488.171	1508.75
488.389	1501.75
488.607	1479.75
488.825	1495.75
489.043	1495.75
489.261	1522.75
489.479	1523.75
489.696	1501.75
489.914	1533.75
490.132	1504.75
490.35	1516.75
490.568	1471.75
490.786	1498.75
491.003	1508.75
491.221	1514.75
491.439	1514.75
491.657	1509.75
491.874	1549.75
492.092	1587.75
492.31	1569.75
492.527	1593.75
492.745	1564.75
492.963	1550.75
493.18	1558.75
493.398	1563.75
493.615	1563.75
493.833	1544.75
494.05	1597.75
494.268	1563.75
