Data from Fe(NO3)3@0.1M.TitratingCurve.Agarose3%dH2O.NegLispCup.LampEnergy10.LIBS07252019_HRD10591_16-39-31-335.txt Node
Date: Thu Jul 25 16:39:31 EDT 2019
User: cochatt
Spectrometer: HR+D1059
Trigger mode: 1
Integration Time (sec): 1.000000E-1
Scans to average: 1
Electric dark correction enabled: true
Nonlinearity correction enabled: false
Boxcar width: 0
XAxis mode: Wavelengths
Number of Pixels in Spectrum: 2048
>>>>>Begin Spectral Data<<<<<
223.165	-16.88
223.4	-16.88
223.635	-16.88
223.869	-7.88
224.104	-15.88
224.338	-11.88
224.573	-19.88
224.808	-16.88
225.042	-5.88
225.277	-10.88
225.511	-8.88
225.746	-2.88
225.98	14.12
226.215	18.12
226.449	16.12
226.683	22.12
226.918	20.12
227.152	27.12
227.387	26.12
227.621	32.12
227.856	40.12
228.09	50.12
228.324	51.12
228.559	63.12
228.793	64.12
229.027	82.12
229.262	90.12
229.496	72.12
229.73	72.12
229.964	89.12
230.199	89.12
230.433	81.12
230.667	95.12
230.901	84.12
231.136	81.12
231.37	90.12
231.604	88.12
231.838	90.12
232.072	105.12
232.306	98.12
232.541	99.12
232.775	92.12
233.009	100.12
233.243	96.12
233.477	98.12
233.711	105.12
233.945	102.12
234.179	101.12
234.413	91.12
234.647	93.12
234.881	99.12
235.115	112.12
235.349	105.12
235.583	111.12
235.817	98.12
236.051	87.12
236.285	87.12
236.519	106.12
236.753	100.12
236.987	98.12
237.221	95.12
237.455	98.12
237.689	104.12
237.922	107.12
238.156	97.12
238.39	91.12
238.624	89.12
238.858	111.12
239.091	102.12
239.325	95.12
239.559	87.12
239.793	103.12
240.027	92.12
240.26	113.12
240.494	88.12
240.728	111.12
240.961	102.12
241.195	101.12
241.429	107.12
241.662	107.12
241.896	100.12
242.13	106.12
242.363	90.12
242.597	104.12
242.83	106.12
243.064	104.12
243.298	117.12
243.531	106.12
243.765	106.12
243.998	112.12
244.232	98.12
244.465	98.12
244.699	98.12
244.932	105.12
245.166	126.12
245.399	115.12
245.633	111.12
245.866	113.12
246.099	110.12
246.333	122.12
246.566	115.12
246.8	111.12
247.033	102.12
247.266	118.12
247.5	113.12
247.733	102.12
247.966	121.12
248.2	123.12
248.433	113.12
248.666	125.12
248.899	124.12
249.133	120.12
249.366	125.12
249.599	125.12
249.832	111.12
250.066	116.12
250.299	127.12
250.532	115.12
250.765	114.12
250.998	127.12
251.231	116.12
251.465	127.12
251.698	114.12
251.931	109.12
252.164	122.12
252.397	129.12
252.63	125.12
252.863	130.12
253.096	133.12
253.329	129.12
253.562	129.12
253.795	124.12
254.028	123.12
254.261	124.12
254.494	126.12
254.727	139.12
254.96	139.12
255.193	124.12
255.426	133.12
255.659	139.12
255.892	130.12
256.124	137.12
256.357	133.12
256.59	117.12
256.823	129.12
257.056	137.12
257.289	134.12
257.521	126.12
257.754	132.12
257.987	137.12
258.22	144.12
258.452	129.12
258.685	141.12
258.918	131.12
259.151	139.12
259.383	145.12
259.616	139.12
259.849	130.12
260.081	131.12
260.314	140.12
260.547	139.12
260.779	145.12
261.012	152.12
261.244	146.12
261.477	149.12
261.71	134.12
261.942	141.12
262.175	132.12
262.407	154.12
262.64	145.12
262.872	147.12
263.105	142.12
263.337	144.12
263.57	127.12
263.802	138.12
264.035	143.12
264.267	141.12
264.499	157.12
264.732	139.12
264.964	146.12
265.197	147.12
265.429	141.12
265.661	151.12
265.894	149.12
266.126	140.12
266.358	145.12
266.591	154.12
266.823	152.12
267.055	158.12
267.287	159.12
267.52	148.12
267.752	147.12
267.984	160.12
268.216	151.12
268.448	147.12
268.681	155.12
268.913	154.12
269.145	149.12
269.377	161.12
269.609	152.12
269.841	141.12
270.073	150.12
270.306	147.12
270.538	151.12
270.77	167.12
271.002	168.12
271.234	168.12
271.466	156.12
271.698	162.12
271.93	166.12
272.162	178.12
272.394	167.12
272.626	159.12
272.858	169.12
273.09	164.12
273.322	144.12
273.553	153.12
273.785	175.12
274.017	182.12
274.249	165.12
274.481	171.12
274.713	172.12
274.945	164.12
275.176	180.12
275.408	176.12
275.64	172.12
275.872	175.12
276.104	165.12
276.335	166.12
276.567	160.12
276.799	164.12
277.031	163.12
277.262	172.12
277.494	183.12
277.726	160.12
277.957	168.12
278.189	176.12
278.421	184.12
278.652	184.12
278.884	173.12
279.115	187.12
279.347	183.12
279.579	169.12
279.81	172.12
280.042	163.12
280.273	164.12
280.505	183.12
280.736	194.12
280.968	183.12
281.199	179.12
281.431	192.12
281.662	177.12
281.894	195.12
282.125	172.12
282.356	183.12
282.588	200.12
282.819	188.12
283.051	178.12
283.282	205.12
283.513	198.12
283.745	181.12
283.976	179.12
284.207	196.12
284.439	180.12
284.67	199.12
284.901	189.12
285.132	193.12
285.364	188.12
285.595	204.12
285.826	204.12
286.057	196.12
286.288	184.12
286.52	200.12
286.751	186.12
286.982	199.12
287.213	190.12
287.444	196.12
287.675	192.12
287.906	200.12
288.138	197.12
288.369	184.12
288.6	191.12
288.831	209.12
289.062	208.12
289.293	190.12
289.524	185.12
289.755	203.12
289.986	192.12
290.217	204.12
290.448	203.12
290.679	216.12
290.91	213.12
291.141	207.12
291.371	211.12
291.602	210.12
291.833	220.12
292.064	212.12
292.295	216.12
292.526	213.12
292.757	205.12
292.987	202.12
293.218	213.12
293.449	209.12
293.68	208.12
293.91	201.12
294.141	224.12
294.372	210.12
294.603	220.12
294.833	222.12
295.064	204.12
295.295	210.12
295.525	193.12
295.756	218.12
295.987	206.12
296.217	218.12
296.448	206.12
296.679	205.12
296.909	225.12
297.14	215.12
297.37	215.12
297.601	203.12
297.831	223.12
298.062	243.12
298.292	230.12
298.523	205.12
298.753	221.12
298.984	231.12
299.214	212.12
299.445	234.12
299.675	231.12
299.905	210.12
300.136	236.12
300.366	233.12
300.597	225.12
300.827	234.12
301.057	217.12
301.288	226.12
301.518	232.12
301.748	226.12
301.979	247.12
302.209	241.12
302.439	236.12
302.669	235.12
302.9	223.12
303.13	229.12
303.36	237.12
303.59	219.12
303.82	233.12
304.051	232.12
304.281	236.12
304.511	239.12
304.741	227.12
304.971	227.12
305.201	228.12
305.431	248.12
305.661	225.12
305.891	234.12
306.121	243.12
306.352	230.12
306.582	226.12
306.812	228.12
307.042	220.12
307.272	237.12
307.502	239.12
307.731	239.12
307.961	214.12
308.191	223.12
308.421	239.12
308.651	241.12
308.881	228.12
309.111	228.12
309.341	235.12
309.571	230.12
309.8	239.12
310.03	218.12
310.26	228.12
310.49	233.12
310.72	235.12
310.949	242.12
311.179	232.12
311.409	228.12
311.639	243.12
311.868	239.12
312.098	248.12
312.328	242.12
312.557	235.12
312.787	259.12
313.017	249.12
313.246	240.12
313.476	241.12
313.706	243.12
313.935	261.12
314.165	251.12
314.394	245.12
314.624	249.12
314.853	239.12
315.083	244.12
315.312	240.12
315.542	248.12
315.771	235.12
316.001	248.12
316.23	255.12
316.46	243.12
316.689	245.12
316.919	248.12
317.148	260.12
317.377	246.12
317.607	253.12
317.836	255.12
318.065	264.12
318.295	247.12
318.524	263.12
318.753	260.12
318.983	246.12
319.212	251.12
319.441	256.12
319.67	234.12
319.9	242.12
320.129	244.12
320.358	253.12
320.587	261.12
320.816	248.12
321.046	263.12
321.275	250.12
321.504	252.12
321.733	243.12
321.962	264.12
322.191	272.12
322.42	271.12
322.649	247.12
322.878	269.12
323.108	256.12
323.337	262.12
323.566	267.12
323.795	259.12
324.024	268.12
324.253	256.12
324.482	277.12
324.71	269.12
324.939	266.12
325.168	266.12
325.397	256.12
325.626	263.12
325.855	269.12
326.084	255.12
326.313	268.12
326.542	271.12
326.77	281.12
326.999	270.12
327.228	265.12
327.457	270.12
327.686	260.12
327.914	267.12
328.143	275.12
328.372	277.12
328.6	277.12
328.829	287.12
329.058	273.12
329.287	290.12
329.515	285.12
329.744	273.12
329.972	261.12
330.201	283.12
330.43	272.12
330.658	288.12
330.887	279.12
331.115	281.12
331.344	288.12
331.572	283.12
331.801	279.12
332.03	293.12
332.258	317.12
332.486	311.12
332.715	299.12
332.943	316.12
333.172	313.12
333.4	330.12
333.629	346.12
333.857	339.12
334.085	328.12
334.314	357.12
334.542	334.12
334.771	333.12
334.999	344.12
335.227	319.12
335.455	328.12
335.684	321.12
335.912	344.12
336.14	328.12
336.369	323.12
336.597	313.12
336.825	331.12
337.053	307.12
337.281	309.12
337.51	305.12
337.738	308.12
337.966	293.12
338.194	293.12
338.422	304.12
338.65	292.12
338.878	308.12
339.106	300.12
339.334	307.12
339.562	297.12
339.79	288.12
340.018	292.12
340.246	281.12
340.474	303.12
340.702	271.12
340.93	310.12
341.158	287.12
341.386	297.12
341.614	286.12
341.842	285.12
342.07	273.12
342.298	298.12
342.526	276.12
342.754	300.12
342.981	312.12
343.209	306.12
343.437	300.12
343.665	309.12
343.893	331.12
344.12	325.12
344.348	329.12
344.576	320.12
344.804	306.12
345.031	305.12
345.259	297.12
345.487	298.12
345.714	314.12
345.942	277.12
346.17	275.12
346.397	286.12
346.625	284.12
346.853	308.12
347.08	283.12
347.308	303.12
347.535	289.12
347.763	265.12
347.99	280.12
348.218	311.12
348.445	280.12
348.673	289.12
348.9	292.12
349.128	301.12
349.355	291.12
349.583	272.12
349.81	272.12
350.037	280.12
350.265	275.12
350.492	281.12
350.72	267.12
350.947	284.12
351.174	288.12
351.402	269.12
351.629	265.12
351.856	264.12
352.083	272.12
352.311	275.12
352.538	280.12
352.765	282.12
352.992	259.12
353.22	276.12
353.447	279.12
353.674	261.12
353.901	268.12
354.128	272.12
354.355	269.12
354.583	255.12
354.81	267.12
355.037	296.12
355.264	276.12
355.491	289.12
355.718	286.12
355.945	273.12
356.172	288.12
356.399	288.12
356.626	291.12
356.853	269.12
357.08	267.12
357.307	272.12
357.534	283.12
357.761	284.12
357.988	280.12
358.215	289.12
358.441	262.12
358.668	288.12
358.895	284.12
359.122	296.12
359.349	275.12
359.576	289.12
359.802	281.12
360.029	271.12
360.256	279.12
360.483	277.12
360.709	279.12
360.936	290.12
361.163	287.12
361.39	282.12
361.616	284.12
361.843	288.12
362.07	267.12
362.296	289.12
362.523	294.12
362.749	289.12
362.976	295.12
363.203	281.12
363.429	278.12
363.656	285.12
363.882	275.12
364.109	278.12
364.335	280.12
364.562	307.12
364.788	304.12
365.015	281.12
365.241	273.12
365.468	283.12
365.694	291.12
365.92	296.12
366.147	283.12
366.373	297.12
366.599	305.12
366.826	278.12
367.052	278.12
367.278	296.12
367.505	258.12
367.731	293.12
367.957	274.12
368.184	285.12
368.41	273.12
368.636	290.12
368.862	307.12
369.089	313.12
369.315	293.12
369.541	287.12
369.767	295.12
369.993	298.12
370.219	305.12
370.445	300.12
370.672	299.12
370.898	291.12
371.124	283.12
371.35	296.12
371.576	311.12
371.802	321.12
372.028	301.12
372.254	317.12
372.48	314.12
372.706	334.12
372.932	336.12
373.158	305.12
373.384	327.12
373.61	298.12
373.835	322.12
374.061	316.12
374.287	317.12
374.513	325.12
374.739	342.12
374.965	325.12
375.191	330.12
375.416	340.12
375.642	323.12
375.868	336.12
376.094	317.12
376.319	312.12
376.545	312.12
376.771	315.12
376.997	313.12
377.222	292.12
377.448	297.12
377.674	311.12
377.899	316.12
378.125	316.12
378.35	316.12
378.576	311.12
378.802	313.12
379.027	314.12
379.253	307.12
379.478	307.12
379.704	306.12
379.929	319.12
380.155	308.12
380.38	306.12
380.606	305.12
380.831	316.12
381.057	335.12
381.282	318.12
381.507	317.12
381.733	317.12
381.958	320.12
382.184	311.12
382.409	314.12
382.634	338.12
382.86	331.12
383.085	337.12
383.31	308.12
383.535	330.12
383.761	327.12
383.986	349.12
384.211	345.12
384.436	352.12
384.662	375.12
384.887	365.12
385.112	355.12
385.337	372.12
385.562	383.12
385.787	348.12
386.013	360.12
386.238	385.12
386.463	377.12
386.688	358.12
386.913	356.12
387.138	363.12
387.363	354.12
387.588	373.12
387.813	367.12
388.038	355.12
388.263	362.12
388.488	364.12
388.713	367.12
388.938	380.12
389.163	365.12
389.387	357.12
389.612	341.12
389.837	376.12
390.062	346.12
390.287	376.12
390.512	370.12
390.736	378.12
390.961	371.12
391.186	391.12
391.411	364.12
391.636	399.12
391.86	413.12
392.085	405.12
392.31	376.12
392.534	379.12
392.759	378.12
392.984	390.12
393.208	368.12
393.433	391.12
393.658	377.12
393.882	358.12
394.107	387.12
394.331	387.12
394.556	392.12
394.78	387.12
395.005	387.12
395.229	377.12
395.454	410.12
395.678	419.12
395.903	400.12
396.127	405.12
396.352	393.12
396.576	384.12
396.801	408.12
397.025	402.12
397.249	403.12
397.474	390.12
397.698	407.12
397.922	428.12
398.147	397.12
398.371	420.12
398.595	419.12
398.82	426.12
399.044	452.12
399.268	500.12
399.492	556.12
399.717	599.12
399.941	593.12
400.165	539.12
400.389	506.12
400.613	492.12
400.837	443.12
401.062	444.12
401.286	428.12
401.51	432.12
401.734	428.12
401.958	443.12
402.182	434.12
402.406	429.12
402.63	451.12
402.854	452.12
403.078	452.12
403.302	473.12
403.526	465.12
403.75	493.12
403.974	489.12
404.198	503.12
404.422	487.12
404.645	497.12
404.869	476.12
405.093	481.12
405.317	478.12
405.541	464.12
405.765	485.12
405.988	469.12
406.212	479.12
406.436	465.12
406.66	514.12
406.883	507.12
407.107	517.12
407.331	541.12
407.555	547.12
407.778	530.12
408.002	504.12
408.226	503.12
408.449	516.12
408.673	476.12
408.896	514.12
409.12	479.12
409.344	487.12
409.567	487.12
409.791	504.12
410.014	490.12
410.238	481.12
410.461	489.12
410.685	513.12
410.908	457.12
411.132	481.12
411.355	443.12
411.578	458.12
411.802	460.12
412.025	459.12
412.249	483.12
412.472	463.12
412.695	470.12
412.919	455.12
413.142	439.12
413.365	445.12
413.589	461.12
413.812	454.12
414.035	454.12
414.258	453.12
414.482	436.12
414.705	458.12
414.928	448.12
415.151	453.12
415.374	456.12
415.597	453.12
415.821	437.12
416.044	447.12
416.267	458.12
416.49	438.12
416.713	443.12
416.936	451.12
417.159	458.12
417.382	427.12
417.605	452.12
417.828	455.12
418.051	469.12
418.274	447.12
418.497	429.12
418.72	455.12
418.943	462.12
419.166	455.12
419.389	491.12
419.611	468.12
419.834	468.12
420.057	446.12
420.28	440.12
420.503	449.12
420.726	449.12
420.948	447.12
421.171	441.12
421.394	449.12
421.617	442.12
421.839	424.12
422.062	444.12
422.285	463.12
422.507	449.12
422.73	454.12
422.953	440.12
423.175	458.12
423.398	443.12
423.621	450.12
423.843	461.12
424.066	462.12
424.288	447.12
424.511	432.12
424.733	452.12
424.956	417.12
425.178	427.12
425.401	441.12
425.623	450.12
425.846	431.12
426.068	431.12
426.291	421.12
426.513	425.12
426.735	419.12
426.958	442.12
427.18	425.12
427.402	412.12
427.625	412.12
427.847	427.12
428.069	421.12
428.292	406.12
428.514	421.12
428.736	404.12
428.958	408.12
429.181	418.12
429.403	408.12
429.625	421.12
429.847	397.12
430.069	425.12
430.292	405.12
430.514	393.12
430.736	407.12
430.958	424.12
431.18	401.12
431.402	402.12
431.624	380.12
431.846	401.12
432.068	415.12
432.29	407.12
432.512	398.12
432.734	419.12
432.956	405.12
433.178	408.12
433.4	416.12
433.622	436.12
433.844	441.12
434.066	420.12
434.287	397.12
434.509	420.12
434.731	447.12
434.953	440.12
435.175	441.12
435.397	452.12
435.618	433.12
435.84	431.12
436.062	436.12
436.284	402.12
436.505	421.12
436.727	411.12
436.949	412.12
437.17	428.12
437.392	408.12
437.614	411.12
437.835	391.12
438.057	426.12
438.278	384.12
438.5	387.12
438.721	391.12
438.943	408.12
439.165	403.12
439.386	418.12
439.608	409.12
439.829	405.12
440.05	400.12
440.272	423.12
440.493	420.12
440.715	420.12
440.936	447.12
441.158	447.12
441.379	437.12
441.6	447.12
441.822	443.12
442.043	448.12
442.264	456.12
442.486	437.12
442.707	457.12
442.928	437.12
443.149	435.12
443.371	470.12
443.592	455.12
443.813	479.12
444.034	485.12
444.255	463.12
444.476	478.12
444.698	496.12
444.919	511.12
445.14	609.12
445.361	547.12
445.582	469.12
445.803	453.12
446.024	442.12
446.245	429.12
446.466	449.12
446.687	421.12
446.908	429.12
447.129	412.12
447.35	389.12
447.571	401.12
447.792	415.12
448.013	416.12
448.234	410.12
448.455	419.12
448.675	389.12
448.896	411.12
449.117	403.12
449.338	393.12
449.559	381.12
449.779	384.12
450	398.12
450.221	395.12
450.442	381.12
450.662	391.12
450.883	400.12
451.104	408.12
451.324	397.12
451.545	407.12
451.766	403.12
451.986	382.12
452.207	375.12
452.428	377.12
452.648	387.12
452.869	388.12
453.089	356.12
453.31	369.12
453.53	364.12
453.751	371.12
453.971	369.12
454.192	380.12
454.412	369.12
454.633	373.12
454.853	371.12
455.073	371.12
455.294	370.12
455.514	370.12
455.734	369.12
455.955	359.12
456.175	342.12
456.395	355.12
456.616	361.12
456.836	378.12
457.056	367.12
457.276	370.12
457.497	370.12
457.717	355.12
457.937	373.12
458.157	364.12
458.377	371.12
458.598	359.12
458.818	376.12
459.038	388.12
459.258	400.12
459.478	409.12
459.698	402.12
459.918	431.12
460.138	445.12
460.358	444.12
460.578	458.12
460.798	478.12
461.018	469.12
461.238	479.12
461.458	484.12
461.678	467.12
461.898	479.12
462.118	464.12
462.338	488.12
462.558	502.12
462.777	533.12
462.997	577.12
463.217	559.12
463.437	582.12
463.657	547.12
463.876	548.12
464.096	525.12
464.316	512.12
464.536	506.12
464.755	504.12
464.975	488.12
465.195	475.12
465.414	443.12
465.634	449.12
465.854	423.12
466.073	421.12
466.293	412.12
466.512	417.12
466.732	410.12
466.951	430.12
467.171	395.12
467.391	420.12
467.61	395.12
467.829	402.12
468.049	396.12
468.268	383.12
468.488	409.12
468.707	396.12
468.927	395.12
469.146	392.12
469.365	384.12
469.585	391.12
469.804	416.12
470.023	401.12
470.243	398.12
470.462	395.12
470.681	412.12
470.901	408.12
471.12	393.12
471.339	407.12
471.558	389.12
471.777	383.12
471.997	380.12
472.216	388.12
472.435	381.12
472.654	376.12
472.873	365.12
473.092	371.12
473.311	387.12
473.53	376.12
473.749	369.12
473.968	387.12
474.187	375.12
474.406	373.12
474.625	364.12
474.844	387.12
475.063	374.12
475.282	386.12
475.501	394.12
475.72	374.12
475.939	387.12
476.158	397.12
476.377	408.12
476.596	392.12
476.814	405.12
477.033	388.12
477.252	386.12
477.471	407.12
477.69	434.12
477.908	424.12
478.127	443.12
478.346	434.12
478.564	427.12
478.783	428.12
479.002	465.12
479.22	475.12
479.439	484.12
479.658	436.12
479.876	460.12
480.095	465.12
480.313	474.12
480.532	482.12
480.751	463.12
480.969	440.12
481.188	431.12
481.406	418.12
481.624	427.12
481.843	404.12
482.061	423.12
482.28	427.12
482.498	416.12
482.717	402.12
482.935	427.12
483.153	415.12
483.372	416.12
483.59	410.12
483.808	433.12
484.027	419.12
484.245	428.12
484.463	445.12
484.681	420.12
484.9	423.12
485.118	427.12
485.336	428.12
485.554	421.12
485.772	421.12
485.99	427.12
486.209	440.12
486.427	429.12
486.645	447.12
486.863	444.12
487.081	441.12
487.299	423.12
487.517	423.12
487.735	448.12
487.953	453.12
488.171	448.12
488.389	442.12
488.607	418.12
488.825	439.12
489.043	425.12
489.261	445.12
489.479	435.12
489.696	434.12
489.914	429.12
490.132	452.12
490.35	441.12
490.568	435.12
490.786	436.12
491.003	438.12
491.221	468.12
491.439	453.12
491.657	456.12
491.874	462.12
492.092	458.12
492.31	461.12
492.527	482.12
492.745	465.12
492.963	448.12
493.18	449.12
493.398	467.12
493.615	462.12
493.833	481.12
494.05	473.12
494.268	470.12
494.485	478.12
494.703	454.12
494.92	482.12
495.138	451.12
495.355	473.12
495.573	476.12
495.79	467.12
496.008	483.12
496.225	475.12
496.442	485.12
496.66	484.12
496.877	500.12
497.094	487.12
497.312	517.12
497.529	524.12
497.746	529.12
497.963	545.12
498.181	545.12
498.398	570.12
498.615	599.12
498.832	637.12
499.049	657.12
499.267	699.12
499.484	771.12
499.701	808.12
499.918	901.12
500.135	977.12
500.352	1044.12
500.569	1090.12
500.786	1076.12
501.003	1023.12
501.22	919.12
501.437	862.12
501.654	740.12
501.871	710.12
502.088	641.12
