Data from Fe(NO3)3@0.025M.TitratingCurve.Agarose3%dH2O.NegLispCup.LampEnergy10.LIBS07252019_HRD10591_16-56-49-336.txt Node
Date: Thu Jul 25 16:56:49 EDT 2019
User: cochatt
Spectrometer: HR+D1059
Trigger mode: 1
Integration Time (sec): 1.000000E-1
Scans to average: 1
Electric dark correction enabled: true
Nonlinearity correction enabled: false
Boxcar width: 0
XAxis mode: Wavelengths
Number of Pixels in Spectrum: 2048
>>>>>Begin Spectral Data<<<<<
223.165	-0.75
223.4	-0.75
223.635	-0.75
223.869	-16.75
224.104	-20.75
224.338	-15.75
224.573	-13.75
224.808	-15.75
225.042	-0.75
225.277	-6.75
225.511	-1.75
225.746	6.25
225.98	2.25
226.215	6.25
226.449	9.25
226.683	11.25
226.918	25.25
227.152	32.25
227.387	44.25
227.621	41.25
227.856	37.25
228.09	24.25
228.324	40.25
228.559	62.25
228.793	56.25
229.027	67.25
229.262	70.25
229.496	80.25
229.73	74.25
229.964	96.25
230.199	73.25
230.433	84.25
230.667	87.25
230.901	99.25
231.136	92.25
231.37	108.25
231.604	93.25
231.838	90.25
232.072	94.25
232.306	72.25
232.541	99.25
232.775	95.25
233.009	95.25
233.243	97.25
233.477	83.25
233.711	101.25
233.945	102.25
234.179	95.25
234.413	93.25
234.647	96.25
234.881	96.25
235.115	90.25
235.349	103.25
235.583	105.25
235.817	97.25
236.051	94.25
236.285	83.25
236.519	104.25
236.753	75.25
236.987	94.25
237.221	93.25
237.455	105.25
237.689	85.25
237.922	108.25
238.156	95.25
238.39	95.25
238.624	77.25
238.858	95.25
239.091	101.25
239.325	120.25
239.559	109.25
239.793	101.25
240.027	113.25
240.26	118.25
240.494	101.25
240.728	108.25
240.961	118.25
241.195	113.25
241.429	120.25
241.662	118.25
241.896	110.25
242.13	99.25
242.363	106.25
242.597	113.25
242.83	96.25
243.064	116.25
243.298	126.25
243.531	108.25
243.765	103.25
243.998	112.25
244.232	100.25
244.465	118.25
244.699	109.25
244.932	112.25
245.166	104.25
245.399	108.25
245.633	116.25
245.866	112.25
246.099	117.25
246.333	114.25
246.566	116.25
246.8	103.25
247.033	99.25
247.266	124.25
247.5	112.25
247.733	126.25
247.966	112.25
248.2	121.25
248.433	108.25
248.666	103.25
248.899	111.25
249.133	116.25
249.366	132.25
249.599	119.25
249.832	118.25
250.066	117.25
250.299	129.25
250.532	138.25
250.765	103.25
250.998	122.25
251.231	138.25
251.465	130.25
251.698	124.25
251.931	115.25
252.164	126.25
252.397	108.25
252.63	110.25
252.863	114.25
253.096	131.25
253.329	136.25
253.562	131.25
253.795	130.25
254.028	126.25
254.261	128.25
254.494	131.25
254.727	118.25
254.96	137.25
255.193	121.25
255.426	141.25
255.659	140.25
255.892	149.25
256.124	140.25
256.357	129.25
256.59	128.25
256.823	142.25
257.056	132.25
257.289	135.25
257.521	137.25
257.754	155.25
257.987	144.25
258.22	148.25
258.452	152.25
258.685	141.25
258.918	127.25
259.151	133.25
259.383	150.25
259.616	144.25
259.849	144.25
260.081	147.25
260.314	159.25
260.547	142.25
260.779	128.25
261.012	148.25
261.244	145.25
261.477	149.25
261.71	128.25
261.942	150.25
262.175	152.25
262.407	152.25
262.64	156.25
262.872	144.25
263.105	150.25
263.337	148.25
263.57	154.25
263.802	148.25
264.035	161.25
264.267	154.25
264.499	154.25
264.732	151.25
264.964	157.25
265.197	158.25
265.429	158.25
265.661	159.25
265.894	151.25
266.126	146.25
266.358	149.25
266.591	162.25
266.823	160.25
267.055	156.25
267.287	154.25
267.52	144.25
267.752	164.25
267.984	164.25
268.216	171.25
268.448	165.25
268.681	164.25
268.913	156.25
269.145	174.25
269.377	148.25
269.609	177.25
269.841	168.25
270.073	160.25
270.306	174.25
270.538	165.25
270.77	168.25
271.002	153.25
271.234	166.25
271.466	176.25
271.698	161.25
271.93	164.25
272.162	160.25
272.394	159.25
272.626	165.25
272.858	178.25
273.09	177.25
273.322	190.25
273.553	175.25
273.785	177.25
274.017	183.25
274.249	176.25
274.481	188.25
274.713	174.25
274.945	173.25
275.176	166.25
275.408	180.25
275.64	182.25
275.872	196.25
276.104	190.25
276.335	194.25
276.567	195.25
276.799	184.25
277.031	183.25
277.262	181.25
277.494	190.25
277.726	180.25
277.957	185.25
278.189	191.25
278.421	185.25
278.652	202.25
278.884	189.25
279.115	186.25
279.347	204.25
279.579	188.25
279.81	209.25
280.042	206.25
280.273	202.25
280.505	213.25
280.736	198.25
280.968	196.25
281.199	201.25
281.431	193.25
281.662	199.25
281.894	217.25
282.125	201.25
282.356	219.25
282.588	214.25
282.819	206.25
283.051	196.25
283.282	205.25
283.513	212.25
283.745	214.25
283.976	211.25
284.207	217.25
284.439	200.25
284.67	204.25
284.901	206.25
285.132	204.25
285.364	213.25
285.595	212.25
285.826	202.25
286.057	210.25
286.288	214.25
286.52	215.25
286.751	208.25
286.982	209.25
287.213	214.25
287.444	215.25
287.675	224.25
287.906	199.25
288.138	215.25
288.369	213.25
288.6	228.25
288.831	206.25
289.062	201.25
289.293	219.25
289.524	222.25
289.755	222.25
289.986	216.25
290.217	223.25
290.448	225.25
290.679	214.25
290.91	225.25
291.141	224.25
291.371	210.25
291.602	221.25
291.833	232.25
292.064	218.25
292.295	214.25
292.526	216.25
292.757	225.25
292.987	217.25
293.218	224.25
293.449	215.25
293.68	215.25
293.91	220.25
294.141	213.25
294.372	230.25
294.603	241.25
294.833	229.25
295.064	231.25
295.295	217.25
295.525	228.25
295.756	227.25
295.987	236.25
296.217	220.25
296.448	229.25
296.679	213.25
296.909	230.25
297.14	239.25
297.37	254.25
297.601	241.25
297.831	240.25
298.062	259.25
298.292	227.25
298.523	229.25
298.753	229.25
298.984	246.25
299.214	239.25
299.445	233.25
299.675	246.25
299.905	240.25
300.136	224.25
300.366	232.25
300.597	248.25
300.827	256.25
301.057	260.25
301.288	245.25
301.518	254.25
301.748	263.25
301.979	256.25
302.209	258.25
302.439	258.25
302.669	245.25
302.9	241.25
303.13	251.25
303.36	262.25
303.59	259.25
303.82	265.25
304.051	276.25
304.281	269.25
304.511	256.25
304.741	247.25
304.971	247.25
305.201	290.25
305.431	247.25
305.661	270.25
305.891	274.25
306.121	259.25
306.352	273.25
306.582	270.25
306.812	237.25
307.042	265.25
307.272	246.25
307.502	262.25
307.731	262.25
307.961	264.25
308.191	265.25
308.421	273.25
308.651	269.25
308.881	259.25
309.111	250.25
309.341	263.25
309.571	270.25
309.8	256.25
310.03	269.25
310.26	256.25
310.49	270.25
310.72	274.25
310.949	269.25
311.179	256.25
311.409	279.25
311.639	277.25
311.868	271.25
312.098	275.25
312.328	286.25
312.557	278.25
312.787	267.25
313.017	277.25
313.246	293.25
313.476	276.25
313.706	279.25
313.935	268.25
314.165	286.25
314.394	271.25
314.624	297.25
314.853	270.25
315.083	291.25
315.312	274.25
315.542	270.25
315.771	280.25
316.001	279.25
316.23	285.25
316.46	292.25
316.689	301.25
316.919	291.25
317.148	285.25
317.377	270.25
317.607	277.25
317.836	268.25
318.065	284.25
318.295	292.25
318.524	296.25
318.753	271.25
318.983	294.25
319.212	286.25
319.441	279.25
319.67	283.25
319.9	285.25
320.129	270.25
320.358	308.25
320.587	287.25
320.816	275.25
321.046	297.25
321.275	296.25
321.504	300.25
321.733	284.25
321.962	293.25
322.191	297.25
322.42	285.25
322.649	305.25
322.878	290.25
323.108	296.25
323.337	319.25
323.566	280.25
323.795	294.25
324.024	296.25
324.253	290.25
324.482	301.25
324.71	305.25
324.939	318.25
325.168	310.25
325.397	301.25
325.626	324.25
325.855	298.25
326.084	303.25
326.313	296.25
326.542	294.25
326.77	313.25
326.999	302.25
327.228	330.25
327.457	316.25
327.686	334.25
327.914	311.25
328.143	316.25
328.372	307.25
328.6	307.25
328.829	318.25
329.058	308.25
329.287	309.25
329.515	309.25
329.744	313.25
329.972	315.25
330.201	331.25
330.43	324.25
330.658	310.25
330.887	338.25
331.115	308.25
331.344	329.25
331.572	340.25
331.801	328.25
332.03	345.25
332.258	361.25
332.486	340.25
332.715	343.25
332.943	349.25
333.172	334.25
333.4	381.25
333.629	384.25
333.857	390.25
334.085	375.25
334.314	388.25
334.542	354.25
334.771	368.25
334.999	361.25
335.227	369.25
335.455	364.25
335.684	364.25
335.912	352.25
336.14	360.25
336.369	357.25
336.597	342.25
336.825	362.25
337.053	366.25
337.281	362.25
337.51	357.25
337.738	343.25
337.966	354.25
338.194	347.25
338.422	341.25
338.65	349.25
338.878	332.25
339.106	356.25
339.334	349.25
339.562	337.25
339.79	334.25
340.018	349.25
340.246	326.25
340.474	335.25
340.702	333.25
340.93	327.25
341.158	344.25
341.386	349.25
341.614	322.25
341.842	340.25
342.07	352.25
342.298	335.25
342.526	336.25
342.754	337.25
342.981	349.25
343.209	350.25
343.437	359.25
343.665	366.25
343.893	364.25
344.12	355.25
344.348	358.25
344.576	356.25
344.804	336.25
345.031	346.25
345.259	340.25
345.487	335.25
345.714	356.25
345.942	333.25
346.17	314.25
346.397	318.25
346.625	335.25
346.853	341.25
347.08	319.25
347.308	316.25
347.535	322.25
347.763	306.25
347.99	322.25
348.218	337.25
348.445	304.25
348.673	311.25
348.9	307.25
349.128	320.25
349.355	321.25
349.583	319.25
349.81	322.25
350.037	316.25
350.265	322.25
350.492	325.25
350.72	320.25
350.947	330.25
351.174	327.25
351.402	318.25
351.629	316.25
351.856	327.25
352.083	312.25
352.311	324.25
352.538	318.25
352.765	325.25
352.992	334.25
353.22	313.25
353.447	318.25
353.674	336.25
353.901	319.25
354.128	320.25
354.355	309.25
354.583	311.25
354.81	320.25
355.037	322.25
355.264	311.25
355.491	322.25
355.718	326.25
355.945	334.25
356.172	333.25
356.399	331.25
356.626	330.25
356.853	337.25
357.08	322.25
357.307	327.25
357.534	339.25
357.761	329.25
357.988	309.25
358.215	327.25
358.441	322.25
358.668	317.25
358.895	306.25
359.122	326.25
359.349	324.25
359.576	334.25
359.802	333.25
360.029	328.25
360.256	326.25
360.483	345.25
360.709	324.25
360.936	318.25
361.163	330.25
361.39	319.25
361.616	317.25
361.843	324.25
362.07	332.25
362.296	319.25
362.523	326.25
362.749	326.25
362.976	326.25
363.203	346.25
363.429	330.25
363.656	351.25
363.882	338.25
364.109	329.25
364.335	330.25
364.562	348.25
364.788	339.25
365.015	329.25
365.241	333.25
365.468	338.25
365.694	309.25
365.92	309.25
366.147	332.25
366.373	332.25
366.599	316.25
366.826	330.25
367.052	326.25
367.278	345.25
367.505	351.25
367.731	342.25
367.957	328.25
368.184	336.25
368.41	340.25
368.636	329.25
368.862	333.25
369.089	343.25
369.315	351.25
369.541	341.25
369.767	337.25
369.993	333.25
370.219	332.25
370.445	353.25
370.672	336.25
370.898	337.25
371.124	347.25
371.35	357.25
371.576	345.25
371.802	324.25
372.028	327.25
372.254	371.25
372.48	344.25
372.706	380.25
372.932	360.25
373.158	352.25
373.384	354.25
373.61	353.25
373.835	344.25
374.061	353.25
374.287	355.25
374.513	357.25
374.739	356.25
374.965	366.25
375.191	372.25
375.416	375.25
375.642	355.25
375.868	355.25
376.094	362.25
376.319	346.25
376.545	353.25
376.771	348.25
376.997	332.25
377.222	343.25
377.448	356.25
377.674	364.25
377.899	344.25
378.125	356.25
378.35	353.25
378.576	344.25
378.802	337.25
379.027	342.25
379.253	352.25
379.478	353.25
379.704	359.25
379.929	366.25
380.155	359.25
380.38	330.25
380.606	340.25
380.831	345.25
381.057	359.25
381.282	357.25
381.507	355.25
381.733	345.25
381.958	357.25
382.184	356.25
382.409	359.25
382.634	370.25
382.86	365.25
383.085	373.25
383.31	382.25
383.535	378.25
383.761	368.25
383.986	387.25
384.211	394.25
384.436	382.25
384.662	377.25
384.887	386.25
385.112	386.25
385.337	382.25
385.562	405.25
385.787	393.25
386.013	398.25
386.238	392.25
386.463	385.25
386.688	400.25
386.913	393.25
387.138	394.25
387.363	411.25
387.588	398.25
387.813	394.25
388.038	411.25
388.263	399.25
388.488	408.25
388.713	401.25
388.938	392.25
389.163	397.25
389.387	399.25
389.612	391.25
389.837	393.25
390.062	383.25
390.287	388.25
390.512	408.25
390.736	384.25
390.961	414.25
391.186	427.25
391.411	441.25
391.636	424.25
391.86	408.25
392.085	428.25
392.31	433.25
392.534	436.25
392.759	418.25
392.984	401.25
393.208	401.25
393.433	429.25
393.658	428.25
393.882	442.25
394.107	425.25
394.331	418.25
394.556	415.25
394.78	419.25
395.005	449.25
395.229	445.25
395.454	444.25
395.678	441.25
395.903	444.25
396.127	440.25
396.352	451.25
396.576	436.25
396.801	436.25
397.025	463.25
397.249	435.25
397.474	464.25
397.698	442.25
397.922	449.25
398.147	440.25
398.371	421.25
398.595	464.25
398.82	506.25
399.044	510.25
399.268	532.25
399.492	579.25
399.717	574.25
399.941	588.25
400.165	581.25
400.389	529.25
400.613	528.25
400.837	509.25
401.062	495.25
401.286	471.25
401.51	479.25
401.734	485.25
401.958	496.25
402.182	488.25
402.406	471.25
402.63	454.25
402.854	474.25
403.078	500.25
403.302	464.25
403.526	505.25
403.75	510.25
403.974	486.25
404.198	512.25
404.422	526.25
404.645	508.25
404.869	510.25
405.093	505.25
405.317	505.25
405.541	508.25
405.765	503.25
405.988	481.25
406.212	526.25
406.436	523.25
406.66	536.25
406.883	537.25
407.107	535.25
407.331	558.25
407.555	570.25
407.778	559.25
408.002	583.25
408.226	542.25
408.449	534.25
408.673	528.25
408.896	523.25
409.12	518.25
409.344	546.25
409.567	514.25
409.791	527.25
410.014	486.25
410.238	512.25
410.461	513.25
410.685	516.25
410.908	499.25
411.132	497.25
411.355	478.25
411.578	497.25
411.802	484.25
412.025	497.25
412.249	502.25
412.472	496.25
412.695	497.25
412.919	486.25
413.142	482.25
413.365	483.25
413.589	471.25
413.812	474.25
414.035	470.25
414.258	458.25
414.482	474.25
414.705	453.25
414.928	476.25
415.151	478.25
415.374	481.25
415.597	482.25
415.821	477.25
416.044	454.25
416.267	453.25
416.49	453.25
416.713	456.25
416.936	468.25
417.159	447.25
417.382	460.25
417.605	455.25
417.828	465.25
418.051	480.25
418.274	479.25
418.497	459.25
418.72	475.25
418.943	470.25
419.166	492.25
419.389	510.25
419.611	514.25
419.834	489.25
420.057	479.25
420.28	468.25
420.503	462.25
420.726	443.25
420.948	445.25
421.171	452.25
421.394	460.25
421.617	449.25
421.839	442.25
422.062	446.25
422.285	456.25
422.507	469.25
422.73	452.25
422.953	463.25
423.175	453.25
423.398	475.25
423.621	444.25
423.843	489.25
424.066	456.25
424.288	441.25
424.511	460.25
424.733	465.25
424.956	472.25
425.178	465.25
425.401	480.25
425.623	468.25
425.846	464.25
426.068	459.25
426.291	454.25
426.513	432.25
426.735	443.25
426.958	437.25
427.18	424.25
427.402	432.25
427.625	410.25
427.847	445.25
428.069	458.25
428.292	439.25
428.514	424.25
428.736	414.25
428.958	426.25
429.181	432.25
429.403	429.25
429.625	423.25
429.847	438.25
430.069	429.25
430.292	422.25
430.514	403.25
430.736	420.25
430.958	438.25
431.18	411.25
431.402	436.25
431.624	423.25
431.846	414.25
432.068	428.25
432.29	449.25
432.512	425.25
432.734	438.25
432.956	457.25
433.178	450.25
433.4	435.25
433.622	440.25
433.844	450.25
434.066	436.25
434.287	450.25
434.509	470.25
434.731	452.25
434.953	464.25
435.175	447.25
435.397	442.25
435.618	440.25
435.84	430.25
436.062	436.25
436.284	401.25
436.505	429.25
436.727	418.25
436.949	428.25
437.17	444.25
437.392	418.25
437.614	428.25
437.835	409.25
438.057	422.25
438.278	420.25
438.5	418.25
438.721	420.25
438.943	423.25
439.165	413.25
439.386	398.25
439.608	413.25
439.829	425.25
440.05	438.25
440.272	422.25
440.493	428.25
440.715	437.25
440.936	403.25
441.158	436.25
441.379	419.25
441.6	430.25
441.822	442.25
442.043	433.25
442.264	438.25
442.486	447.25
442.707	450.25
442.928	426.25
443.149	440.25
443.371	440.25
443.592	436.25
443.813	449.25
444.034	430.25
444.255	468.25
444.476	458.25
444.698	459.25
444.919	488.25
445.14	569.25
445.361	495.25
445.582	440.25
445.803	456.25
446.024	433.25
446.245	470.25
446.466	436.25
446.687	416.25
446.908	424.25
447.129	411.25
447.35	388.25
447.571	383.25
447.792	384.25
448.013	407.25
448.234	396.25
448.455	401.25
448.675	402.25
448.896	386.25
449.117	384.25
449.338	385.25
449.559	395.25
449.779	377.25
450	380.25
450.221	412.25
450.442	393.25
450.662	392.25
450.883	391.25
451.104	404.25
451.324	370.25
451.545	395.25
451.766	382.25
451.986	404.25
452.207	372.25
452.428	373.25
452.648	381.25
452.869	369.25
453.089	383.25
453.31	366.25
453.53	366.25
453.751	383.25
453.971	353.25
454.192	383.25
454.412	370.25
454.633	370.25
454.853	382.25
455.073	380.25
455.294	370.25
455.514	372.25
455.734	379.25
455.955	361.25
456.175	363.25
456.395	370.25
456.616	366.25
456.836	362.25
457.056	384.25
457.276	372.25
457.497	358.25
457.717	376.25
457.937	374.25
458.157	388.25
458.377	377.25
458.598	399.25
458.818	405.25
459.038	404.25
459.258	408.25
459.478	413.25
459.698	425.25
459.918	454.25
460.138	462.25
460.358	458.25
460.578	463.25
460.798	454.25
461.018	456.25
461.238	477.25
461.458	463.25
461.678	457.25
461.898	472.25
462.118	461.25
462.338	476.25
462.558	508.25
462.777	493.25
462.997	522.25
463.217	541.25
463.437	542.25
463.657	517.25
463.876	521.25
464.096	528.25
464.316	521.25
464.536	504.25
464.755	501.25
464.975	472.25
465.195	469.25
465.414	466.25
465.634	438.25
465.854	455.25
466.073	448.25
466.293	415.25
466.512	404.25
466.732	414.25
466.951	406.25
467.171	408.25
467.391	414.25
467.61	406.25
467.829	399.25
468.049	400.25
468.268	380.25
468.488	399.25
468.707	386.25
468.927	396.25
469.146	412.25
469.365	405.25
469.585	414.25
469.804	413.25
470.023	424.25
470.243	398.25
470.462	412.25
470.681	415.25
470.901	406.25
471.12	403.25
471.339	417.25
471.558	418.25
471.777	413.25
471.997	411.25
472.216	409.25
472.435	390.25
472.654	400.25
472.873	392.25
473.092	406.25
473.311	416.25
473.53	397.25
473.749	393.25
473.968	390.25
474.187	414.25
474.406	397.25
474.625	393.25
474.844	385.25
475.063	421.25
475.282	413.25
475.501	407.25
475.72	399.25
475.939	425.25
476.158	424.25
476.377	418.25
476.596	428.25
476.814	428.25
477.033	431.25
477.252	451.25
477.471	448.25
477.69	450.25
477.908	452.25
478.127	464.25
478.346	465.25
478.564	471.25
478.783	495.25
479.002	500.25
479.22	481.25
479.439	482.25
479.658	474.25
479.876	473.25
480.095	482.25
480.313	488.25
480.532	484.25
480.751	506.25
480.969	476.25
481.188	493.25
481.406	496.25
481.624	495.25
481.843	480.25
482.061	482.25
482.28	476.25
482.498	468.25
482.717	472.25
482.935	453.25
483.153	477.25
483.372	478.25
483.59	471.25
483.808	486.25
484.027	492.25
484.245	490.25
484.463	474.25
484.681	478.25
484.9	503.25
485.118	466.25
485.336	478.25
485.554	514.25
485.772	510.25
485.99	486.25
486.209	504.25
486.427	483.25
486.645	479.25
486.863	481.25
487.081	488.25
487.299	491.25
487.517	500.25
487.735	493.25
487.953	471.25
488.171	476.25
488.389	493.25
488.607	496.25
488.825	500.25
489.043	487.25
489.261	466.25
489.479	494.25
489.696	502.25
489.914	484.25
490.132	502.25
490.35	508.25
490.568	478.25
490.786	508.25
491.003	515.25
491.221	520.25
491.439	492.25
491.657	488.25
491.874	499.25
492.092	490.25
492.31	508.25
492.527	480.25
492.745	518.25
492.963	498.25
493.18	500.25
493.398	518.25
493.615	513.25
493.833	492.25
494.05	503.25
494.268	504.25
494.485	502.25
494.703	516.25
494.92	495.25
495.138	509.25
495.355	514.25
495.573	495.25
495.79	496.25
496.008	531.25
496.225	537.25
496.442	544.25
496.66	545.25
496.877	527.25
497.094	552.25
497.312	553.25
497.529	568.25
497.746	570.25
497.963	600.25
498.181	597.25
498.398	636.25
498.615	650.25
498.832	664.25
499.049	727.25
499.267	766.25
499.484	780.25
499.701	829.25
499.918	870.25
500.135	921.25
500.352	954.25
500.569	974.25
500.786	976.25
501.003	972.25
501.22	900.25
501.437	837.25
501.654	803.25
501.871	787.25
502.088	724.25
