Data from Fe(NO3)3@0.1M.TitratingCurve.Agarose3%dH2O.NegLispCup.LampEnergy10.LIBS07252019_HRD10591_16-37-42-331.txt Node
Date: Thu Jul 25 16:37:42 EDT 2019
User: cochatt
Spectrometer: HR+D1059
Trigger mode: 1
Integration Time (sec): 1.000000E-1
Scans to average: 1
Electric dark correction enabled: true
Nonlinearity correction enabled: false
Boxcar width: 0
XAxis mode: Wavelengths
Number of Pixels in Spectrum: 2048
>>>>>Begin Spectral Data<<<<<
223.165	-6.06
223.4	-6.06
223.635	-6.06
223.869	-25.06
224.104	-28.06
224.338	-20.06
224.573	-4.06
224.808	-13.06
225.042	-9.06
225.277	-18.06
225.511	-8.06
225.746	10.94
225.98	21.94
226.215	13.94
226.449	26.94
226.683	15.94
226.918	21.94
227.152	19.94
227.387	39.94
227.621	35.94
227.856	29.94
228.09	35.94
228.324	51.94
228.559	46.94
228.793	70.94
229.027	80.94
229.262	78.94
229.496	85.94
229.73	85.94
229.964	71.94
230.199	86.94
230.433	79.94
230.667	97.94
230.901	85.94
231.136	97.94
231.37	84.94
231.604	91.94
231.838	86.94
232.072	97.94
232.306	90.94
232.541	99.94
232.775	93.94
233.009	98.94
233.243	88.94
233.477	104.94
233.711	95.94
233.945	79.94
234.179	93.94
234.413	82.94
234.647	90.94
234.881	98.94
235.115	108.94
235.349	83.94
235.583	83.94
235.817	95.94
236.051	93.94
236.285	93.94
236.519	85.94
236.753	82.94
236.987	91.94
237.221	86.94
237.455	96.94
237.689	92.94
237.922	87.94
238.156	85.94
238.39	86.94
238.624	90.94
238.858	80.94
239.091	97.94
239.325	91.94
239.559	86.94
239.793	103.94
240.027	97.94
240.26	96.94
240.494	89.94
240.728	81.94
240.961	94.94
241.195	93.94
241.429	94.94
241.662	93.94
241.896	101.94
242.13	87.94
242.363	87.94
242.597	103.94
242.83	88.94
243.064	86.94
243.298	104.94
243.531	104.94
243.765	87.94
243.998	100.94
244.232	91.94
244.465	107.94
244.699	93.94
244.932	106.94
245.166	99.94
245.399	89.94
245.633	97.94
245.866	97.94
246.099	98.94
246.333	106.94
246.566	96.94
246.8	101.94
247.033	111.94
247.266	108.94
247.5	105.94
247.733	101.94
247.966	85.94
248.2	108.94
248.433	99.94
248.666	88.94
248.899	110.94
249.133	102.94
249.366	106.94
249.599	100.94
249.832	97.94
250.066	102.94
250.299	101.94
250.532	101.94
250.765	96.94
250.998	103.94
251.231	99.94
251.465	109.94
251.698	117.94
251.931	102.94
252.164	106.94
252.397	102.94
252.63	120.94
252.863	103.94
253.096	110.94
253.329	113.94
253.562	106.94
253.795	134.94
254.028	110.94
254.261	107.94
254.494	99.94
254.727	106.94
254.96	108.94
255.193	111.94
255.426	113.94
255.659	116.94
255.892	127.94
256.124	99.94
256.357	113.94
256.59	101.94
256.823	133.94
257.056	122.94
257.289	118.94
257.521	125.94
257.754	122.94
257.987	109.94
258.22	103.94
258.452	107.94
258.685	110.94
258.918	108.94
259.151	95.94
259.383	125.94
259.616	126.94
259.849	125.94
260.081	107.94
260.314	118.94
260.547	104.94
260.779	116.94
261.012	119.94
261.244	119.94
261.477	132.94
261.71	118.94
261.942	118.94
262.175	114.94
262.407	108.94
262.64	119.94
262.872	119.94
263.105	137.94
263.337	123.94
263.57	124.94
263.802	119.94
264.035	130.94
264.267	114.94
264.499	120.94
264.732	119.94
264.964	118.94
265.197	117.94
265.429	114.94
265.661	118.94
265.894	104.94
266.126	119.94
266.358	119.94
266.591	115.94
266.823	142.94
267.055	107.94
267.287	121.94
267.52	121.94
267.752	123.94
267.984	116.94
268.216	135.94
268.448	127.94
268.681	115.94
268.913	124.94
269.145	119.94
269.377	123.94
269.609	130.94
269.841	120.94
270.073	128.94
270.306	127.94
270.538	129.94
270.77	134.94
271.002	131.94
271.234	123.94
271.466	135.94
271.698	125.94
271.93	115.94
272.162	118.94
272.394	129.94
272.626	131.94
272.858	123.94
273.09	131.94
273.322	121.94
273.553	137.94
273.785	132.94
274.017	139.94
274.249	127.94
274.481	137.94
274.713	139.94
274.945	138.94
275.176	142.94
275.408	130.94
275.64	140.94
275.872	146.94
276.104	138.94
276.335	140.94
276.567	133.94
276.799	118.94
277.031	153.94
277.262	118.94
277.494	122.94
277.726	125.94
277.957	125.94
278.189	132.94
278.421	129.94
278.652	123.94
278.884	123.94
279.115	134.94
279.347	137.94
279.579	121.94
279.81	142.94
280.042	153.94
280.273	157.94
280.505	140.94
280.736	149.94
280.968	144.94
281.199	136.94
281.431	150.94
281.662	140.94
281.894	151.94
282.125	147.94
282.356	151.94
282.588	126.94
282.819	171.94
283.051	139.94
283.282	131.94
283.513	142.94
283.745	153.94
283.976	144.94
284.207	152.94
284.439	140.94
284.67	154.94
284.901	149.94
285.132	136.94
285.364	124.94
285.595	157.94
285.826	141.94
286.057	149.94
286.288	144.94
286.52	140.94
286.751	141.94
286.982	149.94
287.213	140.94
287.444	147.94
287.675	141.94
287.906	151.94
288.138	148.94
288.369	129.94
288.6	158.94
288.831	137.94
289.062	146.94
289.293	150.94
289.524	148.94
289.755	150.94
289.986	152.94
290.217	138.94
290.448	140.94
290.679	150.94
290.91	151.94
291.141	155.94
291.371	148.94
291.602	129.94
291.833	139.94
292.064	145.94
292.295	145.94
292.526	142.94
292.757	131.94
292.987	148.94
293.218	137.94
293.449	153.94
293.68	151.94
293.91	147.94
294.141	144.94
294.372	157.94
294.603	152.94
294.833	152.94
295.064	153.94
295.295	151.94
295.525	135.94
295.756	156.94
295.987	147.94
296.217	136.94
296.448	151.94
296.679	162.94
296.909	149.94
297.14	145.94
297.37	179.94
297.601	144.94
297.831	145.94
298.062	156.94
298.292	143.94
298.523	147.94
298.753	164.94
298.984	161.94
299.214	170.94
299.445	156.94
299.675	158.94
299.905	157.94
300.136	158.94
300.366	157.94
300.597	165.94
300.827	177.94
301.057	159.94
301.288	175.94
301.518	148.94
301.748	153.94
301.979	156.94
302.209	164.94
302.439	167.94
302.669	154.94
302.9	170.94
303.13	162.94
303.36	154.94
303.59	166.94
303.82	168.94
304.051	149.94
304.281	160.94
304.511	158.94
304.741	157.94
304.971	167.94
305.201	150.94
305.431	155.94
305.661	156.94
305.891	161.94
306.121	163.94
306.352	156.94
306.582	165.94
306.812	161.94
307.042	166.94
307.272	160.94
307.502	155.94
307.731	147.94
307.961	151.94
308.191	152.94
308.421	159.94
308.651	160.94
308.881	165.94
309.111	162.94
309.341	181.94
309.571	150.94
309.8	166.94
310.03	151.94
310.26	164.94
310.49	157.94
310.72	170.94
310.949	178.94
311.179	155.94
311.409	151.94
311.639	168.94
311.868	153.94
312.098	157.94
312.328	158.94
312.557	148.94
312.787	143.94
313.017	171.94
313.246	161.94
313.476	165.94
313.706	179.94
313.935	159.94
314.165	166.94
314.394	159.94
314.624	170.94
314.853	168.94
315.083	172.94
315.312	151.94
315.542	162.94
315.771	162.94
316.001	163.94
316.23	159.94
316.46	171.94
316.689	161.94
316.919	174.94
317.148	157.94
317.377	172.94
317.607	183.94
317.836	163.94
318.065	157.94
318.295	178.94
318.524	164.94
318.753	174.94
318.983	181.94
319.212	172.94
319.441	174.94
319.67	175.94
319.9	165.94
320.129	164.94
320.358	173.94
320.587	167.94
320.816	165.94
321.046	158.94
321.275	159.94
321.504	166.94
321.733	168.94
321.962	175.94
322.191	158.94
322.42	170.94
322.649	159.94
322.878	148.94
323.108	159.94
323.337	175.94
323.566	153.94
323.795	166.94
324.024	166.94
324.253	171.94
324.482	172.94
324.71	158.94
324.939	178.94
325.168	170.94
325.397	163.94
325.626	179.94
325.855	177.94
326.084	163.94
326.313	178.94
326.542	173.94
326.77	173.94
326.999	187.94
327.228	177.94
327.457	163.94
327.686	177.94
327.914	161.94
328.143	180.94
328.372	181.94
328.6	181.94
328.829	172.94
329.058	165.94
329.287	182.94
329.515	188.94
329.744	179.94
329.972	173.94
330.201	178.94
330.43	183.94
330.658	169.94
330.887	177.94
331.115	191.94
331.344	202.94
331.572	177.94
331.801	167.94
332.03	180.94
332.258	193.94
332.486	181.94
332.715	190.94
332.943	202.94
333.172	206.94
333.4	192.94
333.629	209.94
333.857	210.94
334.085	216.94
334.314	207.94
334.542	211.94
334.771	209.94
334.999	208.94
335.227	208.94
335.455	198.94
335.684	202.94
335.912	190.94
336.14	197.94
336.369	182.94
336.597	189.94
336.825	198.94
337.053	190.94
337.281	193.94
337.51	183.94
337.738	180.94
337.966	192.94
338.194	193.94
338.422	191.94
338.65	188.94
338.878	193.94
339.106	188.94
339.334	178.94
339.562	181.94
339.79	196.94
340.018	194.94
340.246	169.94
340.474	177.94
340.702	187.94
340.93	186.94
341.158	182.94
341.386	172.94
341.614	174.94
341.842	172.94
342.07	177.94
342.298	169.94
342.526	170.94
342.754	183.94
342.981	168.94
343.209	183.94
343.437	185.94
343.665	189.94
343.893	206.94
344.12	218.94
344.348	203.94
344.576	190.94
344.804	169.94
345.031	185.94
345.259	177.94
345.487	184.94
345.714	162.94
345.942	177.94
346.17	183.94
346.397	181.94
346.625	162.94
346.853	170.94
347.08	185.94
347.308	174.94
347.535	195.94
347.763	169.94
347.99	195.94
348.218	180.94
348.445	173.94
348.673	173.94
348.9	168.94
349.128	169.94
349.355	184.94
349.583	190.94
349.81	157.94
350.037	176.94
350.265	159.94
350.492	157.94
350.72	188.94
350.947	155.94
351.174	178.94
351.402	172.94
351.629	177.94
351.856	180.94
352.083	169.94
352.311	169.94
352.538	153.94
352.765	166.94
352.992	164.94
353.22	181.94
353.447	195.94
353.674	179.94
353.901	167.94
354.128	187.94
354.355	165.94
354.583	168.94
354.81	174.94
355.037	179.94
355.264	181.94
355.491	178.94
355.718	182.94
355.945	182.94
356.172	181.94
356.399	183.94
356.626	174.94
356.853	166.94
357.08	180.94
357.307	178.94
357.534	174.94
357.761	197.94
357.988	177.94
358.215	175.94
358.441	187.94
358.668	180.94
358.895	180.94
359.122	175.94
359.349	182.94
359.576	183.94
359.802	167.94
360.029	157.94
360.256	177.94
360.483	171.94
360.709	175.94
360.936	194.94
361.163	179.94
361.39	163.94
361.616	166.94
361.843	160.94
362.07	183.94
362.296	178.94
362.523	175.94
362.749	169.94
362.976	203.94
363.203	170.94
363.429	185.94
363.656	195.94
363.882	156.94
364.109	177.94
364.335	185.94
364.562	179.94
364.788	184.94
365.015	173.94
365.241	176.94
365.468	183.94
365.694	183.94
365.92	186.94
366.147	181.94
366.373	175.94
366.599	174.94
366.826	171.94
367.052	189.94
367.278	175.94
367.505	174.94
367.731	165.94
367.957	181.94
368.184	178.94
368.41	187.94
368.636	192.94
368.862	174.94
369.089	191.94
369.315	174.94
369.541	173.94
369.767	185.94
369.993	196.94
370.219	185.94
370.445	189.94
370.672	187.94
370.898	191.94
371.124	198.94
371.35	205.94
371.576	188.94
371.802	196.94
372.028	181.94
372.254	202.94
372.48	186.94
372.706	188.94
372.932	197.94
373.158	204.94
373.384	201.94
373.61	202.94
373.835	174.94
374.061	199.94
374.287	211.94
374.513	189.94
374.739	204.94
374.965	199.94
375.191	220.94
375.416	224.94
375.642	206.94
375.868	206.94
376.094	194.94
376.319	194.94
376.545	203.94
376.771	197.94
376.997	200.94
377.222	203.94
377.448	197.94
377.674	198.94
377.899	205.94
378.125	203.94
378.35	203.94
378.576	202.94
378.802	179.94
379.027	199.94
379.253	203.94
379.478	213.94
379.704	215.94
379.929	199.94
380.155	197.94
380.38	190.94
380.606	203.94
380.831	197.94
381.057	215.94
381.282	207.94
381.507	206.94
381.733	205.94
381.958	203.94
382.184	206.94
382.409	197.94
382.634	210.94
382.86	216.94
383.085	207.94
383.31	190.94
383.535	219.94
383.761	237.94
383.986	227.94
384.211	225.94
384.436	207.94
384.662	214.94
384.887	241.94
385.112	218.94
385.337	235.94
385.562	241.94
385.787	225.94
386.013	235.94
386.238	238.94
386.463	250.94
386.688	240.94
386.913	236.94
387.138	233.94
387.363	228.94
387.588	236.94
387.813	250.94
388.038	243.94
388.263	236.94
388.488	214.94
388.713	242.94
388.938	232.94
389.163	245.94
389.387	238.94
389.612	234.94
389.837	237.94
390.062	239.94
390.287	245.94
390.512	236.94
390.736	244.94
390.961	243.94
391.186	253.94
391.411	236.94
391.636	253.94
391.86	267.94
392.085	246.94
392.31	255.94
392.534	265.94
392.759	264.94
392.984	281.94
393.208	250.94
393.433	245.94
393.658	261.94
393.882	261.94
394.107	260.94
394.331	266.94
394.556	270.94
394.78	271.94
395.005	269.94
395.229	276.94
395.454	272.94
395.678	279.94
395.903	271.94
396.127	268.94
396.352	254.94
396.576	248.94
396.801	261.94
397.025	259.94
397.249	265.94
397.474	270.94
397.698	278.94
397.922	275.94
398.147	261.94
398.371	274.94
398.595	292.94
398.82	307.94
399.044	322.94
399.268	333.94
399.492	370.94
399.717	393.94
399.941	412.94
400.165	373.94
400.389	323.94
400.613	338.94
400.837	309.94
401.062	282.94
401.286	284.94
401.51	302.94
401.734	298.94
401.958	285.94
402.182	311.94
402.406	300.94
402.63	315.94
402.854	331.94
403.078	325.94
403.302	330.94
403.526	331.94
403.75	321.94
403.974	334.94
404.198	335.94
404.422	327.94
404.645	335.94
404.869	345.94
405.093	325.94
405.317	311.94
405.541	318.94
405.765	322.94
405.988	323.94
406.212	326.94
406.436	302.94
406.66	333.94
406.883	342.94
407.107	343.94
407.331	365.94
407.555	376.94
407.778	361.94
408.002	359.94
408.226	336.94
408.449	353.94
408.673	350.94
408.896	355.94
409.12	342.94
409.344	337.94
409.567	339.94
409.791	329.94
410.014	326.94
410.238	310.94
410.461	348.94
410.685	341.94
410.908	332.94
411.132	330.94
411.355	322.94
411.578	314.94
411.802	307.94
412.025	316.94
412.249	319.94
412.472	313.94
412.695	310.94
412.919	301.94
413.142	317.94
413.365	310.94
413.589	296.94
413.812	316.94
414.035	310.94
414.258	312.94
414.482	311.94
414.705	318.94
414.928	343.94
415.151	309.94
415.374	302.94
415.597	298.94
415.821	299.94
416.044	302.94
416.267	295.94
416.49	299.94
416.713	299.94
416.936	295.94
417.159	315.94
417.382	294.94
417.605	287.94
417.828	291.94
418.051	310.94
418.274	305.94
418.497	307.94
418.72	317.94
418.943	305.94
419.166	301.94
419.389	328.94
419.611	318.94
419.834	310.94
420.057	307.94
420.28	316.94
420.503	277.94
420.726	297.94
420.948	305.94
421.171	301.94
421.394	306.94
421.617	303.94
421.839	309.94
422.062	337.94
422.285	307.94
422.507	321.94
422.73	318.94
422.953	305.94
423.175	305.94
423.398	306.94
423.621	309.94
423.843	315.94
424.066	310.94
424.288	329.94
424.511	331.94
424.733	325.94
424.956	313.94
425.178	310.94
425.401	311.94
425.623	305.94
425.846	288.94
426.068	296.94
426.291	301.94
426.513	286.94
426.735	291.94
426.958	279.94
427.18	291.94
427.402	275.94
427.625	298.94
427.847	297.94
428.069	283.94
428.292	278.94
428.514	279.94
428.736	276.94
428.958	286.94
429.181	273.94
429.403	263.94
429.625	276.94
429.847	276.94
430.069	250.94
430.292	269.94
430.514	281.94
430.736	285.94
430.958	273.94
431.18	297.94
431.402	270.94
431.624	276.94
431.846	295.94
432.068	271.94
432.29	286.94
432.512	301.94
432.734	293.94
432.956	286.94
433.178	272.94
433.4	288.94
433.622	280.94
433.844	293.94
434.066	288.94
434.287	302.94
434.509	296.94
434.731	308.94
434.953	281.94
435.175	301.94
435.397	317.94
435.618	312.94
435.84	305.94
436.062	277.94
436.284	281.94
436.505	276.94
436.727	285.94
436.949	289.94
437.17	296.94
437.392	281.94
437.614	295.94
437.835	268.94
438.057	273.94
438.278	289.94
438.5	262.94
438.721	275.94
438.943	273.94
439.165	275.94
439.386	266.94
439.608	290.94
439.829	281.94
440.05	275.94
440.272	287.94
440.493	282.94
440.715	288.94
440.936	300.94
441.158	290.94
441.379	281.94
441.6	295.94
441.822	307.94
442.043	318.94
442.264	293.94
442.486	322.94
442.707	311.94
442.928	318.94
443.149	300.94
443.371	313.94
443.592	284.94
443.813	311.94
444.034	303.94
444.255	320.94
444.476	342.94
444.698	333.94
444.919	359.94
445.14	469.94
445.361	398.94
445.582	315.94
445.803	309.94
446.024	290.94
446.245	291.94
446.466	297.94
446.687	306.94
446.908	289.94
447.129	297.94
447.35	284.94
447.571	269.94
447.792	283.94
448.013	270.94
448.234	261.94
448.455	278.94
448.675	269.94
448.896	262.94
449.117	266.94
449.338	254.94
449.559	279.94
449.779	264.94
450	279.94
450.221	272.94
450.442	267.94
450.662	274.94
450.883	261.94
451.104	278.94
451.324	271.94
451.545	261.94
451.766	264.94
451.986	267.94
452.207	269.94
452.428	254.94
452.648	259.94
452.869	267.94
453.089	263.94
453.31	262.94
453.53	245.94
453.751	245.94
453.971	251.94
454.192	243.94
454.412	244.94
454.633	248.94
454.853	266.94
455.073	253.94
455.294	257.94
455.514	261.94
455.734	247.94
455.955	246.94
456.175	253.94
456.395	244.94
456.616	276.94
456.836	261.94
457.056	245.94
457.276	255.94
457.497	261.94
457.717	238.94
457.937	249.94
458.157	257.94
458.377	261.94
458.598	257.94
458.818	264.94
459.038	267.94
459.258	279.94
459.478	289.94
459.698	279.94
459.918	327.94
460.138	289.94
460.358	318.94
460.578	323.94
460.798	311.94
461.018	316.94
461.238	319.94
461.458	316.94
461.678	302.94
461.898	321.94
462.118	333.94
462.338	331.94
462.558	376.94
462.777	337.94
462.997	367.94
463.217	391.94
463.437	395.94
463.657	370.94
463.876	377.94
464.096	362.94
464.316	372.94
464.536	356.94
464.755	349.94
464.975	347.94
465.195	323.94
465.414	322.94
465.634	312.94
465.854	301.94
466.073	299.94
466.293	292.94
466.512	289.94
466.732	281.94
466.951	266.94
467.171	272.94
467.391	280.94
467.61	288.94
467.829	280.94
468.049	271.94
468.268	276.94
468.488	274.94
468.707	278.94
468.927	269.94
469.146	260.94
469.365	270.94
469.585	275.94
469.804	287.94
470.023	285.94
470.243	275.94
470.462	275.94
470.681	283.94
470.901	283.94
471.12	275.94
471.339	270.94
471.558	257.94
471.777	267.94
471.997	279.94
472.216	255.94
472.435	270.94
472.654	266.94
472.873	244.94
473.092	275.94
473.311	272.94
473.53	261.94
473.749	276.94
473.968	278.94
474.187	260.94
474.406	242.94
474.625	241.94
474.844	276.94
475.063	272.94
475.282	281.94
475.501	259.94
475.72	271.94
475.939	283.94
476.158	273.94
476.377	283.94
476.596	296.94
476.814	280.94
477.033	270.94
477.252	273.94
477.471	294.94
477.69	290.94
477.908	303.94
478.127	315.94
478.346	317.94
478.564	313.94
478.783	309.94
479.002	307.94
479.22	319.94
479.439	317.94
479.658	307.94
479.876	308.94
480.095	327.94
480.313	342.94
480.532	335.94
480.751	317.94
480.969	327.94
481.188	307.94
481.406	300.94
481.624	314.94
481.843	283.94
482.061	302.94
482.28	289.94
482.498	293.94
482.717	272.94
482.935	290.94
483.153	289.94
483.372	288.94
483.59	293.94
483.808	302.94
484.027	308.94
484.245	294.94
484.463	311.94
484.681	329.94
484.9	309.94
485.118	306.94
485.336	297.94
485.554	312.94
485.772	309.94
485.99	305.94
486.209	325.94
486.427	318.94
486.645	309.94
486.863	315.94
487.081	321.94
487.299	300.94
487.517	309.94
487.735	306.94
487.953	307.94
488.171	303.94
488.389	307.94
488.607	311.94
488.825	308.94
489.043	306.94
489.261	305.94
489.479	295.94
489.696	312.94
489.914	300.94
490.132	307.94
490.35	316.94
490.568	320.94
490.786	319.94
491.003	299.94
491.221	317.94
491.439	319.94
491.657	314.94
491.874	317.94
492.092	307.94
492.31	318.94
492.527	303.94
492.745	335.94
492.963	322.94
493.18	335.94
493.398	303.94
493.615	334.94
493.833	330.94
494.05	309.94
494.268	309.94
494.485	325.94
494.703	314.94
494.92	350.94
495.138	307.94
495.355	334.94
495.573	338.94
495.79	338.94
496.008	330.94
496.225	329.94
496.442	326.94
496.66	342.94
496.877	343.94
497.094	346.94
497.312	351.94
497.529	374.94
497.746	362.94
497.963	354.94
498.181	385.94
498.398	402.94
498.615	407.94
498.832	406.94
499.049	440.94
499.267	479.94
499.484	540.94
499.701	559.94
499.918	603.94
500.135	696.94
500.352	748.94
500.569	778.94
500.786	786.94
501.003	728.94
501.22	673.94
501.437	584.94
501.654	532.94
501.871	503.94
502.088	463.94
502.305	428.94
502.522	413.94
