Data from Fe(NO3)3@0.0125M.TitratingCurve.Agarose3%dH2O.NegLispCup.LampEnergy10.LIBS07252019_HRD10591_17-00-05-337.txt Node
Date: Thu Jul 25 17:00:05 EDT 2019
User: cochatt
Spectrometer: HR+D1059
Trigger mode: 1
Integration Time (sec): 1.000000E-1
Scans to average: 1
Electric dark correction enabled: true
Nonlinearity correction enabled: false
Boxcar width: 0
XAxis mode: Wavelengths
Number of Pixels in Spectrum: 2048
>>>>>Begin Spectral Data<<<<<
223.165	-0.69
223.4	-0.69
223.635	-0.69
223.869	-11.69
224.104	-26.69
224.338	-12.69
224.573	-16.69
224.808	-20.69
225.042	-12.69
225.277	-3.69
225.511	-11.69
225.746	-9.69
225.98	14.31
226.215	26.31
226.449	16.31
226.683	22.31
226.918	22.31
227.152	25.31
227.387	39.31
227.621	41.31
227.856	48.31
228.09	44.31
228.324	46.31
228.559	47.31
228.793	59.31
229.027	75.31
229.262	98.31
229.496	74.31
229.73	95.31
229.964	95.31
230.199	90.31
230.433	102.31
230.667	90.31
230.901	100.31
231.136	95.31
231.37	102.31
231.604	106.31
231.838	118.31
232.072	97.31
232.306	107.31
232.541	95.31
232.775	107.31
233.009	112.31
233.243	119.31
233.477	109.31
233.711	100.31
233.945	121.31
234.179	106.31
234.413	112.31
234.647	118.31
234.881	118.31
235.115	120.31
235.349	118.31
235.583	102.31
235.817	112.31
236.051	116.31
236.285	107.31
236.519	101.31
236.753	104.31
236.987	113.31
237.221	118.31
237.455	119.31
237.689	131.31
237.922	126.31
238.156	129.31
238.39	116.31
238.624	124.31
238.858	121.31
239.091	136.31
239.325	123.31
239.559	134.31
239.793	118.31
240.027	126.31
240.26	111.31
240.494	133.31
240.728	128.31
240.961	119.31
241.195	128.31
241.429	137.31
241.662	124.31
241.896	119.31
242.13	107.31
242.363	123.31
242.597	130.31
242.83	138.31
243.064	122.31
243.298	127.31
243.531	122.31
243.765	118.31
243.998	136.31
244.232	143.31
244.465	138.31
244.699	125.31
244.932	134.31
245.166	147.31
245.399	136.31
245.633	127.31
245.866	116.31
246.099	133.31
246.333	138.31
246.566	139.31
246.8	140.31
247.033	145.31
247.266	154.31
247.5	144.31
247.733	132.31
247.966	157.31
248.2	150.31
248.433	151.31
248.666	142.31
248.899	144.31
249.133	132.31
249.366	146.31
249.599	164.31
249.832	136.31
250.066	136.31
250.299	137.31
250.532	136.31
250.765	158.31
250.998	154.31
251.231	157.31
251.465	154.31
251.698	141.31
251.931	172.31
252.164	146.31
252.397	146.31
252.63	150.31
252.863	143.31
253.096	148.31
253.329	160.31
253.562	159.31
253.795	154.31
254.028	162.31
254.261	167.31
254.494	161.31
254.727	159.31
254.96	172.31
255.193	152.31
255.426	171.31
255.659	166.31
255.892	160.31
256.124	156.31
256.357	161.31
256.59	157.31
256.823	158.31
257.056	153.31
257.289	183.31
257.521	156.31
257.754	160.31
257.987	172.31
258.22	173.31
258.452	185.31
258.685	167.31
258.918	194.31
259.151	171.31
259.383	186.31
259.616	164.31
259.849	192.31
260.081	215.31
260.314	210.31
260.547	195.31
260.779	194.31
261.012	175.31
261.244	180.31
261.477	217.31
261.71	205.31
261.942	192.31
262.175	190.31
262.407	185.31
262.64	194.31
262.872	205.31
263.105	167.31
263.337	189.31
263.57	196.31
263.802	190.31
264.035	174.31
264.267	169.31
264.499	192.31
264.732	166.31
264.964	183.31
265.197	177.31
265.429	175.31
265.661	172.31
265.894	198.31
266.126	194.31
266.358	198.31
266.591	206.31
266.823	166.31
267.055	182.31
267.287	174.31
267.52	194.31
267.752	191.31
267.984	190.31
268.216	199.31
268.448	190.31
268.681	193.31
268.913	198.31
269.145	194.31
269.377	188.31
269.609	191.31
269.841	204.31
270.073	202.31
270.306	205.31
270.538	193.31
270.77	190.31
271.002	214.31
271.234	195.31
271.466	203.31
271.698	206.31
271.93	207.31
272.162	223.31
272.394	221.31
272.626	214.31
272.858	220.31
273.09	207.31
273.322	225.31
273.553	233.31
273.785	230.31
274.017	254.31
274.249	264.31
274.481	256.31
274.713	241.31
274.945	268.31
275.176	264.31
275.408	251.31
275.64	252.31
275.872	263.31
276.104	251.31
276.335	227.31
276.567	232.31
276.799	242.31
277.031	241.31
277.262	226.31
277.494	236.31
277.726	219.31
277.957	221.31
278.189	225.31
278.421	229.31
278.652	221.31
278.884	208.31
279.115	234.31
279.347	251.31
279.579	255.31
279.81	243.31
280.042	228.31
280.273	233.31
280.505	229.31
280.736	251.31
280.968	228.31
281.199	226.31
281.431	235.31
281.662	248.31
281.894	246.31
282.125	231.31
282.356	249.31
282.588	247.31
282.819	247.31
283.051	226.31
283.282	266.31
283.513	250.31
283.745	256.31
283.976	246.31
284.207	237.31
284.439	246.31
284.67	249.31
284.901	235.31
285.132	236.31
285.364	260.31
285.595	259.31
285.826	252.31
286.057	278.31
286.288	280.31
286.52	255.31
286.751	272.31
286.982	250.31
287.213	262.31
287.444	257.31
287.675	264.31
287.906	287.31
288.138	269.31
288.369	290.31
288.6	255.31
288.831	258.31
289.062	256.31
289.293	260.31
289.524	284.31
289.755	255.31
289.986	273.31
290.217	259.31
290.448	277.31
290.679	259.31
290.91	266.31
291.141	247.31
291.371	254.31
291.602	257.31
291.833	269.31
292.064	280.31
292.295	288.31
292.526	288.31
292.757	262.31
292.987	283.31
293.218	272.31
293.449	292.31
293.68	265.31
293.91	246.31
294.141	262.31
294.372	267.31
294.603	282.31
294.833	282.31
295.064	283.31
295.295	288.31
295.525	278.31
295.756	273.31
295.987	286.31
296.217	308.31
296.448	270.31
296.679	273.31
296.909	288.31
297.14	299.31
297.37	314.31
297.601	286.31
297.831	295.31
298.062	306.31
298.292	303.31
298.523	302.31
298.753	304.31
298.984	315.31
299.214	310.31
299.445	308.31
299.675	292.31
299.905	299.31
300.136	279.31
300.366	283.31
300.597	297.31
300.827	324.31
301.057	320.31
301.288	319.31
301.518	318.31
301.748	326.31
301.979	299.31
302.209	318.31
302.439	329.31
302.669	298.31
302.9	315.31
303.13	312.31
303.36	318.31
303.59	323.31
303.82	314.31
304.051	318.31
304.281	333.31
304.511	318.31
304.741	326.31
304.971	321.31
305.201	329.31
305.431	313.31
305.661	300.31
305.891	324.31
306.121	331.31
306.352	333.31
306.582	308.31
306.812	319.31
307.042	328.31
307.272	333.31
307.502	325.31
307.731	342.31
307.961	327.31
308.191	332.31
308.421	320.31
308.651	323.31
308.881	318.31
309.111	308.31
309.341	327.31
309.571	324.31
309.8	331.31
310.03	332.31
310.26	334.31
310.49	323.31
310.72	331.31
310.949	308.31
311.179	343.31
311.409	347.31
311.639	334.31
311.868	336.31
312.098	342.31
312.328	345.31
312.557	354.31
312.787	333.31
313.017	345.31
313.246	338.31
313.476	347.31
313.706	344.31
313.935	360.31
314.165	339.31
314.394	355.31
314.624	331.31
314.853	348.31
315.083	355.31
315.312	344.31
315.542	372.31
315.771	368.31
316.001	348.31
316.23	372.31
316.46	366.31
316.689	362.31
316.919	355.31
317.148	357.31
317.377	363.31
317.607	382.31
317.836	340.31
318.065	360.31
318.295	352.31
318.524	376.31
318.753	377.31
318.983	360.31
319.212	376.31
319.441	376.31
319.67	350.31
319.9	361.31
320.129	376.31
320.358	369.31
320.587	371.31
320.816	366.31
321.046	376.31
321.275	385.31
321.504	366.31
321.733	376.31
321.962	379.31
322.191	364.31
322.42	361.31
322.649	376.31
322.878	390.31
323.108	381.31
323.337	354.31
323.566	354.31
323.795	367.31
324.024	382.31
324.253	372.31
324.482	362.31
324.71	398.31
324.939	401.31
325.168	376.31
325.397	375.31
325.626	381.31
325.855	396.31
326.084	396.31
326.313	382.31
326.542	388.31
326.77	381.31
326.999	403.31
327.228	386.31
327.457	388.31
327.686	388.31
327.914	397.31
328.143	403.31
328.372	385.31
328.6	404.31
328.829	408.31
329.058	392.31
329.287	389.31
329.515	397.31
329.744	397.31
329.972	407.31
330.201	406.31
330.43	409.31
330.658	400.31
330.887	397.31
331.115	419.31
331.344	399.31
331.572	401.31
331.801	400.31
332.03	421.31
332.258	416.31
332.486	422.31
332.715	421.31
332.943	430.31
333.172	423.31
333.4	431.31
333.629	422.31
333.857	446.31
334.085	445.31
334.314	430.31
334.542	442.31
334.771	448.31
334.999	444.31
335.227	462.31
335.455	451.31
335.684	434.31
335.912	448.31
336.14	450.31
336.369	454.31
336.597	440.31
336.825	444.31
337.053	449.31
337.281	432.31
337.51	448.31
337.738	469.31
337.966	448.31
338.194	439.31
338.422	439.31
338.65	417.31
338.878	442.31
339.106	423.31
339.334	427.31
339.562	413.31
339.79	429.31
340.018	414.31
340.246	439.31
340.474	413.31
340.702	423.31
340.93	418.31
341.158	429.31
341.386	423.31
341.614	431.31
341.842	412.31
342.07	450.31
342.298	418.31
342.526	418.31
342.754	434.31
342.981	428.31
343.209	418.31
343.437	421.31
343.665	455.31
343.893	451.31
344.12	469.31
344.348	445.31
344.576	448.31
344.804	439.31
345.031	462.31
345.259	453.31
345.487	415.31
345.714	438.31
345.942	435.31
346.17	436.31
346.397	427.31
346.625	428.31
346.853	436.31
347.08	417.31
347.308	399.31
347.535	415.31
347.763	416.31
347.99	421.31
348.218	439.31
348.445	419.31
348.673	406.31
348.9	420.31
349.128	440.31
349.355	422.31
349.583	432.31
349.81	423.31
350.037	411.31
350.265	406.31
350.492	426.31
350.72	408.31
350.947	423.31
351.174	409.31
351.402	404.31
351.629	406.31
351.856	412.31
352.083	410.31
352.311	411.31
352.538	424.31
352.765	426.31
352.992	434.31
353.22	399.31
353.447	425.31
353.674	429.31
353.901	416.31
354.128	405.31
354.355	397.31
354.583	420.31
354.81	421.31
355.037	424.31
355.264	429.31
355.491	421.31
355.718	414.31
355.945	411.31
356.172	405.31
356.399	407.31
356.626	419.31
356.853	414.31
357.08	438.31
357.307	404.31
357.534	432.31
357.761	434.31
357.988	425.31
358.215	427.31
358.441	429.31
358.668	427.31
358.895	412.31
359.122	407.31
359.349	426.31
359.576	428.31
359.802	410.31
360.029	415.31
360.256	408.31
360.483	422.31
360.709	415.31
360.936	430.31
361.163	441.31
361.39	448.31
361.616	397.31
361.843	424.31
362.07	426.31
362.296	408.31
362.523	418.31
362.749	437.31
362.976	446.31
363.203	416.31
363.429	425.31
363.656	432.31
363.882	421.31
364.109	432.31
364.335	431.31
364.562	438.31
364.788	446.31
365.015	427.31
365.241	420.31
365.468	434.31
365.694	431.31
365.92	432.31
366.147	402.31
366.373	418.31
366.599	438.31
366.826	428.31
367.052	430.31
367.278	419.31
367.505	431.31
367.731	438.31
367.957	437.31
368.184	450.31
368.41	459.31
368.636	439.31
368.862	432.31
369.089	446.31
369.315	458.31
369.541	449.31
369.767	478.31
369.993	450.31
370.219	440.31
370.445	441.31
370.672	445.31
370.898	443.31
371.124	466.31
371.35	476.31
371.576	461.31
371.802	467.31
372.028	476.31
372.254	486.31
372.48	470.31
372.706	463.31
372.932	462.31
373.158	472.31
373.384	495.31
373.61	469.31
373.835	474.31
374.061	465.31
374.287	482.31
374.513	500.31
374.739	499.31
374.965	506.31
375.191	483.31
375.416	482.31
375.642	476.31
375.868	482.31
376.094	476.31
376.319	482.31
376.545	493.31
376.771	477.31
376.997	457.31
377.222	448.31
377.448	478.31
377.674	443.31
377.899	464.31
378.125	446.31
378.35	452.31
378.576	456.31
378.802	444.31
379.027	471.31
379.253	476.31
379.478	471.31
379.704	459.31
379.929	454.31
380.155	454.31
380.38	446.31
380.606	443.31
380.831	462.31
381.057	478.31
381.282	484.31
381.507	472.31
381.733	467.31
381.958	497.31
382.184	502.31
382.409	487.31
382.634	489.31
382.86	488.31
383.085	486.31
383.31	502.31
383.535	495.31
383.761	487.31
383.986	493.31
384.211	502.31
384.436	510.31
384.662	504.31
384.887	520.31
385.112	477.31
385.337	495.31
385.562	510.31
385.787	490.31
386.013	538.31
386.238	528.31
386.463	531.31
386.688	502.31
386.913	516.31
387.138	541.31
387.363	512.31
387.588	522.31
387.813	516.31
388.038	538.31
388.263	531.31
388.488	532.31
388.713	526.31
388.938	546.31
389.163	516.31
389.387	538.31
389.612	539.31
389.837	521.31
390.062	544.31
390.287	526.31
390.512	526.31
390.736	523.31
390.961	549.31
391.186	527.31
391.411	555.31
391.636	540.31
391.86	547.31
392.085	543.31
392.31	553.31
392.534	539.31
392.759	551.31
392.984	536.31
393.208	572.31
393.433	599.31
393.658	598.31
393.882	543.31
394.107	550.31
394.331	541.31
394.556	560.31
394.78	542.31
395.005	558.31
395.229	559.31
395.454	567.31
395.678	568.31
395.903	566.31
396.127	538.31
396.352	576.31
396.576	556.31
396.801	582.31
397.025	590.31
397.249	596.31
397.474	594.31
397.698	584.31
397.922	574.31
398.147	595.31
398.371	574.31
398.595	599.31
398.82	570.31
399.044	622.31
399.268	638.31
399.492	663.31
399.717	662.31
399.941	662.31
400.165	653.31
400.389	652.31
400.613	618.31
400.837	619.31
401.062	607.31
401.286	615.31
401.51	630.31
401.734	603.31
401.958	605.31
402.182	587.31
402.406	614.31
402.63	626.31
402.854	596.31
403.078	620.31
403.302	613.31
403.526	608.31
403.75	616.31
403.974	611.31
404.198	605.31
404.422	621.31
404.645	611.31
404.869	635.31
405.093	632.31
405.317	628.31
405.541	627.31
405.765	622.31
405.988	616.31
406.212	610.31
406.436	630.31
406.66	668.31
406.883	645.31
407.107	644.31
407.331	678.31
407.555	675.31
407.778	685.31
408.002	675.31
408.226	680.31
408.449	684.31
408.673	650.31
408.896	632.31
409.12	647.31
409.344	661.31
409.567	646.31
409.791	647.31
410.014	623.31
410.238	639.31
410.461	646.31
410.685	623.31
410.908	605.31
411.132	634.31
411.355	638.31
411.578	656.31
411.802	630.31
412.025	631.31
412.249	632.31
412.472	642.31
412.695	614.31
412.919	607.31
413.142	623.31
413.365	605.31
413.589	610.31
413.812	630.31
414.035	622.31
414.258	619.31
414.482	605.31
414.705	606.31
414.928	604.31
415.151	601.31
415.374	618.31
415.597	593.31
415.821	583.31
416.044	596.31
416.267	614.31
416.49	589.31
416.713	592.31
416.936	584.31
417.159	596.31
417.382	590.31
417.605	581.31
417.828	574.31
418.051	603.31
418.274	578.31
418.497	583.31
418.72	598.31
418.943	580.31
419.166	612.31
419.389	635.31
419.611	622.31
419.834	606.31
420.057	608.31
420.28	615.31
420.503	574.31
420.726	579.31
420.948	568.31
421.171	574.31
421.394	575.31
421.617	589.31
421.839	588.31
422.062	569.31
422.285	541.31
422.507	605.31
422.73	593.31
422.953	587.31
423.175	576.31
423.398	587.31
423.621	569.31
423.843	602.31
424.066	572.31
424.288	585.31
424.511	586.31
424.733	592.31
424.956	581.31
425.178	573.31
425.401	568.31
425.623	602.31
425.846	575.31
426.068	572.31
426.291	591.31
426.513	578.31
426.735	593.31
426.958	587.31
427.18	574.31
427.402	580.31
427.625	563.31
427.847	549.31
428.069	572.31
428.292	571.31
428.514	556.31
428.736	562.31
428.958	566.31
429.181	570.31
429.403	556.31
429.625	575.31
429.847	561.31
430.069	548.31
430.292	554.31
430.514	566.31
430.736	588.31
430.958	598.31
431.18	580.31
431.402	566.31
431.624	548.31
431.846	554.31
432.068	556.31
432.29	562.31
432.512	580.31
432.734	600.31
432.956	580.31
433.178	582.31
433.4	586.31
433.622	576.31
433.844	585.31
434.066	597.31
434.287	583.31
434.509	566.31
434.731	585.31
434.953	586.31
435.175	566.31
435.397	570.31
435.618	564.31
435.84	582.31
436.062	576.31
436.284	562.31
436.505	551.31
436.727	560.31
436.949	556.31
437.17	554.31
437.392	573.31
437.614	578.31
437.835	547.31
438.057	556.31
438.278	531.31
438.5	565.31
438.721	563.31
438.943	544.31
439.165	542.31
439.386	544.31
439.608	558.31
439.829	575.31
440.05	556.31
440.272	551.31
440.493	562.31
440.715	574.31
440.936	562.31
441.158	586.31
441.379	568.31
441.6	596.31
441.822	594.31
442.043	556.31
442.264	598.31
442.486	572.31
442.707	588.31
442.928	569.31
443.149	572.31
443.371	583.31
443.592	584.31
443.813	563.31
444.034	566.31
444.255	608.31
444.476	612.31
444.698	587.31
444.919	590.31
445.14	652.31
445.361	615.31
445.582	588.31
445.803	573.31
446.024	568.31
446.245	560.31
446.466	580.31
446.687	556.31
446.908	564.31
447.129	550.31
447.35	530.31
447.571	549.31
447.792	550.31
448.013	536.31
448.234	553.31
448.455	534.31
448.675	539.31
448.896	511.31
449.117	520.31
449.338	527.31
449.559	537.31
449.779	548.31
450	532.31
450.221	525.31
450.442	535.31
450.662	524.31
450.883	514.31
451.104	540.31
451.324	524.31
451.545	517.31
451.766	498.31
451.986	529.31
452.207	524.31
452.428	536.31
452.648	512.31
452.869	521.31
453.089	509.31
453.31	503.31
453.53	517.31
453.751	534.31
453.971	504.31
454.192	512.31
454.412	515.31
454.633	506.31
454.853	517.31
455.073	532.31
455.294	500.31
455.514	507.31
455.734	512.31
455.955	503.31
456.175	512.31
456.395	505.31
456.616	485.31
456.836	502.31
457.056	504.31
457.276	509.31
457.497	541.31
457.717	524.31
457.937	516.31
458.157	489.31
458.377	527.31
458.598	529.31
458.818	530.31
459.038	549.31
459.258	543.31
459.478	555.31
459.698	554.31
459.918	556.31
460.138	562.31
460.358	582.31
460.578	576.31
460.798	571.31
461.018	598.31
461.238	590.31
461.458	620.31
461.678	584.31
461.898	622.31
462.118	591.31
462.338	620.31
462.558	626.31
462.777	624.31
462.997	646.31
463.217	655.31
463.437	648.31
463.657	651.31
463.876	638.31
464.096	631.31
464.316	631.31
464.536	618.31
464.755	601.31
464.975	621.31
465.195	607.31
465.414	608.31
465.634	606.31
465.854	581.31
466.073	590.31
466.293	562.31
466.512	535.31
466.732	554.31
466.951	583.31
467.171	578.31
467.391	565.31
467.61	558.31
467.829	567.31
468.049	560.31
468.268	535.31
468.488	566.31
468.707	546.31
468.927	560.31
469.146	568.31
469.365	531.31
469.585	568.31
469.804	575.31
470.023	568.31
470.243	564.31
470.462	567.31
470.681	550.31
470.901	566.31
471.12	559.31
471.339	568.31
471.558	557.31
471.777	570.31
471.997	564.31
472.216	582.31
472.435	573.31
472.654	546.31
472.873	565.31
473.092	589.31
473.311	576.31
473.53	579.31
473.749	563.31
473.968	595.31
474.187	562.31
474.406	542.31
474.625	579.31
474.844	598.31
475.063	584.31
475.282	601.31
475.501	582.31
475.72	565.31
475.939	612.31
476.158	606.31
476.377	598.31
476.596	594.31
476.814	620.31
477.033	594.31
477.252	595.31
477.471	615.31
477.69	630.31
477.908	651.31
478.127	646.31
478.346	636.31
478.564	656.31
478.783	651.31
479.002	662.31
479.22	692.31
479.439	687.31
479.658	684.31
479.876	646.31
480.095	654.31
480.313	692.31
480.532	683.31
480.751	674.31
480.969	673.31
481.188	691.31
481.406	678.31
481.624	688.31
481.843	674.31
482.061	654.31
482.28	658.31
482.498	680.31
482.717	658.31
482.935	694.31
483.153	669.31
483.372	687.31
483.59	680.31
483.808	664.31
484.027	675.31
484.245	699.31
484.463	662.31
484.681	696.31
484.9	683.31
485.118	698.31
485.336	702.31
485.554	689.31
485.772	698.31
485.99	667.31
486.209	724.31
486.427	695.31
486.645	707.31
486.863	716.31
487.081	686.31
487.299	679.31
487.517	707.31
487.735	709.31
487.953	699.31
488.171	698.31
488.389	700.31
488.607	691.31
488.825	706.31
489.043	678.31
489.261	692.31
489.479	713.31
489.696	691.31
489.914	712.31
490.132	709.31
490.35	687.31
490.568	696.31
490.786	718.31
491.003	688.31
491.221	712.31
491.439	724.31
491.657	690.31
491.874	716.31
492.092	741.31
492.31	696.31
492.527	731.31
492.745	737.31
492.963	707.31
493.18	723.31
493.398	711.31
493.615	735.31
493.833	737.31
494.05	730.31
494.268	734.31
494.485	739.31
494.703	720.31
494.92	748.31
495.138	780.31
495.355	731.31
495.573	731.31
495.79	724.31
496.008	777.31
496.225	772.31
496.442	747.31
496.66	773.31
496.877	772.31
497.094	788.31
497.312	769.31
497.529	792.31
497.746	788.31
497.963	826.31
498.181	831.31
498.398	851.31
498.615	878.31
498.832	907.31
499.049	894.31
499.267	931.31
499.484	968.31
499.701	1002.31
499.918	992.31
500.135	1045.31
500.352	1102.31
500.569	1074.31
500.786	1062.31
501.003	1070.31
501.22	1042.31
501.437	1007.31
501.654	963.31
