Data from Fe(NO3)3@0.1M.TitratingCurve.Agarose3%dH2O.NegLispCup.LampEnergy10.LIBS07252019_HRD10591_16-40-32-332.txt Node
Date: Thu Jul 25 16:40:32 EDT 2019
User: cochatt
Spectrometer: HR+D1059
Trigger mode: 1
Integration Time (sec): 1.000000E-1
Scans to average: 1
Electric dark correction enabled: true
Nonlinearity correction enabled: false
Boxcar width: 0
XAxis mode: Wavelengths
Number of Pixels in Spectrum: 2048
>>>>>Begin Spectral Data<<<<<
223.165	-13.12
223.4	-13.12
223.635	-13.12
223.869	-18.12
224.104	-13.12
224.338	-13.12
224.573	-7.12
224.808	-2.12
225.042	-15.12
225.277	-12.12
225.511	0.88
225.746	-0.12
225.98	4.88
226.215	7.88
226.449	4.88
226.683	19.88
226.918	39.88
227.152	15.88
227.387	36.88
227.621	31.88
227.856	53.88
228.09	27.88
228.324	43.88
228.559	56.88
228.793	59.88
229.027	69.88
229.262	79.88
229.496	79.88
229.73	84.88
229.964	98.88
230.199	96.88
230.433	92.88
230.667	95.88
230.901	96.88
231.136	104.88
231.37	91.88
231.604	85.88
231.838	96.88
232.072	104.88
232.306	100.88
232.541	114.88
232.775	99.88
233.009	102.88
233.243	96.88
233.477	106.88
233.711	96.88
233.945	107.88
234.179	104.88
234.413	103.88
234.647	89.88
234.881	108.88
235.115	92.88
235.349	122.88
235.583	107.88
235.817	106.88
236.051	96.88
236.285	95.88
236.519	105.88
236.753	115.88
236.987	108.88
237.221	93.88
237.455	112.88
237.689	106.88
237.922	106.88
238.156	100.88
238.39	94.88
238.624	97.88
238.858	93.88
239.091	105.88
239.325	92.88
239.559	98.88
239.793	112.88
240.027	94.88
240.26	121.88
240.494	115.88
240.728	119.88
240.961	113.88
241.195	119.88
241.429	128.88
241.662	113.88
241.896	125.88
242.13	141.88
242.363	104.88
242.597	113.88
242.83	92.88
243.064	104.88
243.298	107.88
243.531	114.88
243.765	126.88
243.998	117.88
244.232	121.88
244.465	123.88
244.699	125.88
244.932	118.88
245.166	120.88
245.399	142.88
245.633	115.88
245.866	120.88
246.099	138.88
246.333	139.88
246.566	121.88
246.8	133.88
247.033	124.88
247.266	117.88
247.5	136.88
247.733	118.88
247.966	129.88
248.2	125.88
248.433	137.88
248.666	137.88
248.899	125.88
249.133	130.88
249.366	143.88
249.599	139.88
249.832	127.88
250.066	148.88
250.299	126.88
250.532	150.88
250.765	131.88
250.998	143.88
251.231	145.88
251.465	145.88
251.698	144.88
251.931	142.88
252.164	141.88
252.397	141.88
252.63	132.88
252.863	133.88
253.096	135.88
253.329	135.88
253.562	150.88
253.795	155.88
254.028	162.88
254.261	145.88
254.494	140.88
254.727	137.88
254.96	145.88
255.193	140.88
255.426	152.88
255.659	161.88
255.892	153.88
256.124	145.88
256.357	156.88
256.59	141.88
256.823	139.88
257.056	159.88
257.289	153.88
257.521	153.88
257.754	159.88
257.987	148.88
258.22	161.88
258.452	162.88
258.685	153.88
258.918	162.88
259.151	160.88
259.383	156.88
259.616	164.88
259.849	153.88
260.081	168.88
260.314	169.88
260.547	168.88
260.779	167.88
261.012	164.88
261.244	155.88
261.477	170.88
261.71	174.88
261.942	162.88
262.175	149.88
262.407	155.88
262.64	160.88
262.872	162.88
263.105	165.88
263.337	167.88
263.57	161.88
263.802	159.88
264.035	180.88
264.267	180.88
264.499	173.88
264.732	179.88
264.964	163.88
265.197	167.88
265.429	183.88
265.661	181.88
265.894	170.88
266.126	182.88
266.358	174.88
266.591	186.88
266.823	183.88
267.055	187.88
267.287	184.88
267.52	187.88
267.752	182.88
267.984	183.88
268.216	187.88
268.448	187.88
268.681	180.88
268.913	181.88
269.145	174.88
269.377	183.88
269.609	178.88
269.841	182.88
270.073	193.88
270.306	179.88
270.538	202.88
270.77	183.88
271.002	184.88
271.234	202.88
271.466	194.88
271.698	199.88
271.93	177.88
272.162	177.88
272.394	187.88
272.626	189.88
272.858	202.88
273.09	189.88
273.322	167.88
273.553	183.88
273.785	195.88
274.017	192.88
274.249	199.88
274.481	207.88
274.713	205.88
274.945	200.88
275.176	199.88
275.408	201.88
275.64	193.88
275.872	185.88
276.104	192.88
276.335	188.88
276.567	192.88
276.799	200.88
277.031	200.88
277.262	214.88
277.494	196.88
277.726	208.88
277.957	197.88
278.189	185.88
278.421	195.88
278.652	197.88
278.884	201.88
279.115	207.88
279.347	209.88
279.579	204.88
279.81	211.88
280.042	208.88
280.273	201.88
280.505	203.88
280.736	212.88
280.968	213.88
281.199	221.88
281.431	223.88
281.662	220.88
281.894	210.88
282.125	210.88
282.356	228.88
282.588	193.88
282.819	215.88
283.051	210.88
283.282	202.88
283.513	227.88
283.745	224.88
283.976	211.88
284.207	219.88
284.439	226.88
284.67	224.88
284.901	213.88
285.132	224.88
285.364	232.88
285.595	210.88
285.826	219.88
286.057	217.88
286.288	204.88
286.52	220.88
286.751	225.88
286.982	231.88
287.213	214.88
287.444	225.88
287.675	217.88
287.906	235.88
288.138	235.88
288.369	226.88
288.6	218.88
288.831	218.88
289.062	238.88
289.293	249.88
289.524	218.88
289.755	229.88
289.986	226.88
290.217	223.88
290.448	235.88
290.679	239.88
290.91	212.88
291.141	251.88
291.371	245.88
291.602	214.88
291.833	230.88
292.064	230.88
292.295	226.88
292.526	242.88
292.757	248.88
292.987	246.88
293.218	226.88
293.449	248.88
293.68	255.88
293.91	239.88
294.141	237.88
294.372	228.88
294.603	225.88
294.833	254.88
295.064	245.88
295.295	248.88
295.525	236.88
295.756	245.88
295.987	243.88
296.217	241.88
296.448	228.88
296.679	240.88
296.909	229.88
297.14	237.88
297.37	265.88
297.601	249.88
297.831	231.88
298.062	263.88
298.292	257.88
298.523	267.88
298.753	261.88
298.984	243.88
299.214	263.88
299.445	257.88
299.675	264.88
299.905	249.88
300.136	272.88
300.366	262.88
300.597	259.88
300.827	259.88
301.057	249.88
301.288	257.88
301.518	258.88
301.748	264.88
301.979	261.88
302.209	268.88
302.439	260.88
302.669	258.88
302.9	262.88
303.13	271.88
303.36	273.88
303.59	243.88
303.82	264.88
304.051	273.88
304.281	283.88
304.511	267.88
304.741	287.88
304.971	263.88
305.201	275.88
305.431	263.88
305.661	267.88
305.891	244.88
306.121	259.88
306.352	255.88
306.582	276.88
306.812	268.88
307.042	259.88
307.272	267.88
307.502	252.88
307.731	260.88
307.961	249.88
308.191	264.88
308.421	244.88
308.651	266.88
308.881	250.88
309.111	260.88
309.341	249.88
309.571	265.88
309.8	268.88
310.03	262.88
310.26	266.88
310.49	269.88
310.72	274.88
310.949	262.88
311.179	297.88
311.409	241.88
311.639	248.88
311.868	276.88
312.098	284.88
312.328	261.88
312.557	279.88
312.787	267.88
313.017	287.88
313.246	285.88
313.476	279.88
313.706	272.88
313.935	287.88
314.165	307.88
314.394	283.88
314.624	252.88
314.853	287.88
315.083	283.88
315.312	271.88
315.542	288.88
315.771	275.88
316.001	282.88
316.23	279.88
316.46	265.88
316.689	272.88
316.919	273.88
317.148	275.88
317.377	290.88
317.607	284.88
317.836	275.88
318.065	279.88
318.295	263.88
318.524	270.88
318.753	277.88
318.983	281.88
319.212	275.88
319.441	292.88
319.67	267.88
319.9	271.88
320.129	272.88
320.358	273.88
320.587	274.88
320.816	266.88
321.046	282.88
321.275	292.88
321.504	279.88
321.733	277.88
321.962	286.88
322.191	285.88
322.42	282.88
322.649	285.88
322.878	290.88
323.108	282.88
323.337	298.88
323.566	277.88
323.795	286.88
324.024	288.88
324.253	288.88
324.482	298.88
324.71	305.88
324.939	290.88
325.168	279.88
325.397	287.88
325.626	295.88
325.855	291.88
326.084	317.88
326.313	288.88
326.542	295.88
326.77	314.88
326.999	304.88
327.228	300.88
327.457	296.88
327.686	296.88
327.914	308.88
328.143	277.88
328.372	278.88
328.6	315.88
328.829	307.88
329.058	303.88
329.287	281.88
329.515	296.88
329.744	315.88
329.972	299.88
330.201	312.88
330.43	317.88
330.658	308.88
330.887	325.88
331.115	321.88
331.344	328.88
331.572	329.88
331.801	332.88
332.03	334.88
332.258	349.88
332.486	332.88
332.715	348.88
332.943	347.88
333.172	357.88
333.4	355.88
333.629	376.88
333.857	391.88
334.085	356.88
334.314	379.88
334.542	363.88
334.771	379.88
334.999	373.88
335.227	370.88
335.455	374.88
335.684	362.88
335.912	374.88
336.14	349.88
336.369	331.88
336.597	351.88
336.825	355.88
337.053	361.88
337.281	332.88
337.51	351.88
337.738	344.88
337.966	330.88
338.194	334.88
338.422	339.88
338.65	326.88
338.878	337.88
339.106	340.88
339.334	339.88
339.562	329.88
339.79	324.88
340.018	325.88
340.246	330.88
340.474	331.88
340.702	305.88
340.93	333.88
341.158	320.88
341.386	337.88
341.614	322.88
341.842	339.88
342.07	312.88
342.298	305.88
342.526	321.88
342.754	326.88
342.981	341.88
343.209	323.88
343.437	331.88
343.665	359.88
343.893	359.88
344.12	376.88
344.348	337.88
344.576	339.88
344.804	340.88
345.031	315.88
345.259	341.88
345.487	334.88
345.714	338.88
345.942	323.88
346.17	306.88
346.397	311.88
346.625	303.88
346.853	316.88
347.08	307.88
347.308	315.88
347.535	305.88
347.763	317.88
347.99	311.88
348.218	315.88
348.445	320.88
348.673	308.88
348.9	307.88
349.128	296.88
349.355	303.88
349.583	301.88
349.81	297.88
350.037	299.88
350.265	332.88
350.492	298.88
350.72	305.88
350.947	294.88
351.174	322.88
351.402	327.88
351.629	295.88
351.856	283.88
352.083	297.88
352.311	303.88
352.538	291.88
352.765	315.88
352.992	296.88
353.22	313.88
353.447	292.88
353.674	308.88
353.901	306.88
354.128	284.88
354.355	304.88
354.583	297.88
354.81	319.88
355.037	314.88
355.264	314.88
355.491	314.88
355.718	308.88
355.945	312.88
356.172	287.88
356.399	304.88
356.626	316.88
356.853	319.88
357.08	319.88
357.307	299.88
357.534	301.88
357.761	307.88
357.988	307.88
358.215	300.88
358.441	303.88
358.668	310.88
358.895	312.88
359.122	307.88
359.349	307.88
359.576	305.88
359.802	328.88
360.029	309.88
360.256	298.88
360.483	287.88
360.709	292.88
360.936	319.88
361.163	287.88
361.39	296.88
361.616	298.88
361.843	310.88
362.07	295.88
362.296	294.88
362.523	294.88
362.749	317.88
362.976	313.88
363.203	305.88
363.429	303.88
363.656	283.88
363.882	299.88
364.109	287.88
364.335	297.88
364.562	291.88
364.788	309.88
365.015	282.88
365.241	296.88
365.468	304.88
365.694	297.88
365.92	301.88
366.147	308.88
366.373	309.88
366.599	324.88
366.826	314.88
367.052	316.88
367.278	318.88
367.505	303.88
367.731	320.88
367.957	288.88
368.184	305.88
368.41	309.88
368.636	312.88
368.862	309.88
369.089	320.88
369.315	303.88
369.541	319.88
369.767	317.88
369.993	325.88
370.219	326.88
370.445	332.88
370.672	328.88
370.898	325.88
371.124	344.88
371.35	328.88
371.576	320.88
371.802	327.88
372.028	331.88
372.254	337.88
372.48	327.88
372.706	332.88
372.932	351.88
373.158	324.88
373.384	338.88
373.61	331.88
373.835	343.88
374.061	333.88
374.287	344.88
374.513	348.88
374.739	346.88
374.965	360.88
375.191	365.88
375.416	351.88
375.642	355.88
375.868	348.88
376.094	337.88
376.319	332.88
376.545	328.88
376.771	333.88
376.997	344.88
377.222	332.88
377.448	341.88
377.674	362.88
377.899	340.88
378.125	311.88
378.35	333.88
378.576	316.88
378.802	343.88
379.027	330.88
379.253	335.88
379.478	333.88
379.704	343.88
379.929	326.88
380.155	327.88
380.38	322.88
380.606	346.88
380.831	334.88
381.057	356.88
381.282	333.88
381.507	332.88
381.733	339.88
381.958	342.88
382.184	336.88
382.409	335.88
382.634	337.88
382.86	356.88
383.085	360.88
383.31	351.88
383.535	357.88
383.761	371.88
383.986	355.88
384.211	380.88
384.436	377.88
384.662	371.88
384.887	373.88
385.112	396.88
385.337	390.88
385.562	403.88
385.787	391.88
386.013	398.88
386.238	399.88
386.463	396.88
386.688	392.88
386.913	388.88
387.138	395.88
387.363	396.88
387.588	382.88
387.813	399.88
388.038	383.88
388.263	395.88
388.488	391.88
388.713	401.88
388.938	380.88
389.163	392.88
389.387	379.88
389.612	405.88
389.837	390.88
390.062	371.88
390.287	376.88
390.512	383.88
390.736	392.88
390.961	409.88
391.186	407.88
391.411	410.88
391.636	415.88
391.86	433.88
392.085	449.88
392.31	428.88
392.534	442.88
392.759	429.88
392.984	428.88
393.208	425.88
393.433	423.88
393.658	404.88
393.882	419.88
394.107	424.88
394.331	405.88
394.556	441.88
394.78	427.88
395.005	454.88
395.229	415.88
395.454	419.88
395.678	424.88
395.903	428.88
396.127	436.88
396.352	440.88
396.576	414.88
396.801	419.88
397.025	422.88
397.249	432.88
397.474	418.88
397.698	439.88
397.922	424.88
398.147	436.88
398.371	458.88
398.595	471.88
398.82	462.88
399.044	488.88
399.268	536.88
399.492	597.88
399.717	637.88
399.941	655.88
400.165	602.88
400.389	556.88
400.613	502.88
400.837	511.88
401.062	498.88
401.286	487.88
401.51	497.88
401.734	485.88
401.958	463.88
402.182	490.88
402.406	501.88
402.63	491.88
402.854	531.88
403.078	523.88
403.302	513.88
403.526	505.88
403.75	523.88
403.974	542.88
404.198	528.88
404.422	551.88
404.645	505.88
404.869	540.88
405.093	544.88
405.317	516.88
405.541	512.88
405.765	515.88
405.988	518.88
406.212	497.88
406.436	535.88
406.66	537.88
406.883	565.88
407.107	574.88
407.331	577.88
407.555	595.88
407.778	611.88
408.002	595.88
408.226	598.88
408.449	581.88
408.673	555.88
408.896	537.88
409.12	548.88
409.344	570.88
409.567	543.88
409.791	569.88
410.014	567.88
410.238	543.88
410.461	537.88
410.685	533.88
410.908	508.88
411.132	504.88
411.355	525.88
411.578	538.88
411.802	517.88
412.025	505.88
412.249	517.88
412.472	531.88
412.695	521.88
412.919	501.88
413.142	504.88
413.365	492.88
413.589	502.88
413.812	488.88
414.035	481.88
414.258	474.88
414.482	493.88
414.705	523.88
414.928	503.88
415.151	539.88
415.374	523.88
415.597	502.88
415.821	480.88
416.044	482.88
416.267	458.88
416.49	487.88
416.713	480.88
416.936	479.88
417.159	484.88
417.382	460.88
417.605	466.88
417.828	503.88
418.051	479.88
418.274	480.88
418.497	503.88
418.72	492.88
418.943	477.88
419.166	516.88
419.389	535.88
419.611	538.88
419.834	521.88
420.057	506.88
420.28	492.88
420.503	471.88
420.726	481.88
420.948	480.88
421.171	474.88
421.394	475.88
421.617	496.88
421.839	484.88
422.062	489.88
422.285	476.88
422.507	507.88
422.73	503.88
422.953	500.88
423.175	497.88
423.398	504.88
423.621	508.88
423.843	516.88
424.066	507.88
424.288	510.88
424.511	512.88
424.733	499.88
424.956	519.88
425.178	498.88
425.401	495.88
425.623	493.88
425.846	488.88
426.068	470.88
426.291	464.88
426.513	489.88
426.735	474.88
426.958	479.88
427.18	445.88
427.402	443.88
427.625	464.88
427.847	438.88
428.069	439.88
428.292	465.88
428.514	453.88
428.736	452.88
428.958	454.88
429.181	450.88
429.403	426.88
429.625	427.88
429.847	443.88
430.069	441.88
430.292	468.88
430.514	420.88
430.736	437.88
430.958	432.88
431.18	413.88
431.402	423.88
431.624	434.88
431.846	455.88
432.068	445.88
432.29	447.88
432.512	456.88
432.734	434.88
432.956	449.88
433.178	448.88
433.4	457.88
433.622	448.88
433.844	466.88
434.066	459.88
434.287	470.88
434.509	475.88
434.731	476.88
434.953	469.88
435.175	499.88
435.397	515.88
435.618	465.88
435.84	477.88
436.062	466.88
436.284	449.88
436.505	459.88
436.727	470.88
436.949	461.88
437.17	457.88
437.392	460.88
437.614	434.88
437.835	444.88
438.057	449.88
438.278	447.88
438.5	420.88
438.721	431.88
438.943	447.88
439.165	450.88
439.386	436.88
439.608	447.88
439.829	457.88
440.05	458.88
440.272	479.88
440.493	432.88
440.715	459.88
440.936	487.88
441.158	464.88
441.379	464.88
441.6	503.88
441.822	508.88
442.043	511.88
442.264	525.88
442.486	488.88
442.707	499.88
442.928	477.88
443.149	485.88
443.371	484.88
443.592	495.88
443.813	481.88
444.034	493.88
444.255	515.88
444.476	555.88
444.698	560.88
444.919	569.88
445.14	655.88
445.361	575.88
445.582	517.88
445.803	474.88
446.024	496.88
446.245	488.88
446.466	479.88
446.687	476.88
446.908	465.88
447.129	453.88
447.35	451.88
447.571	436.88
447.792	444.88
448.013	449.88
448.234	450.88
448.455	426.88
448.675	443.88
448.896	431.88
449.117	431.88
449.338	410.88
449.559	420.88
449.779	431.88
450	421.88
450.221	435.88
450.442	427.88
450.662	422.88
450.883	430.88
451.104	435.88
451.324	435.88
451.545	431.88
451.766	429.88
451.986	431.88
452.207	403.88
452.428	437.88
452.648	429.88
452.869	415.88
453.089	395.88
453.31	432.88
453.53	409.88
453.751	402.88
453.971	400.88
454.192	403.88
454.412	414.88
454.633	425.88
454.853	387.88
455.073	389.88
455.294	401.88
455.514	408.88
455.734	383.88
455.955	408.88
456.175	383.88
456.395	394.88
456.616	397.88
456.836	390.88
457.056	416.88
457.276	388.88
457.497	397.88
457.717	398.88
457.937	399.88
458.157	395.88
458.377	393.88
458.598	409.88
458.818	433.88
459.038	443.88
459.258	434.88
459.478	456.88
459.698	450.88
459.918	459.88
460.138	492.88
460.358	521.88
460.578	500.88
460.798	524.88
461.018	516.88
461.238	496.88
461.458	503.88
461.678	510.88
461.898	513.88
462.118	501.88
462.338	537.88
462.558	544.88
462.777	585.88
462.997	617.88
463.217	655.88
463.437	664.88
463.657	612.88
463.876	589.88
464.096	581.88
464.316	556.88
464.536	581.88
464.755	563.88
464.975	543.88
465.195	525.88
465.414	504.88
465.634	488.88
465.854	482.88
466.073	437.88
466.293	459.88
466.512	428.88
466.732	450.88
466.951	421.88
467.171	454.88
467.391	447.88
467.61	466.88
467.829	445.88
468.049	431.88
468.268	425.88
468.488	431.88
468.707	423.88
468.927	438.88
469.146	438.88
469.365	431.88
469.585	433.88
469.804	445.88
470.023	432.88
470.243	445.88
470.462	439.88
470.681	449.88
470.901	449.88
471.12	457.88
471.339	451.88
471.558	432.88
471.777	413.88
471.997	425.88
472.216	419.88
472.435	413.88
472.654	432.88
472.873	410.88
473.092	413.88
473.311	406.88
473.53	421.88
473.749	411.88
473.968	416.88
474.187	409.88
474.406	399.88
474.625	410.88
474.844	411.88
475.063	418.88
475.282	407.88
475.501	398.88
475.72	425.88
475.939	427.88
476.158	440.88
476.377	431.88
476.596	420.88
476.814	418.88
477.033	429.88
477.252	446.88
477.471	461.88
477.69	451.88
477.908	473.88
478.127	482.88
478.346	483.88
478.564	475.88
478.783	465.88
479.002	483.88
479.22	483.88
479.439	499.88
479.658	492.88
479.876	492.88
480.095	502.88
480.313	520.88
480.532	525.88
480.751	521.88
480.969	511.88
481.188	477.88
481.406	482.88
481.624	481.88
481.843	475.88
482.061	451.88
482.28	456.88
482.498	467.88
482.717	469.88
482.935	470.88
483.153	450.88
483.372	477.88
483.59	464.88
483.808	475.88
484.027	473.88
484.245	464.88
484.463	464.88
484.681	472.88
484.9	471.88
485.118	452.88
485.336	481.88
485.554	473.88
485.772	457.88
485.99	476.88
486.209	481.88
486.427	454.88
486.645	474.88
486.863	483.88
487.081	487.88
487.299	491.88
487.517	495.88
487.735	491.88
487.953	505.88
488.171	484.88
488.389	481.88
488.607	457.88
488.825	495.88
489.043	472.88
489.261	475.88
489.479	465.88
489.696	480.88
489.914	487.88
490.132	485.88
490.35	482.88
490.568	484.88
490.786	487.88
491.003	500.88
491.221	458.88
491.439	477.88
491.657	470.88
491.874	480.88
492.092	483.88
492.31	499.88
492.527	486.88
492.745	489.88
492.963	478.88
493.18	499.88
493.398	491.88
493.615	502.88
493.833	523.88
494.05	506.88
494.268	506.88
494.485	485.88
494.703	511.88
494.92	508.88
495.138	515.88
495.355	511.88
495.573	531.88
495.79	509.88
496.008	531.88
496.225	531.88
496.442	515.88
496.66	531.88
496.877	524.88
497.094	547.88
497.312	553.88
497.529	561.88
497.746	556.88
497.963	597.88
498.181	593.88
498.398	619.88
498.615	658.88
498.832	692.88
499.049	728.88
499.267	787.88
499.484	827.88
499.701	923.88
499.918	971.88
500.135	1093.88
500.352	1197.88
500.569	1255.88
500.786	1221.88
501.003	1171.88
501.22	1102.88
501.437	961.88
501.654	887.88
501.871	805.88
