Data from Fe(NO3)3@0.025M.TitratingCurve.Agarose3%dH2O.NegLispCup.LampEnergy10.LIBS07252019_HRD10591_16-54-38-335.txt Node
Date: Thu Jul 25 16:54:38 EDT 2019
User: cochatt
Spectrometer: HR+D1059
Trigger mode: 1
Integration Time (sec): 1.000000E-1
Scans to average: 1
Electric dark correction enabled: true
Nonlinearity correction enabled: false
Boxcar width: 0
XAxis mode: Wavelengths
Number of Pixels in Spectrum: 2048
>>>>>Begin Spectral Data<<<<<
223.165	-15.62
223.4	-15.62
223.635	-15.62
223.869	-19.62
224.104	-4.62
224.338	-20.62
224.573	-11.62
224.808	-22.62
225.042	-8.62
225.277	-14.62
225.511	-5.62
225.746	-3.62
225.98	9.38
226.215	30.38
226.449	18.38
226.683	14.38
226.918	34.38
227.152	20.38
227.387	24.38
227.621	37.38
227.856	34.38
228.09	36.38
228.324	53.38
228.559	46.38
228.793	53.38
229.027	85.38
229.262	80.38
229.496	80.38
229.73	105.38
229.964	91.38
230.199	84.38
230.433	90.38
230.667	107.38
230.901	101.38
231.136	87.38
231.37	106.38
231.604	90.38
231.838	106.38
232.072	104.38
232.306	104.38
232.541	107.38
232.775	116.38
233.009	104.38
233.243	103.38
233.477	112.38
233.711	104.38
233.945	94.38
234.179	104.38
234.413	113.38
234.647	105.38
234.881	100.38
235.115	107.38
235.349	118.38
235.583	102.38
235.817	100.38
236.051	122.38
236.285	123.38
236.519	112.38
236.753	97.38
236.987	127.38
237.221	132.38
237.455	111.38
237.689	121.38
237.922	124.38
238.156	125.38
238.39	121.38
238.624	123.38
238.858	129.38
239.091	128.38
239.325	122.38
239.559	112.38
239.793	100.38
240.027	125.38
240.26	116.38
240.494	127.38
240.728	118.38
240.961	112.38
241.195	126.38
241.429	127.38
241.662	123.38
241.896	139.38
242.13	117.38
242.363	126.38
242.597	124.38
242.83	124.38
243.064	130.38
243.298	125.38
243.531	120.38
243.765	134.38
243.998	132.38
244.232	123.38
244.465	125.38
244.699	138.38
244.932	136.38
245.166	128.38
245.399	147.38
245.633	135.38
245.866	123.38
246.099	121.38
246.333	136.38
246.566	126.38
246.8	137.38
247.033	137.38
247.266	130.38
247.5	121.38
247.733	128.38
247.966	136.38
248.2	140.38
248.433	145.38
248.666	139.38
248.899	160.38
249.133	150.38
249.366	162.38
249.599	161.38
249.832	146.38
250.066	146.38
250.299	147.38
250.532	149.38
250.765	146.38
250.998	158.38
251.231	153.38
251.465	131.38
251.698	161.38
251.931	164.38
252.164	142.38
252.397	139.38
252.63	146.38
252.863	155.38
253.096	158.38
253.329	174.38
253.562	171.38
253.795	159.38
254.028	165.38
254.261	149.38
254.494	157.38
254.727	165.38
254.96	164.38
255.193	165.38
255.426	162.38
255.659	166.38
255.892	169.38
256.124	162.38
256.357	173.38
256.59	166.38
256.823	166.38
257.056	168.38
257.289	158.38
257.521	165.38
257.754	174.38
257.987	159.38
258.22	167.38
258.452	159.38
258.685	178.38
258.918	161.38
259.151	184.38
259.383	177.38
259.616	178.38
259.849	187.38
260.081	172.38
260.314	203.38
260.547	186.38
260.779	177.38
261.012	185.38
261.244	188.38
261.477	193.38
261.71	168.38
261.942	176.38
262.175	174.38
262.407	187.38
262.64	188.38
262.872	200.38
263.105	191.38
263.337	194.38
263.57	204.38
263.802	188.38
264.035	182.38
264.267	176.38
264.499	188.38
264.732	191.38
264.964	190.38
265.197	198.38
265.429	190.38
265.661	188.38
265.894	193.38
266.126	194.38
266.358	202.38
266.591	197.38
266.823	207.38
267.055	201.38
267.287	192.38
267.52	204.38
267.752	197.38
267.984	202.38
268.216	180.38
268.448	207.38
268.681	199.38
268.913	203.38
269.145	200.38
269.377	203.38
269.609	226.38
269.841	199.38
270.073	205.38
270.306	185.38
270.538	201.38
270.77	212.38
271.002	224.38
271.234	199.38
271.466	221.38
271.698	218.38
271.93	212.38
272.162	226.38
272.394	221.38
272.626	220.38
272.858	216.38
273.09	214.38
273.322	208.38
273.553	219.38
273.785	228.38
274.017	221.38
274.249	221.38
274.481	229.38
274.713	240.38
274.945	256.38
275.176	245.38
275.408	239.38
275.64	233.38
275.872	244.38
276.104	236.38
276.335	236.38
276.567	238.38
276.799	205.38
277.031	222.38
277.262	229.38
277.494	237.38
277.726	230.38
277.957	232.38
278.189	243.38
278.421	230.38
278.652	236.38
278.884	225.38
279.115	214.38
279.347	242.38
279.579	243.38
279.81	248.38
280.042	235.38
280.273	236.38
280.505	240.38
280.736	247.38
280.968	234.38
281.199	230.38
281.431	246.38
281.662	250.38
281.894	262.38
282.125	244.38
282.356	246.38
282.588	238.38
282.819	251.38
283.051	258.38
283.282	243.38
283.513	252.38
283.745	263.38
283.976	248.38
284.207	259.38
284.439	259.38
284.67	272.38
284.901	268.38
285.132	254.38
285.364	273.38
285.595	269.38
285.826	274.38
286.057	269.38
286.288	265.38
286.52	268.38
286.751	256.38
286.982	258.38
287.213	273.38
287.444	273.38
287.675	271.38
287.906	258.38
288.138	276.38
288.369	262.38
288.6	268.38
288.831	270.38
289.062	282.38
289.293	274.38
289.524	281.38
289.755	275.38
289.986	267.38
290.217	292.38
290.448	247.38
290.679	278.38
290.91	291.38
291.141	294.38
291.371	298.38
291.602	288.38
291.833	292.38
292.064	287.38
292.295	294.38
292.526	266.38
292.757	278.38
292.987	281.38
293.218	281.38
293.449	287.38
293.68	286.38
293.91	274.38
294.141	282.38
294.372	281.38
294.603	297.38
294.833	285.38
295.064	284.38
295.295	290.38
295.525	303.38
295.756	282.38
295.987	282.38
296.217	288.38
296.448	297.38
296.679	304.38
296.909	298.38
297.14	285.38
297.37	304.38
297.601	308.38
297.831	309.38
298.062	300.38
298.292	305.38
298.523	301.38
298.753	308.38
298.984	307.38
299.214	318.38
299.445	305.38
299.675	312.38
299.905	310.38
300.136	294.38
300.366	337.38
300.597	297.38
300.827	308.38
301.057	308.38
301.288	322.38
301.518	317.38
301.748	310.38
301.979	302.38
302.209	308.38
302.439	315.38
302.669	324.38
302.9	328.38
303.13	313.38
303.36	326.38
303.59	306.38
303.82	329.38
304.051	326.38
304.281	346.38
304.511	319.38
304.741	320.38
304.971	321.38
305.201	338.38
305.431	322.38
305.661	327.38
305.891	316.38
306.121	318.38
306.352	311.38
306.582	325.38
306.812	323.38
307.042	314.38
307.272	331.38
307.502	333.38
307.731	345.38
307.961	320.38
308.191	337.38
308.421	315.38
308.651	337.38
308.881	314.38
309.111	330.38
309.341	317.38
309.571	329.38
309.8	330.38
310.03	332.38
310.26	329.38
310.49	324.38
310.72	334.38
310.949	324.38
311.179	338.38
311.409	326.38
311.639	340.38
311.868	327.38
312.098	323.38
312.328	335.38
312.557	353.38
312.787	333.38
313.017	325.38
313.246	340.38
313.476	343.38
313.706	347.38
313.935	349.38
314.165	342.38
314.394	340.38
314.624	342.38
314.853	363.38
315.083	351.38
315.312	346.38
315.542	361.38
315.771	359.38
316.001	342.38
316.23	358.38
316.46	348.38
316.689	373.38
316.919	365.38
317.148	338.38
317.377	356.38
317.607	346.38
317.836	348.38
318.065	355.38
318.295	353.38
318.524	362.38
318.753	345.38
318.983	378.38
319.212	364.38
319.441	360.38
319.67	356.38
319.9	350.38
320.129	359.38
320.358	346.38
320.587	366.38
320.816	352.38
321.046	364.38
321.275	379.38
321.504	372.38
321.733	365.38
321.962	368.38
322.191	372.38
322.42	376.38
322.649	348.38
322.878	386.38
323.108	358.38
323.337	368.38
323.566	366.38
323.795	370.38
324.024	358.38
324.253	364.38
324.482	374.38
324.71	375.38
324.939	374.38
325.168	376.38
325.397	375.38
325.626	399.38
325.855	388.38
326.084	374.38
326.313	382.38
326.542	398.38
326.77	402.38
326.999	377.38
327.228	376.38
327.457	386.38
327.686	376.38
327.914	401.38
328.143	396.38
328.372	386.38
328.6	376.38
328.829	372.38
329.058	393.38
329.287	400.38
329.515	392.38
329.744	380.38
329.972	400.38
330.201	414.38
330.43	409.38
330.658	380.38
330.887	407.38
331.115	415.38
331.344	400.38
331.572	414.38
331.801	415.38
332.03	439.38
332.258	403.38
332.486	423.38
332.715	423.38
332.943	448.38
333.172	471.38
333.4	468.38
333.629	448.38
333.857	476.38
334.085	475.38
334.314	451.38
334.542	469.38
334.771	484.38
334.999	456.38
335.227	473.38
335.455	458.38
335.684	456.38
335.912	487.38
336.14	461.38
336.369	471.38
336.597	462.38
336.825	451.38
337.053	453.38
337.281	456.38
337.51	443.38
337.738	448.38
337.966	451.38
338.194	442.38
338.422	404.38
338.65	411.38
338.878	462.38
339.106	430.38
339.334	430.38
339.562	409.38
339.79	418.38
340.018	413.38
340.246	406.38
340.474	404.38
340.702	425.38
340.93	419.38
341.158	428.38
341.386	460.38
341.614	412.38
341.842	407.38
342.07	414.38
342.298	423.38
342.526	431.38
342.754	418.38
342.981	452.38
343.209	431.38
343.437	441.38
343.665	443.38
343.893	460.38
344.12	460.38
344.348	481.38
344.576	425.38
344.804	425.38
345.031	403.38
345.259	443.38
345.487	408.38
345.714	403.38
345.942	410.38
346.17	406.38
346.397	420.38
346.625	417.38
346.853	414.38
347.08	420.38
347.308	416.38
347.535	412.38
347.763	403.38
347.99	392.38
348.218	405.38
348.445	428.38
348.673	397.38
348.9	404.38
349.128	405.38
349.355	378.38
349.583	398.38
349.81	400.38
350.037	425.38
350.265	400.38
350.492	393.38
350.72	382.38
350.947	403.38
351.174	395.38
351.402	400.38
351.629	391.38
351.856	373.38
352.083	390.38
352.311	404.38
352.538	401.38
352.765	425.38
352.992	390.38
353.22	399.38
353.447	392.38
353.674	390.38
353.901	402.38
354.128	375.38
354.355	408.38
354.583	389.38
354.81	407.38
355.037	414.38
355.264	403.38
355.491	385.38
355.718	377.38
355.945	363.38
356.172	402.38
356.399	385.38
356.626	408.38
356.853	399.38
357.08	389.38
357.307	404.38
357.534	418.38
357.761	393.38
357.988	402.38
358.215	424.38
358.441	408.38
358.668	391.38
358.895	408.38
359.122	397.38
359.349	382.38
359.576	392.38
359.802	400.38
360.029	386.38
360.256	392.38
360.483	402.38
360.709	403.38
360.936	414.38
361.163	428.38
361.39	388.38
361.616	392.38
361.843	397.38
362.07	408.38
362.296	407.38
362.523	405.38
362.749	424.38
362.976	401.38
363.203	399.38
363.429	419.38
363.656	392.38
363.882	423.38
364.109	408.38
364.335	416.38
364.562	397.38
364.788	400.38
365.015	390.38
365.241	413.38
365.468	425.38
365.694	403.38
365.92	414.38
366.147	393.38
366.373	393.38
366.599	413.38
366.826	396.38
367.052	406.38
367.278	423.38
367.505	423.38
367.731	407.38
367.957	416.38
368.184	397.38
368.41	410.38
368.636	392.38
368.862	422.38
369.089	440.38
369.315	433.38
369.541	426.38
369.767	422.38
369.993	416.38
370.219	417.38
370.445	437.38
370.672	419.38
370.898	418.38
371.124	417.38
371.35	445.38
371.576	426.38
371.802	438.38
372.028	430.38
372.254	411.38
372.48	457.38
372.706	454.38
372.932	438.38
373.158	446.38
373.384	439.38
373.61	452.38
373.835	447.38
374.061	476.38
374.287	454.38
374.513	440.38
374.739	457.38
374.965	461.38
375.191	480.38
375.416	478.38
375.642	470.38
375.868	454.38
376.094	433.38
376.319	439.38
376.545	466.38
376.771	466.38
376.997	458.38
377.222	428.38
377.448	437.38
377.674	419.38
377.899	432.38
378.125	420.38
378.35	457.38
378.576	439.38
378.802	436.38
379.027	441.38
379.253	450.38
379.478	459.38
379.704	448.38
379.929	435.38
380.155	453.38
380.38	446.38
380.606	434.38
380.831	438.38
381.057	456.38
381.282	429.38
381.507	446.38
381.733	457.38
381.958	438.38
382.184	472.38
382.409	463.38
382.634	444.38
382.86	448.38
383.085	466.38
383.31	450.38
383.535	453.38
383.761	486.38
383.986	471.38
384.211	496.38
384.436	496.38
384.662	494.38
384.887	498.38
385.112	492.38
385.337	495.38
385.562	491.38
385.787	484.38
386.013	519.38
386.238	502.38
386.463	471.38
386.688	543.38
386.913	512.38
387.138	511.38
387.363	495.38
387.588	494.38
387.813	515.38
388.038	514.38
388.263	519.38
388.488	516.38
388.713	500.38
388.938	494.38
389.163	503.38
389.387	516.38
389.612	490.38
389.837	497.38
390.062	510.38
390.287	512.38
390.512	506.38
390.736	520.38
390.961	529.38
391.186	540.38
391.411	533.38
391.636	538.38
391.86	547.38
392.085	560.38
392.31	539.38
392.534	570.38
392.759	547.38
392.984	537.38
393.208	541.38
393.433	510.38
393.658	530.38
393.882	514.38
394.107	549.38
394.331	531.38
394.556	527.38
394.78	545.38
395.005	544.38
395.229	529.38
395.454	559.38
395.678	554.38
395.903	558.38
396.127	546.38
396.352	554.38
396.576	573.38
396.801	547.38
397.025	547.38
397.249	582.38
397.474	571.38
397.698	558.38
397.922	564.38
398.147	596.38
398.371	603.38
398.595	612.38
398.82	627.38
399.044	667.38
399.268	682.38
399.492	733.38
399.717	766.38
399.941	768.38
400.165	745.38
400.389	698.38
400.613	679.38
400.837	642.38
401.062	650.38
401.286	606.38
401.51	614.38
401.734	608.38
401.958	611.38
402.182	618.38
402.406	606.38
402.63	595.38
402.854	598.38
403.078	608.38
403.302	613.38
403.526	648.38
403.75	618.38
403.974	626.38
404.198	617.38
404.422	658.38
404.645	635.38
404.869	628.38
405.093	631.38
405.317	634.38
405.541	650.38
405.765	641.38
405.988	651.38
406.212	652.38
406.436	644.38
406.66	668.38
406.883	663.38
407.107	695.38
407.331	710.38
407.555	713.38
407.778	718.38
408.002	710.38
408.226	695.38
408.449	703.38
408.673	698.38
408.896	646.38
409.12	658.38
409.344	672.38
409.567	667.38
409.791	660.38
410.014	655.38
410.238	679.38
410.461	652.38
410.685	624.38
410.908	638.38
411.132	610.38
411.355	628.38
411.578	614.38
411.802	618.38
412.025	659.38
412.249	619.38
412.472	634.38
412.695	644.38
412.919	618.38
413.142	607.38
413.365	616.38
413.589	608.38
413.812	585.38
414.035	597.38
414.258	584.38
414.482	635.38
414.705	601.38
414.928	618.38
415.151	622.38
415.374	618.38
415.597	580.38
415.821	576.38
416.044	589.38
416.267	601.38
416.49	577.38
416.713	592.38
416.936	607.38
417.159	602.38
417.382	601.38
417.605	586.38
417.828	592.38
418.051	583.38
418.274	586.38
418.497	619.38
418.72	600.38
418.943	583.38
419.166	645.38
419.389	638.38
419.611	647.38
419.834	598.38
420.057	602.38
420.28	610.38
420.503	573.38
420.726	596.38
420.948	580.38
421.171	574.38
421.394	571.38
421.617	590.38
421.839	563.38
422.062	578.38
422.285	586.38
422.507	603.38
422.73	596.38
422.953	575.38
423.175	574.38
423.398	589.38
423.621	587.38
423.843	579.38
424.066	585.38
424.288	595.38
424.511	587.38
424.733	580.38
424.956	592.38
425.178	584.38
425.401	568.38
425.623	591.38
425.846	580.38
426.068	567.38
426.291	555.38
426.513	562.38
426.735	572.38
426.958	544.38
427.18	562.38
427.402	576.38
427.625	549.38
427.847	560.38
428.069	533.38
428.292	547.38
428.514	538.38
428.736	555.38
428.958	560.38
429.181	525.38
429.403	528.38
429.625	549.38
429.847	550.38
430.069	537.38
430.292	523.38
430.514	539.38
430.736	574.38
430.958	541.38
431.18	550.38
431.402	539.38
431.624	535.38
431.846	541.38
432.068	549.38
432.29	544.38
432.512	536.38
432.734	550.38
432.956	540.38
433.178	529.38
433.4	547.38
433.622	550.38
433.844	566.38
434.066	560.38
434.287	568.38
434.509	560.38
434.731	567.38
434.953	592.38
435.175	584.38
435.397	574.38
435.618	560.38
435.84	565.38
436.062	543.38
436.284	540.38
436.505	555.38
436.727	548.38
436.949	540.38
437.17	534.38
437.392	522.38
437.614	540.38
437.835	511.38
438.057	518.38
438.278	524.38
438.5	502.38
438.721	529.38
438.943	528.38
439.165	513.38
439.386	524.38
439.608	526.38
439.829	528.38
440.05	533.38
440.272	538.38
440.493	538.38
440.715	556.38
440.936	538.38
441.158	551.38
441.379	581.38
441.6	563.38
441.822	579.38
442.043	579.38
442.264	565.38
442.486	566.38
442.707	558.38
442.928	560.38
443.149	592.38
443.371	571.38
443.592	547.38
443.813	575.38
444.034	575.38
444.255	575.38
444.476	581.38
444.698	623.38
444.919	630.38
445.14	736.38
445.361	651.38
445.582	563.38
445.803	564.38
446.024	561.38
446.245	559.38
446.466	533.38
446.687	555.38
446.908	552.38
447.129	526.38
447.35	509.38
447.571	515.38
447.792	516.38
448.013	496.38
448.234	491.38
448.455	487.38
448.675	505.38
448.896	491.38
449.117	505.38
449.338	489.38
449.559	497.38
449.779	507.38
450	522.38
450.221	488.38
450.442	480.38
450.662	485.38
450.883	468.38
451.104	507.38
451.324	480.38
451.545	475.38
451.766	506.38
451.986	491.38
452.207	475.38
452.428	480.38
452.648	467.38
452.869	487.38
453.089	460.38
453.31	468.38
453.53	466.38
453.751	480.38
453.971	470.38
454.192	484.38
454.412	483.38
454.633	473.38
454.853	454.38
455.073	468.38
455.294	487.38
455.514	473.38
455.734	462.38
455.955	446.38
456.175	463.38
456.395	469.38
456.616	467.38
456.836	476.38
457.056	463.38
457.276	456.38
457.497	472.38
457.717	470.38
457.937	474.38
458.157	473.38
458.377	495.38
458.598	494.38
458.818	497.38
459.038	522.38
459.258	515.38
459.478	527.38
459.698	554.38
459.918	545.38
460.138	561.38
460.358	574.38
460.578	601.38
460.798	598.38
461.018	609.38
461.238	588.38
461.458	582.38
461.678	616.38
461.898	620.38
462.118	625.38
462.338	629.38
462.558	644.38
462.777	670.38
462.997	676.38
463.217	667.38
463.437	705.38
463.657	696.38
463.876	670.38
464.096	678.38
464.316	656.38
464.536	659.38
464.755	650.38
464.975	650.38
465.195	601.38
465.414	594.38
465.634	586.38
465.854	556.38
466.073	551.38
466.293	553.38
466.512	562.38
466.732	528.38
466.951	507.38
467.171	511.38
467.391	515.38
467.61	517.38
467.829	526.38
468.049	512.38
468.268	520.38
468.488	511.38
468.707	492.38
468.927	491.38
469.146	513.38
469.365	516.38
469.585	498.38
469.804	499.38
470.023	525.38
470.243	524.38
470.462	514.38
470.681	522.38
470.901	515.38
471.12	548.38
471.339	522.38
471.558	535.38
471.777	522.38
471.997	516.38
472.216	489.38
472.435	522.38
472.654	502.38
472.873	511.38
473.092	507.38
473.311	516.38
473.53	514.38
473.749	523.38
473.968	523.38
474.187	519.38
474.406	496.38
474.625	519.38
474.844	533.38
475.063	536.38
475.282	518.38
475.501	508.38
475.72	522.38
475.939	529.38
476.158	531.38
476.377	536.38
476.596	530.38
476.814	548.38
477.033	556.38
477.252	546.38
477.471	548.38
477.69	553.38
477.908	595.38
478.127	572.38
478.346	589.38
478.564	595.38
478.783	585.38
479.002	604.38
479.22	628.38
479.439	617.38
479.658	627.38
479.876	612.38
480.095	616.38
480.313	600.38
480.532	643.38
480.751	622.38
480.969	617.38
481.188	625.38
481.406	601.38
481.624	622.38
481.843	597.38
482.061	606.38
482.28	608.38
482.498	591.38
482.717	575.38
482.935	597.38
483.153	608.38
483.372	592.38
483.59	577.38
483.808	582.38
484.027	593.38
484.245	581.38
484.463	586.38
484.681	617.38
484.9	604.38
485.118	631.38
485.336	599.38
485.554	600.38
485.772	590.38
485.99	610.38
486.209	606.38
486.427	605.38
486.645	622.38
486.863	591.38
487.081	622.38
487.299	594.38
487.517	613.38
487.735	617.38
487.953	619.38
488.171	608.38
488.389	608.38
488.607	608.38
488.825	618.38
489.043	622.38
489.261	607.38
489.479	606.38
489.696	613.38
489.914	616.38
490.132	632.38
490.35	602.38
490.568	612.38
490.786	617.38
491.003	595.38
491.221	615.38
491.439	620.38
491.657	613.38
491.874	604.38
492.092	602.38
492.31	640.38
492.527	641.38
492.745	622.38
492.963	628.38
493.18	646.38
493.398	648.38
493.615	638.38
493.833	640.38
494.05	642.38
494.268	640.38
494.485	644.38
494.703	634.38
494.92	688.38
495.138	635.38
495.355	652.38
495.573	662.38
495.79	633.38
496.008	672.38
496.225	646.38
496.442	687.38
496.66	678.38
496.877	678.38
497.094	706.38
497.312	714.38
497.529	691.38
497.746	700.38
497.963	734.38
498.181	796.38
498.398	796.38
498.615	839.38
498.832	859.38
499.049	946.38
499.267	918.38
499.484	999.38
499.701	1102.38
499.918	1146.38
500.135	1173.38
500.352	1292.38
500.569	1328.38
500.786	1273.38
501.003	1256.38
501.22	1191.38
501.437	1103.38
