Data from Fe(NO3)3@0.0125M.TitratingCurve.Agarose3%dH2O.NegLispCup.LampEnergy10.LIBS07252019_HRD10591_16-59-49-336.txt Node
Date: Thu Jul 25 16:59:49 EDT 2019
User: cochatt
Spectrometer: HR+D1059
Trigger mode: 1
Integration Time (sec): 1.000000E-1
Scans to average: 1
Electric dark correction enabled: true
Nonlinearity correction enabled: false
Boxcar width: 0
XAxis mode: Wavelengths
Number of Pixels in Spectrum: 2048
>>>>>Begin Spectral Data<<<<<
223.165	-13.31
223.4	-13.31
223.635	-13.31
223.869	-18.31
224.104	-17.31
224.338	-7.31
224.573	-13.31
224.808	-11.31
225.042	-10.31
225.277	-6.31
225.511	-7.31
225.746	2.69
225.98	12.69
226.215	5.69
226.449	14.69
226.683	22.69
226.918	22.69
227.152	23.69
227.387	18.69
227.621	30.69
227.856	42.69
228.09	49.69
228.324	47.69
228.559	68.69
228.793	73.69
229.027	67.69
229.262	72.69
229.496	64.69
229.73	78.69
229.964	81.69
230.199	73.69
230.433	84.69
230.667	69.69
230.901	87.69
231.136	96.69
231.37	82.69
231.604	88.69
231.838	85.69
232.072	94.69
232.306	88.69
232.541	95.69
232.775	101.69
233.009	105.69
233.243	82.69
233.477	83.69
233.711	83.69
233.945	87.69
234.179	93.69
234.413	95.69
234.647	91.69
234.881	85.69
235.115	97.69
235.349	84.69
235.583	97.69
235.817	105.69
236.051	96.69
236.285	101.69
236.519	97.69
236.753	95.69
236.987	90.69
237.221	104.69
237.455	88.69
237.689	102.69
237.922	94.69
238.156	89.69
238.39	97.69
238.624	90.69
238.858	103.69
239.091	94.69
239.325	96.69
239.559	94.69
239.793	96.69
240.027	102.69
240.26	80.69
240.494	100.69
240.728	96.69
240.961	108.69
241.195	95.69
241.429	108.69
241.662	104.69
241.896	79.69
242.13	81.69
242.363	99.69
242.597	86.69
242.83	97.69
243.064	101.69
243.298	87.69
243.531	97.69
243.765	88.69
243.998	106.69
244.232	110.69
244.465	102.69
244.699	98.69
244.932	109.69
245.166	95.69
245.399	109.69
245.633	86.69
245.866	100.69
246.099	104.69
246.333	94.69
246.566	84.69
246.8	104.69
247.033	100.69
247.266	109.69
247.5	106.69
247.733	104.69
247.966	104.69
248.2	113.69
248.433	97.69
248.666	97.69
248.899	92.69
249.133	108.69
249.366	97.69
249.599	110.69
249.832	108.69
250.066	114.69
250.299	102.69
250.532	116.69
250.765	111.69
250.998	112.69
251.231	114.69
251.465	116.69
251.698	113.69
251.931	116.69
252.164	107.69
252.397	105.69
252.63	109.69
252.863	115.69
253.096	113.69
253.329	113.69
253.562	118.69
253.795	117.69
254.028	117.69
254.261	110.69
254.494	108.69
254.727	117.69
254.96	104.69
255.193	111.69
255.426	112.69
255.659	109.69
255.892	111.69
256.124	123.69
256.357	120.69
256.59	117.69
256.823	117.69
257.056	123.69
257.289	124.69
257.521	124.69
257.754	124.69
257.987	125.69
258.22	124.69
258.452	121.69
258.685	128.69
258.918	121.69
259.151	132.69
259.383	123.69
259.616	136.69
259.849	139.69
260.081	132.69
260.314	141.69
260.547	127.69
260.779	114.69
261.012	106.69
261.244	142.69
261.477	144.69
261.71	122.69
261.942	126.69
262.175	122.69
262.407	125.69
262.64	124.69
262.872	118.69
263.105	148.69
263.337	127.69
263.57	126.69
263.802	130.69
264.035	134.69
264.267	123.69
264.499	127.69
264.732	122.69
264.964	130.69
265.197	124.69
265.429	124.69
265.661	107.69
265.894	124.69
266.126	122.69
266.358	140.69
266.591	132.69
266.823	131.69
267.055	116.69
267.287	138.69
267.52	123.69
267.752	146.69
267.984	125.69
268.216	133.69
268.448	134.69
268.681	126.69
268.913	125.69
269.145	129.69
269.377	138.69
269.609	143.69
269.841	146.69
270.073	135.69
270.306	144.69
270.538	147.69
270.77	130.69
271.002	134.69
271.234	129.69
271.466	123.69
271.698	150.69
271.93	148.69
272.162	147.69
272.394	147.69
272.626	140.69
272.858	148.69
273.09	147.69
273.322	145.69
273.553	153.69
273.785	155.69
274.017	145.69
274.249	153.69
274.481	155.69
274.713	160.69
274.945	166.69
275.176	153.69
275.408	168.69
275.64	158.69
275.872	178.69
276.104	167.69
276.335	168.69
276.567	157.69
276.799	155.69
277.031	173.69
277.262	152.69
277.494	164.69
277.726	164.69
277.957	173.69
278.189	160.69
278.421	166.69
278.652	155.69
278.884	164.69
279.115	148.69
279.347	164.69
279.579	158.69
279.81	174.69
280.042	163.69
280.273	153.69
280.505	172.69
280.736	168.69
280.968	173.69
281.199	158.69
281.431	157.69
281.662	184.69
281.894	190.69
282.125	165.69
282.356	173.69
282.588	176.69
282.819	172.69
283.051	181.69
283.282	173.69
283.513	181.69
283.745	178.69
283.976	172.69
284.207	170.69
284.439	178.69
284.67	171.69
284.901	162.69
285.132	177.69
285.364	189.69
285.595	186.69
285.826	190.69
286.057	189.69
286.288	187.69
286.52	171.69
286.751	166.69
286.982	181.69
287.213	183.69
287.444	194.69
287.675	182.69
287.906	194.69
288.138	202.69
288.369	170.69
288.6	204.69
288.831	186.69
289.062	198.69
289.293	203.69
289.524	197.69
289.755	188.69
289.986	192.69
290.217	183.69
290.448	201.69
290.679	198.69
290.91	209.69
291.141	211.69
291.371	197.69
291.602	202.69
291.833	193.69
292.064	203.69
292.295	201.69
292.526	215.69
292.757	217.69
292.987	204.69
293.218	196.69
293.449	203.69
293.68	207.69
293.91	228.69
294.141	221.69
294.372	228.69
294.603	213.69
294.833	208.69
295.064	209.69
295.295	217.69
295.525	187.69
295.756	222.69
295.987	206.69
296.217	213.69
296.448	216.69
296.679	222.69
296.909	229.69
297.14	216.69
297.37	211.69
297.601	238.69
297.831	214.69
298.062	209.69
298.292	225.69
298.523	238.69
298.753	233.69
298.984	231.69
299.214	227.69
299.445	232.69
299.675	226.69
299.905	232.69
300.136	220.69
300.366	214.69
300.597	216.69
300.827	227.69
301.057	243.69
301.288	227.69
301.518	240.69
301.748	242.69
301.979	243.69
302.209	247.69
302.439	259.69
302.669	253.69
302.9	237.69
303.13	247.69
303.36	249.69
303.59	246.69
303.82	250.69
304.051	260.69
304.281	242.69
304.511	252.69
304.741	250.69
304.971	249.69
305.201	238.69
305.431	258.69
305.661	252.69
305.891	238.69
306.121	233.69
306.352	247.69
306.582	264.69
306.812	266.69
307.042	270.69
307.272	262.69
307.502	270.69
307.731	265.69
307.961	256.69
308.191	240.69
308.421	247.69
308.651	267.69
308.881	278.69
309.111	279.69
309.341	243.69
309.571	258.69
309.8	267.69
310.03	267.69
310.26	275.69
310.49	258.69
310.72	269.69
310.949	279.69
311.179	265.69
311.409	273.69
311.639	292.69
311.868	276.69
312.098	269.69
312.328	289.69
312.557	286.69
312.787	287.69
313.017	286.69
313.246	271.69
313.476	264.69
313.706	279.69
313.935	289.69
314.165	303.69
314.394	264.69
314.624	276.69
314.853	276.69
315.083	283.69
315.312	311.69
315.542	293.69
315.771	296.69
316.001	309.69
316.23	307.69
316.46	300.69
316.689	319.69
316.919	300.69
317.148	285.69
317.377	292.69
317.607	316.69
317.836	301.69
318.065	294.69
318.295	288.69
318.524	309.69
318.753	307.69
318.983	317.69
319.212	318.69
319.441	318.69
319.67	328.69
319.9	314.69
320.129	306.69
320.358	330.69
320.587	312.69
320.816	321.69
321.046	332.69
321.275	320.69
321.504	297.69
321.733	323.69
321.962	300.69
322.191	308.69
322.42	306.69
322.649	322.69
322.878	321.69
323.108	316.69
323.337	337.69
323.566	312.69
323.795	336.69
324.024	312.69
324.253	326.69
324.482	326.69
324.71	314.69
324.939	324.69
325.168	340.69
325.397	337.69
325.626	327.69
325.855	347.69
326.084	329.69
326.313	334.69
326.542	332.69
326.77	336.69
326.999	324.69
327.228	347.69
327.457	357.69
327.686	334.69
327.914	333.69
328.143	342.69
328.372	339.69
328.6	340.69
328.829	341.69
329.058	358.69
329.287	334.69
329.515	352.69
329.744	339.69
329.972	338.69
330.201	326.69
330.43	354.69
330.658	317.69
330.887	352.69
331.115	348.69
331.344	377.69
331.572	364.69
331.801	335.69
332.03	356.69
332.258	342.69
332.486	360.69
332.715	363.69
332.943	353.69
333.172	340.69
333.4	358.69
333.629	377.69
333.857	373.69
334.085	376.69
334.314	373.69
334.542	357.69
334.771	360.69
334.999	352.69
335.227	363.69
335.455	349.69
335.684	383.69
335.912	382.69
336.14	359.69
336.369	382.69
336.597	368.69
336.825	379.69
337.053	374.69
337.281	374.69
337.51	380.69
337.738	359.69
337.966	372.69
338.194	357.69
338.422	376.69
338.65	376.69
338.878	379.69
339.106	393.69
339.334	372.69
339.562	368.69
339.79	361.69
340.018	376.69
340.246	371.69
340.474	372.69
340.702	355.69
340.93	357.69
341.158	360.69
341.386	379.69
341.614	370.69
341.842	376.69
342.07	349.69
342.298	372.69
342.526	376.69
342.754	379.69
342.981	378.69
343.209	368.69
343.437	395.69
343.665	368.69
343.893	390.69
344.12	372.69
344.348	344.69
344.576	369.69
344.804	379.69
345.031	388.69
345.259	392.69
345.487	376.69
345.714	370.69
345.942	376.69
346.17	377.69
346.397	392.69
346.625	370.69
346.853	373.69
347.08	378.69
347.308	376.69
347.535	376.69
347.763	388.69
347.99	382.69
348.218	381.69
348.445	363.69
348.673	363.69
348.9	390.69
349.128	370.69
349.355	364.69
349.583	373.69
349.81	366.69
350.037	380.69
350.265	414.69
350.492	377.69
350.72	380.69
350.947	371.69
351.174	378.69
351.402	366.69
351.629	368.69
351.856	362.69
352.083	373.69
352.311	378.69
352.538	381.69
352.765	378.69
352.992	374.69
353.22	382.69
353.447	376.69
353.674	386.69
353.901	368.69
354.128	382.69
354.355	391.69
354.583	362.69
354.81	373.69
355.037	360.69
355.264	396.69
355.491	375.69
355.718	383.69
355.945	385.69
356.172	378.69
356.399	388.69
356.626	363.69
356.853	356.69
357.08	379.69
357.307	364.69
357.534	370.69
357.761	374.69
357.988	380.69
358.215	369.69
358.441	380.69
358.668	377.69
358.895	377.69
359.122	376.69
359.349	395.69
359.576	384.69
359.802	377.69
360.029	378.69
360.256	409.69
360.483	405.69
360.709	369.69
360.936	393.69
361.163	382.69
361.39	377.69
361.616	376.69
361.843	377.69
362.07	382.69
362.296	404.69
362.523	386.69
362.749	394.69
362.976	397.69
363.203	404.69
363.429	380.69
363.656	394.69
363.882	402.69
364.109	417.69
364.335	403.69
364.562	374.69
364.788	390.69
365.015	389.69
365.241	391.69
365.468	384.69
365.694	404.69
365.92	406.69
366.147	394.69
366.373	402.69
366.599	409.69
366.826	410.69
367.052	403.69
367.278	403.69
367.505	399.69
367.731	395.69
367.957	397.69
368.184	399.69
368.41	386.69
368.636	400.69
368.862	417.69
369.089	413.69
369.315	422.69
369.541	390.69
369.767	396.69
369.993	423.69
370.219	395.69
370.445	390.69
370.672	387.69
370.898	411.69
371.124	401.69
371.35	410.69
371.576	406.69
371.802	410.69
372.028	424.69
372.254	422.69
372.48	423.69
372.706	422.69
372.932	396.69
373.158	418.69
373.384	419.69
373.61	406.69
373.835	420.69
374.061	407.69
374.287	408.69
374.513	430.69
374.739	429.69
374.965	430.69
375.191	428.69
375.416	433.69
375.642	421.69
375.868	414.69
376.094	415.69
376.319	400.69
376.545	425.69
376.771	423.69
376.997	417.69
377.222	425.69
377.448	417.69
377.674	432.69
377.899	439.69
378.125	413.69
378.35	426.69
378.576	429.69
378.802	425.69
379.027	448.69
379.253	433.69
379.478	411.69
379.704	424.69
379.929	419.69
380.155	434.69
380.38	420.69
380.606	428.69
380.831	421.69
381.057	424.69
381.282	410.69
381.507	410.69
381.733	439.69
381.958	427.69
382.184	425.69
382.409	440.69
382.634	440.69
382.86	447.69
383.085	460.69
383.31	443.69
383.535	442.69
383.761	432.69
383.986	442.69
384.211	448.69
384.436	452.69
384.662	463.69
384.887	452.69
385.112	443.69
385.337	456.69
385.562	437.69
385.787	454.69
386.013	489.69
386.238	464.69
386.463	448.69
386.688	473.69
386.913	464.69
387.138	439.69
387.363	454.69
387.588	459.69
387.813	467.69
388.038	485.69
388.263	467.69
388.488	444.69
388.713	445.69
388.938	481.69
389.163	468.69
389.387	465.69
389.612	455.69
389.837	469.69
390.062	480.69
390.287	458.69
390.512	475.69
390.736	453.69
390.961	464.69
391.186	455.69
391.411	468.69
391.636	478.69
391.86	488.69
392.085	463.69
392.31	465.69
392.534	451.69
392.759	483.69
392.984	457.69
393.208	485.69
393.433	492.69
393.658	501.69
393.882	466.69
394.107	473.69
394.331	478.69
394.556	474.69
394.78	456.69
395.005	459.69
395.229	450.69
395.454	488.69
395.678	498.69
395.903	488.69
396.127	475.69
396.352	489.69
396.576	483.69
396.801	464.69
397.025	493.69
397.249	489.69
397.474	491.69
397.698	481.69
397.922	472.69
398.147	488.69
398.371	492.69
398.595	506.69
398.82	509.69
399.044	492.69
399.268	536.69
399.492	538.69
399.717	519.69
399.941	532.69
400.165	541.69
400.389	507.69
400.613	518.69
400.837	526.69
401.062	533.69
401.286	522.69
401.51	522.69
401.734	528.69
401.958	516.69
402.182	515.69
402.406	494.69
402.63	506.69
402.854	520.69
403.078	515.69
403.302	532.69
403.526	519.69
403.75	512.69
403.974	500.69
404.198	520.69
404.422	554.69
404.645	513.69
404.869	518.69
405.093	535.69
405.317	526.69
405.541	546.69
405.765	535.69
405.988	523.69
406.212	533.69
406.436	519.69
406.66	545.69
406.883	547.69
407.107	523.69
407.331	517.69
407.555	560.69
407.778	551.69
408.002	557.69
408.226	568.69
408.449	561.69
408.673	549.69
408.896	530.69
409.12	520.69
409.344	544.69
409.567	517.69
409.791	560.69
410.014	518.69
410.238	533.69
410.461	551.69
410.685	525.69
410.908	512.69
411.132	544.69
411.355	551.69
411.578	536.69
411.802	532.69
412.025	525.69
412.249	517.69
412.472	520.69
412.695	525.69
412.919	518.69
413.142	522.69
413.365	555.69
413.589	521.69
413.812	536.69
414.035	528.69
414.258	512.69
414.482	533.69
414.705	512.69
414.928	520.69
415.151	505.69
415.374	501.69
415.597	485.69
415.821	506.69
416.044	483.69
416.267	508.69
416.49	516.69
416.713	518.69
416.936	526.69
417.159	516.69
417.382	504.69
417.605	513.69
417.828	511.69
418.051	489.69
418.274	486.69
418.497	506.69
418.72	512.69
418.943	490.69
419.166	525.69
419.389	555.69
419.611	544.69
419.834	517.69
420.057	544.69
420.28	514.69
420.503	493.69
420.726	505.69
420.948	519.69
421.171	491.69
421.394	492.69
421.617	494.69
421.839	516.69
422.062	506.69
422.285	490.69
422.507	527.69
422.73	533.69
422.953	497.69
423.175	493.69
423.398	503.69
423.621	499.69
423.843	522.69
424.066	499.69
424.288	493.69
424.511	504.69
424.733	488.69
424.956	491.69
425.178	500.69
425.401	504.69
425.623	527.69
425.846	485.69
426.068	496.69
426.291	476.69
426.513	485.69
426.735	496.69
426.958	492.69
427.18	497.69
427.402	486.69
427.625	499.69
427.847	482.69
428.069	518.69
428.292	490.69
428.514	508.69
428.736	539.69
428.958	513.69
429.181	491.69
429.403	476.69
429.625	512.69
429.847	497.69
430.069	525.69
430.292	498.69
430.514	487.69
430.736	522.69
430.958	521.69
431.18	508.69
431.402	498.69
431.624	519.69
431.846	488.69
432.068	496.69
432.29	499.69
432.512	498.69
432.734	512.69
432.956	494.69
433.178	476.69
433.4	484.69
433.622	485.69
433.844	492.69
434.066	507.69
434.287	512.69
434.509	499.69
434.731	492.69
434.953	523.69
435.175	505.69
435.397	517.69
435.618	497.69
435.84	495.69
436.062	504.69
436.284	496.69
436.505	493.69
436.727	501.69
436.949	482.69
437.17	516.69
437.392	501.69
437.614	492.69
437.835	473.69
438.057	485.69
438.278	488.69
438.5	486.69
438.721	491.69
438.943	494.69
439.165	487.69
439.386	485.69
439.608	510.69
439.829	522.69
440.05	515.69
440.272	521.69
440.493	489.69
440.715	517.69
440.936	489.69
441.158	516.69
441.379	512.69
441.6	514.69
441.822	531.69
442.043	514.69
442.264	516.69
442.486	498.69
442.707	525.69
442.928	501.69
443.149	493.69
443.371	488.69
443.592	503.69
443.813	500.69
444.034	499.69
444.255	519.69
444.476	514.69
444.698	533.69
444.919	524.69
445.14	584.69
445.361	539.69
445.582	530.69
445.803	504.69
446.024	496.69
446.245	522.69
446.466	506.69
446.687	500.69
446.908	514.69
447.129	487.69
447.35	476.69
447.571	509.69
447.792	474.69
448.013	476.69
448.234	476.69
448.455	489.69
448.675	460.69
448.896	478.69
449.117	464.69
449.338	505.69
449.559	478.69
449.779	476.69
450	469.69
450.221	484.69
450.442	474.69
450.662	489.69
450.883	479.69
451.104	488.69
451.324	462.69
451.545	478.69
451.766	482.69
451.986	482.69
452.207	484.69
452.428	475.69
452.648	490.69
452.869	444.69
453.089	466.69
453.31	486.69
453.53	474.69
453.751	465.69
453.971	468.69
454.192	484.69
454.412	446.69
454.633	482.69
454.853	454.69
455.073	458.69
455.294	479.69
455.514	482.69
455.734	496.69
455.955	466.69
456.175	485.69
456.395	447.69
456.616	473.69
456.836	485.69
457.056	496.69
457.276	473.69
457.497	486.69
457.717	471.69
457.937	470.69
458.157	468.69
458.377	483.69
458.598	484.69
458.818	469.69
459.038	492.69
459.258	476.69
459.478	513.69
459.698	480.69
459.918	505.69
460.138	489.69
460.358	483.69
460.578	522.69
460.798	489.69
461.018	512.69
461.238	516.69
461.458	515.69
461.678	508.69
461.898	528.69
462.118	516.69
462.338	524.69
462.558	519.69
462.777	518.69
462.997	545.69
463.217	549.69
463.437	555.69
463.657	549.69
463.876	543.69
464.096	547.69
464.316	537.69
464.536	554.69
464.755	549.69
464.975	545.69
465.195	545.69
465.414	510.69
465.634	505.69
465.854	508.69
466.073	526.69
466.293	528.69
466.512	498.69
466.732	484.69
466.951	510.69
467.171	502.69
467.391	496.69
467.61	515.69
467.829	497.69
468.049	531.69
468.268	506.69
468.488	500.69
468.707	525.69
468.927	548.69
469.146	518.69
469.365	514.69
469.585	520.69
469.804	493.69
470.023	513.69
470.243	519.69
470.462	530.69
470.681	536.69
470.901	512.69
471.12	524.69
471.339	532.69
471.558	530.69
471.777	523.69
471.997	518.69
472.216	534.69
472.435	538.69
472.654	526.69
472.873	520.69
473.092	544.69
473.311	544.69
473.53	540.69
473.749	537.69
473.968	514.69
474.187	530.69
474.406	531.69
474.625	534.69
474.844	538.69
475.063	536.69
475.282	557.69
475.501	540.69
475.72	566.69
475.939	554.69
476.158	566.69
476.377	556.69
476.596	566.69
476.814	580.69
477.033	563.69
477.252	573.69
477.471	577.69
477.69	589.69
477.908	596.69
478.127	602.69
478.346	586.69
478.564	587.69
478.783	598.69
479.002	609.69
479.22	625.69
479.439	606.69
479.658	617.69
479.876	616.69
480.095	620.69
480.313	616.69
480.532	611.69
480.751	631.69
480.969	632.69
481.188	642.69
481.406	611.69
481.624	638.69
481.843	626.69
482.061	632.69
482.28	636.69
482.498	618.69
482.717	616.69
482.935	627.69
483.153	632.69
483.372	620.69
483.59	636.69
483.808	624.69
484.027	645.69
484.245	658.69
484.463	663.69
484.681	680.69
484.9	655.69
485.118	646.69
485.336	647.69
485.554	628.69
485.772	644.69
485.99	656.69
486.209	652.69
486.427	653.69
486.645	661.69
486.863	654.69
487.081	662.69
487.299	658.69
487.517	677.69
487.735	676.69
487.953	668.69
488.171	660.69
488.389	679.69
488.607	642.69
488.825	668.69
489.043	672.69
489.261	662.69
489.479	672.69
489.696	672.69
489.914	662.69
490.132	662.69
490.35	668.69
490.568	651.69
490.786	663.69
491.003	685.69
491.221	699.69
491.439	688.69
491.657	678.69
491.874	674.69
492.092	714.69
492.31	704.69
492.527	699.69
492.745	684.69
492.963	682.69
493.18	683.69
493.398	690.69
493.615	718.69
493.833	707.69
494.05	702.69
494.268	693.69
494.485	698.69
494.703	692.69
494.92	669.69
495.138	683.69
495.355	704.69
495.573	682.69
495.79	700.69
496.008	719.69
496.225	728.69
496.442	714.69
496.66	714.69
496.877	724.69
497.094	724.69
497.312	725.69
497.529	733.69
497.746	724.69
497.963	733.69
498.181	762.69
498.398	756.69
498.615	729.69
498.832	782.69
499.049	788.69
499.267	790.69
499.484	802.69
499.701	804.69
499.918	819.69
500.135	836.69
500.352	848.69
500.569	852.69
500.786	873.69
501.003	844.69
501.22	797.69
501.437	809.69
501.654	806.69
501.871	790.69
502.088	778.69
502.305	748.69
