Data from Fe(NO3)3@0.1M.TitratingCurve.Agarose3%dH2O.NegLispCup.LampEnergy10.LIBS07252019_HRD10591_16-37-33-331.txt Node
Date: Thu Jul 25 16:37:33 EDT 2019
User: cochatt
Spectrometer: HR+D1059
Trigger mode: 1
Integration Time (sec): 1.000000E-1
Scans to average: 1
Electric dark correction enabled: true
Nonlinearity correction enabled: false
Boxcar width: 0
XAxis mode: Wavelengths
Number of Pixels in Spectrum: 2048
>>>>>Begin Spectral Data<<<<<
223.165	-11.88
223.4	-11.88
223.635	-11.88
223.869	2.12
224.104	-20.88
224.338	-12.88
224.573	-24.88
224.808	-5.88
225.042	-10.88
225.277	-0.88
225.511	-0.88
225.746	-1.88
225.98	0.12
226.215	6.12
226.449	5.12
226.683	21.12
226.918	26.12
227.152	30.12
227.387	50.12
227.621	26.12
227.856	44.12
228.09	42.12
228.324	46.12
228.559	58.12
228.793	62.12
229.027	68.12
229.262	71.12
229.496	68.12
229.73	69.12
229.964	70.12
230.199	63.12
230.433	76.12
230.667	72.12
230.901	59.12
231.136	85.12
231.37	84.12
231.604	80.12
231.838	86.12
232.072	85.12
232.306	90.12
232.541	87.12
232.775	73.12
233.009	70.12
233.243	91.12
233.477	88.12
233.711	80.12
233.945	75.12
234.179	80.12
234.413	88.12
234.647	89.12
234.881	79.12
235.115	67.12
235.349	74.12
235.583	87.12
235.817	76.12
236.051	90.12
236.285	89.12
236.519	83.12
236.753	88.12
236.987	102.12
237.221	81.12
237.455	91.12
237.689	86.12
237.922	90.12
238.156	93.12
238.39	74.12
238.624	86.12
238.858	84.12
239.091	86.12
239.325	76.12
239.559	90.12
239.793	85.12
240.027	96.12
240.26	74.12
240.494	86.12
240.728	89.12
240.961	100.12
241.195	95.12
241.429	85.12
241.662	77.12
241.896	82.12
242.13	83.12
242.363	75.12
242.597	89.12
242.83	87.12
243.064	85.12
243.298	84.12
243.531	71.12
243.765	94.12
243.998	83.12
244.232	81.12
244.465	101.12
244.699	83.12
244.932	84.12
245.166	76.12
245.399	90.12
245.633	76.12
245.866	77.12
246.099	90.12
246.333	84.12
246.566	89.12
246.8	91.12
247.033	88.12
247.266	97.12
247.5	98.12
247.733	95.12
247.966	101.12
248.2	89.12
248.433	80.12
248.666	88.12
248.899	103.12
249.133	91.12
249.366	97.12
249.599	102.12
249.832	105.12
250.066	99.12
250.299	88.12
250.532	95.12
250.765	89.12
250.998	86.12
251.231	91.12
251.465	94.12
251.698	90.12
251.931	97.12
252.164	84.12
252.397	94.12
252.63	94.12
252.863	87.12
253.096	78.12
253.329	92.12
253.562	93.12
253.795	93.12
254.028	88.12
254.261	82.12
254.494	83.12
254.727	97.12
254.96	97.12
255.193	107.12
255.426	93.12
255.659	92.12
255.892	99.12
256.124	114.12
256.357	96.12
256.59	107.12
256.823	102.12
257.056	80.12
257.289	102.12
257.521	94.12
257.754	104.12
257.987	95.12
258.22	82.12
258.452	85.12
258.685	110.12
258.918	108.12
259.151	77.12
259.383	104.12
259.616	105.12
259.849	116.12
260.081	104.12
260.314	106.12
260.547	89.12
260.779	111.12
261.012	103.12
261.244	101.12
261.477	112.12
261.71	103.12
261.942	102.12
262.175	116.12
262.407	98.12
262.64	96.12
262.872	100.12
263.105	123.12
263.337	105.12
263.57	111.12
263.802	106.12
264.035	103.12
264.267	98.12
264.499	95.12
264.732	92.12
264.964	111.12
265.197	98.12
265.429	101.12
265.661	122.12
265.894	94.12
266.126	103.12
266.358	103.12
266.591	95.12
266.823	105.12
267.055	113.12
267.287	119.12
267.52	98.12
267.752	93.12
267.984	99.12
268.216	100.12
268.448	116.12
268.681	107.12
268.913	107.12
269.145	100.12
269.377	121.12
269.609	98.12
269.841	98.12
270.073	103.12
270.306	108.12
270.538	101.12
270.77	91.12
271.002	102.12
271.234	106.12
271.466	102.12
271.698	120.12
271.93	112.12
272.162	101.12
272.394	106.12
272.626	121.12
272.858	106.12
273.09	114.12
273.322	124.12
273.553	122.12
273.785	121.12
274.017	115.12
274.249	119.12
274.481	117.12
274.713	100.12
274.945	136.12
275.176	112.12
275.408	106.12
275.64	105.12
275.872	102.12
276.104	124.12
276.335	117.12
276.567	116.12
276.799	131.12
277.031	123.12
277.262	114.12
277.494	110.12
277.726	125.12
277.957	126.12
278.189	123.12
278.421	114.12
278.652	101.12
278.884	120.12
279.115	115.12
279.347	106.12
279.579	132.12
279.81	115.12
280.042	127.12
280.273	123.12
280.505	108.12
280.736	110.12
280.968	106.12
281.199	128.12
281.431	110.12
281.662	115.12
281.894	121.12
282.125	111.12
282.356	124.12
282.588	132.12
282.819	112.12
283.051	120.12
283.282	124.12
283.513	118.12
283.745	111.12
283.976	110.12
284.207	110.12
284.439	121.12
284.67	133.12
284.901	116.12
285.132	124.12
285.364	123.12
285.595	139.12
285.826	124.12
286.057	128.12
286.288	130.12
286.52	122.12
286.751	127.12
286.982	112.12
287.213	120.12
287.444	129.12
287.675	113.12
287.906	119.12
288.138	126.12
288.369	128.12
288.6	117.12
288.831	124.12
289.062	128.12
289.293	117.12
289.524	124.12
289.755	128.12
289.986	125.12
290.217	135.12
290.448	123.12
290.679	124.12
290.91	128.12
291.141	128.12
291.371	111.12
291.602	125.12
291.833	123.12
292.064	123.12
292.295	131.12
292.526	136.12
292.757	138.12
292.987	146.12
293.218	120.12
293.449	136.12
293.68	126.12
293.91	116.12
294.141	135.12
294.372	143.12
294.603	128.12
294.833	122.12
295.064	118.12
295.295	127.12
295.525	130.12
295.756	134.12
295.987	129.12
296.217	128.12
296.448	131.12
296.679	117.12
296.909	143.12
297.14	134.12
297.37	123.12
297.601	120.12
297.831	126.12
298.062	129.12
298.292	130.12
298.523	123.12
298.753	114.12
298.984	124.12
299.214	126.12
299.445	138.12
299.675	130.12
299.905	129.12
300.136	131.12
300.366	122.12
300.597	125.12
300.827	129.12
301.057	118.12
301.288	146.12
301.518	131.12
301.748	138.12
301.979	135.12
302.209	139.12
302.439	137.12
302.669	130.12
302.9	155.12
303.13	134.12
303.36	114.12
303.59	135.12
303.82	113.12
304.051	118.12
304.281	123.12
304.511	118.12
304.741	124.12
304.971	146.12
305.201	145.12
305.431	134.12
305.661	148.12
305.891	130.12
306.121	134.12
306.352	130.12
306.582	145.12
306.812	128.12
307.042	140.12
307.272	130.12
307.502	136.12
307.731	128.12
307.961	130.12
308.191	138.12
308.421	128.12
308.651	138.12
308.881	133.12
309.111	138.12
309.341	126.12
309.571	126.12
309.8	132.12
310.03	128.12
310.26	122.12
310.49	130.12
310.72	127.12
310.949	139.12
311.179	132.12
311.409	137.12
311.639	129.12
311.868	121.12
312.098	135.12
312.328	139.12
312.557	138.12
312.787	146.12
313.017	138.12
313.246	134.12
313.476	146.12
313.706	123.12
313.935	140.12
314.165	135.12
314.394	140.12
314.624	144.12
314.853	138.12
315.083	119.12
315.312	146.12
315.542	131.12
315.771	149.12
316.001	155.12
316.23	144.12
316.46	136.12
316.689	133.12
316.919	141.12
317.148	142.12
317.377	129.12
317.607	135.12
317.836	116.12
318.065	126.12
318.295	122.12
318.524	141.12
318.753	143.12
318.983	153.12
319.212	138.12
319.441	134.12
319.67	140.12
319.9	134.12
320.129	145.12
320.358	151.12
320.587	135.12
320.816	125.12
321.046	151.12
321.275	135.12
321.504	144.12
321.733	140.12
321.962	124.12
322.191	130.12
322.42	158.12
322.649	138.12
322.878	131.12
323.108	133.12
323.337	139.12
323.566	138.12
323.795	136.12
324.024	156.12
324.253	134.12
324.482	134.12
324.71	156.12
324.939	152.12
325.168	151.12
325.397	138.12
325.626	133.12
325.855	142.12
326.084	128.12
326.313	137.12
326.542	144.12
326.77	176.12
326.999	147.12
327.228	138.12
327.457	143.12
327.686	162.12
327.914	152.12
328.143	144.12
328.372	145.12
328.6	146.12
328.829	147.12
329.058	140.12
329.287	148.12
329.515	159.12
329.744	145.12
329.972	164.12
330.201	143.12
330.43	141.12
330.658	148.12
330.887	150.12
331.115	143.12
331.344	154.12
331.572	146.12
331.801	136.12
332.03	162.12
332.258	159.12
332.486	147.12
332.715	149.12
332.943	164.12
333.172	152.12
333.4	176.12
333.629	174.12
333.857	158.12
334.085	174.12
334.314	172.12
334.542	140.12
334.771	157.12
334.999	156.12
335.227	157.12
335.455	175.12
335.684	155.12
335.912	131.12
336.14	154.12
336.369	153.12
336.597	153.12
336.825	160.12
337.053	149.12
337.281	162.12
337.51	169.12
337.738	159.12
337.966	163.12
338.194	154.12
338.422	151.12
338.65	144.12
338.878	155.12
339.106	162.12
339.334	155.12
339.562	159.12
339.79	155.12
340.018	141.12
340.246	147.12
340.474	137.12
340.702	153.12
340.93	164.12
341.158	136.12
341.386	159.12
341.614	162.12
341.842	161.12
342.07	148.12
342.298	149.12
342.526	153.12
342.754	153.12
342.981	159.12
343.209	144.12
343.437	159.12
343.665	152.12
343.893	186.12
344.12	171.12
344.348	180.12
344.576	160.12
344.804	151.12
345.031	162.12
345.259	157.12
345.487	154.12
345.714	150.12
345.942	141.12
346.17	168.12
346.397	152.12
346.625	159.12
346.853	152.12
347.08	156.12
347.308	158.12
347.535	154.12
347.763	152.12
347.99	158.12
348.218	155.12
348.445	141.12
348.673	152.12
348.9	166.12
349.128	161.12
349.355	145.12
349.583	160.12
349.81	174.12
350.037	153.12
350.265	147.12
350.492	144.12
350.72	141.12
350.947	166.12
351.174	150.12
351.402	137.12
351.629	152.12
351.856	142.12
352.083	161.12
352.311	154.12
352.538	151.12
352.765	131.12
352.992	150.12
353.22	147.12
353.447	137.12
353.674	144.12
353.901	163.12
354.128	149.12
354.355	141.12
354.583	159.12
354.81	149.12
355.037	154.12
355.264	160.12
355.491	158.12
355.718	147.12
355.945	134.12
356.172	151.12
356.399	155.12
356.626	146.12
356.853	146.12
357.08	148.12
357.307	151.12
357.534	144.12
357.761	152.12
357.988	151.12
358.215	133.12
358.441	159.12
358.668	154.12
358.895	162.12
359.122	154.12
359.349	145.12
359.576	154.12
359.802	157.12
360.029	163.12
360.256	152.12
360.483	159.12
360.709	156.12
360.936	156.12
361.163	167.12
361.39	159.12
361.616	167.12
361.843	163.12
362.07	148.12
362.296	162.12
362.523	150.12
362.749	162.12
362.976	171.12
363.203	135.12
363.429	158.12
363.656	148.12
363.882	156.12
364.109	151.12
364.335	166.12
364.562	152.12
364.788	161.12
365.015	164.12
365.241	166.12
365.468	164.12
365.694	156.12
365.92	171.12
366.147	155.12
366.373	162.12
366.599	155.12
366.826	165.12
367.052	147.12
367.278	163.12
367.505	152.12
367.731	161.12
367.957	171.12
368.184	157.12
368.41	148.12
368.636	169.12
368.862	176.12
369.089	158.12
369.315	167.12
369.541	155.12
369.767	148.12
369.993	163.12
370.219	169.12
370.445	163.12
370.672	155.12
370.898	180.12
371.124	172.12
371.35	180.12
371.576	162.12
371.802	160.12
372.028	175.12
372.254	180.12
372.48	175.12
372.706	179.12
372.932	172.12
373.158	182.12
373.384	177.12
373.61	170.12
373.835	164.12
374.061	169.12
374.287	176.12
374.513	169.12
374.739	187.12
374.965	176.12
375.191	163.12
375.416	164.12
375.642	178.12
375.868	184.12
376.094	175.12
376.319	171.12
376.545	180.12
376.771	155.12
376.997	180.12
377.222	180.12
377.448	160.12
377.674	176.12
377.899	172.12
378.125	167.12
378.35	169.12
378.576	164.12
378.802	159.12
379.027	171.12
379.253	170.12
379.478	178.12
379.704	168.12
379.929	180.12
380.155	174.12
380.38	175.12
380.606	169.12
380.831	193.12
381.057	182.12
381.282	166.12
381.507	176.12
381.733	190.12
381.958	185.12
382.184	180.12
382.409	180.12
382.634	191.12
382.86	207.12
383.085	212.12
383.31	206.12
383.535	196.12
383.761	211.12
383.986	196.12
384.211	185.12
384.436	213.12
384.662	202.12
384.887	212.12
385.112	211.12
385.337	203.12
385.562	211.12
385.787	214.12
386.013	210.12
386.238	204.12
386.463	203.12
386.688	226.12
386.913	218.12
387.138	217.12
387.363	214.12
387.588	213.12
387.813	204.12
388.038	196.12
388.263	192.12
388.488	195.12
388.713	209.12
388.938	200.12
389.163	204.12
389.387	201.12
389.612	215.12
389.837	207.12
390.062	201.12
390.287	202.12
390.512	221.12
390.736	205.12
390.961	208.12
391.186	202.12
391.411	219.12
391.636	216.12
391.86	234.12
392.085	214.12
392.31	239.12
392.534	222.12
392.759	229.12
392.984	235.12
393.208	239.12
393.433	221.12
393.658	214.12
393.882	223.12
394.107	204.12
394.331	216.12
394.556	219.12
394.78	223.12
395.005	244.12
395.229	235.12
395.454	218.12
395.678	244.12
395.903	234.12
396.127	224.12
396.352	213.12
396.576	218.12
396.801	237.12
397.025	242.12
397.249	208.12
397.474	234.12
397.698	227.12
397.922	229.12
398.147	231.12
398.371	225.12
398.595	263.12
398.82	244.12
399.044	278.12
399.268	282.12
399.492	324.12
399.717	364.12
399.941	349.12
400.165	308.12
400.389	288.12
400.613	265.12
400.837	268.12
401.062	250.12
401.286	256.12
401.51	241.12
401.734	251.12
401.958	256.12
402.182	271.12
402.406	278.12
402.63	275.12
402.854	273.12
403.078	281.12
403.302	286.12
403.526	295.12
403.75	271.12
403.974	308.12
404.198	302.12
404.422	297.12
404.645	282.12
404.869	310.12
405.093	288.12
405.317	257.12
405.541	294.12
405.765	265.12
405.988	273.12
406.212	286.12
406.436	297.12
406.66	292.12
406.883	310.12
407.107	279.12
407.331	312.12
407.555	311.12
407.778	310.12
408.002	311.12
408.226	299.12
408.449	301.12
408.673	292.12
408.896	275.12
409.12	284.12
409.344	291.12
409.567	283.12
409.791	268.12
410.014	292.12
410.238	264.12
410.461	284.12
410.685	279.12
410.908	278.12
411.132	291.12
411.355	276.12
411.578	284.12
411.802	290.12
412.025	288.12
412.249	266.12
412.472	283.12
412.695	264.12
412.919	272.12
413.142	258.12
413.365	280.12
413.589	268.12
413.812	274.12
414.035	283.12
414.258	257.12
414.482	262.12
414.705	278.12
414.928	287.12
415.151	268.12
415.374	248.12
415.597	280.12
415.821	277.12
416.044	264.12
416.267	252.12
416.49	266.12
416.713	254.12
416.936	270.12
417.159	265.12
417.382	248.12
417.605	273.12
417.828	269.12
418.051	270.12
418.274	287.12
418.497	272.12
418.72	274.12
418.943	269.12
419.166	278.12
419.389	282.12
419.611	271.12
419.834	265.12
420.057	271.12
420.28	276.12
420.503	256.12
420.726	237.12
420.948	265.12
421.171	260.12
421.394	256.12
421.617	262.12
421.839	268.12
422.062	254.12
422.285	249.12
422.507	278.12
422.73	268.12
422.953	265.12
423.175	274.12
423.398	263.12
423.621	277.12
423.843	282.12
424.066	289.12
424.288	289.12
424.511	263.12
424.733	276.12
424.956	276.12
425.178	273.12
425.401	257.12
425.623	279.12
425.846	259.12
426.068	253.12
426.291	275.12
426.513	268.12
426.735	255.12
426.958	265.12
427.18	268.12
427.402	244.12
427.625	236.12
427.847	256.12
428.069	246.12
428.292	255.12
428.514	253.12
428.736	243.12
428.958	229.12
429.181	236.12
429.403	254.12
429.625	242.12
429.847	221.12
430.069	238.12
430.292	265.12
430.514	233.12
430.736	244.12
430.958	236.12
431.18	242.12
431.402	235.12
431.624	254.12
431.846	227.12
432.068	239.12
432.29	266.12
432.512	248.12
432.734	246.12
432.956	239.12
433.178	262.12
433.4	263.12
433.622	258.12
433.844	241.12
434.066	247.12
434.287	260.12
434.509	241.12
434.731	246.12
434.953	256.12
435.175	279.12
435.397	267.12
435.618	262.12
435.84	273.12
436.062	260.12
436.284	248.12
436.505	250.12
436.727	246.12
436.949	239.12
437.17	235.12
437.392	237.12
437.614	230.12
437.835	246.12
438.057	234.12
438.278	249.12
438.5	246.12
438.721	236.12
438.943	249.12
439.165	223.12
439.386	254.12
439.608	258.12
439.829	251.12
440.05	259.12
440.272	254.12
440.493	262.12
440.715	260.12
440.936	259.12
441.158	252.12
441.379	266.12
441.6	280.12
441.822	275.12
442.043	284.12
442.264	255.12
442.486	274.12
442.707	275.12
442.928	282.12
443.149	263.12
443.371	281.12
443.592	254.12
443.813	273.12
444.034	262.12
444.255	284.12
444.476	283.12
444.698	283.12
444.919	296.12
445.14	402.12
445.361	329.12
445.582	281.12
445.803	252.12
446.024	258.12
446.245	262.12
446.466	260.12
446.687	250.12
446.908	241.12
447.129	255.12
447.35	270.12
447.571	242.12
447.792	234.12
448.013	247.12
448.234	233.12
448.455	253.12
448.675	238.12
448.896	228.12
449.117	242.12
449.338	239.12
449.559	252.12
449.779	242.12
450	244.12
450.221	242.12
450.442	231.12
450.662	240.12
450.883	236.12
451.104	246.12
451.324	218.12
451.545	238.12
451.766	242.12
451.986	240.12
452.207	243.12
452.428	223.12
452.648	234.12
452.869	226.12
453.089	240.12
453.31	234.12
453.53	224.12
453.751	234.12
453.971	225.12
454.192	225.12
454.412	228.12
454.633	229.12
454.853	234.12
455.073	230.12
455.294	233.12
455.514	207.12
455.734	233.12
455.955	216.12
456.175	224.12
456.395	229.12
456.616	239.12
456.836	215.12
457.056	223.12
457.276	212.12
457.497	217.12
457.717	219.12
457.937	238.12
458.157	221.12
458.377	222.12
458.598	222.12
458.818	244.12
459.038	246.12
459.258	250.12
459.478	241.12
459.698	238.12
459.918	259.12
460.138	270.12
460.358	287.12
460.578	272.12
460.798	286.12
461.018	283.12
461.238	277.12
461.458	288.12
461.678	292.12
461.898	302.12
462.118	289.12
462.338	311.12
462.558	307.12
462.777	294.12
462.997	324.12
463.217	344.12
463.437	357.12
463.657	329.12
463.876	314.12
464.096	323.12
464.316	320.12
464.536	318.12
464.755	306.12
464.975	317.12
465.195	293.12
465.414	274.12
465.634	267.12
465.854	271.12
466.073	249.12
466.293	249.12
466.512	242.12
466.732	250.12
466.951	252.12
467.171	243.12
467.391	248.12
467.61	247.12
467.829	255.12
468.049	234.12
468.268	260.12
468.488	243.12
468.707	245.12
468.927	233.12
469.146	244.12
469.365	251.12
469.585	256.12
469.804	254.12
470.023	234.12
470.243	256.12
470.462	254.12
470.681	260.12
470.901	266.12
471.12	266.12
471.339	245.12
471.558	235.12
471.777	234.12
471.997	241.12
472.216	243.12
472.435	237.12
472.654	222.12
472.873	235.12
473.092	241.12
473.311	241.12
473.53	260.12
473.749	251.12
473.968	243.12
474.187	236.12
474.406	250.12
474.625	238.12
474.844	229.12
475.063	222.12
475.282	227.12
475.501	241.12
475.72	234.12
475.939	237.12
476.158	252.12
476.377	240.12
476.596	248.12
476.814	224.12
477.033	244.12
477.252	240.12
477.471	267.12
477.69	259.12
477.908	262.12
478.127	267.12
478.346	271.12
478.564	275.12
478.783	285.12
479.002	293.12
479.22	289.12
479.439	282.12
479.658	281.12
479.876	266.12
480.095	276.12
480.313	296.12
480.532	304.12
480.751	304.12
480.969	275.12
481.188	273.12
481.406	274.12
481.624	260.12
481.843	268.12
482.061	279.12
482.28	268.12
482.498	278.12
482.717	267.12
482.935	279.12
483.153	268.12
483.372	272.12
483.59	257.12
483.808	278.12
484.027	265.12
484.245	287.12
484.463	267.12
484.681	283.12
484.9	273.12
485.118	276.12
485.336	271.12
485.554	260.12
485.772	281.12
485.99	295.12
486.209	266.12
486.427	262.12
486.645	261.12
486.863	281.12
487.081	280.12
487.299	262.12
487.517	276.12
487.735	275.12
487.953	288.12
488.171	296.12
488.389	270.12
488.607	297.12
488.825	286.12
489.043	275.12
489.261	272.12
489.479	269.12
489.696	274.12
489.914	288.12
490.132	269.12
490.35	287.12
490.568	268.12
490.786	280.12
491.003	283.12
491.221	300.12
491.439	296.12
491.657	290.12
491.874	286.12
492.092	282.12
492.31	301.12
492.527	298.12
492.745	289.12
492.963	313.12
493.18	299.12
493.398	286.12
493.615	307.12
493.833	299.12
494.05	295.12
494.268	304.12
494.485	300.12
494.703	289.12
494.92	299.12
495.138	314.12
495.355	298.12
495.573	296.12
495.79	315.12
496.008	314.12
496.225	287.12
496.442	318.12
496.66	307.12
496.877	305.12
497.094	324.12
497.312	312.12
497.529	310.12
497.746	329.12
497.963	301.12
498.181	352.12
498.398	363.12
498.615	379.12
498.832	364.12
499.049	386.12
499.267	408.12
499.484	430.12
499.701	489.12
499.918	538.12
500.135	633.12
500.352	677.12
500.569	670.12
500.786	667.12
501.003	616.12
501.22	562.12
501.437	515.12
501.654	475.12
501.871	446.12
502.088	438.12
502.305	382.12
502.522	361.12
502.739	366.12
502.956	340.12
503.172	332.12
503.389	328.12
