Data from Fe(NO3)3@0.025M.TitratingCurve.Agarose3%dH2O.NegLispCup.LampEnergy10.LIBS07252019_HRD10591_16-55-22-335.txt Node
Date: Thu Jul 25 16:55:22 EDT 2019
User: cochatt
Spectrometer: HR+D1059
Trigger mode: 1
Integration Time (sec): 1.000000E-1
Scans to average: 1
Electric dark correction enabled: true
Nonlinearity correction enabled: false
Boxcar width: 0
XAxis mode: Wavelengths
Number of Pixels in Spectrum: 2048
>>>>>Begin Spectral Data<<<<<
223.165	-8.81
223.4	-8.81
223.635	-8.81
223.869	-27.81
224.104	-11.81
224.338	-22.81
224.573	-1.81
224.808	-9.81
225.042	-6.81
225.277	-17.81
225.511	0.19
225.746	4.19
225.98	16.19
226.215	-0.81
226.449	12.19
226.683	18.19
226.918	26.19
227.152	31.19
227.387	35.19
227.621	46.19
227.856	54.19
228.09	35.19
228.324	50.19
228.559	59.19
228.793	74.19
229.027	70.19
229.262	71.19
229.496	62.19
229.73	82.19
229.964	76.19
230.199	96.19
230.433	81.19
230.667	83.19
230.901	76.19
231.136	91.19
231.37	94.19
231.604	102.19
231.838	96.19
232.072	90.19
232.306	86.19
232.541	100.19
232.775	95.19
233.009	91.19
233.243	84.19
233.477	106.19
233.711	100.19
233.945	116.19
234.179	93.19
234.413	108.19
234.647	101.19
234.881	95.19
235.115	85.19
235.349	102.19
235.583	103.19
235.817	88.19
236.051	91.19
236.285	89.19
236.519	116.19
236.753	98.19
236.987	94.19
237.221	107.19
237.455	83.19
237.689	94.19
237.922	106.19
238.156	112.19
238.39	100.19
238.624	91.19
238.858	94.19
239.091	97.19
239.325	95.19
239.559	96.19
239.793	105.19
240.027	91.19
240.26	95.19
240.494	92.19
240.728	99.19
240.961	91.19
241.195	115.19
241.429	96.19
241.662	92.19
241.896	95.19
242.13	98.19
242.363	102.19
242.597	90.19
242.83	106.19
243.064	97.19
243.298	99.19
243.531	95.19
243.765	107.19
243.998	106.19
244.232	102.19
244.465	96.19
244.699	102.19
244.932	107.19
245.166	99.19
245.399	107.19
245.633	111.19
245.866	97.19
246.099	110.19
246.333	116.19
246.566	115.19
246.8	116.19
247.033	104.19
247.266	111.19
247.5	117.19
247.733	106.19
247.966	111.19
248.2	104.19
248.433	113.19
248.666	130.19
248.899	123.19
249.133	123.19
249.366	115.19
249.599	122.19
249.832	103.19
250.066	107.19
250.299	114.19
250.532	116.19
250.765	121.19
250.998	115.19
251.231	126.19
251.465	124.19
251.698	106.19
251.931	118.19
252.164	98.19
252.397	121.19
252.63	122.19
252.863	126.19
253.096	106.19
253.329	118.19
253.562	116.19
253.795	120.19
254.028	123.19
254.261	129.19
254.494	123.19
254.727	123.19
254.96	123.19
255.193	120.19
255.426	110.19
255.659	123.19
255.892	115.19
256.124	108.19
256.357	105.19
256.59	122.19
256.823	113.19
257.056	134.19
257.289	130.19
257.521	129.19
257.754	118.19
257.987	112.19
258.22	122.19
258.452	119.19
258.685	130.19
258.918	132.19
259.151	130.19
259.383	132.19
259.616	124.19
259.849	137.19
260.081	138.19
260.314	150.19
260.547	127.19
260.779	109.19
261.012	135.19
261.244	142.19
261.477	146.19
261.71	148.19
261.942	133.19
262.175	137.19
262.407	125.19
262.64	122.19
262.872	135.19
263.105	139.19
263.337	145.19
263.57	126.19
263.802	130.19
264.035	153.19
264.267	132.19
264.499	144.19
264.732	132.19
264.964	140.19
265.197	137.19
265.429	147.19
265.661	126.19
265.894	139.19
266.126	128.19
266.358	130.19
266.591	126.19
266.823	136.19
267.055	140.19
267.287	152.19
267.52	140.19
267.752	149.19
267.984	142.19
268.216	150.19
268.448	146.19
268.681	137.19
268.913	148.19
269.145	139.19
269.377	154.19
269.609	152.19
269.841	155.19
270.073	155.19
270.306	146.19
270.538	144.19
270.77	147.19
271.002	139.19
271.234	158.19
271.466	142.19
271.698	152.19
271.93	148.19
272.162	159.19
272.394	162.19
272.626	150.19
272.858	162.19
273.09	147.19
273.322	168.19
273.553	146.19
273.785	150.19
274.017	159.19
274.249	166.19
274.481	150.19
274.713	148.19
274.945	154.19
275.176	166.19
275.408	161.19
275.64	166.19
275.872	163.19
276.104	154.19
276.335	144.19
276.567	164.19
276.799	156.19
277.031	158.19
277.262	155.19
277.494	169.19
277.726	171.19
277.957	169.19
278.189	166.19
278.421	161.19
278.652	152.19
278.884	177.19
279.115	189.19
279.347	162.19
279.579	164.19
279.81	165.19
280.042	162.19
280.273	174.19
280.505	174.19
280.736	167.19
280.968	163.19
281.199	165.19
281.431	164.19
281.662	163.19
281.894	171.19
282.125	172.19
282.356	185.19
282.588	172.19
282.819	183.19
283.051	181.19
283.282	173.19
283.513	174.19
283.745	178.19
283.976	188.19
284.207	186.19
284.439	196.19
284.67	188.19
284.901	177.19
285.132	197.19
285.364	177.19
285.595	199.19
285.826	191.19
286.057	181.19
286.288	188.19
286.52	181.19
286.751	183.19
286.982	182.19
287.213	198.19
287.444	184.19
287.675	194.19
287.906	181.19
288.138	194.19
288.369	205.19
288.6	197.19
288.831	186.19
289.062	200.19
289.293	187.19
289.524	194.19
289.755	187.19
289.986	195.19
290.217	203.19
290.448	185.19
290.679	192.19
290.91	198.19
291.141	194.19
291.371	194.19
291.602	195.19
291.833	182.19
292.064	196.19
292.295	197.19
292.526	204.19
292.757	206.19
292.987	200.19
293.218	203.19
293.449	206.19
293.68	191.19
293.91	190.19
294.141	207.19
294.372	192.19
294.603	205.19
294.833	176.19
295.064	209.19
295.295	203.19
295.525	212.19
295.756	204.19
295.987	199.19
296.217	197.19
296.448	206.19
296.679	207.19
296.909	207.19
297.14	206.19
297.37	199.19
297.601	207.19
297.831	205.19
298.062	223.19
298.292	199.19
298.523	222.19
298.753	204.19
298.984	208.19
299.214	211.19
299.445	213.19
299.675	217.19
299.905	208.19
300.136	204.19
300.366	214.19
300.597	208.19
300.827	204.19
301.057	211.19
301.288	212.19
301.518	219.19
301.748	224.19
301.979	229.19
302.209	227.19
302.439	229.19
302.669	208.19
302.9	226.19
303.13	221.19
303.36	235.19
303.59	242.19
303.82	223.19
304.051	218.19
304.281	215.19
304.511	217.19
304.741	216.19
304.971	222.19
305.201	211.19
305.431	207.19
305.661	217.19
305.891	238.19
306.121	241.19
306.352	222.19
306.582	242.19
306.812	228.19
307.042	246.19
307.272	218.19
307.502	234.19
307.731	236.19
307.961	222.19
308.191	223.19
308.421	215.19
308.651	210.19
308.881	218.19
309.111	224.19
309.341	214.19
309.571	206.19
309.8	223.19
310.03	239.19
310.26	250.19
310.49	224.19
310.72	223.19
310.949	239.19
311.179	231.19
311.409	229.19
311.639	215.19
311.868	239.19
312.098	233.19
312.328	228.19
312.557	234.19
312.787	245.19
313.017	246.19
313.246	229.19
313.476	234.19
313.706	227.19
313.935	233.19
314.165	252.19
314.394	262.19
314.624	246.19
314.853	239.19
315.083	220.19
315.312	246.19
315.542	253.19
315.771	268.19
316.001	250.19
316.23	261.19
316.46	245.19
316.689	247.19
316.919	239.19
317.148	258.19
317.377	252.19
317.607	252.19
317.836	247.19
318.065	262.19
318.295	253.19
318.524	253.19
318.753	273.19
318.983	237.19
319.212	239.19
319.441	241.19
319.67	243.19
319.9	258.19
320.129	270.19
320.358	254.19
320.587	258.19
320.816	248.19
321.046	243.19
321.275	257.19
321.504	261.19
321.733	249.19
321.962	251.19
322.191	257.19
322.42	260.19
322.649	274.19
322.878	248.19
323.108	250.19
323.337	262.19
323.566	254.19
323.795	258.19
324.024	277.19
324.253	260.19
324.482	266.19
324.71	255.19
324.939	279.19
325.168	252.19
325.397	275.19
325.626	273.19
325.855	262.19
326.084	268.19
326.313	245.19
326.542	262.19
326.77	251.19
326.999	267.19
327.228	265.19
327.457	265.19
327.686	268.19
327.914	280.19
328.143	262.19
328.372	259.19
328.6	277.19
328.829	290.19
329.058	280.19
329.287	290.19
329.515	277.19
329.744	287.19
329.972	274.19
330.201	280.19
330.43	276.19
330.658	290.19
330.887	288.19
331.115	291.19
331.344	292.19
331.572	292.19
331.801	286.19
332.03	302.19
332.258	290.19
332.486	309.19
332.715	290.19
332.943	294.19
333.172	306.19
333.4	300.19
333.629	326.19
333.857	291.19
334.085	323.19
334.314	299.19
334.542	325.19
334.771	311.19
334.999	326.19
335.227	339.19
335.455	318.19
335.684	323.19
335.912	317.19
336.14	332.19
336.369	318.19
336.597	324.19
336.825	315.19
337.053	312.19
337.281	331.19
337.51	319.19
337.738	315.19
337.966	298.19
338.194	320.19
338.422	314.19
338.65	306.19
338.878	312.19
339.106	307.19
339.334	314.19
339.562	312.19
339.79	292.19
340.018	309.19
340.246	298.19
340.474	294.19
340.702	300.19
340.93	287.19
341.158	303.19
341.386	298.19
341.614	283.19
341.842	313.19
342.07	272.19
342.298	293.19
342.526	309.19
342.754	302.19
342.981	299.19
343.209	306.19
343.437	310.19
343.665	331.19
343.893	346.19
344.12	322.19
344.348	336.19
344.576	329.19
344.804	322.19
345.031	299.19
345.259	310.19
345.487	294.19
345.714	297.19
345.942	291.19
346.17	286.19
346.397	284.19
346.625	296.19
346.853	282.19
347.08	283.19
347.308	290.19
347.535	287.19
347.763	294.19
347.99	279.19
348.218	297.19
348.445	288.19
348.673	281.19
348.9	294.19
349.128	297.19
349.355	291.19
349.583	287.19
349.81	276.19
350.037	289.19
350.265	306.19
350.492	276.19
350.72	290.19
350.947	274.19
351.174	297.19
351.402	305.19
351.629	300.19
351.856	307.19
352.083	304.19
352.311	291.19
352.538	295.19
352.765	286.19
352.992	292.19
353.22	295.19
353.447	272.19
353.674	282.19
353.901	273.19
354.128	288.19
354.355	296.19
354.583	276.19
354.81	300.19
355.037	291.19
355.264	303.19
355.491	277.19
355.718	292.19
355.945	290.19
356.172	273.19
356.399	277.19
356.626	302.19
356.853	292.19
357.08	274.19
357.307	282.19
357.534	281.19
357.761	291.19
357.988	300.19
358.215	310.19
358.441	319.19
358.668	293.19
358.895	283.19
359.122	294.19
359.349	296.19
359.576	284.19
359.802	291.19
360.029	288.19
360.256	303.19
360.483	302.19
360.709	303.19
360.936	299.19
361.163	300.19
361.39	294.19
361.616	299.19
361.843	292.19
362.07	289.19
362.296	306.19
362.523	308.19
362.749	323.19
362.976	303.19
363.203	291.19
363.429	295.19
363.656	293.19
363.882	290.19
364.109	299.19
364.335	300.19
364.562	304.19
364.788	296.19
365.015	298.19
365.241	307.19
365.468	292.19
365.694	303.19
365.92	308.19
366.147	320.19
366.373	306.19
366.599	290.19
366.826	290.19
367.052	296.19
367.278	313.19
367.505	309.19
367.731	312.19
367.957	304.19
368.184	298.19
368.41	308.19
368.636	302.19
368.862	298.19
369.089	292.19
369.315	314.19
369.541	310.19
369.767	295.19
369.993	312.19
370.219	318.19
370.445	313.19
370.672	312.19
370.898	331.19
371.124	310.19
371.35	331.19
371.576	315.19
371.802	324.19
372.028	318.19
372.254	318.19
372.48	329.19
372.706	323.19
372.932	343.19
373.158	334.19
373.384	330.19
373.61	327.19
373.835	344.19
374.061	321.19
374.287	312.19
374.513	342.19
374.739	334.19
374.965	331.19
375.191	329.19
375.416	339.19
375.642	331.19
375.868	314.19
376.094	322.19
376.319	299.19
376.545	347.19
376.771	339.19
376.997	315.19
377.222	326.19
377.448	302.19
377.674	312.19
377.899	316.19
378.125	310.19
378.35	318.19
378.576	321.19
378.802	317.19
379.027	312.19
379.253	320.19
379.478	317.19
379.704	312.19
379.929	332.19
380.155	312.19
380.38	322.19
380.606	315.19
380.831	334.19
381.057	344.19
381.282	330.19
381.507	318.19
381.733	344.19
381.958	306.19
382.184	336.19
382.409	347.19
382.634	324.19
382.86	329.19
383.085	333.19
383.31	353.19
383.535	354.19
383.761	358.19
383.986	362.19
384.211	335.19
384.436	357.19
384.662	349.19
384.887	382.19
385.112	353.19
385.337	362.19
385.562	343.19
385.787	357.19
386.013	370.19
386.238	364.19
386.463	371.19
386.688	372.19
386.913	371.19
387.138	364.19
387.363	378.19
387.588	389.19
387.813	384.19
388.038	378.19
388.263	384.19
388.488	378.19
388.713	368.19
388.938	377.19
389.163	372.19
389.387	372.19
389.612	376.19
389.837	361.19
390.062	376.19
390.287	378.19
390.512	374.19
390.736	374.19
390.961	388.19
391.186	410.19
391.411	396.19
391.636	416.19
391.86	404.19
392.085	386.19
392.31	386.19
392.534	393.19
392.759	395.19
392.984	401.19
393.208	397.19
393.433	379.19
393.658	385.19
393.882	371.19
394.107	377.19
394.331	384.19
394.556	404.19
394.78	379.19
395.005	389.19
395.229	402.19
395.454	404.19
395.678	391.19
395.903	401.19
396.127	415.19
396.352	412.19
396.576	422.19
396.801	405.19
397.025	411.19
397.249	408.19
397.474	422.19
397.698	420.19
397.922	432.19
398.147	406.19
398.371	411.19
398.595	463.19
398.82	470.19
399.044	457.19
399.268	505.19
399.492	524.19
399.717	553.19
399.941	528.19
400.165	542.19
400.389	513.19
400.613	503.19
400.837	463.19
401.062	475.19
401.286	444.19
401.51	467.19
401.734	468.19
401.958	452.19
402.182	454.19
402.406	450.19
402.63	441.19
402.854	442.19
403.078	452.19
403.302	459.19
403.526	431.19
403.75	453.19
403.974	461.19
404.198	454.19
404.422	466.19
404.645	455.19
404.869	458.19
405.093	453.19
405.317	484.19
405.541	474.19
405.765	466.19
405.988	458.19
406.212	491.19
406.436	451.19
406.66	498.19
406.883	490.19
407.107	506.19
407.331	504.19
407.555	524.19
407.778	519.19
408.002	526.19
408.226	500.19
408.449	497.19
408.673	472.19
408.896	479.19
409.12	488.19
409.344	445.19
409.567	484.19
409.791	479.19
410.014	463.19
410.238	470.19
410.461	476.19
410.685	455.19
410.908	450.19
411.132	470.19
411.355	428.19
411.578	458.19
411.802	467.19
412.025	462.19
412.249	462.19
412.472	463.19
412.695	448.19
412.919	447.19
413.142	439.19
413.365	435.19
413.589	447.19
413.812	442.19
414.035	453.19
414.258	451.19
414.482	456.19
414.705	446.19
414.928	443.19
415.151	462.19
415.374	453.19
415.597	430.19
415.821	424.19
416.044	428.19
416.267	442.19
416.49	426.19
416.713	430.19
416.936	422.19
417.159	437.19
417.382	440.19
417.605	404.19
417.828	423.19
418.051	424.19
418.274	446.19
418.497	441.19
418.72	436.19
418.943	423.19
419.166	448.19
419.389	468.19
419.611	439.19
419.834	456.19
420.057	435.19
420.28	443.19
420.503	437.19
420.726	426.19
420.948	430.19
421.171	452.19
421.394	430.19
421.617	430.19
421.839	429.19
422.062	408.19
422.285	420.19
422.507	440.19
422.73	402.19
422.953	443.19
423.175	425.19
423.398	402.19
423.621	418.19
423.843	410.19
424.066	434.19
424.288	433.19
424.511	428.19
424.733	420.19
424.956	403.19
425.178	410.19
425.401	418.19
425.623	416.19
425.846	423.19
426.068	417.19
426.291	404.19
426.513	424.19
426.735	436.19
426.958	409.19
427.18	426.19
427.402	393.19
427.625	396.19
427.847	422.19
428.069	406.19
428.292	396.19
428.514	416.19
428.736	384.19
428.958	396.19
429.181	403.19
429.403	386.19
429.625	400.19
429.847	407.19
430.069	397.19
430.292	419.19
430.514	394.19
430.736	383.19
430.958	402.19
431.18	404.19
431.402	388.19
431.624	399.19
431.846	381.19
432.068	389.19
432.29	416.19
432.512	391.19
432.734	408.19
432.956	387.19
433.178	380.19
433.4	407.19
433.622	395.19
433.844	411.19
434.066	415.19
434.287	395.19
434.509	419.19
434.731	402.19
434.953	385.19
435.175	407.19
435.397	434.19
435.618	414.19
435.84	392.19
436.062	416.19
436.284	406.19
436.505	384.19
436.727	405.19
436.949	395.19
437.17	392.19
437.392	392.19
437.614	377.19
437.835	388.19
438.057	397.19
438.278	394.19
438.5	368.19
438.721	396.19
438.943	398.19
439.165	397.19
439.386	395.19
439.608	404.19
439.829	406.19
440.05	385.19
440.272	392.19
440.493	407.19
440.715	382.19
440.936	404.19
441.158	391.19
441.379	390.19
441.6	396.19
441.822	416.19
442.043	410.19
442.264	424.19
442.486	405.19
442.707	404.19
442.928	388.19
443.149	426.19
443.371	414.19
443.592	423.19
443.813	427.19
444.034	431.19
444.255	426.19
444.476	447.19
444.698	443.19
444.919	441.19
445.14	514.19
445.361	472.19
445.582	434.19
445.803	423.19
446.024	395.19
446.245	421.19
446.466	411.19
446.687	388.19
446.908	394.19
447.129	373.19
447.35	391.19
447.571	384.19
447.792	379.19
448.013	388.19
448.234	366.19
448.455	371.19
448.675	372.19
448.896	384.19
449.117	368.19
449.338	348.19
449.559	349.19
449.779	364.19
450	385.19
450.221	372.19
450.442	371.19
450.662	359.19
450.883	369.19
451.104	363.19
451.324	379.19
451.545	346.19
451.766	364.19
451.986	360.19
452.207	375.19
452.428	353.19
452.648	356.19
452.869	350.19
453.089	363.19
453.31	345.19
453.53	343.19
453.751	362.19
453.971	347.19
454.192	376.19
454.412	331.19
454.633	330.19
454.853	350.19
455.073	375.19
455.294	355.19
455.514	350.19
455.734	350.19
455.955	347.19
456.175	338.19
456.395	352.19
456.616	367.19
456.836	361.19
457.056	347.19
457.276	357.19
457.497	339.19
457.717	348.19
457.937	346.19
458.157	355.19
458.377	386.19
458.598	368.19
458.818	380.19
459.038	370.19
459.258	392.19
459.478	411.19
459.698	408.19
459.918	410.19
460.138	421.19
460.358	423.19
460.578	422.19
460.798	436.19
461.018	438.19
461.238	444.19
461.458	427.19
461.678	435.19
461.898	450.19
462.118	458.19
462.338	478.19
462.558	482.19
462.777	485.19
462.997	490.19
463.217	494.19
463.437	501.19
463.657	475.19
463.876	499.19
464.096	487.19
464.316	486.19
464.536	476.19
464.755	466.19
464.975	480.19
465.195	451.19
465.414	426.19
465.634	406.19
465.854	408.19
466.073	415.19
466.293	394.19
466.512	386.19
466.732	398.19
466.951	410.19
467.171	395.19
467.391	382.19
467.61	389.19
467.829	376.19
468.049	407.19
468.268	367.19
468.488	364.19
468.707	392.19
468.927	378.19
469.146	391.19
469.365	402.19
469.585	386.19
469.804	390.19
470.023	394.19
470.243	384.19
470.462	397.19
470.681	395.19
470.901	377.19
471.12	403.19
471.339	388.19
471.558	382.19
471.777	373.19
471.997	404.19
472.216	370.19
472.435	359.19
472.654	376.19
472.873	390.19
473.092	391.19
473.311	399.19
473.53	376.19
473.749	375.19
473.968	390.19
474.187	386.19
474.406	396.19
474.625	391.19
474.844	368.19
475.063	369.19
475.282	375.19
475.501	387.19
475.72	382.19
475.939	405.19
476.158	398.19
476.377	408.19
476.596	399.19
476.814	399.19
477.033	410.19
477.252	413.19
477.471	418.19
477.69	414.19
477.908	423.19
478.127	447.19
478.346	419.19
478.564	441.19
478.783	435.19
479.002	430.19
479.22	452.19
479.439	464.19
479.658	469.19
479.876	458.19
480.095	480.19
480.313	463.19
480.532	464.19
480.751	451.19
480.969	441.19
481.188	457.19
481.406	450.19
481.624	466.19
481.843	460.19
482.061	451.19
482.28	454.19
482.498	472.19
482.717	437.19
482.935	455.19
483.153	451.19
483.372	457.19
483.59	439.19
483.808	436.19
484.027	435.19
484.245	446.19
484.463	467.19
484.681	456.19
484.9	442.19
485.118	454.19
485.336	440.19
485.554	467.19
485.772	474.19
485.99	466.19
486.209	452.19
486.427	455.19
486.645	454.19
486.863	456.19
487.081	465.19
487.299	470.19
487.517	480.19
487.735	466.19
487.953	474.19
488.171	467.19
488.389	452.19
488.607	461.19
488.825	471.19
489.043	427.19
489.261	467.19
489.479	445.19
489.696	462.19
489.914	482.19
490.132	497.19
490.35	481.19
490.568	446.19
490.786	489.19
491.003	444.19
491.221	461.19
491.439	465.19
491.657	467.19
491.874	465.19
492.092	464.19
492.31	478.19
492.527	457.19
492.745	460.19
492.963	446.19
493.18	476.19
493.398	506.19
493.615	490.19
493.833	464.19
494.05	512.19
494.268	484.19
494.485	481.19
494.703	503.19
494.92	473.19
495.138	486.19
495.355	501.19
495.573	501.19
495.79	498.19
496.008	512.19
496.225	497.19
496.442	493.19
496.66	529.19
496.877	516.19
497.094	526.19
497.312	546.19
497.529	558.19
497.746	574.19
497.963	604.19
498.181	600.19
498.398	611.19
498.615	649.19
498.832	662.19
499.049	667.19
499.267	700.19
499.484	754.19
499.701	786.19
499.918	821.19
500.135	848.19
500.352	896.19
500.569	912.19
500.786	868.19
501.003	880.19
501.22	858.19
501.437	804.19
501.654	767.19
501.871	742.19
502.088	724.19
502.305	691.19
