Data from Fe(NO3)3@0.025M.TitratingCurve.Agarose3%dH2O.NegLispCup.LampEnergy10.LIBS07252019_HRD10591_16-56-25-335.txt Node
Date: Thu Jul 25 16:56:25 EDT 2019
User: cochatt
Spectrometer: HR+D1059
Trigger mode: 1
Integration Time (sec): 1.000000E-1
Scans to average: 1
Electric dark correction enabled: true
Nonlinearity correction enabled: false
Boxcar width: 0
XAxis mode: Wavelengths
Number of Pixels in Spectrum: 2048
>>>>>Begin Spectral Data<<<<<
223.165	-16.38
223.4	-16.38
223.635	-16.38
223.869	-25.38
224.104	-1.38
224.338	-22.38
224.573	-18.38
224.808	-11.38
225.042	-1.38
225.277	-7.38
225.511	4.62
225.746	1.62
225.98	8.62
226.215	24.62
226.449	5.62
226.683	7.62
226.918	27.62
227.152	23.62
227.387	47.62
227.621	30.62
227.856	49.62
228.09	46.62
228.324	58.62
228.559	61.62
228.793	49.62
229.027	79.62
229.262	78.62
229.496	70.62
229.73	67.62
229.964	86.62
230.199	89.62
230.433	104.62
230.667	87.62
230.901	70.62
231.136	97.62
231.37	96.62
231.604	101.62
231.838	86.62
232.072	93.62
232.306	89.62
232.541	88.62
232.775	96.62
233.009	97.62
233.243	100.62
233.477	72.62
233.711	103.62
233.945	99.62
234.179	93.62
234.413	93.62
234.647	93.62
234.881	88.62
235.115	85.62
235.349	103.62
235.583	93.62
235.817	88.62
236.051	97.62
236.285	105.62
236.519	97.62
236.753	104.62
236.987	99.62
237.221	97.62
237.455	100.62
237.689	85.62
237.922	100.62
238.156	102.62
238.39	86.62
238.624	95.62
238.858	101.62
239.091	94.62
239.325	93.62
239.559	114.62
239.793	100.62
240.027	112.62
240.26	117.62
240.494	101.62
240.728	112.62
240.961	112.62
241.195	99.62
241.429	113.62
241.662	104.62
241.896	109.62
242.13	108.62
242.363	108.62
242.597	91.62
242.83	99.62
243.064	104.62
243.298	124.62
243.531	100.62
243.765	117.62
243.998	114.62
244.232	101.62
244.465	116.62
244.699	116.62
244.932	108.62
245.166	118.62
245.399	116.62
245.633	112.62
245.866	110.62
246.099	101.62
246.333	110.62
246.566	105.62
246.8	105.62
247.033	106.62
247.266	105.62
247.5	112.62
247.733	120.62
247.966	115.62
248.2	113.62
248.433	117.62
248.666	108.62
248.899	120.62
249.133	113.62
249.366	126.62
249.599	101.62
249.832	106.62
250.066	117.62
250.299	127.62
250.532	125.62
250.765	122.62
250.998	117.62
251.231	129.62
251.465	129.62
251.698	119.62
251.931	126.62
252.164	128.62
252.397	127.62
252.63	136.62
252.863	124.62
253.096	121.62
253.329	127.62
253.562	126.62
253.795	127.62
254.028	125.62
254.261	124.62
254.494	127.62
254.727	116.62
254.96	115.62
255.193	135.62
255.426	148.62
255.659	124.62
255.892	124.62
256.124	136.62
256.357	126.62
256.59	141.62
256.823	136.62
257.056	130.62
257.289	128.62
257.521	137.62
257.754	130.62
257.987	138.62
258.22	119.62
258.452	150.62
258.685	148.62
258.918	137.62
259.151	146.62
259.383	141.62
259.616	140.62
259.849	163.62
260.081	148.62
260.314	141.62
260.547	134.62
260.779	132.62
261.012	165.62
261.244	153.62
261.477	143.62
261.71	139.62
261.942	136.62
262.175	127.62
262.407	144.62
262.64	139.62
262.872	141.62
263.105	132.62
263.337	142.62
263.57	145.62
263.802	149.62
264.035	147.62
264.267	158.62
264.499	140.62
264.732	134.62
264.964	146.62
265.197	158.62
265.429	152.62
265.661	156.62
265.894	165.62
266.126	148.62
266.358	147.62
266.591	165.62
266.823	141.62
267.055	153.62
267.287	150.62
267.52	144.62
267.752	140.62
267.984	153.62
268.216	150.62
268.448	162.62
268.681	157.62
268.913	156.62
269.145	154.62
269.377	186.62
269.609	153.62
269.841	164.62
270.073	157.62
270.306	154.62
270.538	144.62
270.77	160.62
271.002	164.62
271.234	164.62
271.466	164.62
271.698	178.62
271.93	154.62
272.162	170.62
272.394	173.62
272.626	164.62
272.858	170.62
273.09	169.62
273.322	174.62
273.553	179.62
273.785	166.62
274.017	160.62
274.249	173.62
274.481	176.62
274.713	180.62
274.945	183.62
275.176	169.62
275.408	168.62
275.64	164.62
275.872	179.62
276.104	161.62
276.335	165.62
276.567	188.62
276.799	168.62
277.031	180.62
277.262	176.62
277.494	174.62
277.726	182.62
277.957	180.62
278.189	186.62
278.421	175.62
278.652	189.62
278.884	190.62
279.115	174.62
279.347	177.62
279.579	191.62
279.81	182.62
280.042	196.62
280.273	181.62
280.505	197.62
280.736	185.62
280.968	188.62
281.199	173.62
281.431	190.62
281.662	185.62
281.894	192.62
282.125	189.62
282.356	190.62
282.588	196.62
282.819	194.62
283.051	192.62
283.282	200.62
283.513	201.62
283.745	196.62
283.976	193.62
284.207	209.62
284.439	207.62
284.67	192.62
284.901	188.62
285.132	204.62
285.364	182.62
285.595	201.62
285.826	205.62
286.057	208.62
286.288	198.62
286.52	196.62
286.751	201.62
286.982	187.62
287.213	200.62
287.444	195.62
287.675	213.62
287.906	205.62
288.138	236.62
288.369	208.62
288.6	185.62
288.831	207.62
289.062	196.62
289.293	218.62
289.524	196.62
289.755	216.62
289.986	175.62
290.217	209.62
290.448	206.62
290.679	213.62
290.91	224.62
291.141	215.62
291.371	215.62
291.602	194.62
291.833	191.62
292.064	204.62
292.295	202.62
292.526	227.62
292.757	203.62
292.987	217.62
293.218	202.62
293.449	210.62
293.68	221.62
293.91	217.62
294.141	217.62
294.372	211.62
294.603	229.62
294.833	199.62
295.064	238.62
295.295	209.62
295.525	220.62
295.756	216.62
295.987	214.62
296.217	216.62
296.448	225.62
296.679	234.62
296.909	229.62
297.14	207.62
297.37	220.62
297.601	215.62
297.831	221.62
298.062	233.62
298.292	239.62
298.523	243.62
298.753	231.62
298.984	238.62
299.214	220.62
299.445	262.62
299.675	229.62
299.905	224.62
300.136	234.62
300.366	250.62
300.597	229.62
300.827	237.62
301.057	241.62
301.288	252.62
301.518	255.62
301.748	245.62
301.979	251.62
302.209	255.62
302.439	228.62
302.669	234.62
302.9	225.62
303.13	233.62
303.36	256.62
303.59	245.62
303.82	241.62
304.051	243.62
304.281	233.62
304.511	252.62
304.741	259.62
304.971	264.62
305.201	256.62
305.431	257.62
305.661	237.62
305.891	245.62
306.121	265.62
306.352	249.62
306.582	241.62
306.812	239.62
307.042	246.62
307.272	241.62
307.502	240.62
307.731	251.62
307.961	239.62
308.191	252.62
308.421	249.62
308.651	254.62
308.881	241.62
309.111	239.62
309.341	251.62
309.571	253.62
309.8	261.62
310.03	258.62
310.26	255.62
310.49	261.62
310.72	250.62
310.949	260.62
311.179	269.62
311.409	255.62
311.639	255.62
311.868	252.62
312.098	255.62
312.328	250.62
312.557	247.62
312.787	247.62
313.017	269.62
313.246	249.62
313.476	271.62
313.706	252.62
313.935	272.62
314.165	266.62
314.394	269.62
314.624	273.62
314.853	269.62
315.083	261.62
315.312	265.62
315.542	269.62
315.771	272.62
316.001	289.62
316.23	267.62
316.46	272.62
316.689	282.62
316.919	254.62
317.148	265.62
317.377	270.62
317.607	274.62
317.836	261.62
318.065	272.62
318.295	263.62
318.524	256.62
318.753	265.62
318.983	289.62
319.212	272.62
319.441	283.62
319.67	269.62
319.9	258.62
320.129	277.62
320.358	271.62
320.587	277.62
320.816	286.62
321.046	283.62
321.275	276.62
321.504	266.62
321.733	292.62
321.962	293.62
322.191	262.62
322.42	288.62
322.649	278.62
322.878	283.62
323.108	291.62
323.337	276.62
323.566	265.62
323.795	268.62
324.024	277.62
324.253	289.62
324.482	288.62
324.71	278.62
324.939	292.62
325.168	302.62
325.397	281.62
325.626	292.62
325.855	280.62
326.084	293.62
326.313	291.62
326.542	288.62
326.77	288.62
326.999	287.62
327.228	297.62
327.457	282.62
327.686	279.62
327.914	311.62
328.143	313.62
328.372	309.62
328.6	291.62
328.829	311.62
329.058	282.62
329.287	290.62
329.515	291.62
329.744	304.62
329.972	304.62
330.201	305.62
330.43	304.62
330.658	298.62
330.887	297.62
331.115	313.62
331.344	326.62
331.572	312.62
331.801	321.62
332.03	314.62
332.258	345.62
332.486	312.62
332.715	326.62
332.943	319.62
333.172	320.62
333.4	342.62
333.629	371.62
333.857	348.62
334.085	328.62
334.314	346.62
334.542	346.62
334.771	357.62
334.999	352.62
335.227	336.62
335.455	329.62
335.684	336.62
335.912	346.62
336.14	358.62
336.369	340.62
336.597	342.62
336.825	333.62
337.053	329.62
337.281	339.62
337.51	332.62
337.738	330.62
337.966	345.62
338.194	325.62
338.422	319.62
338.65	325.62
338.878	322.62
339.106	318.62
339.334	317.62
339.562	344.62
339.79	310.62
340.018	320.62
340.246	317.62
340.474	310.62
340.702	316.62
340.93	302.62
341.158	336.62
341.386	302.62
341.614	297.62
341.842	316.62
342.07	323.62
342.298	322.62
342.526	322.62
342.754	322.62
342.981	317.62
343.209	327.62
343.437	328.62
343.665	332.62
343.893	340.62
344.12	349.62
344.348	356.62
344.576	363.62
344.804	337.62
345.031	326.62
345.259	320.62
345.487	329.62
345.714	307.62
345.942	308.62
346.17	329.62
346.397	333.62
346.625	310.62
346.853	308.62
347.08	309.62
347.308	320.62
347.535	308.62
347.763	319.62
347.99	313.62
348.218	305.62
348.445	330.62
348.673	321.62
348.9	310.62
349.128	312.62
349.355	312.62
349.583	329.62
349.81	317.62
350.037	319.62
350.265	308.62
350.492	301.62
350.72	292.62
350.947	304.62
351.174	309.62
351.402	306.62
351.629	288.62
351.856	307.62
352.083	310.62
352.311	297.62
352.538	318.62
352.765	302.62
352.992	302.62
353.22	287.62
353.447	289.62
353.674	304.62
353.901	294.62
354.128	305.62
354.355	298.62
354.583	300.62
354.81	301.62
355.037	286.62
355.264	308.62
355.491	295.62
355.718	305.62
355.945	304.62
356.172	309.62
356.399	300.62
356.626	291.62
356.853	300.62
357.08	316.62
357.307	322.62
357.534	300.62
357.761	311.62
357.988	318.62
358.215	312.62
358.441	325.62
358.668	327.62
358.895	314.62
359.122	319.62
359.349	306.62
359.576	317.62
359.802	310.62
360.029	317.62
360.256	315.62
360.483	298.62
360.709	296.62
360.936	308.62
361.163	311.62
361.39	311.62
361.616	302.62
361.843	309.62
362.07	314.62
362.296	308.62
362.523	313.62
362.749	312.62
362.976	319.62
363.203	312.62
363.429	302.62
363.656	291.62
363.882	305.62
364.109	289.62
364.335	307.62
364.562	318.62
364.788	316.62
365.015	321.62
365.241	317.62
365.468	314.62
365.694	308.62
365.92	330.62
366.147	318.62
366.373	291.62
366.599	308.62
366.826	320.62
367.052	326.62
367.278	311.62
367.505	312.62
367.731	324.62
367.957	292.62
368.184	328.62
368.41	309.62
368.636	324.62
368.862	333.62
369.089	313.62
369.315	322.62
369.541	325.62
369.767	317.62
369.993	321.62
370.219	313.62
370.445	326.62
370.672	321.62
370.898	337.62
371.124	306.62
371.35	331.62
371.576	337.62
371.802	345.62
372.028	345.62
372.254	342.62
372.48	338.62
372.706	347.62
372.932	345.62
373.158	330.62
373.384	348.62
373.61	335.62
373.835	330.62
374.061	356.62
374.287	360.62
374.513	349.62
374.739	354.62
374.965	357.62
375.191	359.62
375.416	350.62
375.642	343.62
375.868	354.62
376.094	349.62
376.319	335.62
376.545	341.62
376.771	340.62
376.997	326.62
377.222	343.62
377.448	313.62
377.674	317.62
377.899	329.62
378.125	339.62
378.35	319.62
378.576	325.62
378.802	348.62
379.027	338.62
379.253	338.62
379.478	319.62
379.704	324.62
379.929	343.62
380.155	345.62
380.38	354.62
380.606	337.62
380.831	336.62
381.057	350.62
381.282	330.62
381.507	323.62
381.733	342.62
381.958	340.62
382.184	352.62
382.409	339.62
382.634	365.62
382.86	358.62
383.085	349.62
383.31	345.62
383.535	352.62
383.761	355.62
383.986	359.62
384.211	371.62
384.436	380.62
384.662	367.62
384.887	383.62
385.112	366.62
385.337	380.62
385.562	357.62
385.787	382.62
386.013	390.62
386.238	371.62
386.463	390.62
386.688	373.62
386.913	370.62
387.138	383.62
387.363	383.62
387.588	372.62
387.813	393.62
388.038	378.62
388.263	387.62
388.488	388.62
388.713	374.62
388.938	383.62
389.163	376.62
389.387	369.62
389.612	377.62
389.837	374.62
390.062	383.62
390.287	388.62
390.512	409.62
390.736	384.62
390.961	404.62
391.186	392.62
391.411	394.62
391.636	399.62
391.86	423.62
392.085	395.62
392.31	402.62
392.534	410.62
392.759	405.62
392.984	393.62
393.208	404.62
393.433	399.62
393.658	403.62
393.882	409.62
394.107	393.62
394.331	392.62
394.556	394.62
394.78	413.62
395.005	390.62
395.229	407.62
395.454	418.62
395.678	428.62
395.903	417.62
396.127	413.62
396.352	408.62
396.576	417.62
396.801	406.62
397.025	441.62
397.249	435.62
397.474	438.62
397.698	442.62
397.922	435.62
398.147	440.62
398.371	436.62
398.595	468.62
398.82	447.62
399.044	473.62
399.268	495.62
399.492	526.62
399.717	548.62
399.941	569.62
400.165	560.62
400.389	534.62
400.613	527.62
400.837	466.62
401.062	492.62
401.286	473.62
401.51	467.62
401.734	476.62
401.958	465.62
402.182	463.62
402.406	449.62
402.63	474.62
402.854	467.62
403.078	460.62
403.302	473.62
403.526	479.62
403.75	464.62
403.974	491.62
404.198	474.62
404.422	461.62
404.645	497.62
404.869	481.62
405.093	479.62
405.317	483.62
405.541	471.62
405.765	484.62
405.988	508.62
406.212	487.62
406.436	500.62
406.66	489.62
406.883	510.62
407.107	517.62
407.331	542.62
407.555	536.62
407.778	530.62
408.002	518.62
408.226	499.62
408.449	514.62
408.673	510.62
408.896	487.62
409.12	494.62
409.344	508.62
409.567	493.62
409.791	486.62
410.014	500.62
410.238	491.62
410.461	468.62
410.685	483.62
410.908	475.62
411.132	456.62
411.355	486.62
411.578	487.62
411.802	478.62
412.025	480.62
412.249	465.62
412.472	449.62
412.695	455.62
412.919	441.62
413.142	458.62
413.365	456.62
413.589	456.62
413.812	442.62
414.035	464.62
414.258	446.62
414.482	466.62
414.705	453.62
414.928	456.62
415.151	442.62
415.374	432.62
415.597	464.62
415.821	460.62
416.044	453.62
416.267	443.62
416.49	439.62
416.713	420.62
416.936	454.62
417.159	423.62
417.382	424.62
417.605	430.62
417.828	452.62
418.051	424.62
418.274	439.62
418.497	439.62
418.72	449.62
418.943	457.62
419.166	460.62
419.389	489.62
419.611	465.62
419.834	445.62
420.057	452.62
420.28	417.62
420.503	433.62
420.726	439.62
420.948	437.62
421.171	440.62
421.394	442.62
421.617	444.62
421.839	449.62
422.062	434.62
422.285	435.62
422.507	449.62
422.73	430.62
422.953	432.62
423.175	432.62
423.398	451.62
423.621	414.62
423.843	430.62
424.066	433.62
424.288	445.62
424.511	449.62
424.733	431.62
424.956	430.62
425.178	435.62
425.401	422.62
425.623	452.62
425.846	409.62
426.068	434.62
426.291	423.62
426.513	417.62
426.735	434.62
426.958	424.62
427.18	415.62
427.402	420.62
427.625	408.62
427.847	430.62
428.069	419.62
428.292	412.62
428.514	398.62
428.736	399.62
428.958	408.62
429.181	397.62
429.403	394.62
429.625	412.62
429.847	399.62
430.069	423.62
430.292	410.62
430.514	401.62
430.736	399.62
430.958	423.62
431.18	415.62
431.402	405.62
431.624	395.62
431.846	401.62
432.068	404.62
432.29	414.62
432.512	415.62
432.734	412.62
432.956	421.62
433.178	420.62
433.4	407.62
433.622	404.62
433.844	412.62
434.066	414.62
434.287	390.62
434.509	412.62
434.731	430.62
434.953	438.62
435.175	436.62
435.397	426.62
435.618	433.62
435.84	399.62
436.062	412.62
436.284	387.62
436.505	392.62
436.727	412.62
436.949	421.62
437.17	390.62
437.392	385.62
437.614	393.62
437.835	409.62
438.057	397.62
438.278	388.62
438.5	374.62
438.721	396.62
438.943	396.62
439.165	392.62
439.386	392.62
439.608	384.62
439.829	378.62
440.05	401.62
440.272	408.62
440.493	398.62
440.715	376.62
440.936	422.62
441.158	414.62
441.379	410.62
441.6	437.62
441.822	399.62
442.043	436.62
442.264	419.62
442.486	402.62
442.707	423.62
442.928	423.62
443.149	405.62
443.371	414.62
443.592	404.62
443.813	448.62
444.034	423.62
444.255	453.62
444.476	453.62
444.698	442.62
444.919	446.62
445.14	527.62
445.361	473.62
445.582	426.62
445.803	411.62
446.024	419.62
446.245	422.62
446.466	409.62
446.687	389.62
446.908	381.62
447.129	389.62
447.35	391.62
447.571	402.62
447.792	389.62
448.013	395.62
448.234	376.62
448.455	376.62
448.675	376.62
448.896	379.62
449.117	380.62
449.338	367.62
449.559	381.62
449.779	354.62
450	351.62
450.221	368.62
450.442	351.62
450.662	372.62
450.883	377.62
451.104	372.62
451.324	364.62
451.545	373.62
451.766	374.62
451.986	356.62
452.207	372.62
452.428	345.62
452.648	386.62
452.869	370.62
453.089	357.62
453.31	373.62
453.53	370.62
453.751	364.62
453.971	349.62
454.192	351.62
454.412	350.62
454.633	337.62
454.853	354.62
455.073	359.62
455.294	352.62
455.514	344.62
455.734	352.62
455.955	337.62
456.175	355.62
456.395	348.62
456.616	357.62
456.836	334.62
457.056	355.62
457.276	340.62
457.497	367.62
457.717	368.62
457.937	358.62
458.157	372.62
458.377	358.62
458.598	371.62
458.818	358.62
459.038	382.62
459.258	398.62
459.478	404.62
459.698	395.62
459.918	420.62
460.138	410.62
460.358	428.62
460.578	438.62
460.798	434.62
461.018	434.62
461.238	441.62
461.458	451.62
461.678	450.62
461.898	453.62
462.118	451.62
462.338	452.62
462.558	466.62
462.777	465.62
462.997	510.62
463.217	522.62
463.437	520.62
463.657	495.62
463.876	489.62
464.096	500.62
464.316	489.62
464.536	476.62
464.755	459.62
464.975	458.62
465.195	443.62
465.414	433.62
465.634	425.62
465.854	405.62
466.073	392.62
466.293	418.62
466.512	410.62
466.732	384.62
466.951	388.62
467.171	393.62
467.391	374.62
467.61	399.62
467.829	384.62
468.049	411.62
468.268	400.62
468.488	389.62
468.707	378.62
468.927	377.62
469.146	393.62
469.365	386.62
469.585	360.62
469.804	391.62
470.023	386.62
470.243	393.62
470.462	390.62
470.681	399.62
470.901	390.62
471.12	385.62
471.339	394.62
471.558	366.62
471.777	394.62
471.997	389.62
472.216	369.62
472.435	397.62
472.654	380.62
472.873	384.62
473.092	382.62
473.311	372.62
473.53	390.62
473.749	390.62
473.968	386.62
474.187	371.62
474.406	392.62
474.625	391.62
474.844	382.62
475.063	380.62
475.282	403.62
475.501	392.62
475.72	390.62
475.939	381.62
476.158	397.62
476.377	431.62
476.596	391.62
476.814	405.62
477.033	376.62
477.252	405.62
477.471	410.62
477.69	429.62
477.908	426.62
478.127	429.62
478.346	444.62
478.564	471.62
478.783	444.62
479.002	442.62
479.22	450.62
479.439	441.62
479.658	460.62
479.876	489.62
480.095	447.62
480.313	461.62
480.532	475.62
480.751	479.62
480.969	465.62
481.188	430.62
481.406	430.62
481.624	445.62
481.843	451.62
482.061	440.62
482.28	441.62
482.498	440.62
482.717	444.62
482.935	440.62
483.153	445.62
483.372	428.62
483.59	471.62
483.808	455.62
484.027	447.62
484.245	461.62
484.463	453.62
484.681	450.62
484.9	452.62
485.118	470.62
485.336	461.62
485.554	466.62
485.772	451.62
485.99	455.62
486.209	456.62
486.427	450.62
486.645	448.62
486.863	470.62
487.081	462.62
487.299	460.62
487.517	470.62
487.735	443.62
487.953	455.62
488.171	477.62
488.389	470.62
488.607	453.62
488.825	465.62
489.043	464.62
489.261	464.62
489.479	473.62
489.696	449.62
489.914	463.62
490.132	460.62
490.35	482.62
490.568	465.62
490.786	456.62
491.003	442.62
491.221	462.62
491.439	467.62
491.657	453.62
491.874	473.62
492.092	497.62
492.31	478.62
492.527	448.62
492.745	456.62
492.963	474.62
493.18	466.62
493.398	495.62
493.615	477.62
493.833	474.62
494.05	464.62
494.268	461.62
494.485	464.62
494.703	492.62
494.92	489.62
495.138	482.62
495.355	494.62
495.573	478.62
495.79	490.62
496.008	486.62
496.225	497.62
496.442	514.62
496.66	499.62
496.877	477.62
497.094	537.62
497.312	500.62
497.529	537.62
497.746	575.62
497.963	576.62
498.181	575.62
498.398	585.62
498.615	624.62
498.832	628.62
499.049	650.62
499.267	704.62
499.484	722.62
499.701	775.62
499.918	826.62
500.135	846.62
500.352	886.62
500.569	910.62
500.786	936.62
501.003	892.62
501.22	854.62
501.437	784.62
501.654	743.62
501.871	732.62
502.088	671.62
