Data from Fe(NO3)3@0.1M.TitratingCurve.Agarose3%dH2O.NegLispCup.LampEnergy10.LIBS07252019_HRD10591_16-39-57-333.txt Node
Date: Thu Jul 25 16:39:57 EDT 2019
User: cochatt
Spectrometer: HR+D1059
Trigger mode: 1
Integration Time (sec): 1.000000E-1
Scans to average: 1
Electric dark correction enabled: true
Nonlinearity correction enabled: false
Boxcar width: 0
XAxis mode: Wavelengths
Number of Pixels in Spectrum: 2048
>>>>>Begin Spectral Data<<<<<
223.165	-14
223.4	-14
223.635	-14
223.869	-7
224.104	-25
224.338	-15
224.573	-29
224.808	-16
225.042	-20
225.277	-3
225.511	16
225.746	12
225.98	5
226.215	8
226.449	15
226.683	17
226.918	22
227.152	34
227.387	39
227.621	37
227.856	40
228.09	49
228.324	47
228.559	62
228.793	52
229.027	79
229.262	82
229.496	91
229.73	89
229.964	94
230.199	105
230.433	108
230.667	101
230.901	98
231.136	106
231.37	116
231.604	103
231.838	115
232.072	111
232.306	107
232.541	102
232.775	106
233.009	122
233.243	116
233.477	127
233.711	111
233.945	110
234.179	117
234.413	104
234.647	121
234.881	125
235.115	111
235.349	113
235.583	110
235.817	123
236.051	110
236.285	125
236.519	129
236.753	136
236.987	123
237.221	115
237.455	131
237.689	134
237.922	109
238.156	117
238.39	119
238.624	121
238.858	129
239.091	136
239.325	113
239.559	123
239.793	127
240.027	128
240.26	117
240.494	124
240.728	120
240.961	140
241.195	130
241.429	128
241.662	123
241.896	131
242.13	130
242.363	116
242.597	130
242.83	133
243.064	136
243.298	143
243.531	144
243.765	136
243.998	146
244.232	151
244.465	127
244.699	126
244.932	152
245.166	163
245.399	160
245.633	134
245.866	151
246.099	130
246.333	157
246.566	139
246.8	147
247.033	128
247.266	145
247.5	159
247.733	159
247.966	150
248.2	156
248.433	148
248.666	140
248.899	155
249.133	144
249.366	168
249.599	155
249.832	159
250.066	149
250.299	151
250.532	166
250.765	159
250.998	151
251.231	155
251.465	148
251.698	161
251.931	180
252.164	171
252.397	179
252.63	165
252.863	178
253.096	165
253.329	173
253.562	170
253.795	167
254.028	172
254.261	181
254.494	185
254.727	172
254.96	175
255.193	159
255.426	185
255.659	183
255.892	192
256.124	171
256.357	180
256.59	179
256.823	189
257.056	180
257.289	184
257.521	176
257.754	168
257.987	174
258.22	172
258.452	176
258.685	171
258.918	191
259.151	191
259.383	186
259.616	201
259.849	202
260.081	189
260.314	197
260.547	187
260.779	186
261.012	202
261.244	199
261.477	188
261.71	185
261.942	190
262.175	206
262.407	204
262.64	194
262.872	191
263.105	199
263.337	210
263.57	214
263.802	220
264.035	206
264.267	196
264.499	201
264.732	208
264.964	210
265.197	203
265.429	205
265.661	203
265.894	206
266.126	192
266.358	212
266.591	228
266.823	208
267.055	218
267.287	220
267.52	195
267.752	213
267.984	217
268.216	209
268.448	207
268.681	215
268.913	207
269.145	214
269.377	214
269.609	207
269.841	216
270.073	216
270.306	215
270.538	221
270.77	214
271.002	213
271.234	210
271.466	215
271.698	228
271.93	220
272.162	233
272.394	223
272.626	243
272.858	231
273.09	233
273.322	248
273.553	219
273.785	227
274.017	234
274.249	224
274.481	241
274.713	228
274.945	223
275.176	249
275.408	231
275.64	236
275.872	244
276.104	244
276.335	236
276.567	241
276.799	238
277.031	240
277.262	230
277.494	234
277.726	247
277.957	249
278.189	239
278.421	250
278.652	247
278.884	233
279.115	236
279.347	238
279.579	234
279.81	252
280.042	251
280.273	263
280.505	262
280.736	241
280.968	238
281.199	247
281.431	261
281.662	274
281.894	264
282.125	264
282.356	272
282.588	268
282.819	281
283.051	266
283.282	269
283.513	267
283.745	277
283.976	271
284.207	256
284.439	260
284.67	279
284.901	282
285.132	265
285.364	270
285.595	283
285.826	272
286.057	284
286.288	282
286.52	289
286.751	271
286.982	267
287.213	289
287.444	280
287.675	276
287.906	300
288.138	291
288.369	283
288.6	297
288.831	267
289.062	276
289.293	281
289.524	282
289.755	295
289.986	273
290.217	279
290.448	291
290.679	295
290.91	293
291.141	292
291.371	290
291.602	286
291.833	275
292.064	281
292.295	288
292.526	284
292.757	271
292.987	273
293.218	274
293.449	297
293.68	286
293.91	286
294.141	300
294.372	272
294.603	292
294.833	297
295.064	280
295.295	291
295.525	282
295.756	291
295.987	284
296.217	290
296.448	285
296.679	301
296.909	308
297.14	302
297.37	316
297.601	301
297.831	311
298.062	306
298.292	304
298.523	308
298.753	331
298.984	302
299.214	300
299.445	316
299.675	317
299.905	309
300.136	305
300.366	317
300.597	322
300.827	327
301.057	327
301.288	326
301.518	309
301.748	317
301.979	341
302.209	341
302.439	333
302.669	324
302.9	316
303.13	320
303.36	322
303.59	302
303.82	319
304.051	323
304.281	331
304.511	322
304.741	316
304.971	330
305.201	322
305.431	340
305.661	337
305.891	302
306.121	324
306.352	325
306.582	328
306.812	312
307.042	319
307.272	303
307.502	330
307.731	325
307.961	324
308.191	312
308.421	326
308.651	314
308.881	334
309.111	327
309.341	336
309.571	319
309.8	328
310.03	341
310.26	303
310.49	308
310.72	322
310.949	333
311.179	320
311.409	334
311.639	334
311.868	352
312.098	318
312.328	335
312.557	317
312.787	340
313.017	355
313.246	344
313.476	331
313.706	344
313.935	332
314.165	346
314.394	349
314.624	343
314.853	343
315.083	340
315.312	339
315.542	334
315.771	371
316.001	338
316.23	332
316.46	344
316.689	351
316.919	351
317.148	361
317.377	336
317.607	336
317.836	327
318.065	330
318.295	336
318.524	334
318.753	340
318.983	345
319.212	333
319.441	319
319.67	340
319.9	352
320.129	316
320.358	344
320.587	341
320.816	349
321.046	358
321.275	349
321.504	335
321.733	339
321.962	346
322.191	342
322.42	331
322.649	343
322.878	349
323.108	352
323.337	360
323.566	339
323.795	366
324.024	361
324.253	365
324.482	344
324.71	341
324.939	337
325.168	357
325.397	351
325.626	351
325.855	359
326.084	366
326.313	364
326.542	381
326.77	385
326.999	378
327.228	352
327.457	376
327.686	365
327.914	369
328.143	375
328.372	377
328.6	376
328.829	378
329.058	380
329.287	366
329.515	379
329.744	371
329.972	373
330.201	383
330.43	369
330.658	371
330.887	399
331.115	384
331.344	387
331.572	391
331.801	409
332.03	417
332.258	412
332.486	409
332.715	439
332.943	472
333.172	448
333.4	480
333.629	469
333.857	508
334.085	452
334.314	475
334.542	480
334.771	454
334.999	448
335.227	456
335.455	462
335.684	476
335.912	460
336.14	454
336.369	443
336.597	432
336.825	443
337.053	451
337.281	437
337.51	424
337.738	434
337.966	432
338.194	419
338.422	411
338.65	411
338.878	405
339.106	402
339.334	405
339.562	401
339.79	387
340.018	394
340.246	420
340.474	399
340.702	385
340.93	395
341.158	402
341.386	387
341.614	392
341.842	389
342.07	402
342.298	385
342.526	379
342.754	389
342.981	412
343.209	415
343.437	404
343.665	425
343.893	463
344.12	462
344.348	458
344.576	437
344.804	410
345.031	392
345.259	399
345.487	400
345.714	395
345.942	382
346.17	382
346.397	398
346.625	384
346.853	381
347.08	382
347.308	383
347.535	379
347.763	376
347.99	377
348.218	364
348.445	365
348.673	366
348.9	377
349.128	379
349.355	389
349.583	375
349.81	365
350.037	383
350.265	369
350.492	363
350.72	387
350.947	378
351.174	374
351.402	384
351.629	353
351.856	373
352.083	372
352.311	386
352.538	354
352.765	372
352.992	382
353.22	363
353.447	368
353.674	373
353.901	359
354.128	379
354.355	387
354.583	382
354.81	379
355.037	378
355.264	396
355.491	369
355.718	381
355.945	367
356.172	369
356.399	379
356.626	368
356.853	367
357.08	359
357.307	378
357.534	363
357.761	375
357.988	364
358.215	355
358.441	382
358.668	363
358.895	368
359.122	363
359.349	368
359.576	379
359.802	371
360.029	360
360.256	360
360.483	372
360.709	363
360.936	377
361.163	355
361.39	373
361.616	364
361.843	368
362.07	377
362.296	365
362.523	365
362.749	365
362.976	379
363.203	374
363.429	360
363.656	355
363.882	356
364.109	358
364.335	378
364.562	364
364.788	380
365.015	379
365.241	377
365.468	379
365.694	374
365.92	372
366.147	362
366.373	346
366.599	352
366.826	376
367.052	389
367.278	378
367.505	372
367.731	377
367.957	361
368.184	379
368.41	393
368.636	385
368.862	384
369.089	381
369.315	377
369.541	392
369.767	383
369.993	390
370.219	377
370.445	382
370.672	391
370.898	396
371.124	404
371.35	412
371.576	404
371.802	398
372.028	371
372.254	429
372.48	407
372.706	407
372.932	433
373.158	423
373.384	415
373.61	407
373.835	411
374.061	414
374.287	423
374.513	428
374.739	439
374.965	447
375.191	446
375.416	444
375.642	440
375.868	426
376.094	428
376.319	413
376.545	428
376.771	408
376.997	409
377.222	391
377.448	419
377.674	412
377.899	423
378.125	405
378.35	388
378.576	404
378.802	414
379.027	405
379.253	394
379.478	407
379.704	416
379.929	416
380.155	423
380.38	404
380.606	405
380.831	397
381.057	443
381.282	423
381.507	405
381.733	403
381.958	413
382.184	417
382.409	410
382.634	436
382.86	413
383.085	419
383.31	431
383.535	468
383.761	461
383.986	467
384.211	441
384.436	466
384.662	483
384.887	487
385.112	461
385.337	486
385.562	489
385.787	488
386.013	486
386.238	493
386.463	499
386.688	499
386.913	489
387.138	500
387.363	493
387.588	471
387.813	489
388.038	492
388.263	499
388.488	500
388.713	481
388.938	490
389.163	502
389.387	491
389.612	491
389.837	488
390.062	473
390.287	491
390.512	479
390.736	495
390.961	494
391.186	505
391.411	527
391.636	532
391.86	558
392.085	539
392.31	517
392.534	550
392.759	532
392.984	523
393.208	502
393.433	518
393.658	517
393.882	516
394.107	487
394.331	520
394.556	523
394.78	543
395.005	536
395.229	530
395.454	533
395.678	525
395.903	553
396.127	557
396.352	500
396.576	508
396.801	530
397.025	530
397.249	538
397.474	533
397.698	547
397.922	564
398.147	565
398.371	589
398.595	590
398.82	613
399.044	634
399.268	697
399.492	773
399.717	853
399.941	830
400.165	778
400.389	732
400.613	689
400.837	637
401.062	645
401.286	631
401.51	641
401.734	612
401.958	597
402.182	603
402.406	627
402.63	610
402.854	643
403.078	651
403.302	638
403.526	647
403.75	661
403.974	688
404.198	697
404.422	667
404.645	672
404.869	662
405.093	671
405.317	644
405.541	671
405.765	656
405.988	678
406.212	655
406.436	668
406.66	690
406.883	685
407.107	720
407.331	741
407.555	769
407.778	775
408.002	747
408.226	720
408.449	714
408.673	708
408.896	714
409.12	693
409.344	701
409.567	702
409.791	697
410.014	672
410.238	656
410.461	671
410.685	675
410.908	682
411.132	686
411.355	647
411.578	662
411.802	634
412.025	672
412.249	666
412.472	649
412.695	643
412.919	639
413.142	608
413.365	638
413.589	621
413.812	613
414.035	592
414.258	621
414.482	632
414.705	641
414.928	654
415.151	648
415.374	630
415.597	632
415.821	590
416.044	602
416.267	624
416.49	596
416.713	590
416.936	616
417.159	610
417.382	602
417.605	603
417.828	596
418.051	606
418.274	609
418.497	613
418.72	635
418.943	624
419.166	662
419.389	668
419.611	674
419.834	640
420.057	661
420.28	621
420.503	590
420.726	588
420.948	613
421.171	601
421.394	602
421.617	616
421.839	603
422.062	613
422.285	614
422.507	610
422.73	635
422.953	652
423.175	631
423.398	639
423.621	632
423.843	657
424.066	634
424.288	641
424.511	617
424.733	624
424.956	625
425.178	634
425.401	629
425.623	596
425.846	602
426.068	602
426.291	603
426.513	578
426.735	587
426.958	558
427.18	587
427.402	579
427.625	577
427.847	566
428.069	556
428.292	567
428.514	570
428.736	573
428.958	587
429.181	551
429.403	548
429.625	528
429.847	549
430.069	528
430.292	557
430.514	557
430.736	554
430.958	559
431.18	555
431.402	542
431.624	548
431.846	584
432.068	571
432.29	579
432.512	561
432.734	566
432.956	548
433.178	602
433.4	563
433.622	568
433.844	576
434.066	565
434.287	559
434.509	553
434.731	604
434.953	619
435.175	632
435.397	623
435.618	595
435.84	585
436.062	577
436.284	569
436.505	586
436.727	569
436.949	574
437.17	574
437.392	563
437.614	544
437.835	526
438.057	559
438.278	529
438.5	536
438.721	539
438.943	564
439.165	560
439.386	575
439.608	556
439.829	572
440.05	564
440.272	571
440.493	555
440.715	551
440.936	564
441.158	581
441.379	607
441.6	644
441.822	629
442.043	622
442.264	627
442.486	593
442.707	603
442.928	611
443.149	606
443.371	620
443.592	594
443.813	614
444.034	623
444.255	672
444.476	663
444.698	709
444.919	705
445.14	780
445.361	707
445.582	642
445.803	624
446.024	615
446.245	605
446.466	601
446.687	585
446.908	560
447.129	570
447.35	558
447.571	529
447.792	537
448.013	560
448.234	555
448.455	528
448.675	529
448.896	533
449.117	527
449.338	533
449.559	541
449.779	521
450	513
450.221	528
450.442	521
450.662	554
450.883	539
451.104	525
451.324	518
451.545	540
451.766	530
451.986	517
452.207	523
452.428	529
452.648	537
452.869	503
453.089	518
453.31	503
453.53	493
453.751	473
453.971	508
454.192	500
454.412	477
454.633	502
454.853	499
455.073	490
455.294	479
455.514	481
455.734	486
455.955	472
456.175	496
456.395	485
456.616	510
456.836	517
457.056	488
457.276	480
457.497	480
457.717	495
457.937	496
458.157	500
458.377	497
458.598	527
458.818	518
459.038	555
459.258	539
459.478	564
459.698	587
459.918	588
460.138	592
460.358	621
460.578	646
460.798	647
461.018	622
461.238	644
461.458	614
461.678	657
461.898	665
462.118	676
462.338	675
462.558	707
462.777	705
462.997	798
463.217	828
463.437	815
463.657	771
463.876	740
464.096	732
464.316	704
464.536	719
464.755	723
464.975	689
465.195	659
465.414	644
465.634	585
465.854	606
466.073	565
466.293	555
466.512	559
466.732	541
466.951	574
467.171	533
467.391	551
467.61	563
467.829	528
468.049	535
468.268	520
468.488	535
468.707	539
468.927	523
469.146	525
469.365	535
469.585	551
469.804	555
470.023	563
470.243	551
470.462	557
470.681	571
470.901	553
471.12	555
471.339	532
471.558	515
471.777	524
471.997	511
472.216	515
472.435	509
472.654	514
472.873	515
473.092	504
473.311	490
473.53	517
473.749	505
473.968	500
474.187	484
474.406	487
474.625	530
474.844	515
475.063	493
475.282	504
475.501	495
475.72	515
475.939	537
476.158	525
476.377	543
476.596	530
476.814	541
477.033	537
477.252	534
477.471	537
477.69	562
477.908	571
478.127	577
478.346	563
478.564	592
478.783	576
479.002	630
479.22	614
479.439	628
479.658	596
479.876	606
480.095	615
480.313	629
480.532	647
480.751	609
480.969	613
481.188	556
481.406	599
481.624	567
481.843	565
482.061	558
482.28	545
482.498	571
482.717	559
482.935	581
483.153	552
483.372	569
483.59	573
483.808	559
484.027	582
484.245	568
484.463	571
484.681	585
484.9	571
485.118	570
485.336	574
485.554	573
485.772	583
485.99	589
486.209	596
486.427	601
486.645	597
486.863	584
487.081	585
487.299	577
487.517	604
487.735	591
487.953	595
488.171	589
488.389	578
488.607	597
488.825	573
489.043	584
489.261	586
489.479	581
489.696	597
489.914	593
490.132	589
490.35	601
490.568	590
490.786	604
491.003	609
491.221	602
491.439	595
491.657	603
491.874	603
492.092	603
492.31	614
492.527	619
492.745	624
492.963	615
493.18	613
493.398	595
493.615	596
493.833	601
494.05	616
494.268	612
494.485	645
494.703	617
494.92	629
495.138	637
495.355	635
495.573	623
495.79	638
496.008	622
496.225	631
496.442	632
496.66	651
496.877	655
497.094	667
497.312	705
497.529	692
497.746	727
497.963	715
498.181	734
498.398	770
498.615	791
498.832	858
499.049	905
499.267	975
499.484	1078
499.701	1161
499.918	1258
500.135	1414
500.352	1589
500.569	1623
500.786	1629
501.003	1509
501.22	1384
501.437	1275
501.654	1105
501.871	1001
502.088	971
502.305	937
502.522	868
502.739	847
502.956	811
503.172	786
503.389	733
503.606	700
503.823	689
504.04	724
504.256	700
504.473	698
504.69	700
504.907	701
505.123	667
505.34	628
505.557	624
505.773	608
505.99	598
506.207	580
506.423	560
506.64	564
506.856	568
507.073	538
507.289	552
507.506	564
507.722	549
507.939	526
508.155	533
508.372	521
508.588	517
508.805	529
509.021	528
509.238	515
509.454	519
509.67	514
509.887	505
510.103	512
510.319	497
510.536	498
510.752	510
510.968	492
511.184	494
511.401	485
511.617	500
511.833	527
512.049	485
512.265	503
512.481	503
512.698	492
512.914	505
513.13	507
513.346	513
513.562	510
513.778	524
513.994	500
514.21	522
514.426	515
514.642	491
514.858	501
515.074	506
515.29	533
515.506	521
515.721	525
515.937	552
516.153	555
516.369	537
516.585	574
516.801	579
517.016	620
517.232	618
517.448	640
517.664	675
517.879	667
518.095	657
518.311	663
518.527	647
518.742	589
518.958	586
519.173	581
519.389	575
519.605	531
519.82	533
520.036	545
520.251	524
520.467	513
520.682	505
520.898	488
521.113	493
521.329	483
521.544	505
521.76	472
521.975	495
522.19	492
522.406	496
522.621	479
522.836	464
523.052	482
523.267	485
523.482	475
523.698	475
523.913	459
524.128	463
524.343	477
524.559	456
524.774	469
524.989	461
525.204	454
525.419	449
525.634	466
525.849	444
526.064	467
526.28	457
526.495	463
526.71	459
526.925	458
527.14	446
527.355	458
527.57	453
527.785	454
527.999	437
528.214	451
528.429	456
528.644	448
528.859	449
529.074	435
529.289	440
529.503	453
529.718	435
529.933	465
530.148	441
530.363	459
530.577	453
530.792	445
531.007	455
531.221	431
531.436	465
531.651	454
531.865	469
532.08	449
532.295	454
532.509	461
532.724	461
532.938	450
533.153	456
533.367	460
533.582	442
533.796	437
534.011	468
534.225	432
534.44	442
534.654	455
534.868	449
535.083	443
535.297	449
535.511	436
535.726	441
535.94	448
536.154	423
536.369	430
536.583	418
536.797	445
537.011	446
537.225	419
537.44	423
537.654	447
537.868	415
538.082	425
538.296	427
538.51	426
538.724	424
538.938	407
539.153	421
539.367	409
539.581	410
539.795	397
540.009	423
540.222	439
540.436	411
540.65	417
540.864	410
541.078	401
541.292	416
541.506	411
541.72	412
541.934	405
542.147	431
542.361	395
542.575	425
542.789	409
543.002	424
543.216	412
543.43	404
543.644	419
543.857	400
544.071	397
544.285	420
544.498	426
544.712	422
544.925	435
545.139	427
545.352	428
545.566	424
545.779	430
545.993	423
546.206	423
546.42	429
546.633	425
546.847	423
547.06	414
547.274	421
547.487	427
547.7	431
547.914	428
548.127	451
548.34	417
548.554	421
548.767	403
548.98	430
549.193	432
549.407	419
549.62	433
549.833	418
550.046	431
550.259	424
550.473	430
550.686	423
550.899	409
551.112	400
551.325	408
551.538	431
551.751	418
551.964	412
552.177	421
552.39	414
552.603	435
552.816	423
553.029	428
553.242	438
553.455	457
553.667	442
553.88	452
554.093	438
554.306	443
554.519	428
554.732	428
554.944	408
555.157	405
555.37	408
555.583	403
555.795	415
556.008	366
556.221	382
556.433	380
556.646	380
556.859	370
557.071	382
557.284	367
557.496	358
557.709	359
557.921	359
558.134	372
558.346	369
558.559	362
558.771	359
558.984	362
559.196	371
559.409	385
559.621	357
559.833	373
560.046	365
560.258	358
560.47	347
560.683	349
560.895	367
561.107	355
561.32	352
561.532	342
561.744	351
561.956	360
562.168	364
562.381	359
562.593	345
562.805	365
563.017	378
