Data from Fe(NO3)3@0.025M.TitratingCurve.Agarose3%dH2O.NegLispCup.LampEnergy10.LIBS07252019_HRD10591_16-55-10-336.txt Node
Date: Thu Jul 25 16:55:10 EDT 2019
User: cochatt
Spectrometer: HR+D1059
Trigger mode: 1
Integration Time (sec): 1.000000E-1
Scans to average: 1
Electric dark correction enabled: true
Nonlinearity correction enabled: false
Boxcar width: 0
XAxis mode: Wavelengths
Number of Pixels in Spectrum: 2048
>>>>>Begin Spectral Data<<<<<
223.165	-5
223.4	-5
223.635	-5
223.869	-14
224.104	-30
224.338	-18
224.573	-28
224.808	-15
225.042	-8
225.277	-4
225.511	5
225.746	16
225.98	10
226.215	2
226.449	11
226.683	21
226.918	25
227.152	32
227.387	35
227.621	25
227.856	43
228.09	32
228.324	34
228.559	46
228.793	61
229.027	75
229.262	73
229.496	79
229.73	77
229.964	86
230.199	80
230.433	79
230.667	78
230.901	83
231.136	89
231.37	75
231.604	90
231.838	79
232.072	78
232.306	77
232.541	82
232.775	102
233.009	81
233.243	102
233.477	104
233.711	87
233.945	95
234.179	81
234.413	90
234.647	105
234.881	78
235.115	94
235.349	96
235.583	96
235.817	92
236.051	87
236.285	103
236.519	87
236.753	86
236.987	93
237.221	90
237.455	111
237.689	96
237.922	86
238.156	89
238.39	89
238.624	92
238.858	86
239.091	96
239.325	92
239.559	91
239.793	83
240.027	84
240.26	88
240.494	105
240.728	96
240.961	87
241.195	92
241.429	88
241.662	98
241.896	92
242.13	92
242.363	113
242.597	80
242.83	120
243.064	85
243.298	82
243.531	95
243.765	99
243.998	111
244.232	102
244.465	110
244.699	97
244.932	102
245.166	93
245.399	99
245.633	105
245.866	108
246.099	99
246.333	107
246.566	88
246.8	89
247.033	94
247.266	118
247.5	104
247.733	115
247.966	105
248.2	103
248.433	99
248.666	100
248.899	102
249.133	107
249.366	110
249.599	92
249.832	121
250.066	113
250.299	112
250.532	98
250.765	102
250.998	92
251.231	86
251.465	120
251.698	114
251.931	119
252.164	114
252.397	106
252.63	117
252.863	110
253.096	116
253.329	108
253.562	115
253.795	102
254.028	107
254.261	122
254.494	107
254.727	111
254.96	121
255.193	112
255.426	117
255.659	113
255.892	124
256.124	103
256.357	115
256.59	116
256.823	122
257.056	121
257.289	111
257.521	124
257.754	113
257.987	128
258.22	121
258.452	125
258.685	121
258.918	121
259.151	113
259.383	120
259.616	120
259.849	127
260.081	114
260.314	125
260.547	116
260.779	116
261.012	130
261.244	129
261.477	115
261.71	119
261.942	117
262.175	120
262.407	114
262.64	140
262.872	136
263.105	122
263.337	127
263.57	122
263.802	129
264.035	122
264.267	121
264.499	142
264.732	135
264.964	130
265.197	122
265.429	138
265.661	128
265.894	134
266.126	146
266.358	139
266.591	136
266.823	131
267.055	141
267.287	117
267.52	124
267.752	152
267.984	128
268.216	124
268.448	128
268.681	143
268.913	138
269.145	139
269.377	121
269.609	138
269.841	132
270.073	119
270.306	140
270.538	135
270.77	140
271.002	128
271.234	148
271.466	145
271.698	137
271.93	162
272.162	126
272.394	152
272.626	149
272.858	149
273.09	155
273.322	159
273.553	151
273.785	146
274.017	143
274.249	140
274.481	150
274.713	155
274.945	150
275.176	166
275.408	149
275.64	158
275.872	144
276.104	137
276.335	158
276.567	132
276.799	138
277.031	145
277.262	147
277.494	160
277.726	142
277.957	154
278.189	155
278.421	166
278.652	142
278.884	150
279.115	172
279.347	152
279.579	138
279.81	153
280.042	157
280.273	154
280.505	158
280.736	165
280.968	145
281.199	178
281.431	147
281.662	167
281.894	162
282.125	156
282.356	160
282.588	159
282.819	161
283.051	151
283.282	149
283.513	179
283.745	176
283.976	179
284.207	166
284.439	167
284.67	173
284.901	158
285.132	169
285.364	167
285.595	162
285.826	163
286.057	164
286.288	163
286.52	166
286.751	162
286.982	174
287.213	160
287.444	139
287.675	180
287.906	197
288.138	161
288.369	177
288.6	162
288.831	162
289.062	187
289.293	186
289.524	185
289.755	177
289.986	167
290.217	179
290.448	170
290.679	187
290.91	195
291.141	180
291.371	180
291.602	176
291.833	170
292.064	173
292.295	166
292.526	171
292.757	186
292.987	205
293.218	180
293.449	165
293.68	174
293.91	180
294.141	171
294.372	178
294.603	165
294.833	182
295.064	182
295.295	185
295.525	192
295.756	184
295.987	181
296.217	186
296.448	171
296.679	192
296.909	172
297.14	199
297.37	202
297.601	195
297.831	179
298.062	178
298.292	184
298.523	196
298.753	205
298.984	211
299.214	185
299.445	203
299.675	214
299.905	188
300.136	192
300.366	199
300.597	201
300.827	198
301.057	193
301.288	193
301.518	200
301.748	211
301.979	183
302.209	211
302.439	209
302.669	202
302.9	194
303.13	194
303.36	188
303.59	203
303.82	197
304.051	196
304.281	194
304.511	191
304.741	186
304.971	204
305.201	202
305.431	227
305.661	200
305.891	205
306.121	221
306.352	213
306.582	202
306.812	209
307.042	219
307.272	209
307.502	204
307.731	227
307.961	216
308.191	218
308.421	194
308.651	208
308.881	210
309.111	203
309.341	184
309.571	197
309.8	201
310.03	212
310.26	217
310.49	197
310.72	214
310.949	206
311.179	206
311.409	191
311.639	216
311.868	214
312.098	224
312.328	209
312.557	211
312.787	223
313.017	233
313.246	223
313.476	218
313.706	225
313.935	228
314.165	232
314.394	228
314.624	235
314.853	225
315.083	223
315.312	224
315.542	207
315.771	231
316.001	240
316.23	222
316.46	244
316.689	211
316.919	223
317.148	224
317.377	244
317.607	227
317.836	232
318.065	230
318.295	232
318.524	244
318.753	235
318.983	236
319.212	232
319.441	228
319.67	210
319.9	228
320.129	234
320.358	241
320.587	225
320.816	222
321.046	233
321.275	251
321.504	226
321.733	238
321.962	243
322.191	236
322.42	230
322.649	228
322.878	226
323.108	228
323.337	221
323.566	240
323.795	235
324.024	238
324.253	238
324.482	240
324.71	235
324.939	235
325.168	244
325.397	249
325.626	229
325.855	247
326.084	254
326.313	258
326.542	247
326.77	253
326.999	246
327.228	243
327.457	227
327.686	259
327.914	247
328.143	257
328.372	267
328.6	249
328.829	275
329.058	275
329.287	246
329.515	268
329.744	275
329.972	277
330.201	258
330.43	271
330.658	261
330.887	254
331.115	235
331.344	262
331.572	254
331.801	259
332.03	255
332.258	286
332.486	267
332.715	282
332.943	273
333.172	270
333.4	282
333.629	275
333.857	296
334.085	307
334.314	308
334.542	306
334.771	298
334.999	297
335.227	297
335.455	290
335.684	299
335.912	293
336.14	277
336.369	298
336.597	299
336.825	295
337.053	290
337.281	298
337.51	261
337.738	293
337.966	291
338.194	271
338.422	284
338.65	274
338.878	278
339.106	278
339.334	287
339.562	277
339.79	269
340.018	242
340.246	252
340.474	267
340.702	272
340.93	279
341.158	271
341.386	286
341.614	283
341.842	276
342.07	269
342.298	266
342.526	260
342.754	268
342.981	276
343.209	277
343.437	287
343.665	264
343.893	295
344.12	297
344.348	288
344.576	287
344.804	297
345.031	270
345.259	292
345.487	274
345.714	265
345.942	274
346.17	273
346.397	287
346.625	259
346.853	279
347.08	272
347.308	268
347.535	265
347.763	269
347.99	254
348.218	277
348.445	269
348.673	257
348.9	265
349.128	255
349.355	262
349.583	263
349.81	265
350.037	249
350.265	254
350.492	243
350.72	275
350.947	271
351.174	257
351.402	265
351.629	282
351.856	260
352.083	268
352.311	258
352.538	254
352.765	272
352.992	269
353.22	269
353.447	265
353.674	275
353.901	277
354.128	275
354.355	249
354.583	242
354.81	255
355.037	274
355.264	275
355.491	266
355.718	248
355.945	265
356.172	289
356.399	268
356.626	285
356.853	267
357.08	265
357.307	265
357.534	267
357.761	267
357.988	261
358.215	270
358.441	266
358.668	262
358.895	264
359.122	284
359.349	263
359.576	273
359.802	299
360.029	280
360.256	258
360.483	290
360.709	267
360.936	272
361.163	277
361.39	269
361.616	275
361.843	260
362.07	279
362.296	262
362.523	259
362.749	266
362.976	268
363.203	288
363.429	290
363.656	280
363.882	267
364.109	272
364.335	265
364.562	267
364.788	264
365.015	283
365.241	278
365.468	278
365.694	300
365.92	282
366.147	295
366.373	266
366.599	271
366.826	263
367.052	265
367.278	278
367.505	264
367.731	252
367.957	287
368.184	279
368.41	285
368.636	279
368.862	295
369.089	268
369.315	286
369.541	274
369.767	292
369.993	282
370.219	277
370.445	284
370.672	273
370.898	319
371.124	293
371.35	276
371.576	273
371.802	270
372.028	289
372.254	312
372.48	274
372.706	297
372.932	288
373.158	292
373.384	293
373.61	303
373.835	300
374.061	288
374.287	309
374.513	297
374.739	308
374.965	303
375.191	327
375.416	305
375.642	304
375.868	308
376.094	289
376.319	311
376.545	296
376.771	290
376.997	297
377.222	296
377.448	294
377.674	299
377.899	303
378.125	305
378.35	307
378.576	298
378.802	290
379.027	289
379.253	303
379.478	284
379.704	290
379.929	311
380.155	289
380.38	320
380.606	304
380.831	288
381.057	298
381.282	303
381.507	308
381.733	308
381.958	308
382.184	305
382.409	306
382.634	303
382.86	326
383.085	312
383.31	324
383.535	304
383.761	321
383.986	316
384.211	334
384.436	318
384.662	312
384.887	330
385.112	338
385.337	314
385.562	327
385.787	338
386.013	348
386.238	342
386.463	335
386.688	343
386.913	340
387.138	356
387.363	350
387.588	341
387.813	346
388.038	345
388.263	350
388.488	335
388.713	327
388.938	332
389.163	335
389.387	325
389.612	335
389.837	335
390.062	355
390.287	338
390.512	332
390.736	349
390.961	340
391.186	336
391.411	352
391.636	355
391.86	370
392.085	366
392.31	378
392.534	371
392.759	357
392.984	363
393.208	368
393.433	376
393.658	370
393.882	357
394.107	350
394.331	356
394.556	353
394.78	338
395.005	352
395.229	370
395.454	382
395.678	358
395.903	370
396.127	400
396.352	374
396.576	352
396.801	370
397.025	368
397.249	389
397.474	390
397.698	389
397.922	407
398.147	391
398.371	408
398.595	415
398.82	442
399.044	442
399.268	449
399.492	466
399.717	470
399.941	477
400.165	456
400.389	454
400.613	451
400.837	424
401.062	411
401.286	423
401.51	427
401.734	418
401.958	404
402.182	397
402.406	404
402.63	414
402.854	415
403.078	418
403.302	400
403.526	421
403.75	406
403.974	421
404.198	413
404.422	412
404.645	396
404.869	403
405.093	425
405.317	438
405.541	426
405.765	437
405.988	438
406.212	447
406.436	432
406.66	434
406.883	419
407.107	432
407.331	446
407.555	455
407.778	459
408.002	463
408.226	451
408.449	444
408.673	417
408.896	463
409.12	461
409.344	437
409.567	433
409.791	429
410.014	435
410.238	409
410.461	441
410.685	410
410.908	408
411.132	417
411.355	421
411.578	409
411.802	395
412.025	428
412.249	421
412.472	419
412.695	420
412.919	401
413.142	414
413.365	399
413.589	417
413.812	405
414.035	392
414.258	419
414.482	386
414.705	390
414.928	379
415.151	404
415.374	396
415.597	410
415.821	393
416.044	379
416.267	394
416.49	386
416.713	382
416.936	374
417.159	395
417.382	403
417.605	390
417.828	395
418.051	374
418.274	394
418.497	391
418.72	394
418.943	399
419.166	387
419.389	406
419.611	402
419.834	395
420.057	400
420.28	386
420.503	372
420.726	378
420.948	393
421.171	368
421.394	387
421.617	407
421.839	386
422.062	378
422.285	395
422.507	396
422.73	356
422.953	377
423.175	388
423.398	400
423.621	375
423.843	379
424.066	392
424.288	363
424.511	382
424.733	390
424.956	394
425.178	370
425.401	377
425.623	393
425.846	367
426.068	382
426.291	368
426.513	377
426.735	386
426.958	360
427.18	360
427.402	370
427.625	367
427.847	360
428.069	370
428.292	351
428.514	340
428.736	373
428.958	370
429.181	369
429.403	362
429.625	346
429.847	353
430.069	357
430.292	356
430.514	366
430.736	362
430.958	372
431.18	371
431.402	371
431.624	345
431.846	374
432.068	391
432.29	368
432.512	370
432.734	369
432.956	357
433.178	370
433.4	382
433.622	379
433.844	374
434.066	377
434.287	375
434.509	385
434.731	383
434.953	378
435.175	381
435.397	384
435.618	371
435.84	371
436.062	374
436.284	364
436.505	370
436.727	361
436.949	372
437.17	357
437.392	376
437.614	366
437.835	343
438.057	356
438.278	347
438.5	345
438.721	354
438.943	372
439.165	370
439.386	358
439.608	356
439.829	367
440.05	346
440.272	350
440.493	368
440.715	366
440.936	360
441.158	344
441.379	358
441.6	361
441.822	371
442.043	384
442.264	394
442.486	367
442.707	367
442.928	389
443.149	380
443.371	374
443.592	381
443.813	382
444.034	406
444.255	393
444.476	394
444.698	407
444.919	400
445.14	478
445.361	419
445.582	390
445.803	368
446.024	373
446.245	356
446.466	370
446.687	378
446.908	364
447.129	353
447.35	355
447.571	371
447.792	339
448.013	341
448.234	342
448.455	350
448.675	342
448.896	358
449.117	341
449.338	337
449.559	319
449.779	332
450	347
450.221	331
450.442	337
450.662	319
450.883	333
451.104	332
451.324	340
451.545	345
451.766	315
451.986	324
452.207	352
452.428	325
452.648	329
452.869	342
453.089	325
453.31	317
453.53	336
453.751	322
453.971	316
454.192	319
454.412	322
454.633	331
454.853	322
455.073	319
455.294	312
455.514	338
455.734	314
455.955	314
456.175	331
456.395	337
456.616	334
456.836	305
457.056	329
457.276	332
457.497	331
457.717	327
457.937	340
458.157	340
458.377	337
458.598	348
458.818	351
459.038	352
459.258	371
459.478	376
459.698	372
459.918	372
460.138	383
460.358	385
460.578	384
460.798	408
461.018	409
461.238	375
461.458	399
461.678	405
461.898	399
462.118	421
462.338	441
462.558	411
462.777	417
462.997	435
463.217	449
463.437	452
463.657	460
463.876	436
464.096	461
464.316	447
464.536	438
464.755	447
464.975	420
465.195	409
465.414	415
465.634	398
465.854	391
466.073	380
466.293	371
466.512	358
466.732	380
466.951	372
467.171	362
467.391	357
467.61	350
467.829	356
468.049	365
468.268	354
468.488	366
468.707	350
468.927	360
469.146	360
469.365	377
469.585	358
469.804	377
470.023	384
470.243	375
470.462	345
470.681	354
470.901	368
471.12	370
471.339	373
471.558	354
471.777	355
471.997	353
472.216	383
472.435	356
472.654	359
472.873	382
473.092	358
473.311	357
473.53	361
473.749	350
473.968	364
474.187	348
474.406	352
474.625	371
474.844	369
475.063	352
475.282	376
475.501	368
475.72	363
475.939	368
476.158	382
476.377	380
476.596	401
476.814	382
477.033	378
477.252	380
477.471	414
477.69	390
477.908	391
478.127	400
478.346	416
478.564	405
478.783	412
479.002	422
479.22	430
479.439	430
479.658	424
479.876	409
480.095	428
480.313	441
480.532	413
480.751	440
480.969	420
481.188	424
481.406	427
481.624	426
481.843	422
482.061	410
482.28	425
482.498	405
482.717	420
482.935	419
483.153	421
483.372	420
483.59	415
483.808	405
484.027	410
484.245	404
484.463	412
484.681	428
484.9	437
485.118	442
485.336	426
485.554	427
485.772	423
485.99	413
486.209	421
486.427	430
486.645	419
486.863	424
487.081	435
487.299	434
487.517	436
487.735	426
487.953	436
488.171	438
488.389	403
488.607	413
488.825	419
489.043	431
489.261	397
489.479	428
489.696	437
489.914	437
490.132	434
490.35	444
490.568	440
490.786	441
491.003	420
491.221	446
491.439	420
491.657	439
491.874	446
492.092	451
492.31	426
492.527	455
492.745	427
492.963	419
493.18	435
493.398	454
493.615	443
493.833	443
494.05	452
494.268	421
494.485	446
494.703	473
494.92	458
495.138	464
495.355	462
495.573	451
495.79	456
496.008	465
496.225	475
496.442	483
496.66	507
496.877	499
497.094	515
497.312	535
497.529	491
497.746	542
497.963	560
498.181	558
498.398	555
498.615	583
498.832	609
499.049	624
499.267	636
499.484	678
499.701	703
499.918	736
500.135	758
500.352	780
500.569	795
500.786	775
501.003	778
501.22	764
501.437	706
501.654	673
501.871	679
502.088	647
502.305	633
502.522	631
502.739	589
502.956	551
503.172	564
503.389	566
503.606	537
503.823	542
504.04	529
504.256	524
504.473	520
504.69	483
504.907	501
505.123	498
505.34	476
505.557	468
505.773	464
505.99	458
506.207	453
506.423	436
506.64	443
506.856	438
507.073	430
507.289	428
507.506	410
507.722	422
507.939	431
508.155	407
508.372	401
508.588	402
508.805	388
509.021	394
509.238	399
509.454	400
509.67	384
509.887	394
510.103	388
510.319	377
510.536	390
510.752	380
510.968	377
511.184	366
511.401	404
511.617	401
511.833	394
512.049	406
512.265	400
512.481	377
512.698	382
512.914	400
513.13	394
513.346	386
513.562	376
513.778	391
513.994	391
514.21	390
514.426	372
514.642	383
514.858	398
515.074	387
515.29	396
515.506	408
515.721	408
515.937	432
516.153	420
516.369	412
516.585	409
516.801	442
517.016	416
517.232	440
517.448	441
517.664	434
517.879	440
518.095	451
518.311	425
518.527	437
518.742	436
518.958	403
519.173	406
519.389	413
519.605	425
519.82	395
520.036	422
520.251	404
520.467	401
520.682	376
520.898	386
521.113	380
521.329	391
521.544	380
521.76	386
521.975	356
522.19	388
522.406	368
522.621	370
522.836	363
523.052	363
523.267	353
523.482	356
523.698	368
523.913	350
524.128	375
524.343	372
524.559	374
524.774	346
524.989	358
525.204	350
525.419	357
525.634	362
525.849	359
526.064	358
526.28	358
526.495	364
526.71	357
526.925	343
527.14	320
527.355	356
527.57	345
527.785	355
527.999	360
528.214	352
528.429	342
528.644	357
528.859	363
529.074	353
529.289	369
529.503	351
529.718	354
529.933	361
530.148	348
530.363	373
530.577	345
530.792	336
531.007	339
531.221	352
531.436	343
531.651	370
531.865	350
532.08	363
532.295	366
532.509	359
532.724	355
532.938	339
533.153	356
533.367	356
533.582	338
533.796	367
534.011	360
534.225	356
534.44	358
534.654	334
534.868	351
535.083	333
535.297	340
535.511	351
535.726	365
535.94	337
536.154	334
536.369	339
536.583	333
536.797	341
537.011	342
537.225	326
537.44	316
537.654	332
537.868	331
538.082	339
538.296	351
538.51	326
538.724	346
538.938	323
539.153	348
539.367	317
539.581	321
539.795	336
540.009	337
540.222	341
540.436	324
540.65	343
540.864	345
541.078	333
541.292	329
541.506	350
541.72	319
541.934	354
542.147	339
542.361	316
542.575	333
542.789	322
543.002	351
543.216	319
543.43	316
543.644	328
543.857	337
544.071	330
544.285	320
544.498	341
544.712	332
544.925	351
545.139	318
545.352	319
545.566	331
545.779	338
545.993	350
546.206	340
546.42	329
546.633	334
546.847	321
547.06	338
547.274	322
547.487	321
547.7	326
547.914	324
548.127	325
548.34	316
548.554	354
548.767	346
548.98	332
549.193	331
549.407	352
549.62	341
549.833	350
550.046	334
550.259	322
550.473	350
550.686	326
550.899	337
551.112	324
551.325	337
551.538	334
551.751	310
551.964	339
552.177	344
552.39	354
552.603	348
552.816	337
553.029	345
553.242	339
553.455	357
553.667	364
553.88	359
554.093	330
554.306	347
554.519	336
554.732	335
554.944	316
555.157	321
555.37	324
555.583	329
555.795	315
556.008	308
556.221	307
556.433	318
556.646	304
556.859	307
557.071	292
557.284	307
557.496	304
557.709	293
557.921	318
558.134	316
558.346	308
558.559	299
558.771	275
558.984	307
559.196	307
559.409	283
559.621	309
559.833	306
560.046	300
560.258	291
560.47	305
560.683	289
560.895	284
561.107	296
561.32	296
561.532	306
561.744	289
561.956	298
562.168	315
562.381	300
562.593	310
562.805	326
563.017	311
563.229	316
563.441	309
563.653	298
563.865	298
564.077	325
564.289	327
