Data from Fe(NO3)3@0.1M.TitratingCurve.Agarose3%dH2O.NegLispCup.LampEnergy10.LIBS07252019_HRD10591_16-39-41-332.txt Node
Date: Thu Jul 25 16:39:41 EDT 2019
User: cochatt
Spectrometer: HR+D1059
Trigger mode: 1
Integration Time (sec): 1.000000E-1
Scans to average: 1
Electric dark correction enabled: true
Nonlinearity correction enabled: false
Boxcar width: 0
XAxis mode: Wavelengths
Number of Pixels in Spectrum: 2048
>>>>>Begin Spectral Data<<<<<
223.165	-12.75
223.4	-12.75
223.635	-12.75
223.869	-13.75
224.104	-26.75
224.338	-11.75
224.573	-22.75
224.808	-22.75
225.042	-21.75
225.277	-8.75
225.511	-8.75
225.746	2.25
225.98	37.25
226.215	9.25
226.449	24.25
226.683	30.25
226.918	28.25
227.152	18.25
227.387	21.25
227.621	36.25
227.856	49.25
228.09	54.25
228.324	45.25
228.559	51.25
228.793	50.25
229.027	76.25
229.262	74.25
229.496	80.25
229.73	77.25
229.964	86.25
230.199	103.25
230.433	88.25
230.667	87.25
230.901	85.25
231.136	106.25
231.37	85.25
231.604	99.25
231.838	84.25
232.072	85.25
232.306	99.25
232.541	102.25
232.775	100.25
233.009	107.25
233.243	95.25
233.477	98.25
233.711	116.25
233.945	108.25
234.179	102.25
234.413	94.25
234.647	103.25
234.881	98.25
235.115	94.25
235.349	96.25
235.583	90.25
235.817	89.25
236.051	99.25
236.285	101.25
236.519	112.25
236.753	102.25
236.987	97.25
237.221	88.25
237.455	96.25
237.689	113.25
237.922	111.25
238.156	103.25
238.39	100.25
238.624	81.25
238.858	94.25
239.091	103.25
239.325	93.25
239.559	92.25
239.793	112.25
240.027	103.25
240.26	101.25
240.494	120.25
240.728	115.25
240.961	99.25
241.195	117.25
241.429	107.25
241.662	102.25
241.896	105.25
242.13	103.25
242.363	114.25
242.597	101.25
242.83	98.25
243.064	133.25
243.298	102.25
243.531	119.25
243.765	109.25
243.998	98.25
244.232	111.25
244.465	114.25
244.699	108.25
244.932	115.25
245.166	127.25
245.399	109.25
245.633	113.25
245.866	111.25
246.099	115.25
246.333	121.25
246.566	118.25
246.8	106.25
247.033	105.25
247.266	109.25
247.5	111.25
247.733	113.25
247.966	118.25
248.2	121.25
248.433	114.25
248.666	113.25
248.899	119.25
249.133	132.25
249.366	123.25
249.599	115.25
249.832	121.25
250.066	122.25
250.299	122.25
250.532	116.25
250.765	114.25
250.998	131.25
251.231	120.25
251.465	113.25
251.698	135.25
251.931	124.25
252.164	121.25
252.397	127.25
252.63	128.25
252.863	138.25
253.096	124.25
253.329	123.25
253.562	131.25
253.795	114.25
254.028	123.25
254.261	133.25
254.494	129.25
254.727	148.25
254.96	127.25
255.193	142.25
255.426	134.25
255.659	124.25
255.892	117.25
256.124	134.25
256.357	121.25
256.59	129.25
256.823	128.25
257.056	142.25
257.289	137.25
257.521	139.25
257.754	131.25
257.987	149.25
258.22	133.25
258.452	140.25
258.685	121.25
258.918	152.25
259.151	137.25
259.383	143.25
259.616	151.25
259.849	132.25
260.081	147.25
260.314	145.25
260.547	140.25
260.779	152.25
261.012	151.25
261.244	142.25
261.477	156.25
261.71	141.25
261.942	131.25
262.175	139.25
262.407	139.25
262.64	139.25
262.872	149.25
263.105	142.25
263.337	134.25
263.57	154.25
263.802	141.25
264.035	139.25
264.267	149.25
264.499	155.25
264.732	140.25
264.964	161.25
265.197	165.25
265.429	167.25
265.661	149.25
265.894	152.25
266.126	141.25
266.358	159.25
266.591	161.25
266.823	145.25
267.055	149.25
267.287	161.25
267.52	152.25
267.752	168.25
267.984	163.25
268.216	170.25
268.448	166.25
268.681	157.25
268.913	148.25
269.145	150.25
269.377	155.25
269.609	172.25
269.841	152.25
270.073	165.25
270.306	160.25
270.538	157.25
270.77	161.25
271.002	166.25
271.234	165.25
271.466	148.25
271.698	171.25
271.93	154.25
272.162	154.25
272.394	147.25
272.626	161.25
272.858	161.25
273.09	163.25
273.322	154.25
273.553	170.25
273.785	155.25
274.017	174.25
274.249	149.25
274.481	163.25
274.713	183.25
274.945	172.25
275.176	161.25
275.408	171.25
275.64	150.25
275.872	160.25
276.104	182.25
276.335	159.25
276.567	161.25
276.799	164.25
277.031	165.25
277.262	165.25
277.494	173.25
277.726	156.25
277.957	163.25
278.189	184.25
278.421	172.25
278.652	185.25
278.884	179.25
279.115	184.25
279.347	179.25
279.579	181.25
279.81	168.25
280.042	183.25
280.273	172.25
280.505	177.25
280.736	161.25
280.968	177.25
281.199	172.25
281.431	177.25
281.662	164.25
281.894	183.25
282.125	180.25
282.356	186.25
282.588	171.25
282.819	175.25
283.051	186.25
283.282	184.25
283.513	165.25
283.745	189.25
283.976	183.25
284.207	173.25
284.439	191.25
284.67	184.25
284.901	196.25
285.132	185.25
285.364	190.25
285.595	189.25
285.826	195.25
286.057	199.25
286.288	177.25
286.52	188.25
286.751	201.25
286.982	171.25
287.213	210.25
287.444	180.25
287.675	203.25
287.906	189.25
288.138	213.25
288.369	185.25
288.6	177.25
288.831	190.25
289.062	199.25
289.293	195.25
289.524	198.25
289.755	198.25
289.986	199.25
290.217	210.25
290.448	192.25
290.679	201.25
290.91	189.25
291.141	198.25
291.371	204.25
291.602	217.25
291.833	193.25
292.064	196.25
292.295	195.25
292.526	214.25
292.757	225.25
292.987	205.25
293.218	189.25
293.449	202.25
293.68	195.25
293.91	190.25
294.141	208.25
294.372	211.25
294.603	196.25
294.833	211.25
295.064	211.25
295.295	193.25
295.525	204.25
295.756	210.25
295.987	204.25
296.217	198.25
296.448	211.25
296.679	216.25
296.909	206.25
297.14	188.25
297.37	202.25
297.601	211.25
297.831	228.25
298.062	203.25
298.292	224.25
298.523	214.25
298.753	216.25
298.984	210.25
299.214	220.25
299.445	207.25
299.675	218.25
299.905	211.25
300.136	220.25
300.366	204.25
300.597	225.25
300.827	205.25
301.057	225.25
301.288	233.25
301.518	224.25
301.748	230.25
301.979	212.25
302.209	223.25
302.439	220.25
302.669	228.25
302.9	223.25
303.13	215.25
303.36	209.25
303.59	208.25
303.82	213.25
304.051	218.25
304.281	223.25
304.511	233.25
304.741	219.25
304.971	227.25
305.201	241.25
305.431	235.25
305.661	221.25
305.891	216.25
306.121	229.25
306.352	236.25
306.582	221.25
306.812	216.25
307.042	227.25
307.272	203.25
307.502	221.25
307.731	205.25
307.961	236.25
308.191	214.25
308.421	207.25
308.651	208.25
308.881	220.25
309.111	226.25
309.341	219.25
309.571	228.25
309.8	224.25
310.03	213.25
310.26	218.25
310.49	211.25
310.72	220.25
310.949	197.25
311.179	222.25
311.409	219.25
311.639	225.25
311.868	243.25
312.098	223.25
312.328	228.25
312.557	233.25
312.787	224.25
313.017	239.25
313.246	235.25
313.476	232.25
313.706	228.25
313.935	231.25
314.165	235.25
314.394	226.25
314.624	239.25
314.853	241.25
315.083	233.25
315.312	231.25
315.542	229.25
315.771	233.25
316.001	229.25
316.23	228.25
316.46	238.25
316.689	245.25
316.919	234.25
317.148	244.25
317.377	265.25
317.607	243.25
317.836	241.25
318.065	210.25
318.295	224.25
318.524	210.25
318.753	232.25
318.983	245.25
319.212	232.25
319.441	224.25
319.67	232.25
319.9	245.25
320.129	251.25
320.358	219.25
320.587	245.25
320.816	228.25
321.046	229.25
321.275	221.25
321.504	241.25
321.733	227.25
321.962	236.25
322.191	257.25
322.42	220.25
322.649	245.25
322.878	231.25
323.108	224.25
323.337	243.25
323.566	234.25
323.795	255.25
324.024	234.25
324.253	239.25
324.482	238.25
324.71	244.25
324.939	243.25
325.168	255.25
325.397	229.25
325.626	232.25
325.855	224.25
326.084	244.25
326.313	269.25
326.542	256.25
326.77	253.25
326.999	256.25
327.228	249.25
327.457	253.25
327.686	245.25
327.914	262.25
328.143	254.25
328.372	259.25
328.6	233.25
328.829	239.25
329.058	256.25
329.287	259.25
329.515	248.25
329.744	263.25
329.972	257.25
330.201	269.25
330.43	266.25
330.658	257.25
330.887	245.25
331.115	257.25
331.344	267.25
331.572	277.25
331.801	273.25
332.03	259.25
332.258	274.25
332.486	293.25
332.715	299.25
332.943	314.25
333.172	297.25
333.4	331.25
333.629	313.25
333.857	316.25
334.085	303.25
334.314	322.25
334.542	321.25
334.771	301.25
334.999	301.25
335.227	312.25
335.455	309.25
335.684	320.25
335.912	295.25
336.14	308.25
336.369	315.25
336.597	303.25
336.825	311.25
337.053	308.25
337.281	290.25
337.51	279.25
337.738	287.25
337.966	267.25
338.194	271.25
338.422	272.25
338.65	275.25
338.878	280.25
339.106	284.25
339.334	269.25
339.562	261.25
339.79	260.25
340.018	246.25
340.246	267.25
340.474	261.25
340.702	244.25
340.93	275.25
341.158	261.25
341.386	259.25
341.614	274.25
341.842	256.25
342.07	255.25
342.298	288.25
342.526	271.25
342.754	268.25
342.981	266.25
343.209	268.25
343.437	296.25
343.665	315.25
343.893	327.25
344.12	305.25
344.348	312.25
344.576	296.25
344.804	261.25
345.031	266.25
345.259	257.25
345.487	261.25
345.714	265.25
345.942	269.25
346.17	258.25
346.397	245.25
346.625	270.25
346.853	258.25
347.08	244.25
347.308	277.25
347.535	273.25
347.763	264.25
347.99	279.25
348.218	267.25
348.445	276.25
348.673	260.25
348.9	281.25
349.128	273.25
349.355	263.25
349.583	251.25
349.81	248.25
350.037	247.25
350.265	270.25
350.492	254.25
350.72	253.25
350.947	250.25
351.174	247.25
351.402	255.25
351.629	259.25
351.856	240.25
352.083	239.25
352.311	258.25
352.538	247.25
352.765	244.25
352.992	240.25
353.22	245.25
353.447	244.25
353.674	262.25
353.901	247.25
354.128	263.25
354.355	232.25
354.583	267.25
354.81	242.25
355.037	243.25
355.264	264.25
355.491	270.25
355.718	213.25
355.945	259.25
356.172	245.25
356.399	259.25
356.626	263.25
356.853	267.25
357.08	252.25
357.307	247.25
357.534	259.25
357.761	255.25
357.988	236.25
358.215	243.25
358.441	256.25
358.668	255.25
358.895	251.25
359.122	271.25
359.349	250.25
359.576	239.25
359.802	243.25
360.029	267.25
360.256	224.25
360.483	261.25
360.709	265.25
360.936	267.25
361.163	262.25
361.39	256.25
361.616	245.25
361.843	250.25
362.07	255.25
362.296	243.25
362.523	255.25
362.749	261.25
362.976	247.25
363.203	255.25
363.429	249.25
363.656	261.25
363.882	254.25
364.109	248.25
364.335	266.25
364.562	254.25
364.788	259.25
365.015	257.25
365.241	248.25
365.468	251.25
365.694	256.25
365.92	263.25
366.147	239.25
366.373	260.25
366.599	258.25
366.826	256.25
367.052	250.25
367.278	249.25
367.505	245.25
367.731	275.25
367.957	249.25
368.184	253.25
368.41	263.25
368.636	250.25
368.862	258.25
369.089	263.25
369.315	271.25
369.541	273.25
369.767	270.25
369.993	267.25
370.219	267.25
370.445	267.25
370.672	285.25
370.898	268.25
371.124	275.25
371.35	276.25
371.576	279.25
371.802	270.25
372.028	280.25
372.254	277.25
372.48	272.25
372.706	287.25
372.932	280.25
373.158	279.25
373.384	284.25
373.61	274.25
373.835	254.25
374.061	273.25
374.287	275.25
374.513	300.25
374.739	283.25
374.965	284.25
375.191	319.25
375.416	296.25
375.642	290.25
375.868	299.25
376.094	291.25
376.319	284.25
376.545	286.25
376.771	277.25
376.997	272.25
377.222	273.25
377.448	273.25
377.674	267.25
377.899	276.25
378.125	258.25
378.35	262.25
378.576	279.25
378.802	275.25
379.027	270.25
379.253	269.25
379.478	278.25
379.704	273.25
379.929	285.25
380.155	300.25
380.38	272.25
380.606	312.25
380.831	273.25
381.057	281.25
381.282	265.25
381.507	279.25
381.733	283.25
381.958	280.25
382.184	276.25
382.409	295.25
382.634	296.25
382.86	289.25
383.085	280.25
383.31	294.25
383.535	325.25
383.761	304.25
383.986	307.25
384.211	293.25
384.436	309.25
384.662	322.25
384.887	325.25
385.112	320.25
385.337	317.25
385.562	315.25
385.787	335.25
386.013	343.25
386.238	331.25
386.463	328.25
386.688	323.25
386.913	316.25
387.138	334.25
387.363	323.25
387.588	326.25
387.813	325.25
388.038	340.25
388.263	319.25
388.488	324.25
388.713	320.25
388.938	327.25
389.163	328.25
389.387	321.25
389.612	312.25
389.837	319.25
390.062	324.25
390.287	317.25
390.512	326.25
390.736	316.25
390.961	339.25
391.186	339.25
391.411	332.25
391.636	348.25
391.86	349.25
392.085	365.25
392.31	344.25
392.534	341.25
392.759	332.25
392.984	342.25
393.208	340.25
393.433	339.25
393.658	341.25
393.882	351.25
394.107	340.25
394.331	360.25
394.556	347.25
394.78	356.25
395.005	347.25
395.229	336.25
395.454	358.25
395.678	361.25
395.903	360.25
396.127	355.25
396.352	342.25
396.576	345.25
396.801	354.25
397.025	358.25
397.249	372.25
397.474	354.25
397.698	369.25
397.922	366.25
398.147	346.25
398.371	373.25
398.595	388.25
398.82	394.25
399.044	414.25
399.268	449.25
399.492	513.25
399.717	545.25
399.941	542.25
400.165	500.25
400.389	451.25
400.613	426.25
400.837	415.25
401.062	378.25
401.286	404.25
401.51	395.25
401.734	402.25
401.958	401.25
402.182	403.25
402.406	411.25
402.63	428.25
402.854	421.25
403.078	441.25
403.302	407.25
403.526	439.25
403.75	435.25
403.974	461.25
404.198	438.25
404.422	450.25
404.645	453.25
404.869	460.25
405.093	428.25
405.317	427.25
405.541	422.25
405.765	439.25
405.988	422.25
406.212	443.25
406.436	431.25
406.66	438.25
406.883	432.25
407.107	488.25
407.331	496.25
407.555	513.25
407.778	501.25
408.002	513.25
408.226	488.25
408.449	483.25
408.673	431.25
408.896	458.25
409.12	435.25
409.344	462.25
409.567	439.25
409.791	455.25
410.014	466.25
410.238	448.25
410.461	438.25
410.685	458.25
410.908	444.25
411.132	421.25
411.355	400.25
411.578	431.25
411.802	424.25
412.025	437.25
412.249	411.25
412.472	417.25
412.695	406.25
412.919	415.25
413.142	418.25
413.365	405.25
413.589	397.25
413.812	413.25
414.035	389.25
414.258	399.25
414.482	419.25
414.705	408.25
414.928	417.25
415.151	418.25
415.374	413.25
415.597	413.25
415.821	392.25
416.044	424.25
416.267	415.25
416.49	389.25
416.713	397.25
416.936	424.25
417.159	398.25
417.382	404.25
417.605	396.25
417.828	396.25
418.051	407.25
418.274	428.25
418.497	403.25
418.72	389.25
418.943	434.25
419.166	437.25
419.389	452.25
419.611	451.25
419.834	425.25
420.057	422.25
420.28	411.25
420.503	405.25
420.726	407.25
420.948	396.25
421.171	418.25
421.394	386.25
421.617	405.25
421.839	415.25
422.062	403.25
422.285	412.25
422.507	399.25
422.73	408.25
422.953	422.25
423.175	413.25
423.398	424.25
423.621	413.25
423.843	437.25
424.066	441.25
424.288	423.25
424.511	435.25
424.733	409.25
424.956	421.25
425.178	413.25
425.401	396.25
425.623	402.25
425.846	404.25
426.068	411.25
426.291	393.25
426.513	404.25
426.735	379.25
426.958	390.25
427.18	368.25
427.402	360.25
427.625	369.25
427.847	370.25
428.069	380.25
428.292	387.25
428.514	371.25
428.736	359.25
428.958	365.25
429.181	370.25
429.403	363.25
429.625	346.25
429.847	355.25
430.069	356.25
430.292	362.25
430.514	377.25
430.736	362.25
430.958	352.25
431.18	368.25
431.402	353.25
431.624	361.25
431.846	370.25
432.068	371.25
432.29	369.25
432.512	372.25
432.734	378.25
432.956	383.25
433.178	379.25
433.4	368.25
433.622	385.25
433.844	398.25
434.066	379.25
434.287	384.25
434.509	400.25
434.731	401.25
434.953	408.25
435.175	415.25
435.397	408.25
435.618	397.25
435.84	394.25
436.062	394.25
436.284	387.25
436.505	381.25
436.727	371.25
436.949	395.25
437.17	347.25
437.392	362.25
437.614	371.25
437.835	375.25
438.057	368.25
438.278	373.25
438.5	375.25
438.721	365.25
438.943	381.25
439.165	367.25
439.386	362.25
439.608	395.25
439.829	377.25
440.05	378.25
440.272	391.25
440.493	403.25
440.715	381.25
440.936	405.25
441.158	410.25
441.379	417.25
441.6	409.25
441.822	423.25
442.043	420.25
442.264	426.25
442.486	402.25
442.707	403.25
442.928	411.25
443.149	398.25
443.371	443.25
443.592	405.25
443.813	418.25
444.034	422.25
444.255	441.25
444.476	457.25
444.698	475.25
444.919	489.25
445.14	578.25
445.361	468.25
445.582	429.25
445.803	428.25
446.024	398.25
446.245	397.25
446.466	416.25
446.687	366.25
446.908	394.25
447.129	373.25
447.35	378.25
447.571	374.25
447.792	372.25
448.013	358.25
448.234	343.25
448.455	363.25
448.675	363.25
448.896	361.25
449.117	352.25
449.338	374.25
449.559	362.25
449.779	361.25
450	357.25
450.221	386.25
450.442	350.25
450.662	367.25
450.883	359.25
451.104	379.25
451.324	353.25
451.545	329.25
451.766	351.25
451.986	342.25
452.207	356.25
452.428	359.25
452.648	339.25
452.869	360.25
453.089	329.25
453.31	337.25
453.53	344.25
453.751	342.25
453.971	332.25
454.192	329.25
454.412	343.25
454.633	343.25
454.853	352.25
455.073	348.25
455.294	333.25
455.514	340.25
455.734	342.25
455.955	338.25
456.175	325.25
456.395	328.25
456.616	330.25
456.836	331.25
457.056	332.25
457.276	315.25
457.497	337.25
457.717	314.25
457.937	342.25
458.157	332.25
458.377	339.25
458.598	340.25
458.818	336.25
459.038	337.25
459.258	384.25
459.478	374.25
459.698	399.25
459.918	404.25
460.138	382.25
460.358	402.25
460.578	432.25
460.798	443.25
461.018	449.25
461.238	433.25
461.458	412.25
461.678	423.25
461.898	421.25
462.118	435.25
462.338	453.25
462.558	444.25
462.777	479.25
462.997	523.25
463.217	545.25
463.437	552.25
463.657	510.25
463.876	496.25
464.096	475.25
464.316	499.25
464.536	479.25
464.755	468.25
464.975	475.25
465.195	445.25
465.414	401.25
465.634	412.25
465.854	393.25
466.073	386.25
466.293	383.25
466.512	377.25
466.732	363.25
466.951	385.25
467.171	365.25
467.391	372.25
467.61	373.25
467.829	367.25
468.049	378.25
468.268	341.25
468.488	359.25
468.707	353.25
468.927	363.25
469.146	344.25
469.365	354.25
469.585	369.25
469.804	387.25
470.023	388.25
470.243	385.25
470.462	372.25
470.681	371.25
470.901	369.25
471.12	377.25
471.339	358.25
471.558	370.25
471.777	362.25
471.997	372.25
472.216	353.25
472.435	335.25
472.654	354.25
472.873	349.25
473.092	342.25
473.311	340.25
473.53	346.25
473.749	344.25
473.968	334.25
474.187	330.25
474.406	335.25
474.625	335.25
474.844	356.25
475.063	337.25
475.282	345.25
475.501	333.25
475.72	330.25
475.939	328.25
476.158	348.25
476.377	359.25
476.596	354.25
476.814	351.25
477.033	359.25
477.252	351.25
477.471	363.25
477.69	363.25
477.908	376.25
478.127	403.25
478.346	389.25
478.564	394.25
478.783	426.25
479.002	391.25
479.22	400.25
479.439	410.25
479.658	406.25
479.876	408.25
480.095	409.25
480.313	421.25
480.532	433.25
480.751	422.25
480.969	386.25
481.188	405.25
481.406	394.25
481.624	386.25
481.843	378.25
482.061	359.25
482.28	381.25
482.498	364.25
482.717	367.25
482.935	360.25
483.153	395.25
483.372	376.25
483.59	389.25
483.808	390.25
484.027	389.25
484.245	391.25
484.463	380.25
484.681	384.25
484.9	400.25
485.118	392.25
485.336	383.25
485.554	404.25
485.772	395.25
485.99	379.25
486.209	370.25
486.427	383.25
486.645	404.25
486.863	381.25
487.081	407.25
487.299	397.25
487.517	385.25
487.735	422.25
487.953	423.25
488.171	407.25
488.389	407.25
488.607	402.25
488.825	376.25
489.043	379.25
489.261	378.25
489.479	391.25
489.696	403.25
489.914	391.25
490.132	388.25
490.35	387.25
490.568	397.25
490.786	412.25
491.003	391.25
491.221	412.25
491.439	410.25
491.657	411.25
491.874	419.25
492.092	424.25
492.31	422.25
492.527	417.25
492.745	407.25
492.963	403.25
493.18	400.25
493.398	415.25
493.615	401.25
493.833	398.25
494.05	409.25
494.268	416.25
494.485	420.25
494.703	410.25
494.92	396.25
495.138	415.25
495.355	418.25
495.573	419.25
495.79	417.25
496.008	418.25
496.225	423.25
496.442	446.25
496.66	437.25
496.877	422.25
497.094	435.25
497.312	456.25
497.529	453.25
497.746	446.25
497.963	481.25
498.181	500.25
498.398	511.25
498.615	533.25
498.832	576.25
499.049	595.25
499.267	636.25
499.484	696.25
499.701	776.25
499.918	855.25
500.135	908.25
500.352	1035.25
500.569	1088.25
500.786	1048.25
501.003	971.25
501.22	886.25
501.437	801.25
501.654	727.25
501.871	652.25
