Data from Fe(NO3)3@0.0125M.TitratingCurve.Agarose3%dH2O.NegLispCup.LampEnergy10.LIBS07252019_HRD10591_16-59-38-336.txt Node
Date: Thu Jul 25 16:59:38 EDT 2019
User: cochatt
Spectrometer: HR+D1059
Trigger mode: 1
Integration Time (sec): 1.000000E-1
Scans to average: 1
Electric dark correction enabled: true
Nonlinearity correction enabled: false
Boxcar width: 0
XAxis mode: Wavelengths
Number of Pixels in Spectrum: 2048
>>>>>Begin Spectral Data<<<<<
223.165	-10.5
223.4	-10.5
223.635	-10.5
223.869	-27.5
224.104	-11.5
224.338	-9.5
224.573	-22.5
224.808	-5.5
225.042	-8.5
225.277	5.5
225.511	3.5
225.746	9.5
225.98	6.5
226.215	10.5
226.449	16.5
226.683	10.5
226.918	18.5
227.152	14.5
227.387	30.5
227.621	26.5
227.856	32.5
228.09	34.5
228.324	45.5
228.559	49.5
228.793	53.5
229.027	70.5
229.262	85.5
229.496	84.5
229.73	82.5
229.964	90.5
230.199	75.5
230.433	88.5
230.667	95.5
230.901	77.5
231.136	88.5
231.37	95.5
231.604	85.5
231.838	84.5
232.072	102.5
232.306	79.5
232.541	79.5
232.775	87.5
233.009	98.5
233.243	97.5
233.477	94.5
233.711	94.5
233.945	81.5
234.179	96.5
234.413	109.5
234.647	96.5
234.881	90.5
235.115	78.5
235.349	103.5
235.583	86.5
235.817	115.5
236.051	94.5
236.285	95.5
236.519	103.5
236.753	103.5
236.987	110.5
237.221	104.5
237.455	94.5
237.689	98.5
237.922	94.5
238.156	89.5
238.39	115.5
238.624	101.5
238.858	103.5
239.091	101.5
239.325	112.5
239.559	103.5
239.793	103.5
240.027	112.5
240.26	115.5
240.494	112.5
240.728	105.5
240.961	111.5
241.195	107.5
241.429	106.5
241.662	106.5
241.896	118.5
242.13	101.5
242.363	94.5
242.597	83.5
242.83	99.5
243.064	98.5
243.298	104.5
243.531	105.5
243.765	106.5
243.998	106.5
244.232	97.5
244.465	98.5
244.699	104.5
244.932	118.5
245.166	107.5
245.399	103.5
245.633	109.5
245.866	111.5
246.099	107.5
246.333	129.5
246.566	111.5
246.8	122.5
247.033	118.5
247.266	106.5
247.5	137.5
247.733	109.5
247.966	113.5
248.2	123.5
248.433	116.5
248.666	109.5
248.899	119.5
249.133	134.5
249.366	138.5
249.599	128.5
249.832	136.5
250.066	117.5
250.299	117.5
250.532	118.5
250.765	123.5
250.998	126.5
251.231	117.5
251.465	121.5
251.698	117.5
251.931	113.5
252.164	120.5
252.397	123.5
252.63	129.5
252.863	138.5
253.096	129.5
253.329	133.5
253.562	132.5
253.795	135.5
254.028	135.5
254.261	136.5
254.494	122.5
254.727	142.5
254.96	135.5
255.193	158.5
255.426	136.5
255.659	140.5
255.892	139.5
256.124	133.5
256.357	145.5
256.59	145.5
256.823	123.5
257.056	131.5
257.289	148.5
257.521	130.5
257.754	139.5
257.987	146.5
258.22	146.5
258.452	131.5
258.685	131.5
258.918	138.5
259.151	146.5
259.383	149.5
259.616	154.5
259.849	141.5
260.081	159.5
260.314	157.5
260.547	153.5
260.779	147.5
261.012	166.5
261.244	156.5
261.477	152.5
261.71	134.5
261.942	143.5
262.175	151.5
262.407	165.5
262.64	142.5
262.872	153.5
263.105	149.5
263.337	164.5
263.57	149.5
263.802	164.5
264.035	155.5
264.267	153.5
264.499	150.5
264.732	163.5
264.964	149.5
265.197	163.5
265.429	168.5
265.661	161.5
265.894	167.5
266.126	179.5
266.358	177.5
266.591	155.5
266.823	160.5
267.055	162.5
267.287	169.5
267.52	171.5
267.752	154.5
267.984	159.5
268.216	176.5
268.448	163.5
268.681	161.5
268.913	172.5
269.145	167.5
269.377	188.5
269.609	169.5
269.841	178.5
270.073	163.5
270.306	185.5
270.538	168.5
270.77	176.5
271.002	173.5
271.234	191.5
271.466	166.5
271.698	175.5
271.93	193.5
272.162	181.5
272.394	187.5
272.626	213.5
272.858	198.5
273.09	201.5
273.322	170.5
273.553	203.5
273.785	208.5
274.017	200.5
274.249	208.5
274.481	202.5
274.713	214.5
274.945	210.5
275.176	205.5
275.408	210.5
275.64	209.5
275.872	192.5
276.104	198.5
276.335	206.5
276.567	221.5
276.799	210.5
277.031	217.5
277.262	211.5
277.494	211.5
277.726	231.5
277.957	206.5
278.189	212.5
278.421	224.5
278.652	207.5
278.884	230.5
279.115	225.5
279.347	210.5
279.579	225.5
279.81	210.5
280.042	226.5
280.273	224.5
280.505	228.5
280.736	213.5
280.968	222.5
281.199	218.5
281.431	231.5
281.662	232.5
281.894	229.5
282.125	249.5
282.356	235.5
282.588	225.5
282.819	242.5
283.051	259.5
283.282	248.5
283.513	242.5
283.745	251.5
283.976	224.5
284.207	226.5
284.439	252.5
284.67	248.5
284.901	257.5
285.132	250.5
285.364	247.5
285.595	241.5
285.826	253.5
286.057	253.5
286.288	256.5
286.52	255.5
286.751	258.5
286.982	253.5
287.213	267.5
287.444	261.5
287.675	274.5
287.906	271.5
288.138	263.5
288.369	281.5
288.6	274.5
288.831	277.5
289.062	269.5
289.293	265.5
289.524	263.5
289.755	276.5
289.986	271.5
290.217	261.5
290.448	273.5
290.679	285.5
290.91	287.5
291.141	287.5
291.371	281.5
291.602	258.5
291.833	307.5
292.064	291.5
292.295	296.5
292.526	290.5
292.757	281.5
292.987	286.5
293.218	269.5
293.449	282.5
293.68	278.5
293.91	288.5
294.141	304.5
294.372	295.5
294.603	317.5
294.833	305.5
295.064	294.5
295.295	323.5
295.525	286.5
295.756	303.5
295.987	297.5
296.217	294.5
296.448	313.5
296.679	297.5
296.909	319.5
297.14	295.5
297.37	308.5
297.601	309.5
297.831	306.5
298.062	301.5
298.292	322.5
298.523	309.5
298.753	318.5
298.984	310.5
299.214	306.5
299.445	323.5
299.675	320.5
299.905	336.5
300.136	319.5
300.366	321.5
300.597	340.5
300.827	343.5
301.057	345.5
301.288	337.5
301.518	338.5
301.748	327.5
301.979	353.5
302.209	341.5
302.439	335.5
302.669	353.5
302.9	334.5
303.13	326.5
303.36	335.5
303.59	357.5
303.82	339.5
304.051	352.5
304.281	341.5
304.511	340.5
304.741	359.5
304.971	345.5
305.201	345.5
305.431	356.5
305.661	350.5
305.891	345.5
306.121	359.5
306.352	359.5
306.582	369.5
306.812	358.5
307.042	362.5
307.272	363.5
307.502	347.5
307.731	361.5
307.961	367.5
308.191	359.5
308.421	365.5
308.651	373.5
308.881	350.5
309.111	389.5
309.341	373.5
309.571	379.5
309.8	371.5
310.03	378.5
310.26	376.5
310.49	379.5
310.72	409.5
310.949	379.5
311.179	386.5
311.409	401.5
311.639	397.5
311.868	392.5
312.098	383.5
312.328	393.5
312.557	385.5
312.787	383.5
313.017	399.5
313.246	408.5
313.476	391.5
313.706	415.5
313.935	407.5
314.165	389.5
314.394	414.5
314.624	403.5
314.853	400.5
315.083	430.5
315.312	423.5
315.542	410.5
315.771	400.5
316.001	410.5
316.23	410.5
316.46	425.5
316.689	431.5
316.919	411.5
317.148	424.5
317.377	405.5
317.607	433.5
317.836	442.5
318.065	438.5
318.295	427.5
318.524	442.5
318.753	443.5
318.983	449.5
319.212	441.5
319.441	427.5
319.67	427.5
319.9	438.5
320.129	447.5
320.358	418.5
320.587	449.5
320.816	448.5
321.046	433.5
321.275	431.5
321.504	438.5
321.733	459.5
321.962	465.5
322.191	445.5
322.42	463.5
322.649	426.5
322.878	459.5
323.108	451.5
323.337	435.5
323.566	468.5
323.795	463.5
324.024	456.5
324.253	445.5
324.482	478.5
324.71	459.5
324.939	465.5
325.168	469.5
325.397	463.5
325.626	476.5
325.855	475.5
326.084	489.5
326.313	475.5
326.542	474.5
326.77	485.5
326.999	473.5
327.228	473.5
327.457	466.5
327.686	499.5
327.914	487.5
328.143	483.5
328.372	486.5
328.6	471.5
328.829	482.5
329.058	470.5
329.287	475.5
329.515	476.5
329.744	484.5
329.972	493.5
330.201	475.5
330.43	469.5
330.658	496.5
330.887	499.5
331.115	489.5
331.344	503.5
331.572	490.5
331.801	495.5
332.03	509.5
332.258	502.5
332.486	502.5
332.715	485.5
332.943	511.5
333.172	495.5
333.4	506.5
333.629	506.5
333.857	510.5
334.085	504.5
334.314	511.5
334.542	517.5
334.771	506.5
334.999	507.5
335.227	522.5
335.455	520.5
335.684	514.5
335.912	538.5
336.14	518.5
336.369	517.5
336.597	532.5
336.825	522.5
337.053	545.5
337.281	524.5
337.51	533.5
337.738	529.5
337.966	521.5
338.194	521.5
338.422	521.5
338.65	528.5
338.878	523.5
339.106	543.5
339.334	512.5
339.562	512.5
339.79	524.5
340.018	523.5
340.246	521.5
340.474	524.5
340.702	524.5
340.93	518.5
341.158	519.5
341.386	523.5
341.614	503.5
341.842	525.5
342.07	503.5
342.298	519.5
342.526	530.5
342.754	518.5
342.981	522.5
343.209	520.5
343.437	528.5
343.665	528.5
343.893	543.5
344.12	539.5
344.348	539.5
344.576	534.5
344.804	565.5
345.031	529.5
345.259	545.5
345.487	518.5
345.714	517.5
345.942	511.5
346.17	532.5
346.397	533.5
346.625	504.5
346.853	519.5
347.08	520.5
347.308	526.5
347.535	519.5
347.763	527.5
347.99	502.5
348.218	544.5
348.445	519.5
348.673	506.5
348.9	518.5
349.128	537.5
349.355	548.5
349.583	526.5
349.81	541.5
350.037	511.5
350.265	523.5
350.492	519.5
350.72	533.5
350.947	527.5
351.174	536.5
351.402	541.5
351.629	519.5
351.856	509.5
352.083	529.5
352.311	525.5
352.538	528.5
352.765	521.5
352.992	540.5
353.22	501.5
353.447	522.5
353.674	512.5
353.901	519.5
354.128	523.5
354.355	525.5
354.583	522.5
354.81	529.5
355.037	541.5
355.264	542.5
355.491	532.5
355.718	539.5
355.945	512.5
356.172	515.5
356.399	546.5
356.626	539.5
356.853	539.5
357.08	512.5
357.307	523.5
357.534	518.5
357.761	534.5
357.988	557.5
358.215	541.5
358.441	533.5
358.668	523.5
358.895	541.5
359.122	539.5
359.349	536.5
359.576	530.5
359.802	530.5
360.029	542.5
360.256	528.5
360.483	525.5
360.709	535.5
360.936	544.5
361.163	525.5
361.39	547.5
361.616	539.5
361.843	534.5
362.07	516.5
362.296	543.5
362.523	562.5
362.749	534.5
362.976	542.5
363.203	549.5
363.429	560.5
363.656	545.5
363.882	550.5
364.109	530.5
364.335	543.5
364.562	539.5
364.788	546.5
365.015	583.5
365.241	554.5
365.468	546.5
365.694	536.5
365.92	553.5
366.147	557.5
366.373	545.5
366.599	564.5
366.826	553.5
367.052	558.5
367.278	561.5
367.505	553.5
367.731	559.5
367.957	563.5
368.184	570.5
368.41	558.5
368.636	581.5
368.862	554.5
369.089	580.5
369.315	597.5
369.541	568.5
369.767	586.5
369.993	574.5
370.219	540.5
370.445	574.5
370.672	579.5
370.898	567.5
371.124	571.5
371.35	595.5
371.576	569.5
371.802	584.5
372.028	573.5
372.254	588.5
372.48	586.5
372.706	558.5
372.932	571.5
373.158	600.5
373.384	581.5
373.61	582.5
373.835	577.5
374.061	594.5
374.287	608.5
374.513	605.5
374.739	562.5
374.965	598.5
375.191	590.5
375.416	610.5
375.642	606.5
375.868	605.5
376.094	568.5
376.319	578.5
376.545	577.5
376.771	573.5
376.997	584.5
377.222	569.5
377.448	599.5
377.674	599.5
377.899	588.5
378.125	604.5
378.35	564.5
378.576	578.5
378.802	596.5
379.027	574.5
379.253	588.5
379.478	569.5
379.704	572.5
379.929	571.5
380.155	576.5
380.38	573.5
380.606	587.5
380.831	581.5
381.057	568.5
381.282	592.5
381.507	621.5
381.733	579.5
381.958	586.5
382.184	578.5
382.409	603.5
382.634	592.5
382.86	571.5
383.085	603.5
383.31	606.5
383.535	610.5
383.761	592.5
383.986	598.5
384.211	619.5
384.436	626.5
384.662	597.5
384.887	619.5
385.112	626.5
385.337	621.5
385.562	628.5
385.787	623.5
386.013	623.5
386.238	628.5
386.463	634.5
386.688	629.5
386.913	613.5
387.138	639.5
387.363	617.5
387.588	629.5
387.813	629.5
388.038	639.5
388.263	641.5
388.488	630.5
388.713	644.5
388.938	638.5
389.163	605.5
389.387	603.5
389.612	609.5
389.837	621.5
390.062	634.5
390.287	637.5
390.512	640.5
390.736	651.5
390.961	626.5
391.186	637.5
391.411	645.5
391.636	635.5
391.86	663.5
392.085	632.5
392.31	607.5
392.534	595.5
392.759	644.5
392.984	632.5
393.208	670.5
393.433	630.5
393.658	645.5
393.882	616.5
394.107	639.5
394.331	639.5
394.556	651.5
394.78	615.5
395.005	647.5
395.229	640.5
395.454	653.5
395.678	632.5
395.903	633.5
396.127	656.5
396.352	653.5
396.576	646.5
396.801	659.5
397.025	657.5
397.249	675.5
397.474	646.5
397.698	662.5
397.922	674.5
398.147	664.5
398.371	670.5
398.595	675.5
398.82	677.5
399.044	671.5
399.268	679.5
399.492	681.5
399.717	694.5
399.941	709.5
400.165	692.5
400.389	709.5
400.613	683.5
400.837	709.5
401.062	671.5
401.286	697.5
401.51	669.5
401.734	673.5
401.958	679.5
402.182	676.5
402.406	706.5
402.63	668.5
402.854	689.5
403.078	678.5
403.302	691.5
403.526	704.5
403.75	698.5
403.974	691.5
404.198	679.5
404.422	694.5
404.645	685.5
404.869	691.5
405.093	683.5
405.317	698.5
405.541	711.5
405.765	688.5
405.988	701.5
406.212	698.5
406.436	704.5
406.66	696.5
406.883	711.5
407.107	703.5
407.331	745.5
407.555	705.5
407.778	719.5
408.002	731.5
408.226	718.5
408.449	762.5
408.673	719.5
408.896	714.5
409.12	706.5
409.344	728.5
409.567	728.5
409.791	726.5
410.014	697.5
410.238	704.5
410.461	741.5
410.685	722.5
410.908	722.5
411.132	698.5
411.355	691.5
411.578	706.5
411.802	706.5
412.025	701.5
412.249	706.5
412.472	704.5
412.695	718.5
412.919	683.5
413.142	680.5
413.365	708.5
413.589	714.5
413.812	681.5
414.035	675.5
414.258	705.5
414.482	699.5
414.705	671.5
414.928	661.5
415.151	686.5
415.374	692.5
415.597	687.5
415.821	676.5
416.044	663.5
416.267	667.5
416.49	667.5
416.713	678.5
416.936	675.5
417.159	694.5
417.382	677.5
417.605	669.5
417.828	668.5
418.051	690.5
418.274	648.5
418.497	672.5
418.72	681.5
418.943	662.5
419.166	656.5
419.389	725.5
419.611	710.5
419.834	695.5
420.057	674.5
420.28	666.5
420.503	673.5
420.726	648.5
420.948	646.5
421.171	651.5
421.394	670.5
421.617	655.5
421.839	658.5
422.062	666.5
422.285	656.5
422.507	695.5
422.73	639.5
422.953	656.5
423.175	651.5
423.398	659.5
423.621	665.5
423.843	639.5
424.066	637.5
424.288	652.5
424.511	666.5
424.733	670.5
424.956	654.5
425.178	671.5
425.401	658.5
425.623	662.5
425.846	663.5
426.068	676.5
426.291	674.5
426.513	674.5
426.735	633.5
426.958	676.5
427.18	661.5
427.402	664.5
427.625	657.5
427.847	640.5
428.069	670.5
428.292	693.5
428.514	663.5
428.736	652.5
428.958	664.5
429.181	649.5
429.403	655.5
429.625	646.5
429.847	648.5
430.069	677.5
430.292	661.5
430.514	616.5
430.736	667.5
430.958	657.5
431.18	677.5
431.402	650.5
431.624	661.5
431.846	647.5
432.068	660.5
432.29	686.5
432.512	675.5
432.734	643.5
432.956	662.5
433.178	677.5
433.4	648.5
433.622	652.5
433.844	669.5
434.066	687.5
434.287	646.5
434.509	663.5
434.731	671.5
434.953	651.5
435.175	656.5
435.397	701.5
435.618	664.5
435.84	660.5
436.062	639.5
436.284	667.5
436.505	655.5
436.727	671.5
436.949	644.5
437.17	662.5
437.392	650.5
437.614	661.5
437.835	668.5
438.057	638.5
438.278	636.5
438.5	655.5
438.721	661.5
438.943	637.5
439.165	633.5
439.386	630.5
439.608	655.5
439.829	671.5
440.05	663.5
440.272	660.5
440.493	645.5
440.715	648.5
440.936	666.5
441.158	651.5
441.379	668.5
441.6	647.5
441.822	646.5
442.043	668.5
442.264	690.5
442.486	650.5
442.707	669.5
442.928	645.5
443.149	659.5
443.371	649.5
443.592	658.5
443.813	669.5
444.034	639.5
444.255	641.5
444.476	647.5
444.698	655.5
444.919	691.5
445.14	738.5
445.361	686.5
445.582	673.5
445.803	644.5
446.024	657.5
446.245	641.5
446.466	649.5
446.687	663.5
446.908	659.5
447.129	631.5
447.35	655.5
447.571	649.5
447.792	621.5
448.013	631.5
448.234	617.5
448.455	617.5
448.675	619.5
448.896	611.5
449.117	619.5
449.338	619.5
449.559	618.5
449.779	575.5
450	600.5
450.221	614.5
450.442	635.5
450.662	632.5
450.883	614.5
451.104	621.5
451.324	595.5
451.545	628.5
451.766	621.5
451.986	616.5
452.207	619.5
452.428	619.5
452.648	612.5
452.869	612.5
453.089	611.5
453.31	617.5
453.53	616.5
453.751	624.5
453.971	605.5
454.192	623.5
454.412	591.5
454.633	626.5
454.853	600.5
455.073	615.5
455.294	609.5
455.514	597.5
455.734	592.5
455.955	608.5
456.175	610.5
456.395	591.5
456.616	605.5
456.836	608.5
457.056	603.5
457.276	572.5
457.497	619.5
457.717	614.5
457.937	619.5
458.157	598.5
458.377	638.5
458.598	611.5
458.818	636.5
459.038	624.5
459.258	638.5
459.478	651.5
459.698	631.5
459.918	634.5
460.138	615.5
460.358	636.5
460.578	638.5
460.798	658.5
461.018	663.5
461.238	661.5
461.458	665.5
461.678	667.5
461.898	663.5
462.118	658.5
462.338	689.5
462.558	673.5
462.777	687.5
462.997	687.5
463.217	679.5
463.437	671.5
463.657	677.5
463.876	677.5
464.096	679.5
464.316	697.5
464.536	687.5
464.755	677.5
464.975	689.5
465.195	673.5
465.414	663.5
465.634	652.5
465.854	642.5
466.073	652.5
466.293	652.5
466.512	662.5
466.732	636.5
466.951	671.5
467.171	670.5
467.391	663.5
467.61	670.5
467.829	655.5
468.049	645.5
468.268	659.5
468.488	633.5
468.707	640.5
468.927	660.5
469.146	660.5
469.365	667.5
469.585	608.5
469.804	674.5
470.023	670.5
470.243	675.5
470.462	665.5
470.681	659.5
470.901	690.5
471.12	686.5
471.339	678.5
471.558	654.5
471.777	665.5
471.997	687.5
472.216	658.5
472.435	685.5
472.654	695.5
472.873	679.5
473.092	715.5
473.311	667.5
473.53	698.5
473.749	657.5
473.968	702.5
474.187	680.5
474.406	711.5
474.625	706.5
474.844	697.5
475.063	693.5
475.282	703.5
475.501	703.5
475.72	737.5
475.939	693.5
476.158	709.5
476.377	736.5
476.596	725.5
476.814	717.5
477.033	728.5
477.252	734.5
477.471	757.5
477.69	773.5
477.908	742.5
478.127	771.5
478.346	793.5
478.564	758.5
478.783	765.5
479.002	779.5
479.22	785.5
479.439	793.5
479.658	798.5
479.876	789.5
480.095	787.5
480.313	813.5
480.532	789.5
480.751	816.5
480.969	775.5
481.188	800.5
481.406	811.5
481.624	817.5
481.843	793.5
482.061	821.5
482.28	828.5
482.498	821.5
482.717	817.5
482.935	845.5
483.153	839.5
483.372	808.5
483.59	829.5
483.808	819.5
484.027	824.5
484.245	834.5
484.463	853.5
484.681	836.5
484.9	844.5
485.118	861.5
485.336	850.5
485.554	829.5
485.772	842.5
485.99	848.5
486.209	837.5
486.427	849.5
486.645	836.5
486.863	868.5
487.081	866.5
487.299	854.5
487.517	824.5
487.735	847.5
487.953	864.5
488.171	853.5
488.389	862.5
488.607	865.5
488.825	858.5
489.043	865.5
489.261	868.5
489.479	862.5
489.696	851.5
489.914	868.5
490.132	885.5
490.35	871.5
490.568	874.5
490.786	861.5
491.003	880.5
491.221	875.5
491.439	887.5
491.657	850.5
491.874	865.5
492.092	874.5
492.31	888.5
492.527	898.5
492.745	901.5
492.963	914.5
493.18	879.5
493.398	885.5
493.615	891.5
493.833	891.5
494.05	901.5
494.268	883.5
494.485	898.5
494.703	890.5
494.92	885.5
495.138	905.5
495.355	908.5
495.573	895.5
495.79	901.5
496.008	929.5
496.225	906.5
496.442	917.5
496.66	921.5
496.877	918.5
497.094	927.5
497.312	915.5
497.529	945.5
497.746	930.5
497.963	975.5
498.181	948.5
498.398	944.5
498.615	974.5
498.832	979.5
499.049	967.5
499.267	991.5
499.484	988.5
499.701	1039.5
499.918	1028.5
500.135	1011.5
500.352	1076.5
500.569	1042.5
500.786	1042.5
501.003	1056.5
501.22	1018.5
501.437	1010.5
501.654	984.5
501.871	972.5
502.088	961.5
502.305	968.5
502.522	990.5
502.739	961.5
502.956	955.5
503.172	933.5
503.389	922.5
503.606	929.5
503.823	913.5
504.04	896.5
504.256	878.5
504.473	887.5
504.69	898.5
504.907	924.5
505.123	884.5
505.34	879.5
505.557	864.5
505.773	862.5
505.99	868.5
506.207	857.5
506.423	841.5
506.64	832.5
506.856	838.5
507.073	831.5
507.289	809.5
507.506	813.5
507.722	821.5
507.939	820.5
508.155	823.5
508.372	809.5
508.588	827.5
508.805	809.5
509.021	809.5
509.238	798.5
509.454	797.5
509.67	806.5
509.887	795.5
510.103	818.5
510.319	814.5
510.536	778.5
510.752	799.5
510.968	782.5
511.184	818.5
511.401	787.5
511.617	807.5
511.833	770.5
512.049	771.5
512.265	794.5
512.481	775.5
512.698	776.5
512.914	785.5
513.13	792.5
513.346	780.5
513.562	783.5
513.778	774.5
513.994	774.5
514.21	772.5
514.426	776.5
514.642	769.5
514.858	769.5
515.074	780.5
515.29	781.5
515.506	753.5
515.721	810.5
515.937	790.5
516.153	751.5
516.369	778.5
516.585	776.5
516.801	769.5
517.016	785.5
517.232	795.5
517.448	775.5
517.664	816.5
517.879	783.5
518.095	781.5
518.311	809.5
518.527	767.5
518.742	790.5
518.958	789.5
519.173	785.5
519.389	783.5
519.605	773.5
519.82	776.5
