Data from Fe(NO3)3@0.1M.TitratingCurve.Agarose3%dH2O.NegLispCup.LampEnergy10.LIBS07252019_HRD10591_16-41-03-332.txt Node
Date: Thu Jul 25 16:41:03 EDT 2019
User: cochatt
Spectrometer: HR+D1059
Trigger mode: 1
Integration Time (sec): 1.000000E-1
Scans to average: 1
Electric dark correction enabled: true
Nonlinearity correction enabled: false
Boxcar width: 0
XAxis mode: Wavelengths
Number of Pixels in Spectrum: 2048
>>>>>Begin Spectral Data<<<<<
223.165	-15.19
223.4	-15.19
223.635	-15.19
223.869	-3.19
224.104	-11.19
224.338	-15.19
224.573	-13.19
224.808	-17.19
225.042	-12.19
225.277	-8.19
225.511	-8.19
225.746	-6.19
225.98	9.81
226.215	13.81
226.449	25.81
226.683	18.81
226.918	9.81
227.152	31.81
227.387	39.81
227.621	42.81
227.856	54.81
228.09	45.81
228.324	41.81
228.559	60.81
228.793	70.81
229.027	69.81
229.262	69.81
229.496	80.81
229.73	76.81
229.964	90.81
230.199	91.81
230.433	96.81
230.667	96.81
230.901	107.81
231.136	98.81
231.37	99.81
231.604	97.81
231.838	107.81
232.072	99.81
232.306	106.81
232.541	99.81
232.775	103.81
233.009	121.81
233.243	116.81
233.477	97.81
233.711	114.81
233.945	98.81
234.179	115.81
234.413	121.81
234.647	112.81
234.881	113.81
235.115	101.81
235.349	105.81
235.583	95.81
235.817	104.81
236.051	106.81
236.285	120.81
236.519	106.81
236.753	103.81
236.987	111.81
237.221	119.81
237.455	109.81
237.689	104.81
237.922	110.81
238.156	94.81
238.39	119.81
238.624	113.81
238.858	118.81
239.091	118.81
239.325	120.81
239.559	108.81
239.793	117.81
240.027	119.81
240.26	108.81
240.494	123.81
240.728	96.81
240.961	115.81
241.195	121.81
241.429	130.81
241.662	123.81
241.896	133.81
242.13	133.81
242.363	128.81
242.597	119.81
242.83	110.81
243.064	115.81
243.298	122.81
243.531	140.81
243.765	124.81
243.998	131.81
244.232	125.81
244.465	125.81
244.699	126.81
244.932	127.81
245.166	129.81
245.399	121.81
245.633	131.81
245.866	136.81
246.099	122.81
246.333	117.81
246.566	123.81
246.8	130.81
247.033	128.81
247.266	143.81
247.5	129.81
247.733	133.81
247.966	135.81
248.2	132.81
248.433	143.81
248.666	139.81
248.899	128.81
249.133	143.81
249.366	131.81
249.599	149.81
249.832	141.81
250.066	133.81
250.299	142.81
250.532	133.81
250.765	138.81
250.998	139.81
251.231	143.81
251.465	154.81
251.698	151.81
251.931	148.81
252.164	137.81
252.397	141.81
252.63	139.81
252.863	142.81
253.096	136.81
253.329	148.81
253.562	149.81
253.795	142.81
254.028	147.81
254.261	160.81
254.494	148.81
254.727	151.81
254.96	151.81
255.193	157.81
255.426	173.81
255.659	155.81
255.892	146.81
256.124	162.81
256.357	154.81
256.59	169.81
256.823	143.81
257.056	151.81
257.289	147.81
257.521	151.81
257.754	163.81
257.987	158.81
258.22	158.81
258.452	151.81
258.685	157.81
258.918	160.81
259.151	165.81
259.383	160.81
259.616	164.81
259.849	172.81
260.081	172.81
260.314	151.81
260.547	172.81
260.779	168.81
261.012	161.81
261.244	153.81
261.477	177.81
261.71	153.81
261.942	176.81
262.175	170.81
262.407	178.81
262.64	169.81
262.872	166.81
263.105	160.81
263.337	164.81
263.57	175.81
263.802	167.81
264.035	183.81
264.267	170.81
264.499	187.81
264.732	182.81
264.964	156.81
265.197	170.81
265.429	179.81
265.661	172.81
265.894	183.81
266.126	187.81
266.358	193.81
266.591	173.81
266.823	167.81
267.055	178.81
267.287	178.81
267.52	186.81
267.752	181.81
267.984	191.81
268.216	183.81
268.448	190.81
268.681	179.81
268.913	181.81
269.145	211.81
269.377	194.81
269.609	195.81
269.841	184.81
270.073	206.81
270.306	188.81
270.538	184.81
270.77	189.81
271.002	192.81
271.234	187.81
271.466	168.81
271.698	181.81
271.93	190.81
272.162	192.81
272.394	205.81
272.626	211.81
272.858	206.81
273.09	198.81
273.322	202.81
273.553	197.81
273.785	204.81
274.017	195.81
274.249	200.81
274.481	194.81
274.713	206.81
274.945	198.81
275.176	200.81
275.408	204.81
275.64	213.81
275.872	222.81
276.104	221.81
276.335	210.81
276.567	201.81
276.799	186.81
277.031	195.81
277.262	209.81
277.494	213.81
277.726	194.81
277.957	209.81
278.189	216.81
278.421	230.81
278.652	219.81
278.884	211.81
279.115	199.81
279.347	219.81
279.579	219.81
279.81	211.81
280.042	228.81
280.273	206.81
280.505	215.81
280.736	215.81
280.968	220.81
281.199	227.81
281.431	221.81
281.662	232.81
281.894	226.81
282.125	234.81
282.356	220.81
282.588	233.81
282.819	238.81
283.051	216.81
283.282	203.81
283.513	233.81
283.745	227.81
283.976	223.81
284.207	232.81
284.439	232.81
284.67	221.81
284.901	232.81
285.132	235.81
285.364	224.81
285.595	243.81
285.826	224.81
286.057	252.81
286.288	232.81
286.52	244.81
286.751	216.81
286.982	237.81
287.213	242.81
287.444	255.81
287.675	221.81
287.906	229.81
288.138	237.81
288.369	253.81
288.6	244.81
288.831	245.81
289.062	238.81
289.293	242.81
289.524	238.81
289.755	237.81
289.986	249.81
290.217	266.81
290.448	252.81
290.679	242.81
290.91	238.81
291.141	245.81
291.371	261.81
291.602	252.81
291.833	255.81
292.064	246.81
292.295	261.81
292.526	250.81
292.757	254.81
292.987	250.81
293.218	243.81
293.449	254.81
293.68	234.81
293.91	261.81
294.141	249.81
294.372	246.81
294.603	254.81
294.833	236.81
295.064	247.81
295.295	239.81
295.525	259.81
295.756	265.81
295.987	257.81
296.217	264.81
296.448	251.81
296.679	247.81
296.909	240.81
297.14	260.81
297.37	257.81
297.601	259.81
297.831	278.81
298.062	270.81
298.292	269.81
298.523	270.81
298.753	268.81
298.984	266.81
299.214	262.81
299.445	246.81
299.675	266.81
299.905	272.81
300.136	259.81
300.366	282.81
300.597	281.81
300.827	278.81
301.057	268.81
301.288	274.81
301.518	257.81
301.748	273.81
301.979	289.81
302.209	289.81
302.439	290.81
302.669	280.81
302.9	261.81
303.13	272.81
303.36	271.81
303.59	274.81
303.82	274.81
304.051	280.81
304.281	278.81
304.511	279.81
304.741	285.81
304.971	287.81
305.201	284.81
305.431	279.81
305.661	288.81
305.891	275.81
306.121	274.81
306.352	283.81
306.582	269.81
306.812	268.81
307.042	280.81
307.272	267.81
307.502	279.81
307.731	264.81
307.961	282.81
308.191	279.81
308.421	270.81
308.651	270.81
308.881	285.81
309.111	275.81
309.341	287.81
309.571	299.81
309.8	278.81
310.03	289.81
310.26	266.81
310.49	285.81
310.72	286.81
310.949	281.81
311.179	289.81
311.409	290.81
311.639	301.81
311.868	295.81
312.098	296.81
312.328	302.81
312.557	287.81
312.787	287.81
313.017	318.81
313.246	295.81
313.476	313.81
313.706	311.81
313.935	313.81
314.165	300.81
314.394	297.81
314.624	299.81
314.853	299.81
315.083	300.81
315.312	303.81
315.542	313.81
315.771	313.81
316.001	296.81
316.23	305.81
316.46	293.81
316.689	282.81
316.919	295.81
317.148	301.81
317.377	305.81
317.607	299.81
317.836	295.81
318.065	290.81
318.295	283.81
318.524	283.81
318.753	277.81
318.983	296.81
319.212	302.81
319.441	290.81
319.67	302.81
319.9	295.81
320.129	286.81
320.358	301.81
320.587	294.81
320.816	300.81
321.046	295.81
321.275	304.81
321.504	285.81
321.733	285.81
321.962	314.81
322.191	314.81
322.42	300.81
322.649	299.81
322.878	304.81
323.108	311.81
323.337	305.81
323.566	307.81
323.795	302.81
324.024	302.81
324.253	302.81
324.482	293.81
324.71	302.81
324.939	318.81
325.168	305.81
325.397	307.81
325.626	320.81
325.855	310.81
326.084	319.81
326.313	322.81
326.542	328.81
326.77	321.81
326.999	294.81
327.228	321.81
327.457	312.81
327.686	320.81
327.914	314.81
328.143	326.81
328.372	326.81
328.6	331.81
328.829	314.81
329.058	316.81
329.287	325.81
329.515	351.81
329.744	331.81
329.972	332.81
330.201	325.81
330.43	328.81
330.658	335.81
330.887	332.81
331.115	331.81
331.344	342.81
331.572	330.81
331.801	334.81
332.03	348.81
332.258	346.81
332.486	356.81
332.715	378.81
332.943	401.81
333.172	390.81
333.4	383.81
333.629	407.81
333.857	413.81
334.085	408.81
334.314	403.81
334.542	417.81
334.771	399.81
334.999	403.81
335.227	397.81
335.455	399.81
335.684	381.81
335.912	381.81
336.14	375.81
336.369	390.81
336.597	390.81
336.825	384.81
337.053	404.81
337.281	363.81
337.51	343.81
337.738	364.81
337.966	359.81
338.194	340.81
338.422	337.81
338.65	352.81
338.878	351.81
339.106	356.81
339.334	363.81
339.562	338.81
339.79	355.81
340.018	347.81
340.246	341.81
340.474	342.81
340.702	321.81
340.93	343.81
341.158	348.81
341.386	346.81
341.614	353.81
341.842	345.81
342.07	341.81
342.298	339.81
342.526	335.81
342.754	322.81
342.981	340.81
343.209	348.81
343.437	351.81
343.665	370.81
343.893	405.81
344.12	396.81
344.348	403.81
344.576	379.81
344.804	357.81
345.031	364.81
345.259	345.81
345.487	363.81
345.714	333.81
345.942	338.81
346.17	338.81
346.397	309.81
346.625	339.81
346.853	331.81
347.08	319.81
347.308	325.81
347.535	345.81
347.763	323.81
347.99	335.81
348.218	308.81
348.445	342.81
348.673	324.81
348.9	341.81
349.128	328.81
349.355	326.81
349.583	336.81
349.81	318.81
350.037	309.81
350.265	322.81
350.492	315.81
350.72	312.81
350.947	333.81
351.174	332.81
351.402	327.81
351.629	337.81
351.856	317.81
352.083	299.81
352.311	311.81
352.538	306.81
352.765	318.81
352.992	333.81
353.22	336.81
353.447	315.81
353.674	314.81
353.901	316.81
354.128	297.81
354.355	311.81
354.583	330.81
354.81	335.81
355.037	318.81
355.264	328.81
355.491	311.81
355.718	313.81
355.945	333.81
356.172	319.81
356.399	325.81
356.626	307.81
356.853	320.81
357.08	336.81
357.307	332.81
357.534	326.81
357.761	322.81
357.988	327.81
358.215	343.81
358.441	317.81
358.668	306.81
358.895	317.81
359.122	327.81
359.349	340.81
359.576	321.81
359.802	326.81
360.029	333.81
360.256	325.81
360.483	328.81
360.709	330.81
360.936	321.81
361.163	331.81
361.39	318.81
361.616	302.81
361.843	332.81
362.07	331.81
362.296	326.81
362.523	327.81
362.749	327.81
362.976	325.81
363.203	335.81
363.429	315.81
363.656	316.81
363.882	325.81
364.109	319.81
364.335	339.81
364.562	330.81
364.788	331.81
365.015	320.81
365.241	316.81
365.468	331.81
365.694	316.81
365.92	319.81
366.147	327.81
366.373	319.81
366.599	329.81
366.826	307.81
367.052	336.81
367.278	338.81
367.505	330.81
367.731	322.81
367.957	332.81
368.184	325.81
368.41	328.81
368.636	332.81
368.862	338.81
369.089	339.81
369.315	334.81
369.541	334.81
369.767	329.81
369.993	323.81
370.219	365.81
370.445	335.81
370.672	334.81
370.898	354.81
371.124	343.81
371.35	349.81
371.576	364.81
371.802	323.81
372.028	355.81
372.254	362.81
372.48	337.81
372.706	348.81
372.932	374.81
373.158	363.81
373.384	325.81
373.61	361.81
373.835	352.81
374.061	342.81
374.287	345.81
374.513	359.81
374.739	376.81
374.965	398.81
375.191	398.81
375.416	389.81
375.642	354.81
375.868	383.81
376.094	348.81
376.319	364.81
376.545	340.81
376.771	350.81
376.997	346.81
377.222	346.81
377.448	360.81
377.674	359.81
377.899	364.81
378.125	353.81
378.35	365.81
378.576	349.81
378.802	357.81
379.027	361.81
379.253	354.81
379.478	355.81
379.704	327.81
379.929	342.81
380.155	333.81
380.38	362.81
380.606	351.81
380.831	354.81
381.057	350.81
381.282	353.81
381.507	346.81
381.733	343.81
381.958	349.81
382.184	369.81
382.409	375.81
382.634	366.81
382.86	389.81
383.085	361.81
383.31	373.81
383.535	379.81
383.761	390.81
383.986	385.81
384.211	389.81
384.436	396.81
384.662	388.81
384.887	400.81
385.112	403.81
385.337	397.81
385.562	414.81
385.787	405.81
386.013	417.81
386.238	418.81
386.463	430.81
386.688	403.81
386.913	400.81
387.138	409.81
387.363	395.81
387.588	398.81
387.813	405.81
388.038	414.81
388.263	411.81
388.488	426.81
388.713	408.81
388.938	398.81
389.163	399.81
389.387	430.81
389.612	417.81
389.837	414.81
390.062	413.81
390.287	420.81
390.512	417.81
390.736	434.81
390.961	422.81
391.186	419.81
391.411	435.81
391.636	430.81
391.86	472.81
392.085	472.81
392.31	469.81
392.534	453.81
392.759	458.81
392.984	431.81
393.208	417.81
393.433	441.81
393.658	440.81
393.882	459.81
394.107	440.81
394.331	438.81
394.556	432.81
394.78	442.81
395.005	442.81
395.229	447.81
395.454	451.81
395.678	460.81
395.903	456.81
396.127	452.81
396.352	439.81
396.576	436.81
396.801	449.81
397.025	466.81
397.249	445.81
397.474	465.81
397.698	457.81
397.922	463.81
398.147	459.81
398.371	465.81
398.595	487.81
398.82	495.81
399.044	542.81
399.268	576.81
399.492	650.81
399.717	692.81
399.941	701.81
400.165	638.81
400.389	586.81
400.613	553.81
400.837	537.81
401.062	511.81
401.286	501.81
401.51	508.81
401.734	492.81
401.958	485.81
402.182	519.81
402.406	534.81
402.63	521.81
402.854	532.81
403.078	534.81
403.302	554.81
403.526	556.81
403.75	561.81
403.974	576.81
404.198	570.81
404.422	557.81
404.645	572.81
404.869	549.81
405.093	558.81
405.317	558.81
405.541	543.81
405.765	564.81
405.988	565.81
406.212	553.81
406.436	547.81
406.66	554.81
406.883	574.81
407.107	611.81
407.331	611.81
407.555	643.81
407.778	610.81
408.002	613.81
408.226	596.81
408.449	574.81
408.673	579.81
408.896	571.81
409.12	581.81
409.344	602.81
409.567	563.81
409.791	574.81
410.014	552.81
410.238	556.81
410.461	569.81
410.685	552.81
410.908	526.81
411.132	563.81
411.355	531.81
411.578	550.81
411.802	533.81
412.025	552.81
412.249	542.81
412.472	557.81
412.695	530.81
412.919	514.81
413.142	525.81
413.365	499.81
413.589	535.81
413.812	516.81
414.035	537.81
414.258	539.81
414.482	503.81
414.705	538.81
414.928	524.81
415.151	543.81
415.374	498.81
415.597	505.81
415.821	503.81
416.044	517.81
416.267	501.81
416.49	528.81
416.713	494.81
416.936	529.81
417.159	495.81
417.382	512.81
417.605	509.81
417.828	504.81
418.051	495.81
418.274	531.81
418.497	527.81
418.72	535.81
418.943	523.81
419.166	555.81
419.389	548.81
419.611	565.81
419.834	529.81
420.057	536.81
420.28	524.81
420.503	519.81
420.726	521.81
420.948	538.81
421.171	511.81
421.394	501.81
421.617	503.81
421.839	514.81
422.062	515.81
422.285	522.81
422.507	515.81
422.73	524.81
422.953	505.81
423.175	515.81
423.398	525.81
423.621	527.81
423.843	534.81
424.066	521.81
424.288	539.81
424.511	541.81
424.733	524.81
424.956	503.81
425.178	485.81
425.401	545.81
425.623	520.81
425.846	467.81
426.068	494.81
426.291	509.81
426.513	515.81
426.735	492.81
426.958	491.81
427.18	494.81
427.402	497.81
427.625	491.81
427.847	472.81
428.069	483.81
428.292	468.81
428.514	472.81
428.736	456.81
428.958	450.81
429.181	453.81
429.403	447.81
429.625	462.81
429.847	478.81
430.069	453.81
430.292	480.81
430.514	471.81
430.736	477.81
430.958	441.81
431.18	453.81
431.402	472.81
431.624	450.81
431.846	454.81
432.068	477.81
432.29	479.81
432.512	461.81
432.734	504.81
432.956	469.81
433.178	470.81
433.4	471.81
433.622	471.81
433.844	464.81
434.066	479.81
434.287	486.81
434.509	488.81
434.731	488.81
434.953	503.81
435.175	545.81
435.397	495.81
435.618	511.81
435.84	494.81
436.062	476.81
436.284	469.81
436.505	466.81
436.727	479.81
436.949	471.81
437.17	470.81
437.392	459.81
437.614	443.81
437.835	461.81
438.057	453.81
438.278	448.81
438.5	470.81
438.721	470.81
438.943	458.81
439.165	476.81
439.386	464.81
439.608	462.81
439.829	479.81
440.05	465.81
440.272	485.81
440.493	495.81
440.715	492.81
440.936	493.81
441.158	482.81
441.379	520.81
441.6	501.81
441.822	511.81
442.043	525.81
442.264	503.81
442.486	519.81
442.707	527.81
442.928	518.81
443.149	528.81
443.371	526.81
443.592	535.81
443.813	537.81
444.034	537.81
444.255	536.81
444.476	567.81
444.698	591.81
444.919	586.81
445.14	666.81
445.361	600.81
445.582	556.81
445.803	515.81
446.024	515.81
446.245	507.81
446.466	500.81
446.687	481.81
446.908	478.81
447.129	463.81
447.35	490.81
447.571	469.81
447.792	452.81
448.013	490.81
448.234	457.81
448.455	455.81
448.675	467.81
448.896	442.81
449.117	451.81
449.338	427.81
449.559	451.81
449.779	452.81
450	431.81
450.221	415.81
450.442	437.81
450.662	438.81
450.883	436.81
451.104	439.81
451.324	451.81
451.545	455.81
451.766	435.81
451.986	447.81
452.207	437.81
452.428	438.81
452.648	417.81
452.869	441.81
453.089	421.81
453.31	433.81
453.53	436.81
453.751	417.81
453.971	417.81
454.192	436.81
454.412	402.81
454.633	430.81
454.853	438.81
455.073	412.81
455.294	415.81
455.514	417.81
455.734	412.81
455.955	412.81
456.175	407.81
456.395	405.81
456.616	398.81
456.836	408.81
457.056	425.81
457.276	408.81
457.497	424.81
457.717	428.81
457.937	414.81
458.157	426.81
458.377	417.81
458.598	430.81
458.818	415.81
459.038	447.81
459.258	442.81
459.478	461.81
459.698	474.81
459.918	485.81
460.138	509.81
460.358	510.81
460.578	530.81
460.798	545.81
461.018	511.81
461.238	525.81
461.458	539.81
461.678	533.81
461.898	551.81
462.118	565.81
462.338	566.81
462.558	583.81
462.777	601.81
462.997	643.81
463.217	667.81
463.437	663.81
463.657	628.81
463.876	597.81
464.096	620.81
464.316	607.81
464.536	607.81
464.755	581.81
464.975	547.81
465.195	567.81
465.414	554.81
465.634	505.81
465.854	488.81
466.073	459.81
466.293	478.81
466.512	451.81
466.732	470.81
466.951	447.81
467.171	436.81
467.391	446.81
467.61	475.81
467.829	461.81
468.049	458.81
468.268	423.81
468.488	434.81
468.707	452.81
468.927	464.81
469.146	438.81
469.365	444.81
469.585	446.81
469.804	468.81
470.023	446.81
470.243	487.81
470.462	452.81
470.681	478.81
470.901	486.81
471.12	445.81
471.339	469.81
471.558	451.81
471.777	454.81
471.997	463.81
472.216	425.81
472.435	417.81
472.654	407.81
472.873	412.81
473.092	424.81
473.311	415.81
473.53	415.81
473.749	430.81
473.968	423.81
474.187	399.81
474.406	425.81
474.625	425.81
474.844	431.81
475.063	436.81
475.282	419.81
475.501	416.81
475.72	433.81
475.939	430.81
476.158	447.81
476.377	441.81
476.596	431.81
476.814	459.81
477.033	427.81
477.252	443.81
477.471	473.81
477.69	477.81
477.908	474.81
478.127	490.81
478.346	486.81
478.564	492.81
478.783	511.81
479.002	490.81
479.22	502.81
479.439	501.81
479.658	514.81
479.876	493.81
480.095	516.81
480.313	533.81
480.532	517.81
480.751	535.81
480.969	513.81
481.188	515.81
481.406	497.81
481.624	481.81
481.843	501.81
482.061	477.81
482.28	473.81
482.498	462.81
482.717	464.81
482.935	447.81
483.153	472.81
483.372	460.81
483.59	484.81
483.808	490.81
484.027	488.81
484.245	481.81
484.463	473.81
484.681	487.81
484.9	497.81
485.118	486.81
485.336	495.81
485.554	485.81
485.772	481.81
485.99	510.81
486.209	469.81
486.427	478.81
486.645	494.81
486.863	482.81
487.081	487.81
487.299	484.81
487.517	497.81
487.735	492.81
487.953	490.81
488.171	492.81
488.389	487.81
488.607	494.81
488.825	493.81
489.043	467.81
489.261	488.81
489.479	501.81
489.696	495.81
489.914	490.81
490.132	477.81
490.35	491.81
490.568	510.81
490.786	501.81
491.003	517.81
491.221	497.81
491.439	501.81
491.657	495.81
491.874	507.81
492.092	499.81
492.31	529.81
492.527	526.81
492.745	525.81
492.963	515.81
493.18	510.81
493.398	526.81
493.615	511.81
493.833	517.81
494.05	513.81
494.268	523.81
494.485	533.81
494.703	533.81
494.92	523.81
495.138	522.81
495.355	516.81
495.573	523.81
495.79	527.81
496.008	522.81
496.225	540.81
496.442	565.81
496.66	550.81
496.877	533.81
497.094	550.81
497.312	555.81
497.529	587.81
497.746	591.81
497.963	592.81
498.181	609.81
498.398	638.81
498.615	689.81
498.832	727.81
499.049	752.81
499.267	796.81
499.484	863.81
499.701	940.81
499.918	1011.81
500.135	1171.81
500.352	1241.81
500.569	1282.81
500.786	1279.81
501.003	1202.81
501.22	1108.81
501.437	986.81
501.654	899.81
