Data from Fe(NO3)3@0.0125M.TitratingCurve.Agarose3%dH2O.NegLispCup.LampEnergy10.LIBS07252019_HRD10591_17-00-17-337.txt Node
Date: Thu Jul 25 17:00:17 EDT 2019
User: cochatt
Spectrometer: HR+D1059
Trigger mode: 1
Integration Time (sec): 1.000000E-1
Scans to average: 1
Electric dark correction enabled: true
Nonlinearity correction enabled: false
Boxcar width: 0
XAxis mode: Wavelengths
Number of Pixels in Spectrum: 2048
>>>>>Begin Spectral Data<<<<<
223.165	-16.88
223.4	-16.88
223.635	-16.88
223.869	-20.88
224.104	-7.88
224.338	-12.88
224.573	-18.88
224.808	-26.88
225.042	3.12
225.277	-6.88
225.511	-4.88
225.746	20.12
225.98	12.12
226.215	17.12
226.449	5.12
226.683	12.12
226.918	27.12
227.152	19.12
227.387	32.12
227.621	39.12
227.856	49.12
228.09	49.12
228.324	50.12
228.559	43.12
228.793	63.12
229.027	83.12
229.262	87.12
229.496	86.12
229.73	88.12
229.964	96.12
230.199	98.12
230.433	88.12
230.667	97.12
230.901	100.12
231.136	102.12
231.37	98.12
231.604	95.12
231.838	100.12
232.072	101.12
232.306	123.12
232.541	125.12
232.775	109.12
233.009	113.12
233.243	125.12
233.477	104.12
233.711	109.12
233.945	123.12
234.179	106.12
234.413	119.12
234.647	125.12
234.881	125.12
235.115	112.12
235.349	121.12
235.583	119.12
235.817	107.12
236.051	106.12
236.285	116.12
236.519	117.12
236.753	121.12
236.987	113.12
237.221	124.12
237.455	112.12
237.689	128.12
237.922	112.12
238.156	115.12
238.39	127.12
238.624	120.12
238.858	128.12
239.091	116.12
239.325	128.12
239.559	119.12
239.793	125.12
240.027	137.12
240.26	129.12
240.494	125.12
240.728	118.12
240.961	152.12
241.195	131.12
241.429	127.12
241.662	138.12
241.896	128.12
242.13	119.12
242.363	136.12
242.597	131.12
242.83	118.12
243.064	116.12
243.298	137.12
243.531	132.12
243.765	146.12
243.998	144.12
244.232	125.12
244.465	131.12
244.699	136.12
244.932	142.12
245.166	155.12
245.399	151.12
245.633	132.12
245.866	144.12
246.099	151.12
246.333	156.12
246.566	155.12
246.8	150.12
247.033	134.12
247.266	148.12
247.5	149.12
247.733	146.12
247.966	154.12
248.2	162.12
248.433	154.12
248.666	151.12
248.899	150.12
249.133	154.12
249.366	155.12
249.599	170.12
249.832	162.12
250.066	148.12
250.299	160.12
250.532	170.12
250.765	159.12
250.998	161.12
251.231	152.12
251.465	154.12
251.698	163.12
251.931	175.12
252.164	162.12
252.397	151.12
252.63	167.12
252.863	166.12
253.096	193.12
253.329	177.12
253.562	177.12
253.795	184.12
254.028	182.12
254.261	194.12
254.494	192.12
254.727	183.12
254.96	160.12
255.193	185.12
255.426	169.12
255.659	184.12
255.892	151.12
256.124	186.12
256.357	184.12
256.59	175.12
256.823	191.12
257.056	170.12
257.289	172.12
257.521	185.12
257.754	178.12
257.987	194.12
258.22	187.12
258.452	192.12
258.685	189.12
258.918	202.12
259.151	189.12
259.383	193.12
259.616	203.12
259.849	209.12
260.081	233.12
260.314	248.12
260.547	220.12
260.779	183.12
261.012	224.12
261.244	215.12
261.477	219.12
261.71	193.12
261.942	206.12
262.175	199.12
262.407	206.12
262.64	207.12
262.872	215.12
263.105	227.12
263.337	219.12
263.57	203.12
263.802	211.12
264.035	199.12
264.267	219.12
264.499	205.12
264.732	201.12
264.964	204.12
265.197	216.12
265.429	197.12
265.661	211.12
265.894	207.12
266.126	198.12
266.358	227.12
266.591	215.12
266.823	208.12
267.055	222.12
267.287	228.12
267.52	204.12
267.752	213.12
267.984	223.12
268.216	216.12
268.448	225.12
268.681	219.12
268.913	231.12
269.145	217.12
269.377	223.12
269.609	248.12
269.841	236.12
270.073	223.12
270.306	223.12
270.538	240.12
270.77	224.12
271.002	234.12
271.234	242.12
271.466	244.12
271.698	242.12
271.93	236.12
272.162	231.12
272.394	230.12
272.626	234.12
272.858	258.12
273.09	252.12
273.322	259.12
273.553	262.12
273.785	252.12
274.017	267.12
274.249	273.12
274.481	274.12
274.713	287.12
274.945	289.12
275.176	298.12
275.408	274.12
275.64	287.12
275.872	271.12
276.104	253.12
276.335	251.12
276.567	267.12
276.799	280.12
277.031	259.12
277.262	287.12
277.494	253.12
277.726	275.12
277.957	252.12
278.189	255.12
278.421	259.12
278.652	253.12
278.884	273.12
279.115	260.12
279.347	277.12
279.579	265.12
279.81	275.12
280.042	258.12
280.273	269.12
280.505	266.12
280.736	284.12
280.968	277.12
281.199	280.12
281.431	283.12
281.662	274.12
281.894	301.12
282.125	284.12
282.356	272.12
282.588	265.12
282.819	296.12
283.051	280.12
283.282	288.12
283.513	300.12
283.745	276.12
283.976	264.12
284.207	276.12
284.439	287.12
284.67	295.12
284.901	305.12
285.132	292.12
285.364	297.12
285.595	291.12
285.826	295.12
286.057	275.12
286.288	291.12
286.52	309.12
286.751	303.12
286.982	284.12
287.213	314.12
287.444	292.12
287.675	315.12
287.906	303.12
288.138	313.12
288.369	286.12
288.6	291.12
288.831	296.12
289.062	314.12
289.293	307.12
289.524	292.12
289.755	296.12
289.986	309.12
290.217	301.12
290.448	304.12
290.679	322.12
290.91	313.12
291.141	320.12
291.371	311.12
291.602	303.12
291.833	289.12
292.064	312.12
292.295	312.12
292.526	339.12
292.757	310.12
292.987	307.12
293.218	311.12
293.449	307.12
293.68	298.12
293.91	298.12
294.141	314.12
294.372	326.12
294.603	328.12
294.833	319.12
295.064	309.12
295.295	319.12
295.525	319.12
295.756	325.12
295.987	327.12
296.217	313.12
296.448	314.12
296.679	328.12
296.909	316.12
297.14	336.12
297.37	336.12
297.601	335.12
297.831	329.12
298.062	317.12
298.292	335.12
298.523	344.12
298.753	328.12
298.984	346.12
299.214	336.12
299.445	360.12
299.675	362.12
299.905	340.12
300.136	350.12
300.366	351.12
300.597	353.12
300.827	355.12
301.057	343.12
301.288	348.12
301.518	354.12
301.748	343.12
301.979	359.12
302.209	376.12
302.439	371.12
302.669	336.12
302.9	355.12
303.13	339.12
303.36	364.12
303.59	347.12
303.82	361.12
304.051	388.12
304.281	375.12
304.511	356.12
304.741	367.12
304.971	350.12
305.201	372.12
305.431	343.12
305.661	354.12
305.891	370.12
306.121	372.12
306.352	349.12
306.582	368.12
306.812	358.12
307.042	369.12
307.272	375.12
307.502	378.12
307.731	377.12
307.961	374.12
308.191	363.12
308.421	381.12
308.651	368.12
308.881	358.12
309.111	383.12
309.341	356.12
309.571	374.12
309.8	369.12
310.03	362.12
310.26	383.12
310.49	393.12
310.72	375.12
310.949	377.12
311.179	389.12
311.409	381.12
311.639	391.12
311.868	387.12
312.098	380.12
312.328	395.12
312.557	411.12
312.787	373.12
313.017	394.12
313.246	391.12
313.476	398.12
313.706	413.12
313.935	401.12
314.165	394.12
314.394	394.12
314.624	385.12
314.853	398.12
315.083	398.12
315.312	377.12
315.542	402.12
315.771	409.12
316.001	406.12
316.23	406.12
316.46	397.12
316.689	412.12
316.919	411.12
317.148	395.12
317.377	409.12
317.607	411.12
317.836	410.12
318.065	411.12
318.295	422.12
318.524	395.12
318.753	417.12
318.983	405.12
319.212	401.12
319.441	408.12
319.67	417.12
319.9	428.12
320.129	412.12
320.358	418.12
320.587	431.12
320.816	406.12
321.046	406.12
321.275	428.12
321.504	425.12
321.733	410.12
321.962	436.12
322.191	428.12
322.42	425.12
322.649	419.12
322.878	418.12
323.108	416.12
323.337	413.12
323.566	435.12
323.795	433.12
324.024	421.12
324.253	435.12
324.482	466.12
324.71	440.12
324.939	436.12
325.168	452.12
325.397	438.12
325.626	445.12
325.855	439.12
326.084	440.12
326.313	460.12
326.542	445.12
326.77	432.12
326.999	452.12
327.228	431.12
327.457	462.12
327.686	457.12
327.914	448.12
328.143	446.12
328.372	434.12
328.6	445.12
328.829	444.12
329.058	444.12
329.287	443.12
329.515	473.12
329.744	444.12
329.972	473.12
330.201	460.12
330.43	436.12
330.658	456.12
330.887	460.12
331.115	457.12
331.344	455.12
331.572	484.12
331.801	459.12
332.03	471.12
332.258	461.12
332.486	479.12
332.715	477.12
332.943	476.12
333.172	481.12
333.4	483.12
333.629	503.12
333.857	515.12
334.085	508.12
334.314	506.12
334.542	523.12
334.771	510.12
334.999	491.12
335.227	519.12
335.455	511.12
335.684	537.12
335.912	519.12
336.14	519.12
336.369	531.12
336.597	517.12
336.825	524.12
337.053	495.12
337.281	491.12
337.51	480.12
337.738	496.12
337.966	494.12
338.194	485.12
338.422	500.12
338.65	481.12
338.878	493.12
339.106	485.12
339.334	508.12
339.562	527.12
339.79	489.12
340.018	478.12
340.246	466.12
340.474	497.12
340.702	487.12
340.93	479.12
341.158	514.12
341.386	499.12
341.614	491.12
341.842	488.12
342.07	480.12
342.298	495.12
342.526	494.12
342.754	481.12
342.981	493.12
343.209	489.12
343.437	479.12
343.665	468.12
343.893	495.12
344.12	553.12
344.348	522.12
344.576	521.12
344.804	504.12
345.031	520.12
345.259	491.12
345.487	507.12
345.714	501.12
345.942	490.12
346.17	485.12
346.397	490.12
346.625	492.12
346.853	501.12
347.08	466.12
347.308	485.12
347.535	491.12
347.763	469.12
347.99	461.12
348.218	472.12
348.445	470.12
348.673	468.12
348.9	473.12
349.128	475.12
349.355	484.12
349.583	486.12
349.81	479.12
350.037	473.12
350.265	482.12
350.492	457.12
350.72	472.12
350.947	460.12
351.174	474.12
351.402	491.12
351.629	478.12
351.856	483.12
352.083	473.12
352.311	476.12
352.538	468.12
352.765	456.12
352.992	460.12
353.22	470.12
353.447	460.12
353.674	471.12
353.901	482.12
354.128	480.12
354.355	455.12
354.583	457.12
354.81	450.12
355.037	475.12
355.264	486.12
355.491	467.12
355.718	487.12
355.945	489.12
356.172	464.12
356.399	482.12
356.626	460.12
356.853	479.12
357.08	484.12
357.307	511.12
357.534	487.12
357.761	488.12
357.988	485.12
358.215	504.12
358.441	491.12
358.668	460.12
358.895	474.12
359.122	491.12
359.349	480.12
359.576	468.12
359.802	468.12
360.029	472.12
360.256	482.12
360.483	472.12
360.709	480.12
360.936	480.12
361.163	486.12
361.39	496.12
361.616	487.12
361.843	499.12
362.07	499.12
362.296	474.12
362.523	479.12
362.749	482.12
362.976	476.12
363.203	500.12
363.429	509.12
363.656	503.12
363.882	488.12
364.109	481.12
364.335	496.12
364.562	476.12
364.788	496.12
365.015	511.12
365.241	485.12
365.468	490.12
365.694	464.12
365.92	493.12
366.147	479.12
366.373	496.12
366.599	502.12
366.826	481.12
367.052	519.12
367.278	507.12
367.505	506.12
367.731	505.12
367.957	517.12
368.184	508.12
368.41	515.12
368.636	508.12
368.862	500.12
369.089	522.12
369.315	523.12
369.541	489.12
369.767	513.12
369.993	504.12
370.219	483.12
370.445	513.12
370.672	523.12
370.898	515.12
371.124	523.12
371.35	525.12
371.576	525.12
371.802	514.12
372.028	539.12
372.254	532.12
372.48	546.12
372.706	530.12
372.932	526.12
373.158	531.12
373.384	536.12
373.61	569.12
373.835	568.12
374.061	544.12
374.287	543.12
374.513	535.12
374.739	566.12
374.965	568.12
375.191	541.12
375.416	530.12
375.642	535.12
375.868	553.12
376.094	562.12
376.319	555.12
376.545	541.12
376.771	550.12
376.997	519.12
377.222	525.12
377.448	538.12
377.674	531.12
377.899	524.12
378.125	503.12
378.35	511.12
378.576	519.12
378.802	528.12
379.027	537.12
379.253	531.12
379.478	520.12
379.704	511.12
379.929	538.12
380.155	518.12
380.38	531.12
380.606	527.12
380.831	520.12
381.057	544.12
381.282	551.12
381.507	546.12
381.733	575.12
381.958	545.12
382.184	561.12
382.409	556.12
382.634	577.12
382.86	581.12
383.085	588.12
383.31	554.12
383.535	561.12
383.761	571.12
383.986	558.12
384.211	566.12
384.436	577.12
384.662	529.12
384.887	571.12
385.112	595.12
385.337	585.12
385.562	580.12
385.787	597.12
386.013	595.12
386.238	574.12
386.463	594.12
386.688	580.12
386.913	587.12
387.138	589.12
387.363	569.12
387.588	576.12
387.813	579.12
388.038	576.12
388.263	596.12
388.488	595.12
388.713	590.12
388.938	632.12
389.163	600.12
389.387	578.12
389.612	595.12
389.837	631.12
390.062	585.12
390.287	607.12
390.512	612.12
390.736	587.12
390.961	631.12
391.186	599.12
391.411	608.12
391.636	607.12
391.86	617.12
392.085	639.12
392.31	621.12
392.534	614.12
392.759	633.12
392.984	618.12
393.208	639.12
393.433	671.12
393.658	696.12
393.882	627.12
394.107	623.12
394.331	617.12
394.556	654.12
394.78	637.12
395.005	640.12
395.229	646.12
395.454	639.12
395.678	641.12
395.903	629.12
396.127	648.12
396.352	635.12
396.576	639.12
396.801	654.12
397.025	692.12
397.249	662.12
397.474	655.12
397.698	652.12
397.922	666.12
398.147	685.12
398.371	667.12
398.595	653.12
398.82	675.12
399.044	697.12
399.268	705.12
399.492	741.12
399.717	745.12
399.941	768.12
400.165	744.12
400.389	778.12
400.613	729.12
400.837	723.12
401.062	700.12
401.286	709.12
401.51	667.12
401.734	692.12
401.958	698.12
402.182	693.12
402.406	708.12
402.63	684.12
402.854	684.12
403.078	700.12
403.302	698.12
403.526	690.12
403.75	708.12
403.974	695.12
404.198	693.12
404.422	693.12
404.645	715.12
404.869	721.12
405.093	713.12
405.317	729.12
405.541	705.12
405.765	712.12
405.988	768.12
406.212	723.12
406.436	727.12
406.66	731.12
406.883	737.12
407.107	753.12
407.331	779.12
407.555	796.12
407.778	771.12
408.002	804.12
408.226	781.12
408.449	788.12
408.673	757.12
408.896	759.12
409.12	728.12
409.344	760.12
409.567	739.12
409.791	753.12
410.014	751.12
410.238	744.12
410.461	735.12
410.685	754.12
410.908	724.12
411.132	731.12
411.355	700.12
411.578	735.12
411.802	719.12
412.025	712.12
412.249	743.12
412.472	732.12
412.695	725.12
412.919	721.12
413.142	724.12
413.365	698.12
413.589	707.12
413.812	705.12
414.035	686.12
414.258	690.12
414.482	701.12
414.705	720.12
414.928	678.12
415.151	696.12
415.374	708.12
415.597	687.12
415.821	680.12
416.044	677.12
416.267	667.12
416.49	685.12
416.713	696.12
416.936	699.12
417.159	671.12
417.382	661.12
417.605	697.12
417.828	652.12
418.051	677.12
418.274	674.12
418.497	652.12
418.72	663.12
418.943	663.12
419.166	706.12
419.389	715.12
419.611	704.12
419.834	698.12
420.057	687.12
420.28	683.12
420.503	661.12
420.726	655.12
420.948	657.12
421.171	679.12
421.394	637.12
421.617	645.12
421.839	669.12
422.062	670.12
422.285	636.12
422.507	661.12
422.73	689.12
422.953	662.12
423.175	640.12
423.398	685.12
423.621	657.12
423.843	653.12
424.066	666.12
424.288	669.12
424.511	650.12
424.733	637.12
424.956	665.12
425.178	661.12
425.401	651.12
425.623	664.12
425.846	655.12
426.068	658.12
426.291	648.12
426.513	659.12
426.735	665.12
426.958	650.12
427.18	653.12
427.402	668.12
427.625	636.12
427.847	623.12
428.069	630.12
428.292	668.12
428.514	641.12
428.736	641.12
428.958	659.12
429.181	625.12
429.403	632.12
429.625	644.12
429.847	653.12
430.069	658.12
430.292	646.12
430.514	624.12
430.736	671.12
430.958	659.12
431.18	659.12
431.402	669.12
431.624	638.12
431.846	640.12
432.068	651.12
432.29	655.12
432.512	645.12
432.734	644.12
432.956	627.12
433.178	656.12
433.4	640.12
433.622	645.12
433.844	635.12
434.066	639.12
434.287	653.12
434.509	647.12
434.731	663.12
434.953	691.12
435.175	664.12
435.397	671.12
435.618	667.12
435.84	676.12
436.062	631.12
436.284	644.12
436.505	639.12
436.727	640.12
436.949	636.12
437.17	639.12
437.392	627.12
437.614	635.12
437.835	631.12
438.057	630.12
438.278	619.12
438.5	652.12
438.721	646.12
438.943	637.12
439.165	636.12
439.386	654.12
439.608	644.12
439.829	641.12
440.05	652.12
440.272	643.12
440.493	654.12
440.715	671.12
440.936	663.12
441.158	651.12
441.379	632.12
441.6	645.12
441.822	642.12
442.043	664.12
442.264	644.12
442.486	657.12
442.707	674.12
442.928	653.12
443.149	655.12
443.371	667.12
443.592	667.12
443.813	664.12
444.034	643.12
444.255	663.12
444.476	655.12
444.698	659.12
444.919	694.12
445.14	759.12
445.361	716.12
445.582	673.12
445.803	647.12
446.024	633.12
446.245	658.12
446.466	662.12
446.687	642.12
446.908	620.12
447.129	650.12
447.35	635.12
447.571	627.12
447.792	632.12
448.013	611.12
448.234	604.12
448.455	595.12
448.675	610.12
448.896	636.12
449.117	610.12
449.338	619.12
449.559	604.12
449.779	615.12
450	597.12
450.221	611.12
450.442	604.12
450.662	604.12
450.883	589.12
451.104	618.12
451.324	586.12
451.545	602.12
451.766	595.12
451.986	577.12
452.207	593.12
452.428	578.12
452.648	596.12
452.869	603.12
453.089	619.12
453.31	611.12
453.53	601.12
453.751	593.12
453.971	582.12
454.192	593.12
454.412	566.12
454.633	571.12
454.853	560.12
455.073	569.12
455.294	568.12
455.514	567.12
455.734	592.12
455.955	583.12
456.175	572.12
456.395	579.12
456.616	574.12
456.836	575.12
457.056	590.12
457.276	561.12
457.497	561.12
457.717	595.12
457.937	580.12
458.157	589.12
458.377	583.12
458.598	596.12
458.818	600.12
459.038	621.12
459.258	592.12
459.478	641.12
459.698	637.12
459.918	638.12
460.138	651.12
460.358	645.12
460.578	668.12
460.798	687.12
461.018	664.12
461.238	684.12
461.458	698.12
461.678	673.12
461.898	677.12
462.118	725.12
462.338	714.12
462.558	732.12
462.777	737.12
462.997	748.12
463.217	764.12
463.437	734.12
463.657	725.12
463.876	735.12
464.096	742.12
464.316	719.12
464.536	724.12
464.755	700.12
464.975	719.12
465.195	707.12
465.414	689.12
465.634	664.12
465.854	674.12
466.073	657.12
466.293	636.12
466.512	644.12
466.732	632.12
466.951	641.12
467.171	629.12
467.391	636.12
467.61	642.12
467.829	639.12
468.049	636.12
468.268	611.12
468.488	627.12
468.707	615.12
468.927	636.12
469.146	628.12
469.365	657.12
469.585	637.12
469.804	633.12
470.023	641.12
470.243	625.12
470.462	647.12
470.681	647.12
470.901	628.12
471.12	655.12
471.339	649.12
471.558	648.12
471.777	648.12
471.997	645.12
472.216	663.12
472.435	637.12
472.654	620.12
472.873	629.12
473.092	647.12
473.311	642.12
473.53	633.12
473.749	655.12
473.968	650.12
474.187	636.12
474.406	638.12
474.625	653.12
474.844	637.12
475.063	665.12
475.282	679.12
475.501	659.12
475.72	665.12
475.939	659.12
476.158	676.12
476.377	708.12
476.596	707.12
476.814	695.12
477.033	684.12
477.252	712.12
477.471	672.12
477.69	705.12
477.908	727.12
478.127	725.12
478.346	735.12
478.564	760.12
478.783	746.12
479.002	760.12
479.22	753.12
479.439	781.12
479.658	754.12
479.876	773.12
480.095	781.12
480.313	775.12
480.532	748.12
480.751	782.12
480.969	761.12
481.188	792.12
481.406	786.12
481.624	771.12
481.843	767.12
482.061	789.12
482.28	765.12
482.498	769.12
482.717	771.12
482.935	782.12
483.153	772.12
483.372	763.12
483.59	788.12
483.808	793.12
484.027	791.12
484.245	789.12
484.463	776.12
484.681	804.12
484.9	801.12
485.118	802.12
485.336	779.12
485.554	803.12
485.772	775.12
485.99	819.12
486.209	795.12
486.427	780.12
486.645	807.12
486.863	819.12
487.081	792.12
487.299	796.12
487.517	835.12
487.735	808.12
487.953	800.12
488.171	802.12
488.389	820.12
488.607	816.12
488.825	785.12
489.043	787.12
489.261	804.12
489.479	793.12
489.696	803.12
489.914	812.12
490.132	797.12
490.35	795.12
490.568	796.12
490.786	816.12
491.003	812.12
491.221	812.12
491.439	830.12
491.657	821.12
491.874	799.12
492.092	817.12
492.31	800.12
492.527	823.12
492.745	831.12
492.963	842.12
493.18	805.12
493.398	810.12
493.615	825.12
493.833	831.12
494.05	827.12
494.268	825.12
494.485	812.12
494.703	830.12
494.92	851.12
495.138	855.12
495.355	837.12
495.573	861.12
495.79	844.12
496.008	858.12
496.225	892.12
496.442	883.12
496.66	890.12
496.877	888.12
497.094	912.12
497.312	924.12
497.529	907.12
497.746	918.12
497.963	924.12
498.181	967.12
498.398	977.12
498.615	986.12
498.832	1021.12
499.049	1076.12
499.267	1081.12
499.484	1107.12
499.701	1137.12
499.918	1171.12
500.135	1225.12
500.352	1229.12
500.569	1252.12
500.786	1294.12
501.003	1233.12
501.22	1192.12
501.437	1206.12
