Data from Fe(NO3)3@0.05M.TitratingCurve.Agarose3%dH2O.NegLispCup.LampEnergy10.LIBS07252019_HRD10591_16-48-05-334.txt Node
Date: Thu Jul 25 16:48:05 EDT 2019
User: cochatt
Spectrometer: HR+D1059
Trigger mode: 1
Integration Time (sec): 1.000000E-1
Scans to average: 1
Electric dark correction enabled: true
Nonlinearity correction enabled: false
Boxcar width: 0
XAxis mode: Wavelengths
Number of Pixels in Spectrum: 2048
>>>>>Begin Spectral Data<<<<<
223.165	-20.88
223.4	-20.88
223.635	-20.88
223.869	-27.88
224.104	-10.88
224.338	-21.88
224.573	-15.88
224.808	-0.88
225.042	-8.88
225.277	-13.88
225.511	4.12
225.746	9.12
225.98	11.12
226.215	9.12
226.449	23.12
226.683	13.12
226.918	27.12
227.152	24.12
227.387	37.12
227.621	47.12
227.856	48.12
228.09	53.12
228.324	47.12
228.559	50.12
228.793	70.12
229.027	71.12
229.262	75.12
229.496	67.12
229.73	67.12
229.964	80.12
230.199	65.12
230.433	83.12
230.667	73.12
230.901	80.12
231.136	94.12
231.37	87.12
231.604	93.12
231.838	90.12
232.072	80.12
232.306	103.12
232.541	84.12
232.775	69.12
233.009	87.12
233.243	87.12
233.477	100.12
233.711	97.12
233.945	85.12
234.179	87.12
234.413	97.12
234.647	97.12
234.881	96.12
235.115	84.12
235.349	81.12
235.583	85.12
235.817	88.12
236.051	82.12
236.285	82.12
236.519	80.12
236.753	91.12
236.987	82.12
237.221	85.12
237.455	92.12
237.689	91.12
237.922	112.12
238.156	85.12
238.39	92.12
238.624	96.12
238.858	102.12
239.091	84.12
239.325	98.12
239.559	96.12
239.793	93.12
240.027	89.12
240.26	85.12
240.494	94.12
240.728	92.12
240.961	99.12
241.195	105.12
241.429	94.12
241.662	88.12
241.896	100.12
242.13	98.12
242.363	107.12
242.597	103.12
242.83	100.12
243.064	98.12
243.298	92.12
243.531	93.12
243.765	89.12
243.998	95.12
244.232	101.12
244.465	100.12
244.699	107.12
244.932	95.12
245.166	101.12
245.399	88.12
245.633	101.12
245.866	99.12
246.099	108.12
246.333	101.12
246.566	105.12
246.8	100.12
247.033	103.12
247.266	105.12
247.5	92.12
247.733	89.12
247.966	101.12
248.2	107.12
248.433	106.12
248.666	102.12
248.899	102.12
249.133	99.12
249.366	112.12
249.599	105.12
249.832	89.12
250.066	108.12
250.299	98.12
250.532	111.12
250.765	104.12
250.998	105.12
251.231	91.12
251.465	97.12
251.698	96.12
251.931	92.12
252.164	100.12
252.397	116.12
252.63	113.12
252.863	122.12
253.096	119.12
253.329	107.12
253.562	105.12
253.795	104.12
254.028	100.12
254.261	123.12
254.494	113.12
254.727	103.12
254.96	121.12
255.193	122.12
255.426	117.12
255.659	116.12
255.892	113.12
256.124	115.12
256.357	101.12
256.59	115.12
256.823	119.12
257.056	100.12
257.289	113.12
257.521	96.12
257.754	103.12
257.987	113.12
258.22	119.12
258.452	117.12
258.685	139.12
258.918	108.12
259.151	109.12
259.383	122.12
259.616	125.12
259.849	124.12
260.081	132.12
260.314	131.12
260.547	119.12
260.779	111.12
261.012	123.12
261.244	113.12
261.477	121.12
261.71	115.12
261.942	112.12
262.175	128.12
262.407	117.12
262.64	129.12
262.872	132.12
263.105	114.12
263.337	121.12
263.57	119.12
263.802	124.12
264.035	109.12
264.267	120.12
264.499	105.12
264.732	109.12
264.964	121.12
265.197	131.12
265.429	123.12
265.661	131.12
265.894	121.12
266.126	118.12
266.358	121.12
266.591	107.12
266.823	125.12
267.055	131.12
267.287	124.12
267.52	115.12
267.752	129.12
267.984	125.12
268.216	107.12
268.448	117.12
268.681	133.12
268.913	122.12
269.145	121.12
269.377	138.12
269.609	120.12
269.841	124.12
270.073	117.12
270.306	115.12
270.538	145.12
270.77	135.12
271.002	130.12
271.234	140.12
271.466	142.12
271.698	141.12
271.93	149.12
272.162	127.12
272.394	128.12
272.626	128.12
272.858	136.12
273.09	135.12
273.322	134.12
273.553	146.12
273.785	142.12
274.017	152.12
274.249	127.12
274.481	137.12
274.713	139.12
274.945	147.12
275.176	137.12
275.408	132.12
275.64	137.12
275.872	150.12
276.104	146.12
276.335	137.12
276.567	135.12
276.799	134.12
277.031	148.12
277.262	132.12
277.494	148.12
277.726	137.12
277.957	135.12
278.189	151.12
278.421	138.12
278.652	136.12
278.884	138.12
279.115	135.12
279.347	142.12
279.579	143.12
279.81	134.12
280.042	136.12
280.273	132.12
280.505	140.12
280.736	144.12
280.968	131.12
281.199	122.12
281.431	138.12
281.662	140.12
281.894	153.12
282.125	146.12
282.356	148.12
282.588	146.12
282.819	129.12
283.051	133.12
283.282	136.12
283.513	147.12
283.745	155.12
283.976	141.12
284.207	138.12
284.439	146.12
284.67	147.12
284.901	146.12
285.132	151.12
285.364	166.12
285.595	159.12
285.826	148.12
286.057	162.12
286.288	153.12
286.52	153.12
286.751	143.12
286.982	148.12
287.213	132.12
287.444	139.12
287.675	166.12
287.906	140.12
288.138	146.12
288.369	141.12
288.6	135.12
288.831	154.12
289.062	147.12
289.293	144.12
289.524	151.12
289.755	149.12
289.986	145.12
290.217	146.12
290.448	153.12
290.679	149.12
290.91	156.12
291.141	169.12
291.371	150.12
291.602	145.12
291.833	140.12
292.064	147.12
292.295	153.12
292.526	154.12
292.757	161.12
292.987	147.12
293.218	165.12
293.449	164.12
293.68	159.12
293.91	142.12
294.141	154.12
294.372	161.12
294.603	150.12
294.833	140.12
295.064	147.12
295.295	153.12
295.525	161.12
295.756	163.12
295.987	158.12
296.217	159.12
296.448	168.12
296.679	158.12
296.909	149.12
297.14	156.12
297.37	164.12
297.601	149.12
297.831	140.12
298.062	160.12
298.292	157.12
298.523	176.12
298.753	164.12
298.984	162.12
299.214	169.12
299.445	158.12
299.675	169.12
299.905	145.12
300.136	157.12
300.366	164.12
300.597	160.12
300.827	154.12
301.057	148.12
301.288	170.12
301.518	170.12
301.748	172.12
301.979	167.12
302.209	188.12
302.439	155.12
302.669	152.12
302.9	161.12
303.13	163.12
303.36	163.12
303.59	161.12
303.82	155.12
304.051	159.12
304.281	157.12
304.511	172.12
304.741	181.12
304.971	164.12
305.201	160.12
305.431	159.12
305.661	159.12
305.891	181.12
306.121	177.12
306.352	162.12
306.582	156.12
306.812	158.12
307.042	152.12
307.272	160.12
307.502	169.12
307.731	167.12
307.961	166.12
308.191	158.12
308.421	141.12
308.651	171.12
308.881	174.12
309.111	150.12
309.341	154.12
309.571	163.12
309.8	168.12
310.03	158.12
310.26	164.12
310.49	183.12
310.72	168.12
310.949	167.12
311.179	168.12
311.409	178.12
311.639	169.12
311.868	177.12
312.098	169.12
312.328	161.12
312.557	172.12
312.787	169.12
313.017	177.12
313.246	172.12
313.476	161.12
313.706	185.12
313.935	173.12
314.165	161.12
314.394	172.12
314.624	158.12
314.853	176.12
315.083	172.12
315.312	169.12
315.542	161.12
315.771	178.12
316.001	173.12
316.23	193.12
316.46	164.12
316.689	200.12
316.919	184.12
317.148	185.12
317.377	173.12
317.607	174.12
317.836	187.12
318.065	171.12
318.295	183.12
318.524	175.12
318.753	177.12
318.983	167.12
319.212	183.12
319.441	171.12
319.67	175.12
319.9	183.12
320.129	175.12
320.358	182.12
320.587	168.12
320.816	180.12
321.046	177.12
321.275	167.12
321.504	168.12
321.733	172.12
321.962	172.12
322.191	176.12
322.42	170.12
322.649	192.12
322.878	184.12
323.108	186.12
323.337	178.12
323.566	177.12
323.795	169.12
324.024	172.12
324.253	173.12
324.482	165.12
324.71	188.12
324.939	167.12
325.168	191.12
325.397	185.12
325.626	186.12
325.855	163.12
326.084	196.12
326.313	173.12
326.542	186.12
326.77	184.12
326.999	171.12
327.228	172.12
327.457	193.12
327.686	175.12
327.914	178.12
328.143	194.12
328.372	179.12
328.6	173.12
328.829	195.12
329.058	198.12
329.287	190.12
329.515	197.12
329.744	193.12
329.972	191.12
330.201	196.12
330.43	179.12
330.658	185.12
330.887	198.12
331.115	191.12
331.344	186.12
331.572	181.12
331.801	194.12
332.03	201.12
332.258	196.12
332.486	206.12
332.715	211.12
332.943	204.12
333.172	198.12
333.4	210.12
333.629	204.12
333.857	215.12
334.085	226.12
334.314	224.12
334.542	239.12
334.771	224.12
334.999	236.12
335.227	211.12
335.455	214.12
335.684	193.12
335.912	209.12
336.14	201.12
336.369	218.12
336.597	212.12
336.825	200.12
337.053	208.12
337.281	193.12
337.51	203.12
337.738	185.12
337.966	215.12
338.194	200.12
338.422	194.12
338.65	213.12
338.878	211.12
339.106	207.12
339.334	212.12
339.562	182.12
339.79	193.12
340.018	188.12
340.246	200.12
340.474	205.12
340.702	193.12
340.93	200.12
341.158	188.12
341.386	201.12
341.614	195.12
341.842	186.12
342.07	194.12
342.298	197.12
342.526	195.12
342.754	200.12
342.981	191.12
343.209	178.12
343.437	213.12
343.665	213.12
343.893	212.12
344.12	208.12
344.348	220.12
344.576	208.12
344.804	210.12
345.031	197.12
345.259	215.12
345.487	200.12
345.714	187.12
345.942	194.12
346.17	195.12
346.397	190.12
346.625	194.12
346.853	187.12
347.08	192.12
347.308	199.12
347.535	195.12
347.763	179.12
347.99	183.12
348.218	204.12
348.445	195.12
348.673	190.12
348.9	186.12
349.128	194.12
349.355	204.12
349.583	198.12
349.81	193.12
350.037	188.12
350.265	184.12
350.492	179.12
350.72	192.12
350.947	180.12
351.174	192.12
351.402	209.12
351.629	210.12
351.856	195.12
352.083	195.12
352.311	195.12
352.538	190.12
352.765	188.12
352.992	177.12
353.22	191.12
353.447	209.12
353.674	195.12
353.901	195.12
354.128	182.12
354.355	200.12
354.583	185.12
354.81	182.12
355.037	192.12
355.264	186.12
355.491	195.12
355.718	203.12
355.945	195.12
356.172	195.12
356.399	183.12
356.626	173.12
356.853	187.12
357.08	204.12
357.307	195.12
357.534	205.12
357.761	206.12
357.988	183.12
358.215	194.12
358.441	214.12
358.668	202.12
358.895	193.12
359.122	184.12
359.349	201.12
359.576	193.12
359.802	171.12
360.029	186.12
360.256	187.12
360.483	201.12
360.709	193.12
360.936	210.12
361.163	199.12
361.39	200.12
361.616	199.12
361.843	200.12
362.07	214.12
362.296	199.12
362.523	200.12
362.749	199.12
362.976	199.12
363.203	207.12
363.429	197.12
363.656	205.12
363.882	193.12
364.109	203.12
364.335	204.12
364.562	217.12
364.788	185.12
365.015	184.12
365.241	201.12
365.468	208.12
365.694	199.12
365.92	193.12
366.147	207.12
366.373	198.12
366.599	186.12
366.826	197.12
367.052	200.12
367.278	187.12
367.505	206.12
367.731	193.12
367.957	194.12
368.184	192.12
368.41	210.12
368.636	200.12
368.862	197.12
369.089	203.12
369.315	192.12
369.541	196.12
369.767	205.12
369.993	203.12
370.219	207.12
370.445	216.12
370.672	200.12
370.898	211.12
371.124	220.12
371.35	205.12
371.576	215.12
371.802	218.12
372.028	215.12
372.254	214.12
372.48	220.12
372.706	212.12
372.932	228.12
373.158	227.12
373.384	222.12
373.61	231.12
373.835	213.12
374.061	204.12
374.287	244.12
374.513	208.12
374.739	240.12
374.965	236.12
375.191	229.12
375.416	231.12
375.642	236.12
375.868	223.12
376.094	232.12
376.319	213.12
376.545	231.12
376.771	224.12
376.997	212.12
377.222	208.12
377.448	201.12
377.674	215.12
377.899	217.12
378.125	199.12
378.35	211.12
378.576	216.12
378.802	211.12
379.027	221.12
379.253	210.12
379.478	235.12
379.704	229.12
379.929	226.12
380.155	223.12
380.38	214.12
380.606	226.12
380.831	226.12
381.057	230.12
381.282	227.12
381.507	234.12
381.733	231.12
381.958	241.12
382.184	232.12
382.409	227.12
382.634	241.12
382.86	236.12
383.085	235.12
383.31	228.12
383.535	225.12
383.761	242.12
383.986	257.12
384.211	260.12
384.436	250.12
384.662	249.12
384.887	233.12
385.112	257.12
385.337	266.12
385.562	242.12
385.787	255.12
386.013	267.12
386.238	258.12
386.463	256.12
386.688	250.12
386.913	241.12
387.138	242.12
387.363	243.12
387.588	261.12
387.813	265.12
388.038	247.12
388.263	244.12
388.488	275.12
388.713	269.12
388.938	255.12
389.163	247.12
389.387	260.12
389.612	233.12
389.837	255.12
390.062	263.12
390.287	266.12
390.512	243.12
390.736	255.12
390.961	265.12
391.186	253.12
391.411	254.12
391.636	265.12
391.86	262.12
392.085	280.12
392.31	268.12
392.534	295.12
392.759	276.12
392.984	250.12
393.208	269.12
393.433	264.12
393.658	267.12
393.882	276.12
394.107	274.12
394.331	272.12
394.556	266.12
394.78	258.12
395.005	278.12
395.229	272.12
395.454	287.12
395.678	288.12
395.903	269.12
396.127	268.12
396.352	252.12
396.576	268.12
396.801	290.12
397.025	273.12
397.249	284.12
397.474	283.12
397.698	262.12
397.922	274.12
398.147	295.12
398.371	271.12
398.595	289.12
398.82	301.12
399.044	332.12
399.268	330.12
399.492	367.12
399.717	356.12
399.941	394.12
400.165	358.12
400.389	347.12
400.613	330.12
400.837	306.12
401.062	312.12
401.286	312.12
401.51	302.12
401.734	306.12
401.958	306.12
402.182	314.12
402.406	325.12
402.63	317.12
402.854	318.12
403.078	320.12
403.302	313.12
403.526	336.12
403.75	323.12
403.974	330.12
404.198	352.12
404.422	315.12
404.645	311.12
404.869	341.12
405.093	325.12
405.317	316.12
405.541	324.12
405.765	343.12
405.988	324.12
406.212	311.12
406.436	337.12
406.66	329.12
406.883	343.12
407.107	351.12
407.331	353.12
407.555	349.12
407.778	350.12
408.002	372.12
408.226	339.12
408.449	361.12
408.673	353.12
408.896	336.12
409.12	330.12
409.344	324.12
409.567	345.12
409.791	332.12
410.014	333.12
410.238	322.12
410.461	327.12
410.685	319.12
410.908	338.12
411.132	337.12
411.355	330.12
411.578	320.12
411.802	311.12
412.025	307.12
412.249	324.12
412.472	338.12
412.695	327.12
412.919	324.12
413.142	330.12
413.365	331.12
413.589	342.12
413.812	316.12
414.035	324.12
414.258	309.12
414.482	307.12
414.705	313.12
414.928	304.12
415.151	318.12
415.374	318.12
415.597	310.12
415.821	313.12
416.044	324.12
416.267	309.12
416.49	304.12
416.713	323.12
416.936	326.12
417.159	322.12
417.382	309.12
417.605	304.12
417.828	319.12
418.051	318.12
418.274	328.12
418.497	308.12
418.72	331.12
418.943	332.12
419.166	322.12
419.389	340.12
419.611	326.12
419.834	336.12
420.057	325.12
420.28	307.12
420.503	306.12
420.726	311.12
420.948	324.12
421.171	325.12
421.394	312.12
421.617	296.12
421.839	328.12
422.062	298.12
422.285	313.12
422.507	304.12
422.73	305.12
422.953	311.12
423.175	307.12
423.398	327.12
423.621	319.12
423.843	340.12
424.066	319.12
424.288	333.12
424.511	310.12
424.733	331.12
424.956	329.12
425.178	334.12
425.401	331.12
425.623	307.12
425.846	317.12
426.068	314.12
426.291	327.12
426.513	303.12
426.735	320.12
426.958	301.12
427.18	312.12
427.402	321.12
427.625	324.12
427.847	309.12
428.069	292.12
428.292	317.12
428.514	308.12
428.736	300.12
428.958	305.12
429.181	307.12
429.403	294.12
429.625	292.12
429.847	316.12
430.069	288.12
430.292	311.12
430.514	303.12
430.736	293.12
430.958	305.12
431.18	307.12
431.402	298.12
431.624	311.12
431.846	297.12
432.068	274.12
432.29	296.12
432.512	296.12
432.734	310.12
432.956	298.12
433.178	315.12
433.4	318.12
433.622	320.12
433.844	313.12
434.066	319.12
434.287	308.12
434.509	289.12
434.731	328.12
434.953	323.12
435.175	320.12
435.397	341.12
435.618	319.12
435.84	317.12
436.062	303.12
436.284	298.12
436.505	311.12
436.727	314.12
436.949	319.12
437.17	323.12
437.392	315.12
437.614	312.12
437.835	301.12
438.057	308.12
438.278	303.12
438.5	309.12
438.721	313.12
438.943	304.12
439.165	305.12
439.386	307.12
439.608	323.12
439.829	322.12
440.05	324.12
440.272	325.12
440.493	322.12
440.715	319.12
440.936	324.12
441.158	312.12
441.379	324.12
441.6	347.12
441.822	333.12
442.043	342.12
442.264	341.12
442.486	322.12
442.707	339.12
442.928	337.12
443.149	332.12
443.371	346.12
443.592	330.12
443.813	340.12
444.034	355.12
444.255	360.12
444.476	359.12
444.698	370.12
444.919	387.12
445.14	487.12
445.361	418.12
445.582	337.12
445.803	330.12
446.024	323.12
446.245	344.12
446.466	328.12
446.687	331.12
446.908	334.12
447.129	321.12
447.35	325.12
447.571	328.12
447.792	325.12
448.013	307.12
448.234	306.12
448.455	298.12
448.675	307.12
448.896	308.12
449.117	313.12
449.338	318.12
449.559	315.12
449.779	296.12
450	294.12
450.221	309.12
450.442	311.12
450.662	320.12
450.883	295.12
451.104	303.12
451.324	279.12
451.545	310.12
451.766	311.12
451.986	302.12
452.207	306.12
452.428	308.12
452.648	313.12
452.869	300.12
453.089	285.12
453.31	296.12
453.53	296.12
453.751	282.12
453.971	296.12
454.192	292.12
454.412	278.12
454.633	299.12
454.853	298.12
455.073	274.12
455.294	290.12
455.514	285.12
455.734	291.12
455.955	272.12
456.175	287.12
456.395	278.12
456.616	282.12
456.836	290.12
457.056	278.12
457.276	289.12
457.497	296.12
457.717	281.12
457.937	293.12
458.157	290.12
458.377	282.12
458.598	287.12
458.818	284.12
459.038	312.12
459.258	303.12
459.478	314.12
459.698	311.12
459.918	327.12
460.138	323.12
460.358	352.12
460.578	331.12
460.798	349.12
461.018	360.12
461.238	372.12
461.458	345.12
461.678	345.12
461.898	350.12
462.118	369.12
462.338	380.12
462.558	378.12
462.777	377.12
462.997	391.12
463.217	397.12
463.437	417.12
463.657	388.12
463.876	388.12
464.096	375.12
464.316	395.12
464.536	381.12
464.755	391.12
464.975	373.12
465.195	385.12
465.414	362.12
465.634	332.12
465.854	332.12
466.073	324.12
466.293	332.12
466.512	334.12
466.732	315.12
466.951	323.12
467.171	304.12
467.391	315.12
467.61	300.12
467.829	308.12
468.049	325.12
468.268	323.12
468.488	326.12
468.707	308.12
468.927	320.12
469.146	312.12
469.365	309.12
469.585	296.12
469.804	313.12
470.023	349.12
470.243	326.12
470.462	324.12
470.681	323.12
470.901	310.12
471.12	321.12
471.339	336.12
471.558	305.12
471.777	319.12
471.997	324.12
472.216	331.12
472.435	315.12
472.654	314.12
472.873	306.12
473.092	309.12
473.311	320.12
473.53	307.12
473.749	299.12
473.968	321.12
474.187	293.12
474.406	303.12
474.625	322.12
474.844	310.12
475.063	311.12
475.282	316.12
475.501	318.12
475.72	324.12
475.939	314.12
476.158	308.12
476.377	327.12
476.596	327.12
476.814	328.12
477.033	333.12
477.252	323.12
477.471	332.12
477.69	351.12
477.908	355.12
478.127	367.12
478.346	355.12
478.564	353.12
478.783	335.12
479.002	368.12
479.22	373.12
479.439	368.12
479.658	369.12
479.876	351.12
480.095	371.12
480.313	352.12
480.532	365.12
480.751	380.12
480.969	365.12
481.188	355.12
481.406	368.12
481.624	349.12
481.843	337.12
482.061	326.12
482.28	336.12
482.498	344.12
482.717	343.12
482.935	339.12
483.153	348.12
483.372	353.12
483.59	360.12
483.808	346.12
484.027	347.12
484.245	354.12
484.463	355.12
484.681	349.12
484.9	353.12
485.118	353.12
485.336	351.12
485.554	339.12
485.772	342.12
485.99	346.12
486.209	360.12
486.427	331.12
486.645	356.12
486.863	339.12
487.081	358.12
487.299	375.12
487.517	360.12
487.735	349.12
487.953	356.12
488.171	359.12
488.389	367.12
488.607	343.12
488.825	360.12
489.043	353.12
489.261	353.12
489.479	348.12
489.696	351.12
489.914	363.12
490.132	359.12
490.35	363.12
490.568	378.12
490.786	376.12
491.003	363.12
491.221	363.12
491.439	371.12
491.657	375.12
491.874	367.12
492.092	387.12
492.31	411.12
492.527	388.12
492.745	403.12
492.963	379.12
493.18	370.12
493.398	356.12
493.615	387.12
493.833	381.12
494.05	379.12
494.268	386.12
494.485	378.12
494.703	385.12
494.92	383.12
495.138	387.12
495.355	391.12
495.573	385.12
495.79	383.12
496.008	367.12
496.225	389.12
496.442	388.12
496.66	401.12
496.877	390.12
497.094	403.12
497.312	381.12
497.529	406.12
497.746	405.12
497.963	388.12
498.181	426.12
498.398	420.12
498.615	456.12
498.832	473.12
499.049	455.12
499.267	534.12
499.484	564.12
499.701	599.12
499.918	645.12
500.135	659.12
500.352	692.12
500.569	735.12
500.786	728.12
501.003	714.12
501.22	632.12
501.437	588.12
501.654	555.12
501.871	516.12
502.088	506.12
502.305	464.12
502.522	490.12
