Data from Fe(NO3)3@0.1M.TitratingCurve.Agarose3%dH2O.NegLispCup.LampEnergy10.LIBS07252019_HRD10591_16-40-04-332.txt Node
Date: Thu Jul 25 16:40:04 EDT 2019
User: cochatt
Spectrometer: HR+D1059
Trigger mode: 1
Integration Time (sec): 1.000000E-1
Scans to average: 1
Electric dark correction enabled: true
Nonlinearity correction enabled: false
Boxcar width: 0
XAxis mode: Wavelengths
Number of Pixels in Spectrum: 2048
>>>>>Begin Spectral Data<<<<<
223.165	-16.69
223.4	-16.69
223.635	-16.69
223.869	-11.69
224.104	-21.69
224.338	-26.69
224.573	-15.69
224.808	-28.69
225.042	-8.69
225.277	3.31
225.511	0.31
225.746	10.31
225.98	7.31
226.215	29.31
226.449	6.31
226.683	13.31
226.918	21.31
227.152	38.31
227.387	36.31
227.621	38.31
227.856	49.31
228.09	42.31
228.324	43.31
228.559	51.31
228.793	58.31
229.027	73.31
229.262	73.31
229.496	79.31
229.73	86.31
229.964	87.31
230.199	80.31
230.433	80.31
230.667	93.31
230.901	97.31
231.136	88.31
231.37	112.31
231.604	97.31
231.838	90.31
232.072	99.31
232.306	105.31
232.541	104.31
232.775	98.31
233.009	98.31
233.243	103.31
233.477	117.31
233.711	99.31
233.945	107.31
234.179	104.31
234.413	99.31
234.647	112.31
234.881	103.31
235.115	92.31
235.349	105.31
235.583	107.31
235.817	98.31
236.051	99.31
236.285	101.31
236.519	104.31
236.753	106.31
236.987	117.31
237.221	99.31
237.455	108.31
237.689	96.31
237.922	82.31
238.156	104.31
238.39	94.31
238.624	98.31
238.858	106.31
239.091	114.31
239.325	118.31
239.559	103.31
239.793	107.31
240.027	127.31
240.26	122.31
240.494	107.31
240.728	115.31
240.961	111.31
241.195	117.31
241.429	107.31
241.662	109.31
241.896	106.31
242.13	118.31
242.363	110.31
242.597	101.31
242.83	119.31
243.064	123.31
243.298	128.31
243.531	112.31
243.765	123.31
243.998	127.31
244.232	116.31
244.465	123.31
244.699	124.31
244.932	108.31
245.166	126.31
245.399	132.31
245.633	120.31
245.866	115.31
246.099	124.31
246.333	120.31
246.566	117.31
246.8	107.31
247.033	118.31
247.266	128.31
247.5	128.31
247.733	113.31
247.966	131.31
248.2	121.31
248.433	131.31
248.666	133.31
248.899	116.31
249.133	123.31
249.366	135.31
249.599	146.31
249.832	142.31
250.066	129.31
250.299	127.31
250.532	136.31
250.765	119.31
250.998	133.31
251.231	133.31
251.465	135.31
251.698	136.31
251.931	140.31
252.164	135.31
252.397	144.31
252.63	144.31
252.863	137.31
253.096	140.31
253.329	155.31
253.562	144.31
253.795	152.31
254.028	150.31
254.261	136.31
254.494	129.31
254.727	151.31
254.96	119.31
255.193	139.31
255.426	148.31
255.659	144.31
255.892	140.31
256.124	137.31
256.357	128.31
256.59	140.31
256.823	136.31
257.056	150.31
257.289	138.31
257.521	136.31
257.754	143.31
257.987	156.31
258.22	155.31
258.452	150.31
258.685	161.31
258.918	145.31
259.151	142.31
259.383	153.31
259.616	150.31
259.849	156.31
260.081	167.31
260.314	175.31
260.547	150.31
260.779	158.31
261.012	156.31
261.244	150.31
261.477	162.31
261.71	152.31
261.942	154.31
262.175	169.31
262.407	167.31
262.64	161.31
262.872	174.31
263.105	163.31
263.337	174.31
263.57	147.31
263.802	164.31
264.035	170.31
264.267	180.31
264.499	152.31
264.732	154.31
264.964	153.31
265.197	156.31
265.429	175.31
265.661	173.31
265.894	158.31
266.126	180.31
266.358	187.31
266.591	174.31
266.823	168.31
267.055	168.31
267.287	171.31
267.52	164.31
267.752	158.31
267.984	169.31
268.216	183.31
268.448	172.31
268.681	158.31
268.913	169.31
269.145	168.31
269.377	169.31
269.609	162.31
269.841	171.31
270.073	188.31
270.306	172.31
270.538	190.31
270.77	182.31
271.002	182.31
271.234	185.31
271.466	185.31
271.698	175.31
271.93	184.31
272.162	185.31
272.394	200.31
272.626	192.31
272.858	200.31
273.09	171.31
273.322	194.31
273.553	184.31
273.785	179.31
274.017	195.31
274.249	202.31
274.481	193.31
274.713	195.31
274.945	191.31
275.176	201.31
275.408	195.31
275.64	204.31
275.872	196.31
276.104	188.31
276.335	202.31
276.567	197.31
276.799	187.31
277.031	202.31
277.262	191.31
277.494	194.31
277.726	186.31
277.957	206.31
278.189	213.31
278.421	199.31
278.652	200.31
278.884	201.31
279.115	186.31
279.347	209.31
279.579	190.31
279.81	195.31
280.042	197.31
280.273	218.31
280.505	195.31
280.736	203.31
280.968	204.31
281.199	207.31
281.431	216.31
281.662	192.31
281.894	205.31
282.125	202.31
282.356	209.31
282.588	211.31
282.819	223.31
283.051	215.31
283.282	214.31
283.513	221.31
283.745	207.31
283.976	218.31
284.207	213.31
284.439	207.31
284.67	214.31
284.901	227.31
285.132	217.31
285.364	214.31
285.595	201.31
285.826	224.31
286.057	215.31
286.288	196.31
286.52	220.31
286.751	219.31
286.982	224.31
287.213	220.31
287.444	231.31
287.675	234.31
287.906	205.31
288.138	220.31
288.369	219.31
288.6	214.31
288.831	225.31
289.062	246.31
289.293	228.31
289.524	226.31
289.755	220.31
289.986	232.31
290.217	225.31
290.448	241.31
290.679	240.31
290.91	229.31
291.141	238.31
291.371	223.31
291.602	219.31
291.833	217.31
292.064	226.31
292.295	230.31
292.526	225.31
292.757	228.31
292.987	241.31
293.218	227.31
293.449	241.31
293.68	234.31
293.91	215.31
294.141	234.31
294.372	252.31
294.603	233.31
294.833	240.31
295.064	238.31
295.295	267.31
295.525	235.31
295.756	224.31
295.987	230.31
296.217	242.31
296.448	230.31
296.679	232.31
296.909	230.31
297.14	245.31
297.37	244.31
297.601	241.31
297.831	241.31
298.062	241.31
298.292	255.31
298.523	240.31
298.753	246.31
298.984	236.31
299.214	241.31
299.445	241.31
299.675	247.31
299.905	252.31
300.136	248.31
300.366	237.31
300.597	244.31
300.827	259.31
301.057	254.31
301.288	242.31
301.518	253.31
301.748	241.31
301.979	255.31
302.209	254.31
302.439	246.31
302.669	267.31
302.9	253.31
303.13	245.31
303.36	243.31
303.59	254.31
303.82	264.31
304.051	244.31
304.281	248.31
304.511	256.31
304.741	264.31
304.971	262.31
305.201	268.31
305.431	244.31
305.661	268.31
305.891	244.31
306.121	271.31
306.352	256.31
306.582	257.31
306.812	255.31
307.042	260.31
307.272	257.31
307.502	263.31
307.731	263.31
307.961	276.31
308.191	247.31
308.421	235.31
308.651	244.31
308.881	264.31
309.111	256.31
309.341	250.31
309.571	251.31
309.8	262.31
310.03	261.31
310.26	226.31
310.49	252.31
310.72	245.31
310.949	243.31
311.179	270.31
311.409	252.31
311.639	254.31
311.868	262.31
312.098	264.31
312.328	270.31
312.557	277.31
312.787	267.31
313.017	275.31
313.246	275.31
313.476	264.31
313.706	280.31
313.935	259.31
314.165	284.31
314.394	273.31
314.624	259.31
314.853	268.31
315.083	281.31
315.312	281.31
315.542	276.31
315.771	264.31
316.001	271.31
316.23	266.31
316.46	266.31
316.689	260.31
316.919	269.31
317.148	274.31
317.377	269.31
317.607	278.31
317.836	275.31
318.065	247.31
318.295	262.31
318.524	266.31
318.753	248.31
318.983	264.31
319.212	278.31
319.441	258.31
319.67	263.31
319.9	263.31
320.129	277.31
320.358	268.31
320.587	259.31
320.816	286.31
321.046	269.31
321.275	282.31
321.504	275.31
321.733	259.31
321.962	237.31
322.191	248.31
322.42	285.31
322.649	284.31
322.878	270.31
323.108	260.31
323.337	258.31
323.566	259.31
323.795	277.31
324.024	279.31
324.253	271.31
324.482	280.31
324.71	277.31
324.939	272.31
325.168	288.31
325.397	291.31
325.626	301.31
325.855	275.31
326.084	308.31
326.313	291.31
326.542	296.31
326.77	304.31
326.999	307.31
327.228	289.31
327.457	293.31
327.686	272.31
327.914	292.31
328.143	310.31
328.372	288.31
328.6	288.31
328.829	286.31
329.058	285.31
329.287	283.31
329.515	294.31
329.744	288.31
329.972	308.31
330.201	286.31
330.43	325.31
330.658	318.31
330.887	308.31
331.115	323.31
331.344	315.31
331.572	319.31
331.801	312.31
332.03	307.31
332.258	315.31
332.486	328.31
332.715	349.31
332.943	347.31
333.172	370.31
333.4	386.31
333.629	387.31
333.857	373.31
334.085	360.31
334.314	352.31
334.542	375.31
334.771	364.31
334.999	372.31
335.227	368.31
335.455	372.31
335.684	374.31
335.912	378.31
336.14	374.31
336.369	362.31
336.597	342.31
336.825	363.31
337.053	361.31
337.281	359.31
337.51	343.31
337.738	334.31
337.966	347.31
338.194	333.31
338.422	326.31
338.65	333.31
338.878	315.31
339.106	319.31
339.334	335.31
339.562	305.31
339.79	300.31
340.018	314.31
340.246	318.31
340.474	308.31
340.702	307.31
340.93	311.31
341.158	300.31
341.386	328.31
341.614	303.31
341.842	299.31
342.07	303.31
342.298	313.31
342.526	294.31
342.754	322.31
342.981	320.31
343.209	324.31
343.437	314.31
343.665	338.31
343.893	347.31
344.12	364.31
344.348	340.31
344.576	340.31
344.804	337.31
345.031	314.31
345.259	329.31
345.487	313.31
345.714	310.31
345.942	314.31
346.17	298.31
346.397	318.31
346.625	302.31
346.853	298.31
347.08	299.31
347.308	300.31
347.535	296.31
347.763	291.31
347.99	302.31
348.218	310.31
348.445	308.31
348.673	295.31
348.9	278.31
349.128	304.31
349.355	306.31
349.583	315.31
349.81	300.31
350.037	310.31
350.265	306.31
350.492	287.31
350.72	300.31
350.947	296.31
351.174	300.31
351.402	289.31
351.629	280.31
351.856	304.31
352.083	296.31
352.311	301.31
352.538	286.31
352.765	318.31
352.992	294.31
353.22	297.31
353.447	305.31
353.674	312.31
353.901	293.31
354.128	276.31
354.355	306.31
354.583	297.31
354.81	292.31
355.037	300.31
355.264	306.31
355.491	315.31
355.718	308.31
355.945	292.31
356.172	283.31
356.399	312.31
356.626	304.31
356.853	280.31
357.08	295.31
357.307	288.31
357.534	302.31
357.761	304.31
357.988	288.31
358.215	281.31
358.441	294.31
358.668	292.31
358.895	293.31
359.122	278.31
359.349	288.31
359.576	300.31
359.802	281.31
360.029	294.31
360.256	311.31
360.483	314.31
360.709	299.31
360.936	316.31
361.163	303.31
361.39	299.31
361.616	281.31
361.843	297.31
362.07	313.31
362.296	275.31
362.523	309.31
362.749	307.31
362.976	290.31
363.203	294.31
363.429	307.31
363.656	306.31
363.882	288.31
364.109	290.31
364.335	294.31
364.562	296.31
364.788	298.31
365.015	306.31
365.241	297.31
365.468	302.31
365.694	280.31
365.92	285.31
366.147	281.31
366.373	275.31
366.599	291.31
366.826	305.31
367.052	292.31
367.278	306.31
367.505	306.31
367.731	287.31
367.957	304.31
368.184	299.31
368.41	288.31
368.636	302.31
368.862	296.31
369.089	277.31
369.315	307.31
369.541	307.31
369.767	310.31
369.993	319.31
370.219	311.31
370.445	320.31
370.672	324.31
370.898	313.31
371.124	312.31
371.35	341.31
371.576	335.31
371.802	309.31
372.028	313.31
372.254	336.31
372.48	338.31
372.706	307.31
372.932	336.31
373.158	328.31
373.384	338.31
373.61	345.31
373.835	294.31
374.061	330.31
374.287	334.31
374.513	340.31
374.739	344.31
374.965	369.31
375.191	356.31
375.416	361.31
375.642	349.31
375.868	335.31
376.094	345.31
376.319	358.31
376.545	324.31
376.771	317.31
376.997	331.31
377.222	312.31
377.448	333.31
377.674	326.31
377.899	308.31
378.125	314.31
378.35	330.31
378.576	322.31
378.802	322.31
379.027	357.31
379.253	326.31
379.478	323.31
379.704	320.31
379.929	317.31
380.155	294.31
380.38	321.31
380.606	326.31
380.831	315.31
381.057	322.31
381.282	322.31
381.507	343.31
381.733	312.31
381.958	327.31
382.184	336.31
382.409	334.31
382.634	348.31
382.86	335.31
383.085	348.31
383.31	340.31
383.535	348.31
383.761	363.31
383.986	358.31
384.211	376.31
384.436	376.31
384.662	364.31
384.887	374.31
385.112	378.31
385.337	382.31
385.562	386.31
385.787	385.31
386.013	407.31
386.238	379.31
386.463	384.31
386.688	387.31
386.913	369.31
387.138	377.31
387.363	401.31
387.588	393.31
387.813	377.31
388.038	382.31
388.263	387.31
388.488	375.31
388.713	371.31
388.938	386.31
389.163	387.31
389.387	377.31
389.612	375.31
389.837	379.31
390.062	370.31
390.287	368.31
390.512	383.31
390.736	389.31
390.961	395.31
391.186	376.31
391.411	396.31
391.636	414.31
391.86	423.31
392.085	419.31
392.31	430.31
392.534	417.31
392.759	424.31
392.984	406.31
393.208	414.31
393.433	407.31
393.658	420.31
393.882	403.31
394.107	403.31
394.331	417.31
394.556	417.31
394.78	421.31
395.005	418.31
395.229	413.31
395.454	414.31
395.678	436.31
395.903	441.31
396.127	409.31
396.352	417.31
396.576	400.31
396.801	416.31
397.025	421.31
397.249	419.31
397.474	447.31
397.698	438.31
397.922	435.31
398.147	435.31
398.371	442.31
398.595	462.31
398.82	469.31
399.044	506.31
399.268	539.31
399.492	580.31
399.717	660.31
399.941	656.31
400.165	592.31
400.389	542.31
400.613	534.31
400.837	515.31
401.062	482.31
401.286	481.31
401.51	478.31
401.734	485.31
401.958	481.31
402.182	467.31
402.406	478.31
402.63	514.31
402.854	505.31
403.078	508.31
403.302	527.31
403.526	516.31
403.75	545.31
403.974	534.31
404.198	542.31
404.422	537.31
404.645	535.31
404.869	547.31
405.093	542.31
405.317	542.31
405.541	510.31
405.765	514.31
405.988	510.31
406.212	505.31
406.436	517.31
406.66	522.31
406.883	571.31
407.107	580.31
407.331	566.31
407.555	591.31
407.778	592.31
408.002	599.31
408.226	594.31
408.449	566.31
408.673	560.31
408.896	559.31
409.12	538.31
409.344	570.31
409.567	523.31
409.791	558.31
410.014	548.31
410.238	546.31
410.461	547.31
410.685	539.31
410.908	532.31
411.132	540.31
411.355	498.31
411.578	519.31
411.802	514.31
412.025	514.31
412.249	540.31
412.472	509.31
412.695	505.31
412.919	503.31
413.142	498.31
413.365	480.31
413.589	500.31
413.812	492.31
414.035	484.31
414.258	480.31
414.482	513.31
414.705	502.31
414.928	498.31
415.151	500.31
415.374	507.31
415.597	480.31
415.821	483.31
416.044	484.31
416.267	499.31
416.49	479.31
416.713	469.31
416.936	502.31
417.159	494.31
417.382	479.31
417.605	469.31
417.828	483.31
418.051	476.31
418.274	477.31
418.497	493.31
418.72	498.31
418.943	479.31
419.166	511.31
419.389	565.31
419.611	527.31
419.834	511.31
420.057	512.31
420.28	497.31
420.503	478.31
420.726	488.31
420.948	475.31
421.171	515.31
421.394	485.31
421.617	483.31
421.839	508.31
422.062	484.31
422.285	487.31
422.507	501.31
422.73	508.31
422.953	484.31
423.175	495.31
423.398	479.31
423.621	514.31
423.843	495.31
424.066	524.31
424.288	514.31
424.511	499.31
424.733	518.31
424.956	492.31
425.178	500.31
425.401	484.31
425.623	516.31
425.846	502.31
426.068	475.31
426.291	472.31
426.513	458.31
426.735	478.31
426.958	469.31
427.18	457.31
427.402	453.31
427.625	464.31
427.847	467.31
428.069	434.31
428.292	446.31
428.514	448.31
428.736	456.31
428.958	457.31
429.181	437.31
429.403	438.31
429.625	436.31
429.847	432.31
430.069	457.31
430.292	448.31
430.514	425.31
430.736	431.31
430.958	430.31
431.18	435.31
431.402	446.31
431.624	436.31
431.846	468.31
432.068	452.31
432.29	470.31
432.512	446.31
432.734	452.31
432.956	447.31
433.178	446.31
433.4	460.31
433.622	455.31
433.844	459.31
434.066	471.31
434.287	467.31
434.509	463.31
434.731	484.31
434.953	489.31
435.175	482.31
435.397	478.31
435.618	474.31
435.84	452.31
436.062	459.31
436.284	452.31
436.505	445.31
436.727	456.31
436.949	454.31
437.17	451.31
437.392	406.31
437.614	429.31
437.835	437.31
438.057	425.31
438.278	422.31
438.5	447.31
438.721	434.31
438.943	427.31
439.165	425.31
439.386	449.31
439.608	440.31
439.829	454.31
440.05	470.31
440.272	466.31
440.493	469.31
440.715	487.31
440.936	462.31
441.158	465.31
441.379	484.31
441.6	498.31
441.822	490.31
442.043	489.31
442.264	496.31
442.486	489.31
442.707	480.31
442.928	472.31
443.149	478.31
443.371	481.31
443.592	486.31
443.813	499.31
444.034	499.31
444.255	523.31
444.476	517.31
444.698	582.31
444.919	551.31
445.14	634.31
445.361	563.31
445.582	498.31
445.803	474.31
446.024	486.31
446.245	479.31
446.466	467.31
446.687	473.31
446.908	468.31
447.129	454.31
447.35	457.31
447.571	455.31
447.792	443.31
448.013	430.31
448.234	434.31
448.455	431.31
448.675	417.31
448.896	408.31
449.117	438.31
449.338	418.31
449.559	434.31
449.779	428.31
450	418.31
450.221	430.31
450.442	442.31
450.662	442.31
450.883	452.31
451.104	449.31
451.324	433.31
451.545	421.31
451.766	436.31
451.986	411.31
452.207	418.31
452.428	410.31
452.648	406.31
452.869	395.31
453.089	396.31
453.31	408.31
453.53	418.31
453.751	431.31
453.971	428.31
454.192	411.31
454.412	381.31
454.633	412.31
454.853	389.31
455.073	408.31
455.294	396.31
455.514	396.31
455.734	397.31
455.955	377.31
456.175	383.31
456.395	406.31
456.616	376.31
456.836	389.31
457.056	380.31
457.276	394.31
457.497	399.31
457.717	394.31
457.937	376.31
458.157	393.31
458.377	416.31
458.598	414.31
458.818	419.31
459.038	401.31
459.258	422.31
459.478	444.31
459.698	448.31
459.918	468.31
460.138	473.31
460.358	484.31
460.578	512.31
460.798	520.31
461.018	529.31
461.238	494.31
461.458	514.31
461.678	516.31
461.898	534.31
462.118	510.31
462.338	529.31
462.558	567.31
462.777	567.31
462.997	606.31
463.217	644.31
463.437	648.31
463.657	612.31
463.876	597.31
464.096	584.31
464.316	564.31
464.536	587.31
464.755	558.31
464.975	549.31
465.195	530.31
465.414	508.31
465.634	464.31
465.854	445.31
466.073	450.31
466.293	457.31
466.512	444.31
466.732	436.31
466.951	442.31
467.171	439.31
467.391	434.31
467.61	432.31
467.829	439.31
468.049	422.31
468.268	414.31
468.488	431.31
468.707	416.31
468.927	428.31
469.146	439.31
469.365	434.31
469.585	434.31
469.804	416.31
470.023	460.31
470.243	450.31
470.462	427.31
470.681	438.31
470.901	427.31
471.12	440.31
471.339	453.31
471.558	420.31
471.777	414.31
471.997	411.31
472.216	411.31
472.435	417.31
472.654	428.31
472.873	406.31
473.092	410.31
473.311	396.31
473.53	444.31
473.749	404.31
473.968	422.31
474.187	402.31
474.406	412.31
474.625	402.31
474.844	402.31
475.063	410.31
475.282	402.31
475.501	421.31
475.72	416.31
475.939	405.31
476.158	435.31
476.377	417.31
476.596	427.31
476.814	446.31
477.033	437.31
477.252	434.31
477.471	433.31
477.69	423.31
477.908	446.31
478.127	455.31
478.346	463.31
478.564	478.31
478.783	466.31
479.002	487.31
479.22	467.31
479.439	480.31
479.658	482.31
479.876	501.31
480.095	491.31
480.313	496.31
480.532	501.31
480.751	467.31
480.969	497.31
481.188	490.31
481.406	458.31
481.624	492.31
481.843	463.31
482.061	439.31
482.28	425.31
482.498	440.31
482.717	426.31
482.935	456.31
483.153	471.31
483.372	472.31
483.59	453.31
483.808	446.31
484.027	456.31
484.245	456.31
484.463	479.31
484.681	479.31
484.9	465.31
485.118	478.31
485.336	457.31
485.554	469.31
485.772	466.31
485.99	467.31
486.209	450.31
486.427	463.31
486.645	469.31
486.863	481.31
487.081	483.31
487.299	464.31
487.517	485.31
487.735	473.31
487.953	486.31
488.171	498.31
488.389	467.31
488.607	455.31
488.825	460.31
489.043	444.31
489.261	467.31
489.479	467.31
489.696	463.31
489.914	467.31
490.132	461.31
490.35	462.31
490.568	482.31
490.786	453.31
491.003	467.31
491.221	472.31
491.439	488.31
491.657	489.31
491.874	483.31
492.092	482.31
492.31	490.31
492.527	488.31
492.745	508.31
492.963	456.31
493.18	483.31
493.398	496.31
493.615	494.31
493.833	494.31
494.05	492.31
494.268	489.31
494.485	507.31
494.703	504.31
494.92	498.31
495.138	512.31
495.355	483.31
495.573	502.31
495.79	514.31
496.008	522.31
496.225	497.31
496.442	515.31
496.66	510.31
496.877	530.31
497.094	529.31
497.312	551.31
497.529	579.31
497.746	579.31
497.963	574.31
498.181	586.31
498.398	626.31
498.615	643.31
498.832	667.31
499.049	732.31
499.267	777.31
499.484	850.31
499.701	935.31
499.918	987.31
500.135	1102.31
500.352	1234.31
500.569	1270.31
500.786	1225.31
501.003	1171.31
501.22	1074.31
501.437	983.31
501.654	878.31
501.871	798.31
