Data from Fe(NO3)3@0.1M.TitratingCurve.Agarose3%dH2O.NegLispCup.LampEnergy10.LIBS07252019_HRD10591_16-37-39-332.txt Node
Date: Thu Jul 25 16:37:39 EDT 2019
User: cochatt
Spectrometer: HR+D1059
Trigger mode: 1
Integration Time (sec): 1.000000E-1
Scans to average: 1
Electric dark correction enabled: true
Nonlinearity correction enabled: false
Boxcar width: 0
XAxis mode: Wavelengths
Number of Pixels in Spectrum: 2048
>>>>>Begin Spectral Data<<<<<
223.165	-8.56
223.4	-8.56
223.635	-8.56
223.869	-8.56
224.104	-21.56
224.338	-18.56
224.573	-12.56
224.808	-12.56
225.042	-20.56
225.277	-0.56
225.511	-1.56
225.746	-1.56
225.98	-8.56
226.215	26.44
226.449	27.44
226.683	16.44
226.918	16.44
227.152	28.44
227.387	35.44
227.621	43.44
227.856	46.44
228.09	43.44
228.324	44.44
228.559	56.44
228.793	55.44
229.027	68.44
229.262	75.44
229.496	76.44
229.73	67.44
229.964	83.44
230.199	87.44
230.433	87.44
230.667	101.44
230.901	85.44
231.136	78.44
231.37	84.44
231.604	99.44
231.838	102.44
232.072	98.44
232.306	100.44
232.541	86.44
232.775	93.44
233.009	96.44
233.243	93.44
233.477	101.44
233.711	103.44
233.945	85.44
234.179	109.44
234.413	105.44
234.647	88.44
234.881	92.44
235.115	96.44
235.349	98.44
235.583	95.44
235.817	103.44
236.051	96.44
236.285	106.44
236.519	96.44
236.753	100.44
236.987	94.44
237.221	96.44
237.455	92.44
237.689	98.44
237.922	92.44
238.156	95.44
238.39	96.44
238.624	100.44
238.858	110.44
239.091	98.44
239.325	106.44
239.559	84.44
239.793	105.44
240.027	99.44
240.26	105.44
240.494	97.44
240.728	108.44
240.961	93.44
241.195	96.44
241.429	88.44
241.662	102.44
241.896	119.44
242.13	97.44
242.363	96.44
242.597	114.44
242.83	105.44
243.064	100.44
243.298	113.44
243.531	107.44
243.765	119.44
243.998	99.44
244.232	125.44
244.465	99.44
244.699	113.44
244.932	120.44
245.166	115.44
245.399	98.44
245.633	94.44
245.866	105.44
246.099	109.44
246.333	120.44
246.566	117.44
246.8	92.44
247.033	114.44
247.266	116.44
247.5	109.44
247.733	105.44
247.966	121.44
248.2	107.44
248.433	124.44
248.666	105.44
248.899	119.44
249.133	117.44
249.366	105.44
249.599	108.44
249.832	109.44
250.066	127.44
250.299	122.44
250.532	114.44
250.765	121.44
250.998	115.44
251.231	120.44
251.465	123.44
251.698	122.44
251.931	125.44
252.164	108.44
252.397	130.44
252.63	114.44
252.863	118.44
253.096	117.44
253.329	122.44
253.562	112.44
253.795	109.44
254.028	118.44
254.261	127.44
254.494	118.44
254.727	125.44
254.96	135.44
255.193	128.44
255.426	126.44
255.659	114.44
255.892	123.44
256.124	122.44
256.357	122.44
256.59	128.44
256.823	130.44
257.056	145.44
257.289	127.44
257.521	125.44
257.754	128.44
257.987	133.44
258.22	144.44
258.452	124.44
258.685	128.44
258.918	130.44
259.151	140.44
259.383	140.44
259.616	131.44
259.849	133.44
260.081	128.44
260.314	155.44
260.547	153.44
260.779	122.44
261.012	129.44
261.244	136.44
261.477	120.44
261.71	134.44
261.942	132.44
262.175	119.44
262.407	136.44
262.64	134.44
262.872	145.44
263.105	138.44
263.337	146.44
263.57	139.44
263.802	118.44
264.035	151.44
264.267	130.44
264.499	138.44
264.732	148.44
264.964	139.44
265.197	134.44
265.429	142.44
265.661	123.44
265.894	135.44
266.126	146.44
266.358	142.44
266.591	137.44
266.823	152.44
267.055	152.44
267.287	139.44
267.52	151.44
267.752	139.44
267.984	133.44
268.216	141.44
268.448	153.44
268.681	128.44
268.913	146.44
269.145	147.44
269.377	146.44
269.609	147.44
269.841	141.44
270.073	138.44
270.306	157.44
270.538	140.44
270.77	136.44
271.002	154.44
271.234	148.44
271.466	152.44
271.698	162.44
271.93	166.44
272.162	155.44
272.394	170.44
272.626	152.44
272.858	141.44
273.09	147.44
273.322	141.44
273.553	156.44
273.785	165.44
274.017	162.44
274.249	150.44
274.481	145.44
274.713	173.44
274.945	170.44
275.176	140.44
275.408	153.44
275.64	156.44
275.872	150.44
276.104	155.44
276.335	141.44
276.567	152.44
276.799	152.44
277.031	165.44
277.262	152.44
277.494	153.44
277.726	157.44
277.957	168.44
278.189	176.44
278.421	169.44
278.652	167.44
278.884	157.44
279.115	162.44
279.347	168.44
279.579	163.44
279.81	149.44
280.042	158.44
280.273	170.44
280.505	152.44
280.736	142.44
280.968	148.44
281.199	146.44
281.431	168.44
281.662	163.44
281.894	169.44
282.125	162.44
282.356	171.44
282.588	164.44
282.819	172.44
283.051	164.44
283.282	174.44
283.513	162.44
283.745	179.44
283.976	184.44
284.207	164.44
284.439	168.44
284.67	166.44
284.901	159.44
285.132	165.44
285.364	169.44
285.595	174.44
285.826	174.44
286.057	168.44
286.288	164.44
286.52	187.44
286.751	183.44
286.982	172.44
287.213	180.44
287.444	179.44
287.675	167.44
287.906	182.44
288.138	157.44
288.369	176.44
288.6	197.44
288.831	188.44
289.062	184.44
289.293	170.44
289.524	183.44
289.755	173.44
289.986	171.44
290.217	179.44
290.448	192.44
290.679	160.44
290.91	173.44
291.141	180.44
291.371	171.44
291.602	176.44
291.833	182.44
292.064	184.44
292.295	192.44
292.526	173.44
292.757	173.44
292.987	170.44
293.218	172.44
293.449	163.44
293.68	170.44
293.91	197.44
294.141	186.44
294.372	178.44
294.603	172.44
294.833	177.44
295.064	193.44
295.295	176.44
295.525	202.44
295.756	192.44
295.987	183.44
296.217	188.44
296.448	180.44
296.679	187.44
296.909	184.44
297.14	186.44
297.37	198.44
297.601	191.44
297.831	185.44
298.062	186.44
298.292	181.44
298.523	194.44
298.753	192.44
298.984	178.44
299.214	189.44
299.445	200.44
299.675	173.44
299.905	204.44
300.136	192.44
300.366	191.44
300.597	194.44
300.827	192.44
301.057	192.44
301.288	206.44
301.518	194.44
301.748	197.44
301.979	194.44
302.209	199.44
302.439	199.44
302.669	186.44
302.9	202.44
303.13	200.44
303.36	196.44
303.59	185.44
303.82	193.44
304.051	202.44
304.281	194.44
304.511	197.44
304.741	199.44
304.971	185.44
305.201	202.44
305.431	178.44
305.661	202.44
305.891	193.44
306.121	193.44
306.352	185.44
306.582	198.44
306.812	190.44
307.042	194.44
307.272	189.44
307.502	188.44
307.731	183.44
307.961	192.44
308.191	191.44
308.421	205.44
308.651	197.44
308.881	193.44
309.111	201.44
309.341	203.44
309.571	216.44
309.8	196.44
310.03	207.44
310.26	198.44
310.49	195.44
310.72	186.44
310.949	210.44
311.179	192.44
311.409	197.44
311.639	197.44
311.868	212.44
312.098	211.44
312.328	205.44
312.557	195.44
312.787	204.44
313.017	188.44
313.246	203.44
313.476	198.44
313.706	189.44
313.935	199.44
314.165	205.44
314.394	224.44
314.624	207.44
314.853	201.44
315.083	205.44
315.312	214.44
315.542	202.44
315.771	201.44
316.001	201.44
316.23	212.44
316.46	193.44
316.689	212.44
316.919	203.44
317.148	192.44
317.377	196.44
317.607	188.44
317.836	198.44
318.065	210.44
318.295	189.44
318.524	196.44
318.753	207.44
318.983	207.44
319.212	198.44
319.441	191.44
319.67	198.44
319.9	218.44
320.129	194.44
320.358	202.44
320.587	214.44
320.816	223.44
321.046	205.44
321.275	204.44
321.504	198.44
321.733	219.44
321.962	196.44
322.191	196.44
322.42	201.44
322.649	199.44
322.878	213.44
323.108	204.44
323.337	191.44
323.566	209.44
323.795	183.44
324.024	221.44
324.253	205.44
324.482	213.44
324.71	203.44
324.939	199.44
325.168	207.44
325.397	196.44
325.626	210.44
325.855	225.44
326.084	233.44
326.313	213.44
326.542	219.44
326.77	209.44
326.999	211.44
327.228	219.44
327.457	210.44
327.686	230.44
327.914	217.44
328.143	215.44
328.372	226.44
328.6	231.44
328.829	222.44
329.058	229.44
329.287	212.44
329.515	205.44
329.744	225.44
329.972	242.44
330.201	234.44
330.43	229.44
330.658	232.44
330.887	227.44
331.115	244.44
331.344	228.44
331.572	212.44
331.801	225.44
332.03	236.44
332.258	239.44
332.486	249.44
332.715	239.44
332.943	261.44
333.172	260.44
333.4	277.44
333.629	288.44
333.857	266.44
334.085	252.44
334.314	250.44
334.542	261.44
334.771	258.44
334.999	260.44
335.227	252.44
335.455	272.44
335.684	244.44
335.912	266.44
336.14	253.44
336.369	253.44
336.597	255.44
336.825	259.44
337.053	252.44
337.281	252.44
337.51	235.44
337.738	246.44
337.966	230.44
338.194	237.44
338.422	234.44
338.65	238.44
338.878	239.44
339.106	240.44
339.334	234.44
339.562	252.44
339.79	223.44
340.018	234.44
340.246	219.44
340.474	217.44
340.702	199.44
340.93	218.44
341.158	231.44
341.386	235.44
341.614	221.44
341.842	212.44
342.07	226.44
342.298	221.44
342.526	218.44
342.754	235.44
342.981	224.44
343.209	226.44
343.437	246.44
343.665	237.44
343.893	250.44
344.12	267.44
344.348	240.44
344.576	244.44
344.804	226.44
345.031	236.44
345.259	242.44
345.487	242.44
345.714	230.44
345.942	206.44
346.17	225.44
346.397	224.44
346.625	230.44
346.853	226.44
347.08	220.44
347.308	208.44
347.535	210.44
347.763	217.44
347.99	210.44
348.218	231.44
348.445	217.44
348.673	202.44
348.9	222.44
349.128	216.44
349.355	217.44
349.583	210.44
349.81	218.44
350.037	213.44
350.265	215.44
350.492	203.44
350.72	210.44
350.947	224.44
351.174	217.44
351.402	212.44
351.629	213.44
351.856	211.44
352.083	227.44
352.311	204.44
352.538	220.44
352.765	211.44
352.992	210.44
353.22	201.44
353.447	229.44
353.674	220.44
353.901	206.44
354.128	232.44
354.355	221.44
354.583	232.44
354.81	223.44
355.037	211.44
355.264	222.44
355.491	214.44
355.718	217.44
355.945	211.44
356.172	233.44
356.399	224.44
356.626	235.44
356.853	218.44
357.08	227.44
357.307	216.44
357.534	235.44
357.761	202.44
357.988	232.44
358.215	219.44
358.441	217.44
358.668	213.44
358.895	225.44
359.122	232.44
359.349	220.44
359.576	214.44
359.802	209.44
360.029	211.44
360.256	229.44
360.483	224.44
360.709	237.44
360.936	220.44
361.163	224.44
361.39	227.44
361.616	216.44
361.843	214.44
362.07	213.44
362.296	233.44
362.523	209.44
362.749	225.44
362.976	216.44
363.203	230.44
363.429	220.44
363.656	214.44
363.882	210.44
364.109	225.44
364.335	227.44
364.562	213.44
364.788	226.44
365.015	214.44
365.241	207.44
365.468	210.44
365.694	218.44
365.92	224.44
366.147	210.44
366.373	228.44
366.599	225.44
366.826	209.44
367.052	231.44
367.278	220.44
367.505	232.44
367.731	225.44
367.957	223.44
368.184	220.44
368.41	228.44
368.636	224.44
368.862	220.44
369.089	231.44
369.315	225.44
369.541	244.44
369.767	240.44
369.993	232.44
370.219	219.44
370.445	234.44
370.672	248.44
370.898	233.44
371.124	256.44
371.35	242.44
371.576	237.44
371.802	238.44
372.028	258.44
372.254	256.44
372.48	241.44
372.706	248.44
372.932	246.44
373.158	258.44
373.384	225.44
373.61	260.44
373.835	229.44
374.061	254.44
374.287	266.44
374.513	232.44
374.739	273.44
374.965	245.44
375.191	254.44
375.416	251.44
375.642	278.44
375.868	243.44
376.094	269.44
376.319	262.44
376.545	252.44
376.771	261.44
376.997	242.44
377.222	240.44
377.448	249.44
377.674	236.44
377.899	242.44
378.125	248.44
378.35	254.44
378.576	263.44
378.802	249.44
379.027	251.44
379.253	246.44
379.478	244.44
379.704	267.44
379.929	264.44
380.155	248.44
380.38	245.44
380.606	242.44
380.831	245.44
381.057	242.44
381.282	249.44
381.507	260.44
381.733	267.44
381.958	252.44
382.184	256.44
382.409	267.44
382.634	250.44
382.86	246.44
383.085	266.44
383.31	264.44
383.535	286.44
383.761	273.44
383.986	269.44
384.211	294.44
384.436	298.44
384.662	291.44
384.887	294.44
385.112	291.44
385.337	285.44
385.562	283.44
385.787	302.44
386.013	294.44
386.238	291.44
386.463	313.44
386.688	311.44
386.913	305.44
387.138	316.44
387.363	298.44
387.588	295.44
387.813	301.44
388.038	308.44
388.263	294.44
388.488	310.44
388.713	310.44
388.938	302.44
389.163	296.44
389.387	288.44
389.612	270.44
389.837	297.44
390.062	294.44
390.287	313.44
390.512	304.44
390.736	304.44
390.961	316.44
391.186	287.44
391.411	308.44
391.636	329.44
391.86	327.44
392.085	339.44
392.31	337.44
392.534	339.44
392.759	326.44
392.984	296.44
393.208	317.44
393.433	320.44
393.658	294.44
393.882	306.44
394.107	322.44
394.331	331.44
394.556	315.44
394.78	317.44
395.005	315.44
395.229	324.44
395.454	331.44
395.678	334.44
395.903	337.44
396.127	341.44
396.352	333.44
396.576	342.44
396.801	323.44
397.025	315.44
397.249	333.44
397.474	342.44
397.698	343.44
397.922	349.44
398.147	355.44
398.371	345.44
398.595	356.44
398.82	382.44
399.044	386.44
399.268	406.44
399.492	460.44
399.717	501.44
399.941	508.44
400.165	453.44
400.389	430.44
400.613	382.44
400.837	393.44
401.062	390.44
401.286	372.44
401.51	385.44
401.734	377.44
401.958	370.44
402.182	383.44
402.406	384.44
402.63	399.44
402.854	381.44
403.078	382.44
403.302	393.44
403.526	436.44
403.75	404.44
403.974	419.44
404.198	406.44
404.422	435.44
404.645	393.44
404.869	397.44
405.093	424.44
405.317	439.44
405.541	433.44
405.765	403.44
405.988	412.44
406.212	392.44
406.436	386.44
406.66	438.44
406.883	418.44
407.107	446.44
407.331	445.44
407.555	473.44
407.778	470.44
408.002	442.44
408.226	436.44
408.449	449.44
408.673	442.44
408.896	419.44
409.12	426.44
409.344	438.44
409.567	433.44
409.791	421.44
410.014	408.44
410.238	405.44
410.461	427.44
410.685	416.44
410.908	420.44
411.132	406.44
411.355	387.44
411.578	399.44
411.802	407.44
412.025	402.44
412.249	419.44
412.472	392.44
412.695	394.44
412.919	401.44
413.142	394.44
413.365	400.44
413.589	392.44
413.812	384.44
414.035	390.44
414.258	374.44
414.482	385.44
414.705	391.44
414.928	394.44
415.151	385.44
415.374	384.44
415.597	366.44
415.821	388.44
416.044	364.44
416.267	352.44
416.49	380.44
416.713	380.44
416.936	389.44
417.159	373.44
417.382	393.44
417.605	406.44
417.828	386.44
418.051	384.44
418.274	392.44
418.497	399.44
418.72	372.44
418.943	388.44
419.166	403.44
419.389	409.44
419.611	410.44
419.834	396.44
420.057	401.44
420.28	384.44
420.503	369.44
420.726	367.44
420.948	369.44
421.171	380.44
421.394	378.44
421.617	373.44
421.839	380.44
422.062	393.44
422.285	357.44
422.507	402.44
422.73	386.44
422.953	385.44
423.175	395.44
423.398	390.44
423.621	395.44
423.843	400.44
424.066	386.44
424.288	406.44
424.511	378.44
424.733	388.44
424.956	378.44
425.178	398.44
425.401	383.44
425.623	374.44
425.846	376.44
426.068	359.44
426.291	369.44
426.513	384.44
426.735	369.44
426.958	338.44
427.18	366.44
427.402	366.44
427.625	361.44
427.847	352.44
428.069	350.44
428.292	352.44
428.514	351.44
428.736	331.44
428.958	349.44
429.181	332.44
429.403	347.44
429.625	332.44
429.847	331.44
430.069	332.44
430.292	343.44
430.514	326.44
430.736	352.44
430.958	331.44
431.18	355.44
431.402	345.44
431.624	330.44
431.846	348.44
432.068	344.44
432.29	352.44
432.512	347.44
432.734	340.44
432.956	348.44
433.178	348.44
433.4	341.44
433.622	352.44
433.844	358.44
434.066	375.44
434.287	352.44
434.509	354.44
434.731	387.44
434.953	380.44
435.175	371.44
435.397	376.44
435.618	362.44
435.84	340.44
436.062	356.44
436.284	356.44
436.505	353.44
436.727	368.44
436.949	357.44
437.17	350.44
437.392	347.44
437.614	339.44
437.835	336.44
438.057	348.44
438.278	341.44
438.5	326.44
438.721	340.44
438.943	338.44
439.165	347.44
439.386	353.44
439.608	362.44
439.829	338.44
440.05	354.44
440.272	356.44
440.493	355.44
440.715	345.44
440.936	361.44
441.158	366.44
441.379	377.44
441.6	376.44
441.822	377.44
442.043	390.44
442.264	389.44
442.486	365.44
442.707	366.44
442.928	373.44
443.149	353.44
443.371	389.44
443.592	354.44
443.813	381.44
444.034	395.44
444.255	412.44
444.476	415.44
444.698	413.44
444.919	411.44
445.14	553.44
445.361	478.44
445.582	401.44
445.803	362.44
446.024	352.44
446.245	364.44
446.466	372.44
446.687	363.44
446.908	353.44
447.129	339.44
447.35	343.44
447.571	341.44
447.792	334.44
448.013	324.44
448.234	344.44
448.455	330.44
448.675	324.44
448.896	327.44
449.117	328.44
449.338	323.44
449.559	313.44
449.779	332.44
450	314.44
450.221	327.44
450.442	318.44
450.662	328.44
450.883	332.44
451.104	339.44
451.324	333.44
451.545	342.44
451.766	326.44
451.986	312.44
452.207	331.44
452.428	331.44
452.648	332.44
452.869	330.44
453.089	320.44
453.31	316.44
453.53	339.44
453.751	301.44
453.971	295.44
454.192	324.44
454.412	332.44
454.633	306.44
454.853	312.44
455.073	317.44
455.294	306.44
455.514	321.44
455.734	301.44
455.955	306.44
456.175	300.44
456.395	299.44
456.616	321.44
456.836	294.44
457.056	309.44
457.276	295.44
457.497	306.44
457.717	298.44
457.937	300.44
458.157	302.44
458.377	314.44
458.598	318.44
458.818	337.44
459.038	338.44
459.258	339.44
459.478	357.44
459.698	365.44
459.918	364.44
460.138	363.44
460.358	385.44
460.578	406.44
460.798	396.44
461.018	392.44
461.238	378.44
461.458	419.44
461.678	388.44
461.898	435.44
462.118	397.44
462.338	425.44
462.558	424.44
462.777	453.44
462.997	475.44
463.217	502.44
463.437	487.44
463.657	452.44
463.876	440.44
464.096	428.44
464.316	457.44
464.536	448.44
464.755	447.44
464.975	410.44
465.195	398.44
465.414	401.44
465.634	372.44
465.854	361.44
466.073	346.44
466.293	372.44
466.512	356.44
466.732	359.44
466.951	339.44
467.171	353.44
467.391	362.44
467.61	359.44
467.829	324.44
468.049	337.44
468.268	330.44
468.488	329.44
468.707	331.44
468.927	334.44
469.146	317.44
469.365	340.44
469.585	337.44
469.804	366.44
470.023	342.44
470.243	361.44
470.462	363.44
470.681	365.44
470.901	349.44
471.12	329.44
471.339	336.44
471.558	340.44
471.777	327.44
471.997	345.44
472.216	342.44
472.435	342.44
472.654	314.44
472.873	338.44
473.092	321.44
473.311	339.44
473.53	324.44
473.749	326.44
473.968	311.44
474.187	324.44
474.406	318.44
474.625	326.44
474.844	321.44
475.063	333.44
475.282	324.44
475.501	315.44
475.72	345.44
475.939	329.44
476.158	327.44
476.377	336.44
476.596	333.44
476.814	349.44
477.033	325.44
477.252	345.44
477.471	342.44
477.69	365.44
477.908	348.44
478.127	373.44
478.346	374.44
478.564	371.44
478.783	368.44
479.002	376.44
479.22	408.44
479.439	380.44
479.658	359.44
479.876	394.44
480.095	402.44
480.313	414.44
480.532	408.44
480.751	406.44
480.969	392.44
481.188	378.44
481.406	369.44
481.624	374.44
481.843	382.44
482.061	348.44
482.28	361.44
482.498	363.44
482.717	360.44
482.935	358.44
483.153	358.44
483.372	360.44
483.59	380.44
483.808	368.44
484.027	373.44
484.245	358.44
484.463	367.44
484.681	392.44
484.9	376.44
485.118	369.44
485.336	374.44
485.554	378.44
485.772	370.44
485.99	365.44
486.209	373.44
486.427	372.44
486.645	359.44
486.863	372.44
487.081	360.44
487.299	380.44
487.517	376.44
487.735	363.44
487.953	378.44
488.171	354.44
488.389	368.44
488.607	364.44
488.825	368.44
489.043	380.44
489.261	377.44
489.479	380.44
489.696	389.44
489.914	361.44
490.132	369.44
490.35	382.44
490.568	369.44
490.786	383.44
491.003	392.44
491.221	391.44
491.439	362.44
491.657	398.44
491.874	392.44
492.092	380.44
492.31	397.44
492.527	370.44
492.745	377.44
492.963	388.44
493.18	395.44
493.398	401.44
493.615	412.44
493.833	395.44
494.05	388.44
494.268	395.44
494.485	417.44
494.703	390.44
494.92	416.44
495.138	404.44
495.355	388.44
495.573	400.44
495.79	411.44
496.008	392.44
496.225	413.44
496.442	406.44
496.66	426.44
496.877	421.44
497.094	412.44
497.312	442.44
497.529	434.44
497.746	452.44
497.963	457.44
498.181	478.44
498.398	472.44
498.615	503.44
498.832	538.44
499.049	555.44
499.267	613.44
499.484	648.44
499.701	712.44
499.918	756.44
500.135	872.44
500.352	988.44
500.569	994.44
500.786	973.44
501.003	937.44
501.22	833.44
501.437	762.44
501.654	704.44
501.871	627.44
502.088	606.44
502.305	557.44
