Data from Fe(NO3)3@0.025M.TitratingCurve.Agarose3%dH2O.NegLispCup.LampEnergy10.LIBS07252019_HRD10591_16-53-54-335.txt Node
Date: Thu Jul 25 16:53:54 EDT 2019
User: cochatt
Spectrometer: HR+D1059
Trigger mode: 1
Integration Time (sec): 1.000000E-1
Scans to average: 1
Electric dark correction enabled: true
Nonlinearity correction enabled: false
Boxcar width: 0
XAxis mode: Wavelengths
Number of Pixels in Spectrum: 2048
>>>>>Begin Spectral Data<<<<<
223.165	-19.38
223.4	-19.38
223.635	-19.38
223.869	-21.38
224.104	-15.38
224.338	-11.38
224.573	-29.38
224.808	-1.38
225.042	2.62
225.277	-4.38
225.511	-4.38
225.746	3.62
225.98	3.62
226.215	12.62
226.449	10.62
226.683	22.62
226.918	21.62
227.152	29.62
227.387	41.62
227.621	42.62
227.856	48.62
228.09	45.62
228.324	45.62
228.559	46.62
228.793	56.62
229.027	88.62
229.262	78.62
229.496	73.62
229.73	84.62
229.964	79.62
230.199	97.62
230.433	92.62
230.667	93.62
230.901	86.62
231.136	82.62
231.37	101.62
231.604	97.62
231.838	99.62
232.072	92.62
232.306	104.62
232.541	91.62
232.775	105.62
233.009	112.62
233.243	110.62
233.477	106.62
233.711	100.62
233.945	86.62
234.179	107.62
234.413	106.62
234.647	113.62
234.881	99.62
235.115	98.62
235.349	109.62
235.583	101.62
235.817	106.62
236.051	115.62
236.285	106.62
236.519	89.62
236.753	89.62
236.987	103.62
237.221	94.62
237.455	119.62
237.689	95.62
237.922	108.62
238.156	89.62
238.39	91.62
238.624	89.62
238.858	115.62
239.091	109.62
239.325	110.62
239.559	106.62
239.793	106.62
240.027	105.62
240.26	94.62
240.494	104.62
240.728	114.62
240.961	124.62
241.195	116.62
241.429	102.62
241.662	103.62
241.896	110.62
242.13	108.62
242.363	96.62
242.597	117.62
242.83	118.62
243.064	109.62
243.298	107.62
243.531	101.62
243.765	108.62
243.998	115.62
244.232	107.62
244.465	121.62
244.699	109.62
244.932	126.62
245.166	107.62
245.399	128.62
245.633	118.62
245.866	104.62
246.099	120.62
246.333	114.62
246.566	112.62
246.8	120.62
247.033	109.62
247.266	126.62
247.5	132.62
247.733	128.62
247.966	112.62
248.2	128.62
248.433	129.62
248.666	120.62
248.899	126.62
249.133	135.62
249.366	139.62
249.599	128.62
249.832	136.62
250.066	121.62
250.299	120.62
250.532	108.62
250.765	118.62
250.998	122.62
251.231	129.62
251.465	134.62
251.698	134.62
251.931	141.62
252.164	140.62
252.397	133.62
252.63	136.62
252.863	131.62
253.096	133.62
253.329	129.62
253.562	120.62
253.795	160.62
254.028	143.62
254.261	153.62
254.494	138.62
254.727	147.62
254.96	147.62
255.193	139.62
255.426	129.62
255.659	135.62
255.892	148.62
256.124	136.62
256.357	148.62
256.59	150.62
256.823	145.62
257.056	138.62
257.289	139.62
257.521	149.62
257.754	131.62
257.987	138.62
258.22	144.62
258.452	154.62
258.685	149.62
258.918	140.62
259.151	142.62
259.383	137.62
259.616	142.62
259.849	148.62
260.081	164.62
260.314	162.62
260.547	180.62
260.779	143.62
261.012	146.62
261.244	148.62
261.477	158.62
261.71	140.62
261.942	146.62
262.175	144.62
262.407	158.62
262.64	150.62
262.872	160.62
263.105	141.62
263.337	176.62
263.57	183.62
263.802	166.62
264.035	162.62
264.267	182.62
264.499	164.62
264.732	158.62
264.964	163.62
265.197	157.62
265.429	142.62
265.661	147.62
265.894	157.62
266.126	162.62
266.358	160.62
266.591	170.62
266.823	160.62
267.055	156.62
267.287	161.62
267.52	148.62
267.752	165.62
267.984	159.62
268.216	182.62
268.448	181.62
268.681	166.62
268.913	164.62
269.145	164.62
269.377	192.62
269.609	169.62
269.841	167.62
270.073	181.62
270.306	181.62
270.538	177.62
270.77	169.62
271.002	175.62
271.234	180.62
271.466	182.62
271.698	197.62
271.93	186.62
272.162	183.62
272.394	184.62
272.626	177.62
272.858	182.62
273.09	183.62
273.322	184.62
273.553	177.62
273.785	182.62
274.017	185.62
274.249	192.62
274.481	196.62
274.713	184.62
274.945	201.62
275.176	186.62
275.408	185.62
275.64	190.62
275.872	191.62
276.104	194.62
276.335	191.62
276.567	198.62
276.799	181.62
277.031	186.62
277.262	188.62
277.494	185.62
277.726	199.62
277.957	202.62
278.189	197.62
278.421	196.62
278.652	209.62
278.884	212.62
279.115	216.62
279.347	200.62
279.579	184.62
279.81	194.62
280.042	204.62
280.273	180.62
280.505	197.62
280.736	200.62
280.968	201.62
281.199	189.62
281.431	189.62
281.662	188.62
281.894	199.62
282.125	212.62
282.356	214.62
282.588	213.62
282.819	198.62
283.051	229.62
283.282	195.62
283.513	216.62
283.745	199.62
283.976	214.62
284.207	199.62
284.439	205.62
284.67	203.62
284.901	207.62
285.132	211.62
285.364	229.62
285.595	214.62
285.826	208.62
286.057	212.62
286.288	221.62
286.52	209.62
286.751	233.62
286.982	235.62
287.213	225.62
287.444	204.62
287.675	218.62
287.906	233.62
288.138	244.62
288.369	233.62
288.6	218.62
288.831	220.62
289.062	227.62
289.293	234.62
289.524	220.62
289.755	227.62
289.986	237.62
290.217	242.62
290.448	215.62
290.679	214.62
290.91	227.62
291.141	230.62
291.371	241.62
291.602	224.62
291.833	216.62
292.064	225.62
292.295	230.62
292.526	232.62
292.757	234.62
292.987	223.62
293.218	226.62
293.449	249.62
293.68	231.62
293.91	215.62
294.141	233.62
294.372	235.62
294.603	250.62
294.833	235.62
295.064	230.62
295.295	240.62
295.525	232.62
295.756	233.62
295.987	225.62
296.217	255.62
296.448	236.62
296.679	248.62
296.909	229.62
297.14	237.62
297.37	249.62
297.601	256.62
297.831	258.62
298.062	246.62
298.292	261.62
298.523	272.62
298.753	229.62
298.984	245.62
299.214	258.62
299.445	256.62
299.675	245.62
299.905	234.62
300.136	244.62
300.366	248.62
300.597	241.62
300.827	263.62
301.057	260.62
301.288	277.62
301.518	257.62
301.748	256.62
301.979	271.62
302.209	259.62
302.439	268.62
302.669	286.62
302.9	245.62
303.13	268.62
303.36	266.62
303.59	260.62
303.82	269.62
304.051	266.62
304.281	265.62
304.511	268.62
304.741	285.62
304.971	252.62
305.201	253.62
305.431	257.62
305.661	264.62
305.891	264.62
306.121	262.62
306.352	269.62
306.582	267.62
306.812	267.62
307.042	272.62
307.272	273.62
307.502	252.62
307.731	278.62
307.961	260.62
308.191	277.62
308.421	278.62
308.651	278.62
308.881	274.62
309.111	278.62
309.341	266.62
309.571	272.62
309.8	269.62
310.03	269.62
310.26	267.62
310.49	262.62
310.72	284.62
310.949	286.62
311.179	280.62
311.409	262.62
311.639	278.62
311.868	298.62
312.098	281.62
312.328	302.62
312.557	281.62
312.787	277.62
313.017	284.62
313.246	281.62
313.476	275.62
313.706	300.62
313.935	291.62
314.165	286.62
314.394	291.62
314.624	293.62
314.853	301.62
315.083	285.62
315.312	294.62
315.542	301.62
315.771	288.62
316.001	289.62
316.23	295.62
316.46	271.62
316.689	308.62
316.919	296.62
317.148	292.62
317.377	282.62
317.607	292.62
317.836	270.62
318.065	290.62
318.295	293.62
318.524	291.62
318.753	289.62
318.983	279.62
319.212	282.62
319.441	271.62
319.67	282.62
319.9	302.62
320.129	305.62
320.358	289.62
320.587	302.62
320.816	292.62
321.046	301.62
321.275	290.62
321.504	282.62
321.733	317.62
321.962	307.62
322.191	292.62
322.42	310.62
322.649	315.62
322.878	294.62
323.108	288.62
323.337	290.62
323.566	293.62
323.795	315.62
324.024	305.62
324.253	307.62
324.482	305.62
324.71	323.62
324.939	303.62
325.168	307.62
325.397	292.62
325.626	308.62
325.855	312.62
326.084	328.62
326.313	313.62
326.542	316.62
326.77	310.62
326.999	321.62
327.228	301.62
327.457	330.62
327.686	322.62
327.914	306.62
328.143	326.62
328.372	329.62
328.6	327.62
328.829	333.62
329.058	310.62
329.287	321.62
329.515	320.62
329.744	323.62
329.972	318.62
330.201	334.62
330.43	325.62
330.658	326.62
330.887	327.62
331.115	328.62
331.344	340.62
331.572	328.62
331.801	349.62
332.03	356.62
332.258	332.62
332.486	332.62
332.715	356.62
332.943	345.62
333.172	354.62
333.4	372.62
333.629	374.62
333.857	391.62
334.085	376.62
334.314	384.62
334.542	382.62
334.771	371.62
334.999	375.62
335.227	348.62
335.455	374.62
335.684	378.62
335.912	357.62
336.14	388.62
336.369	365.62
336.597	366.62
336.825	363.62
337.053	377.62
337.281	370.62
337.51	357.62
337.738	355.62
337.966	349.62
338.194	352.62
338.422	360.62
338.65	349.62
338.878	354.62
339.106	352.62
339.334	358.62
339.562	366.62
339.79	350.62
340.018	339.62
340.246	329.62
340.474	333.62
340.702	335.62
340.93	334.62
341.158	344.62
341.386	315.62
341.614	326.62
341.842	337.62
342.07	331.62
342.298	350.62
342.526	344.62
342.754	355.62
342.981	348.62
343.209	352.62
343.437	365.62
343.665	356.62
343.893	376.62
344.12	380.62
344.348	358.62
344.576	382.62
344.804	348.62
345.031	349.62
345.259	354.62
345.487	345.62
345.714	332.62
345.942	346.62
346.17	341.62
346.397	323.62
346.625	346.62
346.853	333.62
347.08	313.62
347.308	334.62
347.535	322.62
347.763	328.62
347.99	354.62
348.218	344.62
348.445	336.62
348.673	320.62
348.9	314.62
349.128	315.62
349.355	326.62
349.583	340.62
349.81	324.62
350.037	329.62
350.265	336.62
350.492	344.62
350.72	332.62
350.947	336.62
351.174	322.62
351.402	313.62
351.629	331.62
351.856	315.62
352.083	340.62
352.311	323.62
352.538	310.62
352.765	335.62
352.992	344.62
353.22	329.62
353.447	316.62
353.674	333.62
353.901	334.62
354.128	326.62
354.355	325.62
354.583	340.62
354.81	350.62
355.037	345.62
355.264	338.62
355.491	325.62
355.718	331.62
355.945	345.62
356.172	323.62
356.399	329.62
356.626	331.62
356.853	341.62
357.08	333.62
357.307	319.62
357.534	334.62
357.761	332.62
357.988	341.62
358.215	338.62
358.441	329.62
358.668	315.62
358.895	320.62
359.122	325.62
359.349	318.62
359.576	329.62
359.802	327.62
360.029	322.62
360.256	339.62
360.483	330.62
360.709	318.62
360.936	356.62
361.163	331.62
361.39	322.62
361.616	333.62
361.843	340.62
362.07	352.62
362.296	336.62
362.523	360.62
362.749	326.62
362.976	327.62
363.203	331.62
363.429	327.62
363.656	345.62
363.882	334.62
364.109	332.62
364.335	321.62
364.562	326.62
364.788	331.62
365.015	326.62
365.241	320.62
365.468	353.62
365.694	336.62
365.92	317.62
366.147	336.62
366.373	334.62
366.599	342.62
366.826	346.62
367.052	329.62
367.278	334.62
367.505	347.62
367.731	344.62
367.957	353.62
368.184	340.62
368.41	317.62
368.636	333.62
368.862	338.62
369.089	346.62
369.315	361.62
369.541	358.62
369.767	320.62
369.993	358.62
370.219	338.62
370.445	347.62
370.672	366.62
370.898	350.62
371.124	366.62
371.35	350.62
371.576	352.62
371.802	356.62
372.028	361.62
372.254	363.62
372.48	362.62
372.706	365.62
372.932	371.62
373.158	379.62
373.384	393.62
373.61	361.62
373.835	369.62
374.061	363.62
374.287	380.62
374.513	377.62
374.739	394.62
374.965	372.62
375.191	379.62
375.416	380.62
375.642	381.62
375.868	395.62
376.094	378.62
376.319	347.62
376.545	365.62
376.771	361.62
376.997	352.62
377.222	362.62
377.448	355.62
377.674	350.62
377.899	344.62
378.125	343.62
378.35	372.62
378.576	352.62
378.802	372.62
379.027	382.62
379.253	353.62
379.478	347.62
379.704	374.62
379.929	338.62
380.155	370.62
380.38	375.62
380.606	368.62
380.831	366.62
381.057	369.62
381.282	372.62
381.507	357.62
381.733	372.62
381.958	367.62
382.184	362.62
382.409	370.62
382.634	365.62
382.86	381.62
383.085	380.62
383.31	377.62
383.535	392.62
383.761	378.62
383.986	378.62
384.211	373.62
384.436	402.62
384.662	396.62
384.887	408.62
385.112	415.62
385.337	404.62
385.562	401.62
385.787	424.62
386.013	416.62
386.238	426.62
386.463	418.62
386.688	409.62
386.913	437.62
387.138	423.62
387.363	436.62
387.588	407.62
387.813	423.62
388.038	412.62
388.263	425.62
388.488	418.62
388.713	421.62
388.938	421.62
389.163	392.62
389.387	393.62
389.612	417.62
389.837	422.62
390.062	412.62
390.287	410.62
390.512	411.62
390.736	422.62
390.961	426.62
391.186	421.62
391.411	428.62
391.636	446.62
391.86	455.62
392.085	454.62
392.31	458.62
392.534	472.62
392.759	435.62
392.984	427.62
393.208	462.62
393.433	425.62
393.658	454.62
393.882	445.62
394.107	438.62
394.331	426.62
394.556	421.62
394.78	427.62
395.005	461.62
395.229	457.62
395.454	453.62
395.678	440.62
395.903	451.62
396.127	461.62
396.352	438.62
396.576	438.62
396.801	458.62
397.025	458.62
397.249	465.62
397.474	461.62
397.698	463.62
397.922	485.62
398.147	453.62
398.371	483.62
398.595	496.62
398.82	506.62
399.044	499.62
399.268	552.62
399.492	589.62
399.717	597.62
399.941	611.62
400.165	627.62
400.389	566.62
400.613	549.62
400.837	525.62
401.062	510.62
401.286	525.62
401.51	487.62
401.734	506.62
401.958	516.62
402.182	495.62
402.406	504.62
402.63	527.62
402.854	510.62
403.078	491.62
403.302	506.62
403.526	516.62
403.75	516.62
403.974	516.62
404.198	512.62
404.422	523.62
404.645	502.62
404.869	526.62
405.093	516.62
405.317	525.62
405.541	520.62
405.765	516.62
405.988	518.62
406.212	503.62
406.436	544.62
406.66	518.62
406.883	522.62
407.107	551.62
407.331	570.62
407.555	597.62
407.778	556.62
408.002	548.62
408.226	563.62
408.449	575.62
408.673	526.62
408.896	550.62
409.12	537.62
409.344	537.62
409.567	536.62
409.791	513.62
410.014	525.62
410.238	521.62
410.461	521.62
410.685	514.62
410.908	531.62
411.132	526.62
411.355	504.62
411.578	507.62
411.802	508.62
412.025	524.62
412.249	529.62
412.472	520.62
412.695	509.62
412.919	492.62
413.142	503.62
413.365	505.62
413.589	502.62
413.812	489.62
414.035	500.62
414.258	502.62
414.482	497.62
414.705	500.62
414.928	500.62
415.151	492.62
415.374	496.62
415.597	496.62
415.821	486.62
416.044	461.62
416.267	450.62
416.49	461.62
416.713	488.62
416.936	482.62
417.159	485.62
417.382	472.62
417.605	469.62
417.828	493.62
418.051	496.62
418.274	496.62
418.497	490.62
418.72	496.62
418.943	472.62
419.166	502.62
419.389	527.62
419.611	528.62
419.834	502.62
420.057	472.62
420.28	492.62
420.503	500.62
420.726	489.62
420.948	470.62
421.171	461.62
421.394	477.62
421.617	462.62
421.839	478.62
422.062	455.62
422.285	472.62
422.507	470.62
422.73	481.62
422.953	503.62
423.175	484.62
423.398	484.62
423.621	466.62
423.843	492.62
424.066	485.62
424.288	500.62
424.511	487.62
424.733	483.62
424.956	481.62
425.178	470.62
425.401	483.62
425.623	487.62
425.846	459.62
426.068	462.62
426.291	463.62
426.513	465.62
426.735	477.62
426.958	470.62
427.18	470.62
427.402	460.62
427.625	462.62
427.847	461.62
428.069	442.62
428.292	462.62
428.514	464.62
428.736	455.62
428.958	464.62
429.181	438.62
429.403	444.62
429.625	434.62
429.847	454.62
430.069	438.62
430.292	447.62
430.514	444.62
430.736	432.62
430.958	458.62
431.18	458.62
431.402	454.62
431.624	432.62
431.846	444.62
432.068	453.62
432.29	477.62
432.512	433.62
432.734	431.62
432.956	439.62
433.178	457.62
433.4	446.62
433.622	467.62
433.844	455.62
434.066	456.62
434.287	439.62
434.509	454.62
434.731	470.62
434.953	469.62
435.175	489.62
435.397	471.62
435.618	477.62
435.84	456.62
436.062	456.62
436.284	443.62
436.505	436.62
436.727	449.62
436.949	433.62
437.17	428.62
437.392	432.62
437.614	430.62
437.835	429.62
438.057	436.62
438.278	428.62
438.5	417.62
438.721	429.62
438.943	426.62
439.165	450.62
439.386	429.62
439.608	464.62
439.829	441.62
440.05	439.62
440.272	440.62
440.493	439.62
440.715	440.62
440.936	427.62
441.158	469.62
441.379	457.62
441.6	468.62
441.822	477.62
442.043	458.62
442.264	465.62
442.486	453.62
442.707	483.62
442.928	483.62
443.149	454.62
443.371	458.62
443.592	446.62
443.813	478.62
444.034	471.62
444.255	470.62
444.476	484.62
444.698	500.62
444.919	512.62
445.14	637.62
445.361	542.62
445.582	487.62
445.803	462.62
446.024	465.62
446.245	478.62
446.466	449.62
446.687	434.62
446.908	456.62
447.129	434.62
447.35	429.62
447.571	416.62
447.792	415.62
448.013	418.62
448.234	393.62
448.455	415.62
448.675	420.62
448.896	419.62
449.117	406.62
449.338	413.62
449.559	417.62
449.779	417.62
450	413.62
450.221	414.62
450.442	425.62
450.662	402.62
450.883	398.62
451.104	410.62
451.324	424.62
451.545	399.62
451.766	417.62
451.986	405.62
452.207	411.62
452.428	413.62
452.648	427.62
452.869	408.62
453.089	382.62
453.31	390.62
453.53	401.62
453.751	416.62
453.971	406.62
454.192	404.62
454.412	390.62
454.633	396.62
454.853	410.62
455.073	392.62
455.294	385.62
455.514	387.62
455.734	402.62
455.955	402.62
456.175	388.62
456.395	403.62
456.616	408.62
456.836	384.62
457.056	404.62
457.276	416.62
457.497	398.62
457.717	404.62
457.937	418.62
458.157	404.62
458.377	423.62
458.598	428.62
458.818	413.62
459.038	434.62
459.258	458.62
459.478	437.62
459.698	460.62
459.918	417.62
460.138	461.62
460.358	486.62
460.578	486.62
460.798	494.62
461.018	492.62
461.238	486.62
461.458	501.62
461.678	497.62
461.898	483.62
462.118	493.62
462.338	517.62
462.558	529.62
462.777	544.62
462.997	533.62
463.217	576.62
463.437	595.62
463.657	554.62
463.876	562.62
464.096	533.62
464.316	542.62
464.536	521.62
464.755	536.62
464.975	535.62
465.195	499.62
465.414	476.62
465.634	457.62
465.854	448.62
466.073	437.62
466.293	442.62
466.512	455.62
466.732	448.62
466.951	421.62
467.171	442.62
467.391	430.62
467.61	442.62
467.829	438.62
468.049	432.62
468.268	415.62
468.488	409.62
468.707	418.62
468.927	424.62
469.146	436.62
469.365	440.62
469.585	441.62
469.804	450.62
470.023	458.62
470.243	427.62
470.462	448.62
470.681	430.62
470.901	439.62
471.12	424.62
471.339	425.62
471.558	430.62
471.777	447.62
471.997	442.62
472.216	444.62
472.435	432.62
472.654	401.62
472.873	402.62
473.092	435.62
473.311	432.62
473.53	413.62
473.749	442.62
473.968	433.62
474.187	428.62
474.406	422.62
474.625	401.62
474.844	428.62
475.063	445.62
475.282	424.62
475.501	444.62
475.72	440.62
475.939	442.62
476.158	454.62
476.377	439.62
476.596	439.62
476.814	454.62
477.033	462.62
477.252	480.62
477.471	472.62
477.69	473.62
477.908	481.62
478.127	487.62
478.346	491.62
478.564	480.62
478.783	505.62
479.002	496.62
479.22	494.62
479.439	500.62
479.658	503.62
479.876	510.62
480.095	524.62
480.313	531.62
480.532	524.62
480.751	518.62
480.969	510.62
481.188	493.62
481.406	501.62
481.624	513.62
481.843	496.62
482.061	490.62
482.28	480.62
482.498	518.62
482.717	471.62
482.935	484.62
483.153	479.62
483.372	491.62
483.59	518.62
483.808	490.62
484.027	473.62
484.245	499.62
484.463	487.62
484.681	489.62
484.9	504.62
485.118	516.62
485.336	512.62
485.554	501.62
485.772	501.62
485.99	498.62
486.209	513.62
486.427	505.62
486.645	526.62
486.863	499.62
487.081	513.62
487.299	498.62
487.517	498.62
487.735	508.62
487.953	491.62
488.171	516.62
488.389	503.62
488.607	510.62
488.825	499.62
489.043	514.62
489.261	523.62
489.479	534.62
489.696	516.62
489.914	516.62
490.132	522.62
490.35	499.62
490.568	524.62
490.786	492.62
491.003	510.62
491.221	521.62
491.439	524.62
491.657	493.62
491.874	529.62
492.092	527.62
492.31	536.62
492.527	517.62
492.745	504.62
492.963	534.62
493.18	509.62
493.398	513.62
493.615	536.62
493.833	527.62
494.05	523.62
494.268	514.62
494.485	532.62
494.703	546.62
494.92	547.62
495.138	554.62
495.355	549.62
495.573	553.62
495.79	542.62
496.008	560.62
496.225	549.62
496.442	570.62
496.66	610.62
496.877	580.62
497.094	578.62
497.312	608.62
497.529	611.62
497.746	630.62
497.963	603.62
498.181	664.62
498.398	647.62
498.615	696.62
498.832	721.62
499.049	739.62
499.267	770.62
499.484	821.62
499.701	869.62
499.918	899.62
500.135	982.62
500.352	1030.62
500.569	1043.62
500.786	1010.62
501.003	1022.62
501.22	947.62
501.437	924.62
501.654	873.62
501.871	791.62
