Data from Fe(NO3)3@0.05M.TitratingCurve.Agarose3%dH2O.NegLispCup.LampEnergy10.LIBS07252019_HRD10591_16-48-41-334.txt Node
Date: Thu Jul 25 16:48:41 EDT 2019
User: cochatt
Spectrometer: HR+D1059
Trigger mode: 1
Integration Time (sec): 1.000000E-1
Scans to average: 1
Electric dark correction enabled: true
Nonlinearity correction enabled: false
Boxcar width: 0
XAxis mode: Wavelengths
Number of Pixels in Spectrum: 2048
>>>>>Begin Spectral Data<<<<<
223.165	-9.19
223.4	-9.19
223.635	-9.19
223.869	-30.19
224.104	-13.19
224.338	-9.19
224.573	-13.19
224.808	-18.19
225.042	-12.19
225.277	-11.19
225.511	1.81
225.746	5.81
225.98	-5.19
226.215	26.81
226.449	5.81
226.683	21.81
226.918	19.81
227.152	39.81
227.387	44.81
227.621	45.81
227.856	49.81
228.09	46.81
228.324	52.81
228.559	56.81
228.793	65.81
229.027	68.81
229.262	69.81
229.496	87.81
229.73	82.81
229.964	83.81
230.199	88.81
230.433	89.81
230.667	103.81
230.901	89.81
231.136	99.81
231.37	99.81
231.604	100.81
231.838	90.81
232.072	108.81
232.306	103.81
232.541	117.81
232.775	103.81
233.009	93.81
233.243	93.81
233.477	109.81
233.711	95.81
233.945	107.81
234.179	97.81
234.413	92.81
234.647	104.81
234.881	101.81
235.115	107.81
235.349	86.81
235.583	104.81
235.817	96.81
236.051	91.81
236.285	94.81
236.519	109.81
236.753	98.81
236.987	107.81
237.221	97.81
237.455	84.81
237.689	89.81
237.922	100.81
238.156	103.81
238.39	105.81
238.624	106.81
238.858	102.81
239.091	102.81
239.325	103.81
239.559	98.81
239.793	91.81
240.027	117.81
240.26	100.81
240.494	118.81
240.728	99.81
240.961	106.81
241.195	105.81
241.429	100.81
241.662	114.81
241.896	104.81
242.13	100.81
242.363	101.81
242.597	105.81
242.83	104.81
243.064	113.81
243.298	99.81
243.531	112.81
243.765	112.81
243.998	108.81
244.232	103.81
244.465	97.81
244.699	107.81
244.932	106.81
245.166	101.81
245.399	120.81
245.633	112.81
245.866	104.81
246.099	115.81
246.333	111.81
246.566	117.81
246.8	106.81
247.033	106.81
247.266	117.81
247.5	106.81
247.733	124.81
247.966	120.81
248.2	122.81
248.433	128.81
248.666	140.81
248.899	126.81
249.133	126.81
249.366	125.81
249.599	115.81
249.832	112.81
250.066	121.81
250.299	124.81
250.532	142.81
250.765	105.81
250.998	126.81
251.231	132.81
251.465	125.81
251.698	128.81
251.931	136.81
252.164	131.81
252.397	134.81
252.63	124.81
252.863	134.81
253.096	119.81
253.329	128.81
253.562	114.81
253.795	122.81
254.028	117.81
254.261	140.81
254.494	134.81
254.727	125.81
254.96	120.81
255.193	132.81
255.426	140.81
255.659	123.81
255.892	135.81
256.124	139.81
256.357	133.81
256.59	130.81
256.823	128.81
257.056	127.81
257.289	142.81
257.521	125.81
257.754	125.81
257.987	140.81
258.22	124.81
258.452	134.81
258.685	136.81
258.918	144.81
259.151	131.81
259.383	133.81
259.616	130.81
259.849	143.81
260.081	142.81
260.314	148.81
260.547	145.81
260.779	125.81
261.012	141.81
261.244	138.81
261.477	149.81
261.71	130.81
261.942	135.81
262.175	148.81
262.407	132.81
262.64	141.81
262.872	140.81
263.105	140.81
263.337	153.81
263.57	140.81
263.802	138.81
264.035	149.81
264.267	138.81
264.499	158.81
264.732	153.81
264.964	136.81
265.197	142.81
265.429	146.81
265.661	157.81
265.894	162.81
266.126	144.81
266.358	152.81
266.591	156.81
266.823	156.81
267.055	150.81
267.287	154.81
267.52	145.81
267.752	157.81
267.984	165.81
268.216	161.81
268.448	155.81
268.681	166.81
268.913	164.81
269.145	157.81
269.377	139.81
269.609	145.81
269.841	140.81
270.073	149.81
270.306	149.81
270.538	153.81
270.77	160.81
271.002	154.81
271.234	151.81
271.466	148.81
271.698	157.81
271.93	161.81
272.162	151.81
272.394	165.81
272.626	149.81
272.858	159.81
273.09	174.81
273.322	152.81
273.553	168.81
273.785	155.81
274.017	161.81
274.249	151.81
274.481	144.81
274.713	167.81
274.945	188.81
275.176	167.81
275.408	151.81
275.64	162.81
275.872	160.81
276.104	149.81
276.335	156.81
276.567	172.81
276.799	178.81
277.031	171.81
277.262	159.81
277.494	170.81
277.726	168.81
277.957	172.81
278.189	167.81
278.421	167.81
278.652	173.81
278.884	154.81
279.115	169.81
279.347	161.81
279.579	172.81
279.81	164.81
280.042	152.81
280.273	171.81
280.505	171.81
280.736	180.81
280.968	177.81
281.199	188.81
281.431	168.81
281.662	173.81
281.894	174.81
282.125	173.81
282.356	174.81
282.588	187.81
282.819	180.81
283.051	187.81
283.282	161.81
283.513	183.81
283.745	180.81
283.976	173.81
284.207	168.81
284.439	201.81
284.67	171.81
284.901	189.81
285.132	189.81
285.364	177.81
285.595	192.81
285.826	186.81
286.057	186.81
286.288	198.81
286.52	172.81
286.751	186.81
286.982	186.81
287.213	193.81
287.444	179.81
287.675	184.81
287.906	188.81
288.138	194.81
288.369	188.81
288.6	198.81
288.831	193.81
289.062	190.81
289.293	178.81
289.524	196.81
289.755	185.81
289.986	187.81
290.217	208.81
290.448	187.81
290.679	189.81
290.91	187.81
291.141	197.81
291.371	198.81
291.602	187.81
291.833	195.81
292.064	205.81
292.295	192.81
292.526	200.81
292.757	192.81
292.987	188.81
293.218	203.81
293.449	178.81
293.68	189.81
293.91	193.81
294.141	187.81
294.372	180.81
294.603	191.81
294.833	201.81
295.064	201.81
295.295	192.81
295.525	194.81
295.756	207.81
295.987	196.81
296.217	174.81
296.448	195.81
296.679	196.81
296.909	195.81
297.14	207.81
297.37	173.81
297.601	202.81
297.831	195.81
298.062	212.81
298.292	205.81
298.523	204.81
298.753	194.81
298.984	212.81
299.214	219.81
299.445	199.81
299.675	210.81
299.905	198.81
300.136	184.81
300.366	205.81
300.597	211.81
300.827	211.81
301.057	226.81
301.288	210.81
301.518	212.81
301.748	204.81
301.979	204.81
302.209	212.81
302.439	201.81
302.669	214.81
302.9	212.81
303.13	222.81
303.36	204.81
303.59	199.81
303.82	200.81
304.051	201.81
304.281	219.81
304.511	215.81
304.741	213.81
304.971	203.81
305.201	210.81
305.431	204.81
305.661	205.81
305.891	208.81
306.121	208.81
306.352	225.81
306.582	211.81
306.812	211.81
307.042	200.81
307.272	209.81
307.502	213.81
307.731	205.81
307.961	214.81
308.191	199.81
308.421	210.81
308.651	184.81
308.881	218.81
309.111	205.81
309.341	209.81
309.571	212.81
309.8	203.81
310.03	216.81
310.26	196.81
310.49	205.81
310.72	231.81
310.949	210.81
311.179	207.81
311.409	204.81
311.639	216.81
311.868	201.81
312.098	206.81
312.328	233.81
312.557	211.81
312.787	214.81
313.017	190.81
313.246	225.81
313.476	222.81
313.706	216.81
313.935	229.81
314.165	227.81
314.394	216.81
314.624	230.81
314.853	235.81
315.083	237.81
315.312	228.81
315.542	208.81
315.771	197.81
316.001	212.81
316.23	209.81
316.46	216.81
316.689	201.81
316.919	230.81
317.148	221.81
317.377	235.81
317.607	214.81
317.836	203.81
318.065	230.81
318.295	205.81
318.524	216.81
318.753	216.81
318.983	210.81
319.212	259.81
319.441	211.81
319.67	221.81
319.9	217.81
320.129	231.81
320.358	233.81
320.587	226.81
320.816	220.81
321.046	209.81
321.275	222.81
321.504	227.81
321.733	212.81
321.962	230.81
322.191	232.81
322.42	235.81
322.649	228.81
322.878	216.81
323.108	240.81
323.337	225.81
323.566	230.81
323.795	205.81
324.024	217.81
324.253	222.81
324.482	249.81
324.71	231.81
324.939	236.81
325.168	231.81
325.397	247.81
325.626	250.81
325.855	242.81
326.084	241.81
326.313	234.81
326.542	231.81
326.77	233.81
326.999	247.81
327.228	227.81
327.457	241.81
327.686	232.81
327.914	224.81
328.143	242.81
328.372	244.81
328.6	249.81
328.829	230.81
329.058	245.81
329.287	226.81
329.515	241.81
329.744	236.81
329.972	260.81
330.201	242.81
330.43	238.81
330.658	237.81
330.887	248.81
331.115	242.81
331.344	257.81
331.572	237.81
331.801	264.81
332.03	254.81
332.258	263.81
332.486	252.81
332.715	257.81
332.943	280.81
333.172	289.81
333.4	296.81
333.629	276.81
333.857	288.81
334.085	305.81
334.314	290.81
334.542	302.81
334.771	284.81
334.999	276.81
335.227	273.81
335.455	284.81
335.684	299.81
335.912	276.81
336.14	284.81
336.369	278.81
336.597	277.81
336.825	268.81
337.053	258.81
337.281	280.81
337.51	250.81
337.738	269.81
337.966	274.81
338.194	261.81
338.422	258.81
338.65	246.81
338.878	250.81
339.106	254.81
339.334	258.81
339.562	244.81
339.79	261.81
340.018	264.81
340.246	250.81
340.474	264.81
340.702	250.81
340.93	268.81
341.158	256.81
341.386	226.81
341.614	266.81
341.842	236.81
342.07	240.81
342.298	231.81
342.526	253.81
342.754	262.81
342.981	229.81
343.209	238.81
343.437	277.81
343.665	270.81
343.893	275.81
344.12	273.81
344.348	272.81
344.576	245.81
344.804	257.81
345.031	259.81
345.259	242.81
345.487	257.81
345.714	250.81
345.942	248.81
346.17	244.81
346.397	230.81
346.625	245.81
346.853	246.81
347.08	238.81
347.308	259.81
347.535	256.81
347.763	235.81
347.99	235.81
348.218	260.81
348.445	234.81
348.673	253.81
348.9	257.81
349.128	252.81
349.355	231.81
349.583	228.81
349.81	225.81
350.037	236.81
350.265	232.81
350.492	224.81
350.72	225.81
350.947	242.81
351.174	237.81
351.402	238.81
351.629	248.81
351.856	235.81
352.083	229.81
352.311	239.81
352.538	233.81
352.765	230.81
352.992	241.81
353.22	220.81
353.447	229.81
353.674	238.81
353.901	249.81
354.128	225.81
354.355	233.81
354.583	245.81
354.81	241.81
355.037	248.81
355.264	229.81
355.491	228.81
355.718	212.81
355.945	242.81
356.172	246.81
356.399	233.81
356.626	237.81
356.853	250.81
357.08	231.81
357.307	247.81
357.534	240.81
357.761	227.81
357.988	241.81
358.215	237.81
358.441	227.81
358.668	255.81
358.895	227.81
359.122	224.81
359.349	221.81
359.576	233.81
359.802	212.81
360.029	219.81
360.256	237.81
360.483	230.81
360.709	242.81
360.936	232.81
361.163	235.81
361.39	241.81
361.616	237.81
361.843	239.81
362.07	233.81
362.296	225.81
362.523	236.81
362.749	224.81
362.976	232.81
363.203	230.81
363.429	245.81
363.656	232.81
363.882	233.81
364.109	246.81
364.335	245.81
364.562	244.81
364.788	235.81
365.015	223.81
365.241	243.81
365.468	249.81
365.694	244.81
365.92	245.81
366.147	241.81
366.373	235.81
366.599	222.81
366.826	245.81
367.052	241.81
367.278	258.81
367.505	243.81
367.731	235.81
367.957	250.81
368.184	243.81
368.41	252.81
368.636	256.81
368.862	241.81
369.089	236.81
369.315	234.81
369.541	231.81
369.767	247.81
369.993	238.81
370.219	246.81
370.445	267.81
370.672	263.81
370.898	265.81
371.124	261.81
371.35	254.81
371.576	257.81
371.802	245.81
372.028	263.81
372.254	247.81
372.48	298.81
372.706	280.81
372.932	276.81
373.158	266.81
373.384	264.81
373.61	254.81
373.835	275.81
374.061	269.81
374.287	259.81
374.513	242.81
374.739	285.81
374.965	267.81
375.191	296.81
375.416	284.81
375.642	269.81
375.868	274.81
376.094	251.81
376.319	276.81
376.545	262.81
376.771	256.81
376.997	274.81
377.222	272.81
377.448	271.81
377.674	243.81
377.899	268.81
378.125	263.81
378.35	262.81
378.576	263.81
378.802	262.81
379.027	262.81
379.253	268.81
379.478	269.81
379.704	276.81
379.929	276.81
380.155	245.81
380.38	269.81
380.606	274.81
380.831	256.81
381.057	257.81
381.282	267.81
381.507	267.81
381.733	276.81
381.958	271.81
382.184	282.81
382.409	284.81
382.634	270.81
382.86	287.81
383.085	271.81
383.31	270.81
383.535	292.81
383.761	291.81
383.986	307.81
384.211	310.81
384.436	288.81
384.662	285.81
384.887	317.81
385.112	316.81
385.337	301.81
385.562	295.81
385.787	289.81
386.013	314.81
386.238	328.81
386.463	313.81
386.688	311.81
386.913	305.81
387.138	299.81
387.363	307.81
387.588	323.81
387.813	295.81
388.038	309.81
388.263	302.81
388.488	314.81
388.713	332.81
388.938	308.81
389.163	306.81
389.387	299.81
389.612	290.81
389.837	315.81
390.062	308.81
390.287	313.81
390.512	298.81
390.736	344.81
390.961	328.81
391.186	341.81
391.411	308.81
391.636	331.81
391.86	358.81
392.085	338.81
392.31	333.81
392.534	340.81
392.759	325.81
392.984	344.81
393.208	342.81
393.433	327.81
393.658	354.81
393.882	337.81
394.107	336.81
394.331	331.81
394.556	334.81
394.78	330.81
395.005	348.81
395.229	324.81
395.454	376.81
395.678	336.81
395.903	346.81
396.127	373.81
396.352	333.81
396.576	338.81
396.801	347.81
397.025	338.81
397.249	355.81
397.474	350.81
397.698	323.81
397.922	371.81
398.147	337.81
398.371	349.81
398.595	347.81
398.82	377.81
399.044	406.81
399.268	415.81
399.492	434.81
399.717	500.81
399.941	523.81
400.165	485.81
400.389	451.81
400.613	421.81
400.837	396.81
401.062	396.81
401.286	393.81
401.51	387.81
401.734	390.81
401.958	415.81
402.182	377.81
402.406	402.81
402.63	417.81
402.854	399.81
403.078	392.81
403.302	415.81
403.526	402.81
403.75	422.81
403.974	424.81
404.198	424.81
404.422	423.81
404.645	417.81
404.869	411.81
405.093	429.81
405.317	422.81
405.541	423.81
405.765	423.81
405.988	415.81
406.212	438.81
406.436	418.81
406.66	432.81
406.883	440.81
407.107	453.81
407.331	458.81
407.555	476.81
407.778	491.81
408.002	472.81
408.226	490.81
408.449	452.81
408.673	451.81
408.896	446.81
409.12	422.81
409.344	446.81
409.567	446.81
409.791	445.81
410.014	441.81
410.238	454.81
410.461	430.81
410.685	420.81
410.908	429.81
411.132	426.81
411.355	413.81
411.578	409.81
411.802	406.81
412.025	403.81
412.249	412.81
412.472	435.81
412.695	397.81
412.919	378.81
413.142	398.81
413.365	415.81
413.589	382.81
413.812	391.81
414.035	393.81
414.258	381.81
414.482	407.81
414.705	415.81
414.928	412.81
415.151	414.81
415.374	425.81
415.597	406.81
415.821	413.81
416.044	390.81
416.267	392.81
416.49	407.81
416.713	388.81
416.936	382.81
417.159	378.81
417.382	397.81
417.605	375.81
417.828	390.81
418.051	392.81
418.274	398.81
418.497	384.81
418.72	388.81
418.943	398.81
419.166	403.81
419.389	446.81
419.611	425.81
419.834	410.81
420.057	407.81
420.28	408.81
420.503	387.81
420.726	397.81
420.948	401.81
421.171	390.81
421.394	398.81
421.617	396.81
421.839	406.81
422.062	392.81
422.285	386.81
422.507	391.81
422.73	415.81
422.953	411.81
423.175	402.81
423.398	417.81
423.621	418.81
423.843	401.81
424.066	426.81
424.288	404.81
424.511	392.81
424.733	391.81
424.956	383.81
425.178	385.81
425.401	390.81
425.623	399.81
425.846	376.81
426.068	386.81
426.291	389.81
426.513	387.81
426.735	386.81
426.958	388.81
427.18	365.81
427.402	374.81
427.625	385.81
427.847	361.81
428.069	382.81
428.292	376.81
428.514	373.81
428.736	356.81
428.958	392.81
429.181	379.81
429.403	368.81
429.625	357.81
429.847	362.81
430.069	374.81
430.292	368.81
430.514	351.81
430.736	355.81
430.958	369.81
431.18	372.81
431.402	359.81
431.624	330.81
431.846	378.81
432.068	372.81
432.29	378.81
432.512	356.81
432.734	358.81
432.956	379.81
433.178	374.81
433.4	371.81
433.622	370.81
433.844	399.81
434.066	372.81
434.287	375.81
434.509	386.81
434.731	388.81
434.953	404.81
435.175	416.81
435.397	399.81
435.618	389.81
435.84	390.81
436.062	362.81
436.284	362.81
436.505	369.81
436.727	371.81
436.949	383.81
437.17	371.81
437.392	370.81
437.614	360.81
437.835	364.81
438.057	342.81
438.278	347.81
438.5	366.81
438.721	371.81
438.943	377.81
439.165	360.81
439.386	376.81
439.608	388.81
439.829	372.81
440.05	367.81
440.272	384.81
440.493	388.81
440.715	378.81
440.936	409.81
441.158	380.81
441.379	406.81
441.6	426.81
441.822	414.81
442.043	437.81
442.264	392.81
442.486	385.81
442.707	422.81
442.928	402.81
443.149	402.81
443.371	412.81
443.592	392.81
443.813	423.81
444.034	423.81
444.255	427.81
444.476	443.81
444.698	452.81
444.919	459.81
445.14	570.81
445.361	473.81
445.582	412.81
445.803	398.81
446.024	404.81
446.245	392.81
446.466	393.81
446.687	381.81
446.908	392.81
447.129	370.81
447.35	370.81
447.571	356.81
447.792	370.81
448.013	359.81
448.234	370.81
448.455	363.81
448.675	376.81
448.896	362.81
449.117	361.81
449.338	354.81
449.559	349.81
449.779	350.81
450	354.81
450.221	346.81
450.442	345.81
450.662	355.81
450.883	378.81
451.104	347.81
451.324	362.81
451.545	356.81
451.766	372.81
451.986	354.81
452.207	372.81
452.428	359.81
452.648	360.81
452.869	331.81
453.089	353.81
453.31	378.81
453.53	325.81
453.751	345.81
453.971	323.81
454.192	328.81
454.412	334.81
454.633	344.81
454.853	327.81
455.073	348.81
455.294	331.81
455.514	340.81
455.734	334.81
455.955	356.81
456.175	335.81
456.395	310.81
456.616	342.81
456.836	327.81
457.056	333.81
457.276	320.81
457.497	349.81
457.717	329.81
457.937	343.81
458.157	331.81
458.377	327.81
458.598	332.81
458.818	339.81
459.038	365.81
459.258	352.81
459.478	329.81
459.698	370.81
459.918	380.81
460.138	395.81
460.358	384.81
460.578	428.81
460.798	436.81
461.018	414.81
461.238	441.81
461.458	424.81
461.678	437.81
461.898	434.81
462.118	418.81
462.338	450.81
462.558	447.81
462.777	452.81
462.997	501.81
463.217	531.81
463.437	527.81
463.657	501.81
463.876	483.81
464.096	481.81
464.316	476.81
464.536	472.81
464.755	464.81
464.975	451.81
465.195	406.81
465.414	440.81
465.634	405.81
465.854	385.81
466.073	388.81
466.293	360.81
466.512	364.81
466.732	375.81
466.951	364.81
467.171	352.81
467.391	371.81
467.61	374.81
467.829	381.81
468.049	375.81
468.268	352.81
468.488	355.81
468.707	346.81
468.927	349.81
469.146	365.81
469.365	372.81
469.585	361.81
469.804	380.81
470.023	360.81
470.243	378.81
470.462	376.81
470.681	377.81
470.901	372.81
471.12	376.81
471.339	361.81
471.558	384.81
471.777	353.81
471.997	364.81
472.216	352.81
472.435	328.81
472.654	340.81
472.873	326.81
473.092	327.81
473.311	351.81
473.53	334.81
473.749	339.81
473.968	329.81
474.187	320.81
474.406	345.81
474.625	356.81
474.844	338.81
475.063	353.81
475.282	334.81
475.501	338.81
475.72	335.81
475.939	356.81
476.158	338.81
476.377	343.81
476.596	343.81
476.814	352.81
477.033	345.81
477.252	352.81
477.471	374.81
477.69	362.81
477.908	381.81
478.127	382.81
478.346	408.81
478.564	379.81
478.783	392.81
479.002	417.81
479.22	388.81
479.439	408.81
479.658	406.81
479.876	376.81
480.095	409.81
480.313	404.81
480.532	424.81
480.751	418.81
480.969	405.81
481.188	396.81
481.406	385.81
481.624	395.81
481.843	375.81
482.061	392.81
482.28	380.81
482.498	392.81
482.717	375.81
482.935	376.81
483.153	362.81
483.372	390.81
483.59	380.81
483.808	378.81
484.027	370.81
484.245	378.81
484.463	398.81
484.681	410.81
484.9	393.81
485.118	399.81
485.336	398.81
485.554	389.81
485.772	379.81
485.99	384.81
486.209	396.81
486.427	402.81
486.645	408.81
486.863	390.81
487.081	395.81
487.299	391.81
487.517	399.81
487.735	404.81
487.953	409.81
488.171	419.81
488.389	413.81
488.607	391.81
488.825	388.81
489.043	395.81
489.261	380.81
489.479	384.81
489.696	385.81
489.914	391.81
490.132	381.81
490.35	381.81
490.568	407.81
490.786	395.81
491.003	412.81
491.221	448.81
491.439	420.81
491.657	397.81
491.874	411.81
492.092	405.81
492.31	414.81
492.527	429.81
492.745	409.81
492.963	420.81
493.18	414.81
493.398	409.81
493.615	417.81
493.833	425.81
494.05	395.81
494.268	409.81
494.485	408.81
494.703	421.81
494.92	406.81
495.138	419.81
495.355	419.81
495.573	425.81
495.79	426.81
496.008	428.81
496.225	401.81
496.442	442.81
496.66	454.81
496.877	445.81
497.094	428.81
497.312	461.81
497.529	454.81
497.746	454.81
497.963	480.81
498.181	474.81
498.398	530.81
498.615	534.81
498.832	561.81
499.049	576.81
499.267	619.81
499.484	666.81
499.701	750.81
499.918	770.81
500.135	849.81
500.352	927.81
500.569	954.81
500.786	958.81
501.003	917.81
501.22	816.81
501.437	770.81
501.654	689.81
501.871	667.81
502.088	612.81
