Data from Fe(NO3)3@0.1M.TitratingCurve.Agarose3%dH2O.NegLispCup.LampEnergy10.LIBS07252019_HRD10591_16-37-16-332.txt Node
Date: Thu Jul 25 16:37:16 EDT 2019
User: cochatt
Spectrometer: HR+D1059
Trigger mode: 1
Integration Time (sec): 1.000000E-1
Scans to average: 1
Electric dark correction enabled: true
Nonlinearity correction enabled: false
Boxcar width: 0
XAxis mode: Wavelengths
Number of Pixels in Spectrum: 2048
>>>>>Begin Spectral Data<<<<<
223.165	-11.19
223.4	-11.19
223.635	-11.19
223.869	-6.19
224.104	-10.19
224.338	-14.19
224.573	-18.19
224.808	-7.19
225.042	-19.19
225.277	-20.19
225.511	-3.19
225.746	3.81
225.98	16.81
226.215	5.81
226.449	16.81
226.683	15.81
226.918	23.81
227.152	26.81
227.387	20.81
227.621	29.81
227.856	35.81
228.09	38.81
228.324	45.81
228.559	63.81
228.793	57.81
229.027	59.81
229.262	70.81
229.496	72.81
229.73	67.81
229.964	65.81
230.199	87.81
230.433	86.81
230.667	76.81
230.901	90.81
231.136	87.81
231.37	93.81
231.604	76.81
231.838	85.81
232.072	81.81
232.306	71.81
232.541	84.81
232.775	87.81
233.009	103.81
233.243	93.81
233.477	84.81
233.711	77.81
233.945	87.81
234.179	84.81
234.413	90.81
234.647	99.81
234.881	77.81
235.115	82.81
235.349	86.81
235.583	70.81
235.817	84.81
236.051	89.81
236.285	79.81
236.519	87.81
236.753	79.81
236.987	80.81
237.221	92.81
237.455	74.81
237.689	86.81
237.922	86.81
238.156	78.81
238.39	94.81
238.624	91.81
238.858	105.81
239.091	89.81
239.325	83.81
239.559	78.81
239.793	74.81
240.027	74.81
240.26	92.81
240.494	96.81
240.728	81.81
240.961	87.81
241.195	100.81
241.429	93.81
241.662	95.81
241.896	72.81
242.13	76.81
242.363	87.81
242.597	79.81
242.83	88.81
243.064	93.81
243.298	100.81
243.531	84.81
243.765	89.81
243.998	99.81
244.232	88.81
244.465	73.81
244.699	83.81
244.932	77.81
245.166	96.81
245.399	79.81
245.633	88.81
245.866	96.81
246.099	94.81
246.333	96.81
246.566	86.81
246.8	105.81
247.033	95.81
247.266	109.81
247.5	89.81
247.733	88.81
247.966	87.81
248.2	98.81
248.433	88.81
248.666	87.81
248.899	78.81
249.133	86.81
249.366	99.81
249.599	101.81
249.832	95.81
250.066	98.81
250.299	108.81
250.532	97.81
250.765	91.81
250.998	95.81
251.231	111.81
251.465	89.81
251.698	95.81
251.931	97.81
252.164	89.81
252.397	98.81
252.63	97.81
252.863	95.81
253.096	106.81
253.329	94.81
253.562	91.81
253.795	95.81
254.028	89.81
254.261	89.81
254.494	90.81
254.727	91.81
254.96	99.81
255.193	88.81
255.426	91.81
255.659	86.81
255.892	110.81
256.124	93.81
256.357	88.81
256.59	105.81
256.823	104.81
257.056	115.81
257.289	95.81
257.521	114.81
257.754	101.81
257.987	92.81
258.22	110.81
258.452	111.81
258.685	98.81
258.918	97.81
259.151	92.81
259.383	112.81
259.616	105.81
259.849	106.81
260.081	114.81
260.314	103.81
260.547	101.81
260.779	83.81
261.012	104.81
261.244	103.81
261.477	93.81
261.71	92.81
261.942	88.81
262.175	85.81
262.407	102.81
262.64	95.81
262.872	116.81
263.105	99.81
263.337	108.81
263.57	105.81
263.802	90.81
264.035	100.81
264.267	97.81
264.499	98.81
264.732	107.81
264.964	100.81
265.197	94.81
265.429	114.81
265.661	102.81
265.894	114.81
266.126	100.81
266.358	101.81
266.591	101.81
266.823	114.81
267.055	111.81
267.287	103.81
267.52	98.81
267.752	96.81
267.984	96.81
268.216	105.81
268.448	105.81
268.681	101.81
268.913	109.81
269.145	101.81
269.377	111.81
269.609	103.81
269.841	96.81
270.073	112.81
270.306	104.81
270.538	82.81
270.77	103.81
271.002	95.81
271.234	104.81
271.466	114.81
271.698	106.81
271.93	104.81
272.162	113.81
272.394	118.81
272.626	116.81
272.858	114.81
273.09	115.81
273.322	123.81
273.553	115.81
273.785	111.81
274.017	121.81
274.249	127.81
274.481	115.81
274.713	102.81
274.945	136.81
275.176	114.81
275.408	123.81
275.64	123.81
275.872	123.81
276.104	116.81
276.335	101.81
276.567	123.81
276.799	110.81
277.031	122.81
277.262	118.81
277.494	106.81
277.726	104.81
277.957	105.81
278.189	104.81
278.421	105.81
278.652	115.81
278.884	103.81
279.115	111.81
279.347	105.81
279.579	113.81
279.81	101.81
280.042	107.81
280.273	102.81
280.505	116.81
280.736	113.81
280.968	114.81
281.199	102.81
281.431	109.81
281.662	106.81
281.894	103.81
282.125	100.81
282.356	123.81
282.588	119.81
282.819	119.81
283.051	116.81
283.282	102.81
283.513	107.81
283.745	119.81
283.976	115.81
284.207	118.81
284.439	112.81
284.67	103.81
284.901	129.81
285.132	115.81
285.364	122.81
285.595	106.81
285.826	101.81
286.057	116.81
286.288	121.81
286.52	122.81
286.751	109.81
286.982	114.81
287.213	125.81
287.444	121.81
287.675	107.81
287.906	109.81
288.138	129.81
288.369	112.81
288.6	115.81
288.831	126.81
289.062	114.81
289.293	118.81
289.524	113.81
289.755	111.81
289.986	126.81
290.217	118.81
290.448	115.81
290.679	119.81
290.91	119.81
291.141	130.81
291.371	134.81
291.602	124.81
291.833	111.81
292.064	100.81
292.295	120.81
292.526	105.81
292.757	105.81
292.987	94.81
293.218	119.81
293.449	114.81
293.68	129.81
293.91	122.81
294.141	108.81
294.372	129.81
294.603	119.81
294.833	119.81
295.064	119.81
295.295	128.81
295.525	137.81
295.756	114.81
295.987	135.81
296.217	113.81
296.448	128.81
296.679	117.81
296.909	114.81
297.14	121.81
297.37	127.81
297.601	124.81
297.831	115.81
298.062	121.81
298.292	115.81
298.523	129.81
298.753	123.81
298.984	113.81
299.214	132.81
299.445	119.81
299.675	123.81
299.905	118.81
300.136	121.81
300.366	127.81
300.597	114.81
300.827	114.81
301.057	125.81
301.288	103.81
301.518	115.81
301.748	122.81
301.979	125.81
302.209	128.81
302.439	129.81
302.669	136.81
302.9	128.81
303.13	121.81
303.36	108.81
303.59	119.81
303.82	127.81
304.051	125.81
304.281	148.81
304.511	143.81
304.741	123.81
304.971	128.81
305.201	141.81
305.431	121.81
305.661	119.81
305.891	128.81
306.121	133.81
306.352	131.81
306.582	120.81
306.812	127.81
307.042	127.81
307.272	132.81
307.502	109.81
307.731	120.81
307.961	133.81
308.191	119.81
308.421	135.81
308.651	114.81
308.881	128.81
309.111	115.81
309.341	143.81
309.571	138.81
309.8	128.81
310.03	123.81
310.26	135.81
310.49	128.81
310.72	140.81
310.949	127.81
311.179	131.81
311.409	119.81
311.639	122.81
311.868	127.81
312.098	123.81
312.328	133.81
312.557	133.81
312.787	130.81
313.017	138.81
313.246	134.81
313.476	128.81
313.706	128.81
313.935	133.81
314.165	138.81
314.394	127.81
314.624	135.81
314.853	138.81
315.083	136.81
315.312	136.81
315.542	129.81
315.771	120.81
316.001	138.81
316.23	155.81
316.46	119.81
316.689	134.81
316.919	128.81
317.148	125.81
317.377	125.81
317.607	131.81
317.836	131.81
318.065	131.81
318.295	152.81
318.524	133.81
318.753	122.81
318.983	135.81
319.212	131.81
319.441	120.81
319.67	123.81
319.9	125.81
320.129	126.81
320.358	130.81
320.587	132.81
320.816	130.81
321.046	133.81
321.275	131.81
321.504	149.81
321.733	123.81
321.962	132.81
322.191	143.81
322.42	129.81
322.649	128.81
322.878	137.81
323.108	129.81
323.337	119.81
323.566	123.81
323.795	145.81
324.024	125.81
324.253	127.81
324.482	131.81
324.71	133.81
324.939	151.81
325.168	143.81
325.397	138.81
325.626	154.81
325.855	121.81
326.084	137.81
326.313	129.81
326.542	153.81
326.77	142.81
326.999	139.81
327.228	135.81
327.457	131.81
327.686	130.81
327.914	131.81
328.143	138.81
328.372	143.81
328.6	135.81
328.829	138.81
329.058	147.81
329.287	133.81
329.515	138.81
329.744	128.81
329.972	148.81
330.201	141.81
330.43	141.81
330.658	141.81
330.887	132.81
331.115	142.81
331.344	143.81
331.572	149.81
331.801	123.81
332.03	121.81
332.258	136.81
332.486	139.81
332.715	133.81
332.943	159.81
333.172	147.81
333.4	146.81
333.629	148.81
333.857	137.81
334.085	162.81
334.314	152.81
334.542	141.81
334.771	147.81
334.999	137.81
335.227	145.81
335.455	152.81
335.684	136.81
335.912	146.81
336.14	148.81
336.369	154.81
336.597	158.81
336.825	145.81
337.053	142.81
337.281	135.81
337.51	129.81
337.738	146.81
337.966	140.81
338.194	129.81
338.422	138.81
338.65	145.81
338.878	143.81
339.106	147.81
339.334	158.81
339.562	126.81
339.79	146.81
340.018	137.81
340.246	125.81
340.474	155.81
340.702	149.81
340.93	141.81
341.158	127.81
341.386	135.81
341.614	127.81
341.842	147.81
342.07	127.81
342.298	128.81
342.526	132.81
342.754	154.81
342.981	137.81
343.209	148.81
343.437	141.81
343.665	147.81
343.893	159.81
344.12	154.81
344.348	157.81
344.576	147.81
344.804	157.81
345.031	133.81
345.259	145.81
345.487	134.81
345.714	145.81
345.942	139.81
346.17	129.81
346.397	131.81
346.625	153.81
346.853	149.81
347.08	128.81
347.308	147.81
347.535	128.81
347.763	149.81
347.99	139.81
348.218	135.81
348.445	141.81
348.673	122.81
348.9	123.81
349.128	133.81
349.355	150.81
349.583	143.81
349.81	123.81
350.037	131.81
350.265	148.81
350.492	136.81
350.72	151.81
350.947	154.81
351.174	159.81
351.402	131.81
351.629	142.81
351.856	129.81
352.083	144.81
352.311	139.81
352.538	151.81
352.765	138.81
352.992	122.81
353.22	134.81
353.447	144.81
353.674	130.81
353.901	159.81
354.128	165.81
354.355	147.81
354.583	145.81
354.81	135.81
355.037	146.81
355.264	153.81
355.491	138.81
355.718	136.81
355.945	138.81
356.172	147.81
356.399	122.81
356.626	137.81
356.853	145.81
357.08	156.81
357.307	156.81
357.534	150.81
357.761	151.81
357.988	156.81
358.215	161.81
358.441	163.81
358.668	159.81
358.895	151.81
359.122	148.81
359.349	147.81
359.576	148.81
359.802	130.81
360.029	131.81
360.256	157.81
360.483	143.81
360.709	137.81
360.936	129.81
361.163	153.81
361.39	140.81
361.616	143.81
361.843	141.81
362.07	150.81
362.296	143.81
362.523	140.81
362.749	133.81
362.976	153.81
363.203	143.81
363.429	145.81
363.656	132.81
363.882	133.81
364.109	129.81
364.335	148.81
364.562	167.81
364.788	150.81
365.015	149.81
365.241	155.81
365.468	161.81
365.694	140.81
365.92	140.81
366.147	142.81
366.373	139.81
366.599	139.81
366.826	153.81
367.052	143.81
367.278	155.81
367.505	149.81
367.731	140.81
367.957	147.81
368.184	145.81
368.41	156.81
368.636	148.81
368.862	163.81
369.089	147.81
369.315	159.81
369.541	163.81
369.767	156.81
369.993	147.81
370.219	159.81
370.445	143.81
370.672	155.81
370.898	151.81
371.124	147.81
371.35	155.81
371.576	173.81
371.802	157.81
372.028	165.81
372.254	172.81
372.48	173.81
372.706	158.81
372.932	171.81
373.158	163.81
373.384	148.81
373.61	167.81
373.835	183.81
374.061	164.81
374.287	179.81
374.513	167.81
374.739	181.81
374.965	180.81
375.191	183.81
375.416	159.81
375.642	164.81
375.868	183.81
376.094	166.81
376.319	162.81
376.545	164.81
376.771	170.81
376.997	167.81
377.222	162.81
377.448	169.81
377.674	173.81
377.899	164.81
378.125	177.81
378.35	161.81
378.576	164.81
378.802	165.81
379.027	165.81
379.253	171.81
379.478	163.81
379.704	183.81
379.929	193.81
380.155	174.81
380.38	191.81
380.606	179.81
380.831	196.81
381.057	186.81
381.282	187.81
381.507	171.81
381.733	195.81
381.958	177.81
382.184	195.81
382.409	199.81
382.634	197.81
382.86	186.81
383.085	216.81
383.31	191.81
383.535	185.81
383.761	216.81
383.986	202.81
384.211	218.81
384.436	195.81
384.662	212.81
384.887	225.81
385.112	192.81
385.337	206.81
385.562	201.81
385.787	202.81
386.013	224.81
386.238	213.81
386.463	215.81
386.688	218.81
386.913	208.81
387.138	211.81
387.363	204.81
387.588	218.81
387.813	220.81
388.038	215.81
388.263	221.81
388.488	219.81
388.713	230.81
388.938	218.81
389.163	214.81
389.387	217.81
389.612	218.81
389.837	211.81
390.062	226.81
390.287	218.81
390.512	222.81
390.736	218.81
390.961	224.81
391.186	218.81
391.411	218.81
391.636	251.81
391.86	241.81
392.085	247.81
392.31	240.81
392.534	240.81
392.759	233.81
392.984	233.81
393.208	235.81
393.433	243.81
393.658	244.81
393.882	228.81
394.107	236.81
394.331	242.81
394.556	250.81
394.78	245.81
395.005	247.81
395.229	233.81
395.454	243.81
395.678	243.81
395.903	242.81
396.127	243.81
396.352	258.81
396.576	242.81
396.801	258.81
397.025	259.81
397.249	248.81
397.474	262.81
397.698	249.81
397.922	267.81
398.147	264.81
398.371	274.81
398.595	295.81
398.82	284.81
399.044	286.81
399.268	282.81
399.492	304.81
399.717	352.81
399.941	340.81
400.165	331.81
400.389	312.81
400.613	300.81
400.837	287.81
401.062	296.81
401.286	296.81
401.51	277.81
401.734	280.81
401.958	280.81
402.182	268.81
402.406	274.81
402.63	285.81
402.854	278.81
403.078	284.81
403.302	273.81
403.526	279.81
403.75	289.81
403.974	290.81
404.198	298.81
404.422	298.81
404.645	289.81
404.869	299.81
405.093	315.81
405.317	295.81
405.541	319.81
405.765	286.81
405.988	299.81
406.212	305.81
406.436	295.81
406.66	317.81
406.883	306.81
407.107	309.81
407.331	311.81
407.555	323.81
407.778	336.81
408.002	336.81
408.226	316.81
408.449	330.81
408.673	312.81
408.896	307.81
409.12	299.81
409.344	310.81
409.567	315.81
409.791	304.81
410.014	303.81
410.238	312.81
410.461	299.81
410.685	301.81
410.908	288.81
411.132	301.81
411.355	297.81
411.578	277.81
411.802	297.81
412.025	285.81
412.249	295.81
412.472	329.81
412.695	288.81
412.919	283.81
413.142	294.81
413.365	280.81
413.589	290.81
413.812	272.81
414.035	297.81
414.258	285.81
414.482	279.81
414.705	318.81
414.928	298.81
415.151	302.81
415.374	290.81
415.597	295.81
415.821	281.81
416.044	288.81
416.267	293.81
416.49	293.81
416.713	277.81
416.936	299.81
417.159	279.81
417.382	289.81
417.605	297.81
417.828	291.81
418.051	296.81
418.274	276.81
418.497	286.81
418.72	296.81
418.943	300.81
419.166	293.81
419.389	311.81
419.611	310.81
419.834	309.81
420.057	292.81
420.28	290.81
420.503	297.81
420.726	294.81
420.948	296.81
421.171	285.81
421.394	291.81
421.617	299.81
421.839	296.81
422.062	282.81
422.285	299.81
422.507	297.81
422.73	299.81
422.953	278.81
423.175	300.81
423.398	284.81
423.621	306.81
423.843	298.81
424.066	311.81
424.288	305.81
424.511	283.81
424.733	293.81
424.956	283.81
425.178	296.81
425.401	308.81
425.623	293.81
425.846	297.81
426.068	319.81
426.291	293.81
426.513	295.81
426.735	302.81
426.958	289.81
427.18	296.81
427.402	280.81
427.625	292.81
427.847	281.81
428.069	277.81
428.292	270.81
428.514	285.81
428.736	280.81
428.958	270.81
429.181	266.81
429.403	282.81
429.625	283.81
429.847	280.81
430.069	279.81
430.292	285.81
430.514	269.81
430.736	275.81
430.958	290.81
431.18	292.81
431.402	291.81
431.624	278.81
431.846	279.81
432.068	284.81
432.29	277.81
432.512	290.81
432.734	291.81
432.956	279.81
433.178	279.81
433.4	266.81
433.622	291.81
433.844	294.81
434.066	299.81
434.287	295.81
434.509	268.81
434.731	295.81
434.953	277.81
435.175	302.81
435.397	279.81
435.618	301.81
435.84	294.81
436.062	268.81
436.284	284.81
436.505	284.81
436.727	296.81
436.949	288.81
437.17	283.81
437.392	267.81
437.614	280.81
437.835	289.81
438.057	255.81
438.278	263.81
438.5	276.81
438.721	279.81
438.943	282.81
439.165	260.81
439.386	285.81
439.608	299.81
439.829	270.81
440.05	276.81
440.272	284.81
440.493	286.81
440.715	274.81
440.936	287.81
441.158	292.81
441.379	292.81
441.6	303.81
441.822	303.81
442.043	296.81
442.264	296.81
442.486	300.81
442.707	311.81
442.928	303.81
443.149	293.81
443.371	294.81
443.592	305.81
443.813	290.81
444.034	307.81
444.255	306.81
444.476	319.81
444.698	319.81
444.919	331.81
445.14	404.81
445.361	371.81
445.582	328.81
445.803	310.81
446.024	283.81
446.245	291.81
446.466	309.81
446.687	279.81
446.908	275.81
447.129	290.81
447.35	282.81
447.571	268.81
447.792	277.81
448.013	275.81
448.234	293.81
448.455	279.81
448.675	273.81
448.896	277.81
449.117	281.81
449.338	276.81
449.559	279.81
449.779	284.81
450	287.81
450.221	256.81
450.442	262.81
450.662	273.81
450.883	264.81
451.104	270.81
451.324	264.81
451.545	247.81
451.766	273.81
451.986	291.81
452.207	273.81
452.428	275.81
452.648	270.81
452.869	263.81
453.089	275.81
453.31	261.81
453.53	277.81
453.751	252.81
453.971	252.81
454.192	254.81
454.412	240.81
454.633	259.81
454.853	253.81
455.073	250.81
455.294	258.81
455.514	260.81
455.734	267.81
455.955	249.81
456.175	254.81
456.395	250.81
456.616	246.81
456.836	260.81
457.056	250.81
457.276	242.81
457.497	250.81
457.717	259.81
457.937	252.81
458.157	264.81
458.377	261.81
458.598	277.81
458.818	267.81
459.038	275.81
459.258	278.81
459.478	274.81
459.698	279.81
459.918	272.81
460.138	312.81
460.358	293.81
460.578	291.81
460.798	303.81
461.018	311.81
461.238	314.81
461.458	323.81
461.678	303.81
461.898	318.81
462.118	319.81
462.338	314.81
462.558	357.81
462.777	337.81
462.997	347.81
463.217	352.81
463.437	377.81
463.657	345.81
463.876	331.81
464.096	337.81
464.316	333.81
464.536	329.81
464.755	323.81
464.975	324.81
465.195	296.81
465.414	330.81
465.634	319.81
465.854	288.81
466.073	289.81
466.293	284.81
466.512	279.81
466.732	284.81
466.951	299.81
467.171	305.81
467.391	312.81
467.61	282.81
467.829	266.81
468.049	292.81
468.268	287.81
468.488	278.81
468.707	279.81
468.927	292.81
469.146	284.81
469.365	281.81
469.585	287.81
469.804	277.81
470.023	289.81
470.243	310.81
470.462	300.81
470.681	289.81
470.901	284.81
471.12	292.81
471.339	301.81
471.558	275.81
471.777	286.81
471.997	284.81
472.216	293.81
472.435	276.81
472.654	278.81
472.873	304.81
473.092	267.81
473.311	288.81
473.53	285.81
473.749	289.81
473.968	275.81
474.187	298.81
474.406	278.81
474.625	277.81
474.844	284.81
475.063	280.81
475.282	276.81
475.501	286.81
475.72	292.81
475.939	298.81
476.158	292.81
476.377	282.81
476.596	286.81
476.814	309.81
477.033	309.81
477.252	302.81
477.471	317.81
477.69	305.81
477.908	313.81
478.127	330.81
478.346	318.81
478.564	309.81
478.783	320.81
479.002	330.81
479.22	320.81
479.439	336.81
479.658	325.81
479.876	319.81
480.095	337.81
480.313	338.81
480.532	312.81
480.751	328.81
480.969	330.81
481.188	331.81
481.406	323.81
481.624	314.81
481.843	321.81
482.061	315.81
482.28	312.81
482.498	317.81
482.717	332.81
482.935	332.81
483.153	326.81
483.372	317.81
483.59	329.81
483.808	319.81
484.027	332.81
484.245	299.81
484.463	312.81
484.681	330.81
484.9	300.81
485.118	313.81
485.336	349.81
485.554	323.81
485.772	342.81
485.99	349.81
486.209	342.81
486.427	344.81
486.645	330.81
486.863	337.81
487.081	326.81
487.299	327.81
487.517	334.81
487.735	347.81
487.953	343.81
488.171	331.81
488.389	340.81
488.607	323.81
488.825	346.81
489.043	326.81
489.261	329.81
489.479	352.81
489.696	323.81
489.914	327.81
490.132	336.81
490.35	350.81
490.568	336.81
490.786	346.81
491.003	340.81
491.221	333.81
491.439	339.81
491.657	342.81
491.874	339.81
492.092	354.81
492.31	351.81
492.527	341.81
492.745	341.81
492.963	351.81
493.18	339.81
493.398	346.81
493.615	358.81
493.833	375.81
494.05	340.81
494.268	355.81
494.485	336.81
494.703	347.81
494.92	346.81
495.138	346.81
495.355	349.81
495.573	358.81
495.79	351.81
496.008	372.81
496.225	349.81
496.442	366.81
496.66	373.81
496.877	376.81
497.094	384.81
497.312	402.81
497.529	385.81
497.746	383.81
497.963	383.81
498.181	400.81
498.398	433.81
498.615	432.81
498.832	448.81
499.049	468.81
499.267	489.81
499.484	506.81
499.701	531.81
499.918	549.81
500.135	600.81
500.352	600.81
500.569	614.81
500.786	636.81
501.003	575.81
501.22	563.81
501.437	554.81
501.654	535.81
501.871	511.81
502.088	483.81
502.305	467.81
502.522	457.81
502.739	456.81
502.956	417.81
503.172	415.81
503.389	399.81
