Data from Fe(NO3)3@0.025M.TitratingCurve.Agarose3%dH2O.NegLispCup.LampEnergy10.LIBS07252019_HRD10591_16-55-33-335.txt Node
Date: Thu Jul 25 16:55:33 EDT 2019
User: cochatt
Spectrometer: HR+D1059
Trigger mode: 1
Integration Time (sec): 1.000000E-1
Scans to average: 1
Electric dark correction enabled: true
Nonlinearity correction enabled: false
Boxcar width: 0
XAxis mode: Wavelengths
Number of Pixels in Spectrum: 2048
>>>>>Begin Spectral Data<<<<<
223.165	-7.12
223.4	-7.12
223.635	-7.12
223.869	-17.12
224.104	-6.12
224.338	-27.12
224.573	-22.12
224.808	-10.12
225.042	7.88
225.277	-2.12
225.511	-10.12
225.746	4.88
225.98	0.88
226.215	-0.12
226.449	9.88
226.683	14.88
226.918	29.88
227.152	33.88
227.387	41.88
227.621	36.88
227.856	47.88
228.09	36.88
228.324	53.88
228.559	58.88
228.793	63.88
229.027	68.88
229.262	72.88
229.496	70.88
229.73	88.88
229.964	80.88
230.199	83.88
230.433	87.88
230.667	84.88
230.901	90.88
231.136	91.88
231.37	82.88
231.604	68.88
231.838	95.88
232.072	71.88
232.306	95.88
232.541	103.88
232.775	81.88
233.009	91.88
233.243	71.88
233.477	98.88
233.711	92.88
233.945	91.88
234.179	83.88
234.413	90.88
234.647	88.88
234.881	93.88
235.115	97.88
235.349	86.88
235.583	85.88
235.817	81.88
236.051	75.88
236.285	86.88
236.519	89.88
236.753	94.88
236.987	83.88
237.221	74.88
237.455	88.88
237.689	97.88
237.922	91.88
238.156	91.88
238.39	86.88
238.624	87.88
238.858	89.88
239.091	95.88
239.325	87.88
239.559	96.88
239.793	87.88
240.027	79.88
240.26	89.88
240.494	92.88
240.728	92.88
240.961	95.88
241.195	90.88
241.429	95.88
241.662	91.88
241.896	74.88
242.13	99.88
242.363	100.88
242.597	99.88
242.83	117.88
243.064	101.88
243.298	103.88
243.531	89.88
243.765	100.88
243.998	108.88
244.232	92.88
244.465	108.88
244.699	86.88
244.932	108.88
245.166	110.88
245.399	86.88
245.633	84.88
245.866	109.88
246.099	97.88
246.333	103.88
246.566	99.88
246.8	95.88
247.033	96.88
247.266	90.88
247.5	93.88
247.733	106.88
247.966	106.88
248.2	103.88
248.433	97.88
248.666	100.88
248.899	113.88
249.133	101.88
249.366	110.88
249.599	105.88
249.832	112.88
250.066	106.88
250.299	101.88
250.532	105.88
250.765	103.88
250.998	112.88
251.231	99.88
251.465	99.88
251.698	105.88
251.931	110.88
252.164	114.88
252.397	118.88
252.63	100.88
252.863	99.88
253.096	126.88
253.329	102.88
253.562	110.88
253.795	94.88
254.028	120.88
254.261	119.88
254.494	103.88
254.727	102.88
254.96	116.88
255.193	107.88
255.426	111.88
255.659	121.88
255.892	122.88
256.124	127.88
256.357	122.88
256.59	122.88
256.823	123.88
257.056	112.88
257.289	101.88
257.521	103.88
257.754	103.88
257.987	126.88
258.22	114.88
258.452	119.88
258.685	121.88
258.918	115.88
259.151	119.88
259.383	118.88
259.616	110.88
259.849	110.88
260.081	122.88
260.314	132.88
260.547	135.88
260.779	120.88
261.012	135.88
261.244	117.88
261.477	125.88
261.71	136.88
261.942	124.88
262.175	120.88
262.407	123.88
262.64	106.88
262.872	128.88
263.105	138.88
263.337	136.88
263.57	134.88
263.802	128.88
264.035	138.88
264.267	143.88
264.499	143.88
264.732	119.88
264.964	123.88
265.197	128.88
265.429	147.88
265.661	119.88
265.894	126.88
266.126	137.88
266.358	132.88
266.591	139.88
266.823	114.88
267.055	119.88
267.287	124.88
267.52	155.88
267.752	137.88
267.984	136.88
268.216	147.88
268.448	125.88
268.681	137.88
268.913	140.88
269.145	146.88
269.377	132.88
269.609	139.88
269.841	139.88
270.073	141.88
270.306	136.88
270.538	147.88
270.77	148.88
271.002	146.88
271.234	144.88
271.466	139.88
271.698	144.88
271.93	136.88
272.162	152.88
272.394	137.88
272.626	153.88
272.858	139.88
273.09	141.88
273.322	155.88
273.553	147.88
273.785	149.88
274.017	152.88
274.249	149.88
274.481	142.88
274.713	140.88
274.945	148.88
275.176	155.88
275.408	141.88
275.64	138.88
275.872	150.88
276.104	155.88
276.335	157.88
276.567	151.88
276.799	162.88
277.031	151.88
277.262	158.88
277.494	154.88
277.726	144.88
277.957	164.88
278.189	156.88
278.421	146.88
278.652	154.88
278.884	144.88
279.115	144.88
279.347	162.88
279.579	170.88
279.81	162.88
280.042	157.88
280.273	149.88
280.505	162.88
280.736	163.88
280.968	143.88
281.199	158.88
281.431	151.88
281.662	169.88
281.894	160.88
282.125	167.88
282.356	171.88
282.588	149.88
282.819	150.88
283.051	146.88
283.282	168.88
283.513	158.88
283.745	161.88
283.976	152.88
284.207	164.88
284.439	179.88
284.67	172.88
284.901	174.88
285.132	169.88
285.364	160.88
285.595	170.88
285.826	172.88
286.057	170.88
286.288	170.88
286.52	160.88
286.751	163.88
286.982	167.88
287.213	164.88
287.444	191.88
287.675	192.88
287.906	161.88
288.138	176.88
288.369	170.88
288.6	185.88
288.831	174.88
289.062	167.88
289.293	165.88
289.524	180.88
289.755	172.88
289.986	186.88
290.217	174.88
290.448	184.88
290.679	154.88
290.91	176.88
291.141	176.88
291.371	175.88
291.602	184.88
291.833	171.88
292.064	190.88
292.295	176.88
292.526	185.88
292.757	169.88
292.987	163.88
293.218	180.88
293.449	176.88
293.68	179.88
293.91	187.88
294.141	199.88
294.372	180.88
294.603	186.88
294.833	165.88
295.064	167.88
295.295	178.88
295.525	168.88
295.756	180.88
295.987	187.88
296.217	174.88
296.448	180.88
296.679	180.88
296.909	201.88
297.14	177.88
297.37	187.88
297.601	201.88
297.831	187.88
298.062	191.88
298.292	190.88
298.523	192.88
298.753	178.88
298.984	183.88
299.214	166.88
299.445	194.88
299.675	190.88
299.905	180.88
300.136	193.88
300.366	191.88
300.597	191.88
300.827	186.88
301.057	204.88
301.288	196.88
301.518	203.88
301.748	193.88
301.979	201.88
302.209	193.88
302.439	202.88
302.669	198.88
302.9	184.88
303.13	211.88
303.36	181.88
303.59	197.88
303.82	184.88
304.051	198.88
304.281	196.88
304.511	204.88
304.741	199.88
304.971	212.88
305.201	190.88
305.431	206.88
305.661	196.88
305.891	205.88
306.121	225.88
306.352	210.88
306.582	201.88
306.812	180.88
307.042	185.88
307.272	195.88
307.502	182.88
307.731	206.88
307.961	208.88
308.191	210.88
308.421	185.88
308.651	206.88
308.881	202.88
309.111	221.88
309.341	209.88
309.571	193.88
309.8	204.88
310.03	204.88
310.26	207.88
310.49	207.88
310.72	203.88
310.949	202.88
311.179	206.88
311.409	196.88
311.639	214.88
311.868	208.88
312.098	217.88
312.328	217.88
312.557	216.88
312.787	216.88
313.017	199.88
313.246	212.88
313.476	206.88
313.706	222.88
313.935	225.88
314.165	212.88
314.394	211.88
314.624	207.88
314.853	214.88
315.083	210.88
315.312	214.88
315.542	216.88
315.771	225.88
316.001	235.88
316.23	227.88
316.46	220.88
316.689	226.88
316.919	231.88
317.148	210.88
317.377	229.88
317.607	213.88
317.836	206.88
318.065	201.88
318.295	211.88
318.524	218.88
318.753	211.88
318.983	220.88
319.212	209.88
319.441	215.88
319.67	227.88
319.9	220.88
320.129	217.88
320.358	226.88
320.587	226.88
320.816	219.88
321.046	226.88
321.275	241.88
321.504	223.88
321.733	233.88
321.962	206.88
322.191	222.88
322.42	227.88
322.649	223.88
322.878	228.88
323.108	218.88
323.337	239.88
323.566	222.88
323.795	234.88
324.024	234.88
324.253	223.88
324.482	214.88
324.71	219.88
324.939	240.88
325.168	217.88
325.397	219.88
325.626	241.88
325.855	222.88
326.084	228.88
326.313	227.88
326.542	236.88
326.77	224.88
326.999	234.88
327.228	238.88
327.457	228.88
327.686	233.88
327.914	240.88
328.143	248.88
328.372	236.88
328.6	235.88
328.829	227.88
329.058	239.88
329.287	241.88
329.515	238.88
329.744	258.88
329.972	252.88
330.201	239.88
330.43	228.88
330.658	258.88
330.887	242.88
331.115	249.88
331.344	247.88
331.572	248.88
331.801	248.88
332.03	259.88
332.258	238.88
332.486	280.88
332.715	262.88
332.943	267.88
333.172	290.88
333.4	268.88
333.629	294.88
333.857	290.88
334.085	291.88
334.314	304.88
334.542	290.88
334.771	278.88
334.999	292.88
335.227	264.88
335.455	247.88
335.684	283.88
335.912	282.88
336.14	252.88
336.369	276.88
336.597	275.88
336.825	250.88
337.053	268.88
337.281	275.88
337.51	267.88
337.738	258.88
337.966	277.88
338.194	273.88
338.422	263.88
338.65	254.88
338.878	287.88
339.106	259.88
339.334	245.88
339.562	236.88
339.79	242.88
340.018	262.88
340.246	254.88
340.474	244.88
340.702	256.88
340.93	246.88
341.158	252.88
341.386	248.88
341.614	271.88
341.842	264.88
342.07	260.88
342.298	246.88
342.526	256.88
342.754	250.88
342.981	234.88
343.209	250.88
343.437	262.88
343.665	277.88
343.893	279.88
344.12	288.88
344.348	280.88
344.576	257.88
344.804	242.88
345.031	259.88
345.259	256.88
345.487	253.88
345.714	251.88
345.942	262.88
346.17	258.88
346.397	252.88
346.625	233.88
346.853	255.88
347.08	273.88
347.308	252.88
347.535	240.88
347.763	242.88
347.99	245.88
348.218	256.88
348.445	259.88
348.673	242.88
348.9	261.88
349.128	240.88
349.355	258.88
349.583	221.88
349.81	247.88
350.037	234.88
350.265	242.88
350.492	244.88
350.72	247.88
350.947	234.88
351.174	244.88
351.402	241.88
351.629	239.88
351.856	231.88
352.083	243.88
352.311	227.88
352.538	260.88
352.765	259.88
352.992	231.88
353.22	248.88
353.447	243.88
353.674	247.88
353.901	247.88
354.128	239.88
354.355	243.88
354.583	249.88
354.81	258.88
355.037	239.88
355.264	234.88
355.491	243.88
355.718	253.88
355.945	247.88
356.172	256.88
356.399	258.88
356.626	237.88
356.853	235.88
357.08	254.88
357.307	260.88
357.534	234.88
357.761	247.88
357.988	247.88
358.215	246.88
358.441	256.88
358.668	270.88
358.895	252.88
359.122	229.88
359.349	265.88
359.576	246.88
359.802	241.88
360.029	253.88
360.256	255.88
360.483	227.88
360.709	252.88
360.936	260.88
361.163	241.88
361.39	247.88
361.616	233.88
361.843	234.88
362.07	259.88
362.296	262.88
362.523	244.88
362.749	238.88
362.976	228.88
363.203	255.88
363.429	250.88
363.656	258.88
363.882	255.88
364.109	260.88
364.335	251.88
364.562	267.88
364.788	258.88
365.015	254.88
365.241	252.88
365.468	256.88
365.694	259.88
365.92	280.88
366.147	256.88
366.373	252.88
366.599	256.88
366.826	251.88
367.052	240.88
367.278	250.88
367.505	258.88
367.731	260.88
367.957	265.88
368.184	252.88
368.41	252.88
368.636	280.88
368.862	263.88
369.089	264.88
369.315	251.88
369.541	274.88
369.767	249.88
369.993	252.88
370.219	255.88
370.445	267.88
370.672	243.88
370.898	261.88
371.124	268.88
371.35	272.88
371.576	288.88
371.802	304.88
372.028	259.88
372.254	278.88
372.48	264.88
372.706	267.88
372.932	278.88
373.158	280.88
373.384	264.88
373.61	281.88
373.835	260.88
374.061	273.88
374.287	290.88
374.513	292.88
374.739	281.88
374.965	266.88
375.191	274.88
375.416	276.88
375.642	279.88
375.868	287.88
376.094	272.88
376.319	283.88
376.545	273.88
376.771	280.88
376.997	278.88
377.222	273.88
377.448	276.88
377.674	285.88
377.899	270.88
378.125	256.88
378.35	258.88
378.576	268.88
378.802	273.88
379.027	276.88
379.253	266.88
379.478	266.88
379.704	275.88
379.929	263.88
380.155	269.88
380.38	290.88
380.606	276.88
380.831	261.88
381.057	274.88
381.282	266.88
381.507	258.88
381.733	248.88
381.958	267.88
382.184	267.88
382.409	278.88
382.634	302.88
382.86	287.88
383.085	281.88
383.31	286.88
383.535	291.88
383.761	288.88
383.986	283.88
384.211	288.88
384.436	280.88
384.662	305.88
384.887	290.88
385.112	296.88
385.337	295.88
385.562	298.88
385.787	318.88
386.013	309.88
386.238	316.88
386.463	299.88
386.688	284.88
386.913	292.88
387.138	313.88
387.363	300.88
387.588	302.88
387.813	335.88
388.038	319.88
388.263	322.88
388.488	314.88
388.713	311.88
388.938	314.88
389.163	310.88
389.387	306.88
389.612	321.88
389.837	295.88
390.062	327.88
390.287	315.88
390.512	314.88
390.736	314.88
390.961	327.88
391.186	321.88
391.411	314.88
391.636	346.88
391.86	335.88
392.085	356.88
392.31	335.88
392.534	340.88
392.759	341.88
392.984	332.88
393.208	325.88
393.433	345.88
393.658	313.88
393.882	331.88
394.107	336.88
394.331	328.88
394.556	316.88
394.78	355.88
395.005	326.88
395.229	315.88
395.454	346.88
395.678	339.88
395.903	327.88
396.127	353.88
396.352	336.88
396.576	326.88
396.801	328.88
397.025	342.88
397.249	326.88
397.474	339.88
397.698	336.88
397.922	350.88
398.147	342.88
398.371	363.88
398.595	379.88
398.82	363.88
399.044	392.88
399.268	438.88
399.492	455.88
399.717	490.88
399.941	483.88
400.165	460.88
400.389	408.88
400.613	395.88
400.837	402.88
401.062	379.88
401.286	395.88
401.51	375.88
401.734	355.88
401.958	363.88
402.182	388.88
402.406	380.88
402.63	372.88
402.854	367.88
403.078	376.88
403.302	376.88
403.526	396.88
403.75	386.88
403.974	400.88
404.198	402.88
404.422	415.88
404.645	394.88
404.869	390.88
405.093	400.88
405.317	387.88
405.541	397.88
405.765	397.88
405.988	403.88
406.212	383.88
406.436	400.88
406.66	397.88
406.883	403.88
407.107	431.88
407.331	415.88
407.555	426.88
407.778	440.88
408.002	418.88
408.226	439.88
408.449	423.88
408.673	406.88
408.896	370.88
409.12	390.88
409.344	401.88
409.567	393.88
409.791	398.88
410.014	398.88
410.238	402.88
410.461	388.88
410.685	368.88
410.908	369.88
411.132	387.88
411.355	385.88
411.578	388.88
411.802	387.88
412.025	388.88
412.249	382.88
412.472	380.88
412.695	373.88
412.919	378.88
413.142	386.88
413.365	373.88
413.589	379.88
413.812	378.88
414.035	362.88
414.258	363.88
414.482	373.88
414.705	362.88
414.928	380.88
415.151	374.88
415.374	370.88
415.597	366.88
415.821	366.88
416.044	366.88
416.267	357.88
416.49	346.88
416.713	349.88
416.936	351.88
417.159	366.88
417.382	359.88
417.605	364.88
417.828	371.88
418.051	388.88
418.274	368.88
418.497	373.88
418.72	388.88
418.943	375.88
419.166	392.88
419.389	411.88
419.611	398.88
419.834	362.88
420.057	385.88
420.28	382.88
420.503	367.88
420.726	374.88
420.948	363.88
421.171	378.88
421.394	381.88
421.617	356.88
421.839	358.88
422.062	373.88
422.285	367.88
422.507	353.88
422.73	366.88
422.953	376.88
423.175	368.88
423.398	376.88
423.621	377.88
423.843	370.88
424.066	351.88
424.288	366.88
424.511	356.88
424.733	379.88
424.956	378.88
425.178	361.88
425.401	363.88
425.623	370.88
425.846	352.88
426.068	363.88
426.291	365.88
426.513	348.88
426.735	360.88
426.958	335.88
427.18	352.88
427.402	335.88
427.625	331.88
427.847	332.88
428.069	337.88
428.292	341.88
428.514	336.88
428.736	345.88
428.958	347.88
429.181	326.88
429.403	318.88
429.625	322.88
429.847	328.88
430.069	324.88
430.292	321.88
430.514	327.88
430.736	342.88
430.958	332.88
431.18	331.88
431.402	336.88
431.624	330.88
431.846	333.88
432.068	335.88
432.29	327.88
432.512	326.88
432.734	341.88
432.956	333.88
433.178	337.88
433.4	333.88
433.622	344.88
433.844	337.88
434.066	341.88
434.287	331.88
434.509	354.88
434.731	358.88
434.953	370.88
435.175	347.88
435.397	364.88
435.618	355.88
435.84	336.88
436.062	351.88
436.284	346.88
436.505	321.88
436.727	329.88
436.949	327.88
437.17	334.88
437.392	334.88
437.614	334.88
437.835	322.88
438.057	331.88
438.278	296.88
438.5	328.88
438.721	334.88
438.943	331.88
439.165	314.88
439.386	317.88
439.608	334.88
439.829	330.88
440.05	342.88
440.272	348.88
440.493	340.88
440.715	331.88
440.936	345.88
441.158	326.88
441.379	336.88
441.6	368.88
441.822	357.88
442.043	347.88
442.264	357.88
442.486	351.88
442.707	345.88
442.928	365.88
443.149	336.88
443.371	339.88
443.592	343.88
443.813	352.88
444.034	352.88
444.255	375.88
444.476	376.88
444.698	380.88
444.919	405.88
445.14	458.88
445.361	420.88
445.582	375.88
445.803	345.88
446.024	347.88
446.245	340.88
446.466	328.88
446.687	342.88
446.908	341.88
447.129	332.88
447.35	306.88
447.571	331.88
447.792	325.88
448.013	302.88
448.234	311.88
448.455	315.88
448.675	318.88
448.896	331.88
449.117	298.88
449.338	318.88
449.559	302.88
449.779	306.88
450	303.88
450.221	302.88
450.442	297.88
450.662	323.88
450.883	300.88
451.104	304.88
451.324	335.88
451.545	318.88
451.766	304.88
451.986	289.88
452.207	316.88
452.428	302.88
452.648	296.88
452.869	300.88
453.089	314.88
453.31	296.88
453.53	316.88
453.751	310.88
453.971	295.88
454.192	298.88
454.412	294.88
454.633	295.88
454.853	316.88
455.073	289.88
455.294	304.88
455.514	318.88
455.734	304.88
455.955	304.88
456.175	292.88
456.395	283.88
456.616	275.88
456.836	279.88
457.056	294.88
457.276	294.88
457.497	307.88
457.717	294.88
457.937	312.88
458.157	313.88
458.377	311.88
458.598	322.88
458.818	298.88
459.038	326.88
459.258	330.88
459.478	331.88
459.698	348.88
459.918	345.88
460.138	358.88
460.358	360.88
460.578	366.88
460.798	378.88
461.018	394.88
461.238	384.88
461.458	383.88
461.678	382.88
461.898	392.88
462.118	392.88
462.338	399.88
462.558	403.88
462.777	428.88
462.997	449.88
463.217	442.88
463.437	440.88
463.657	436.88
463.876	435.88
464.096	439.88
464.316	399.88
464.536	394.88
464.755	422.88
464.975	400.88
465.195	390.88
465.414	367.88
465.634	367.88
465.854	352.88
466.073	342.88
466.293	352.88
466.512	337.88
466.732	332.88
466.951	333.88
467.171	324.88
467.391	334.88
467.61	325.88
467.829	329.88
468.049	324.88
468.268	311.88
468.488	322.88
468.707	308.88
468.927	330.88
469.146	334.88
469.365	323.88
469.585	318.88
469.804	311.88
470.023	329.88
470.243	333.88
470.462	350.88
470.681	341.88
470.901	310.88
471.12	325.88
471.339	323.88
471.558	318.88
471.777	307.88
471.997	318.88
472.216	342.88
472.435	298.88
472.654	310.88
472.873	317.88
473.092	326.88
473.311	311.88
473.53	322.88
473.749	312.88
473.968	315.88
474.187	315.88
474.406	322.88
474.625	347.88
474.844	335.88
475.063	339.88
475.282	335.88
475.501	319.88
475.72	315.88
475.939	326.88
476.158	323.88
476.377	342.88
476.596	329.88
476.814	344.88
477.033	345.88
477.252	362.88
477.471	356.88
477.69	356.88
477.908	370.88
478.127	361.88
478.346	361.88
478.564	385.88
478.783	366.88
479.002	379.88
479.22	373.88
479.439	393.88
479.658	373.88
479.876	375.88
480.095	390.88
480.313	382.88
480.532	402.88
480.751	400.88
480.969	370.88
481.188	369.88
481.406	369.88
481.624	369.88
481.843	368.88
482.061	353.88
482.28	366.88
482.498	352.88
482.717	347.88
482.935	353.88
483.153	345.88
483.372	363.88
483.59	361.88
483.808	363.88
484.027	325.88
484.245	361.88
484.463	360.88
484.681	382.88
484.9	366.88
485.118	361.88
485.336	366.88
485.554	358.88
485.772	365.88
485.99	372.88
486.209	368.88
486.427	369.88
486.645	375.88
486.863	386.88
487.081	372.88
487.299	359.88
487.517	372.88
487.735	362.88
487.953	360.88
488.171	363.88
488.389	358.88
488.607	375.88
488.825	378.88
489.043	384.88
489.261	387.88
489.479	365.88
489.696	368.88
489.914	411.88
490.132	359.88
490.35	382.88
490.568	397.88
490.786	381.88
491.003	378.88
491.221	370.88
491.439	373.88
491.657	384.88
491.874	378.88
492.092	361.88
492.31	394.88
492.527	363.88
492.745	386.88
492.963	401.88
493.18	378.88
493.398	382.88
493.615	398.88
493.833	370.88
494.05	388.88
494.268	375.88
494.485	370.88
494.703	379.88
494.92	391.88
495.138	377.88
495.355	396.88
495.573	409.88
495.79	407.88
496.008	410.88
496.225	401.88
496.442	411.88
496.66	417.88
496.877	418.88
497.094	417.88
497.312	442.88
497.529	428.88
497.746	467.88
497.963	466.88
498.181	463.88
498.398	488.88
498.615	523.88
498.832	534.88
499.049	567.88
499.267	588.88
499.484	643.88
499.701	668.88
499.918	719.88
500.135	808.88
500.352	824.88
500.569	841.88
500.786	832.88
501.003	785.88
501.22	754.88
501.437	704.88
501.654	679.88
501.871	604.88
502.088	566.88
502.305	554.88
502.522	520.88
