Data from Fe(NO3)3@0.0125M.TitratingCurve.Agarose3%dH2O.NegLispCup.LampEnergy10.LIBS07252019_HRD10591_16-59-28-336.txt Node
Date: Thu Jul 25 16:59:28 EDT 2019
User: cochatt
Spectrometer: HR+D1059
Trigger mode: 1
Integration Time (sec): 1.000000E-1
Scans to average: 1
Electric dark correction enabled: true
Nonlinearity correction enabled: false
Boxcar width: 0
XAxis mode: Wavelengths
Number of Pixels in Spectrum: 2048
>>>>>Begin Spectral Data<<<<<
223.165	-8.56
223.4	-8.56
223.635	-8.56
223.869	-22.56
224.104	-23.56
224.338	-30.56
224.573	-14.56
224.808	-16.56
225.042	-9.56
225.277	7.44
225.511	-9.56
225.746	3.44
225.98	15.44
226.215	21.44
226.449	4.44
226.683	19.44
226.918	32.44
227.152	31.44
227.387	37.44
227.621	47.44
227.856	52.44
228.09	49.44
228.324	51.44
228.559	45.44
228.793	65.44
229.027	73.44
229.262	85.44
229.496	80.44
229.73	93.44
229.964	80.44
230.199	84.44
230.433	103.44
230.667	88.44
230.901	100.44
231.136	91.44
231.37	95.44
231.604	96.44
231.838	114.44
232.072	105.44
232.306	115.44
232.541	119.44
232.775	92.44
233.009	102.44
233.243	111.44
233.477	108.44
233.711	117.44
233.945	100.44
234.179	86.44
234.413	106.44
234.647	111.44
234.881	106.44
235.115	104.44
235.349	103.44
235.583	101.44
235.817	117.44
236.051	98.44
236.285	119.44
236.519	102.44
236.753	106.44
236.987	99.44
237.221	112.44
237.455	111.44
237.689	98.44
237.922	117.44
238.156	103.44
238.39	93.44
238.624	117.44
238.858	125.44
239.091	109.44
239.325	106.44
239.559	109.44
239.793	117.44
240.027	127.44
240.26	121.44
240.494	114.44
240.728	128.44
240.961	115.44
241.195	105.44
241.429	129.44
241.662	123.44
241.896	129.44
242.13	118.44
242.363	111.44
242.597	105.44
242.83	119.44
243.064	121.44
243.298	123.44
243.531	116.44
243.765	129.44
243.998	121.44
244.232	132.44
244.465	129.44
244.699	124.44
244.932	121.44
245.166	134.44
245.399	140.44
245.633	131.44
245.866	93.44
246.099	157.44
246.333	132.44
246.566	129.44
246.8	121.44
247.033	125.44
247.266	137.44
247.5	135.44
247.733	139.44
247.966	144.44
248.2	140.44
248.433	152.44
248.666	140.44
248.899	126.44
249.133	140.44
249.366	138.44
249.599	150.44
249.832	130.44
250.066	155.44
250.299	169.44
250.532	139.44
250.765	159.44
250.998	148.44
251.231	147.44
251.465	149.44
251.698	134.44
251.931	145.44
252.164	161.44
252.397	141.44
252.63	156.44
252.863	169.44
253.096	156.44
253.329	147.44
253.562	148.44
253.795	154.44
254.028	153.44
254.261	154.44
254.494	163.44
254.727	157.44
254.96	167.44
255.193	152.44
255.426	173.44
255.659	151.44
255.892	173.44
256.124	165.44
256.357	165.44
256.59	157.44
256.823	168.44
257.056	166.44
257.289	149.44
257.521	170.44
257.754	184.44
257.987	160.44
258.22	171.44
258.452	173.44
258.685	166.44
258.918	175.44
259.151	173.44
259.383	185.44
259.616	173.44
259.849	182.44
260.081	176.44
260.314	197.44
260.547	191.44
260.779	180.44
261.012	193.44
261.244	177.44
261.477	194.44
261.71	183.44
261.942	197.44
262.175	183.44
262.407	179.44
262.64	172.44
262.872	187.44
263.105	191.44
263.337	207.44
263.57	204.44
263.802	208.44
264.035	185.44
264.267	198.44
264.499	194.44
264.732	188.44
264.964	183.44
265.197	175.44
265.429	193.44
265.661	188.44
265.894	190.44
266.126	203.44
266.358	193.44
266.591	199.44
266.823	210.44
267.055	201.44
267.287	183.44
267.52	194.44
267.752	204.44
267.984	198.44
268.216	195.44
268.448	218.44
268.681	213.44
268.913	211.44
269.145	205.44
269.377	200.44
269.609	184.44
269.841	219.44
270.073	225.44
270.306	205.44
270.538	199.44
270.77	216.44
271.002	209.44
271.234	231.44
271.466	215.44
271.698	219.44
271.93	218.44
272.162	221.44
272.394	210.44
272.626	209.44
272.858	226.44
273.09	237.44
273.322	240.44
273.553	234.44
273.785	239.44
274.017	240.44
274.249	260.44
274.481	261.44
274.713	247.44
274.945	255.44
275.176	267.44
275.408	256.44
275.64	252.44
275.872	264.44
276.104	259.44
276.335	259.44
276.567	263.44
276.799	262.44
277.031	266.44
277.262	255.44
277.494	260.44
277.726	256.44
277.957	258.44
278.189	265.44
278.421	260.44
278.652	260.44
278.884	257.44
279.115	267.44
279.347	273.44
279.579	281.44
279.81	245.44
280.042	256.44
280.273	273.44
280.505	274.44
280.736	289.44
280.968	293.44
281.199	286.44
281.431	281.44
281.662	271.44
281.894	297.44
282.125	277.44
282.356	274.44
282.588	284.44
282.819	279.44
283.051	283.44
283.282	279.44
283.513	263.44
283.745	298.44
283.976	297.44
284.207	282.44
284.439	299.44
284.67	299.44
284.901	298.44
285.132	296.44
285.364	293.44
285.595	314.44
285.826	308.44
286.057	312.44
286.288	273.44
286.52	295.44
286.751	311.44
286.982	296.44
287.213	311.44
287.444	323.44
287.675	314.44
287.906	320.44
288.138	321.44
288.369	327.44
288.6	317.44
288.831	314.44
289.062	322.44
289.293	328.44
289.524	305.44
289.755	332.44
289.986	307.44
290.217	335.44
290.448	330.44
290.679	327.44
290.91	343.44
291.141	310.44
291.371	326.44
291.602	350.44
291.833	348.44
292.064	325.44
292.295	337.44
292.526	339.44
292.757	339.44
292.987	348.44
293.218	335.44
293.449	354.44
293.68	341.44
293.91	341.44
294.141	365.44
294.372	342.44
294.603	345.44
294.833	338.44
295.064	354.44
295.295	341.44
295.525	339.44
295.756	358.44
295.987	353.44
296.217	379.44
296.448	360.44
296.679	360.44
296.909	362.44
297.14	375.44
297.37	361.44
297.601	364.44
297.831	341.44
298.062	371.44
298.292	345.44
298.523	364.44
298.753	375.44
298.984	385.44
299.214	383.44
299.445	383.44
299.675	383.44
299.905	370.44
300.136	379.44
300.366	376.44
300.597	375.44
300.827	369.44
301.057	376.44
301.288	393.44
301.518	393.44
301.748	379.44
301.979	386.44
302.209	398.44
302.439	391.44
302.669	405.44
302.9	402.44
303.13	387.44
303.36	397.44
303.59	408.44
303.82	419.44
304.051	415.44
304.281	385.44
304.511	421.44
304.741	427.44
304.971	417.44
305.201	401.44
305.431	403.44
305.661	425.44
305.891	413.44
306.121	418.44
306.352	413.44
306.582	397.44
306.812	405.44
307.042	434.44
307.272	407.44
307.502	413.44
307.731	428.44
307.961	423.44
308.191	425.44
308.421	404.44
308.651	415.44
308.881	404.44
309.111	420.44
309.341	428.44
309.571	426.44
309.8	411.44
310.03	424.44
310.26	433.44
310.49	421.44
310.72	427.44
310.949	437.44
311.179	426.44
311.409	427.44
311.639	444.44
311.868	435.44
312.098	432.44
312.328	438.44
312.557	448.44
312.787	448.44
313.017	455.44
313.246	455.44
313.476	430.44
313.706	447.44
313.935	467.44
314.165	432.44
314.394	458.44
314.624	457.44
314.853	464.44
315.083	471.44
315.312	477.44
315.542	478.44
315.771	460.44
316.001	487.44
316.23	487.44
316.46	469.44
316.689	456.44
316.919	465.44
317.148	498.44
317.377	472.44
317.607	481.44
317.836	497.44
318.065	511.44
318.295	472.44
318.524	488.44
318.753	486.44
318.983	499.44
319.212	466.44
319.441	515.44
319.67	502.44
319.9	508.44
320.129	491.44
320.358	480.44
320.587	507.44
320.816	467.44
321.046	498.44
321.275	502.44
321.504	499.44
321.733	515.44
321.962	500.44
322.191	506.44
322.42	509.44
322.649	506.44
322.878	509.44
323.108	500.44
323.337	515.44
323.566	523.44
323.795	499.44
324.024	529.44
324.253	515.44
324.482	525.44
324.71	508.44
324.939	543.44
325.168	530.44
325.397	530.44
325.626	521.44
325.855	515.44
326.084	524.44
326.313	514.44
326.542	538.44
326.77	527.44
326.999	529.44
327.228	537.44
327.457	544.44
327.686	569.44
327.914	548.44
328.143	529.44
328.372	523.44
328.6	541.44
328.829	545.44
329.058	541.44
329.287	536.44
329.515	531.44
329.744	535.44
329.972	544.44
330.201	550.44
330.43	556.44
330.658	552.44
330.887	551.44
331.115	535.44
331.344	523.44
331.572	535.44
331.801	552.44
332.03	559.44
332.258	559.44
332.486	547.44
332.715	556.44
332.943	553.44
333.172	572.44
333.4	567.44
333.629	579.44
333.857	588.44
334.085	579.44
334.314	588.44
334.542	576.44
334.771	578.44
334.999	538.44
335.227	583.44
335.455	575.44
335.684	574.44
335.912	572.44
336.14	585.44
336.369	582.44
336.597	592.44
336.825	572.44
337.053	576.44
337.281	566.44
337.51	592.44
337.738	575.44
337.966	589.44
338.194	591.44
338.422	572.44
338.65	561.44
338.878	566.44
339.106	577.44
339.334	585.44
339.562	571.44
339.79	582.44
340.018	570.44
340.246	563.44
340.474	602.44
340.702	593.44
340.93	591.44
341.158	576.44
341.386	580.44
341.614	564.44
341.842	562.44
342.07	570.44
342.298	578.44
342.526	579.44
342.754	599.44
342.981	578.44
343.209	576.44
343.437	577.44
343.665	566.44
343.893	571.44
344.12	592.44
344.348	576.44
344.576	569.44
344.804	598.44
345.031	578.44
345.259	578.44
345.487	553.44
345.714	586.44
345.942	575.44
346.17	572.44
346.397	571.44
346.625	578.44
346.853	565.44
347.08	587.44
347.308	571.44
347.535	576.44
347.763	604.44
347.99	593.44
348.218	564.44
348.445	575.44
348.673	559.44
348.9	561.44
349.128	574.44
349.355	588.44
349.583	590.44
349.81	555.44
350.037	548.44
350.265	591.44
350.492	570.44
350.72	562.44
350.947	578.44
351.174	575.44
351.402	580.44
351.629	589.44
351.856	576.44
352.083	580.44
352.311	567.44
352.538	575.44
352.765	593.44
352.992	599.44
353.22	580.44
353.447	571.44
353.674	576.44
353.901	600.44
354.128	561.44
354.355	583.44
354.583	560.44
354.81	584.44
355.037	587.44
355.264	578.44
355.491	556.44
355.718	580.44
355.945	576.44
356.172	593.44
356.399	581.44
356.626	592.44
356.853	583.44
357.08	592.44
357.307	573.44
357.534	586.44
357.761	587.44
357.988	584.44
358.215	601.44
358.441	574.44
358.668	598.44
358.895	579.44
359.122	583.44
359.349	605.44
359.576	620.44
359.802	586.44
360.029	591.44
360.256	589.44
360.483	599.44
360.709	569.44
360.936	575.44
361.163	608.44
361.39	604.44
361.616	609.44
361.843	595.44
362.07	599.44
362.296	566.44
362.523	601.44
362.749	603.44
362.976	589.44
363.203	617.44
363.429	613.44
363.656	599.44
363.882	607.44
364.109	605.44
364.335	588.44
364.562	595.44
364.788	604.44
365.015	582.44
365.241	617.44
365.468	599.44
365.694	608.44
365.92	610.44
366.147	595.44
366.373	601.44
366.599	610.44
366.826	613.44
367.052	589.44
367.278	587.44
367.505	611.44
367.731	593.44
367.957	609.44
368.184	613.44
368.41	637.44
368.636	621.44
368.862	628.44
369.089	658.44
369.315	621.44
369.541	630.44
369.767	627.44
369.993	625.44
370.219	628.44
370.445	624.44
370.672	620.44
370.898	623.44
371.124	635.44
371.35	626.44
371.576	620.44
371.802	625.44
372.028	639.44
372.254	623.44
372.48	636.44
372.706	628.44
372.932	621.44
373.158	629.44
373.384	615.44
373.61	625.44
373.835	653.44
374.061	621.44
374.287	665.44
374.513	643.44
374.739	649.44
374.965	637.44
375.191	632.44
375.416	648.44
375.642	640.44
375.868	635.44
376.094	619.44
376.319	631.44
376.545	647.44
376.771	648.44
376.997	639.44
377.222	636.44
377.448	588.44
377.674	627.44
377.899	625.44
378.125	649.44
378.35	623.44
378.576	643.44
378.802	631.44
379.027	615.44
379.253	631.44
379.478	640.44
379.704	654.44
379.929	634.44
380.155	624.44
380.38	627.44
380.606	615.44
380.831	633.44
381.057	637.44
381.282	632.44
381.507	629.44
381.733	645.44
381.958	640.44
382.184	675.44
382.409	647.44
382.634	635.44
382.86	649.44
383.085	646.44
383.31	654.44
383.535	631.44
383.761	659.44
383.986	671.44
384.211	662.44
384.436	664.44
384.662	666.44
384.887	651.44
385.112	658.44
385.337	673.44
385.562	651.44
385.787	677.44
386.013	676.44
386.238	693.44
386.463	661.44
386.688	669.44
386.913	646.44
387.138	663.44
387.363	687.44
387.588	691.44
387.813	687.44
388.038	672.44
388.263	649.44
388.488	675.44
388.713	687.44
388.938	674.44
389.163	660.44
389.387	662.44
389.612	657.44
389.837	682.44
390.062	649.44
390.287	692.44
390.512	668.44
390.736	684.44
390.961	659.44
391.186	684.44
391.411	676.44
391.636	690.44
391.86	693.44
392.085	698.44
392.31	660.44
392.534	677.44
392.759	696.44
392.984	674.44
393.208	700.44
393.433	723.44
393.658	705.44
393.882	673.44
394.107	697.44
394.331	647.44
394.556	682.44
394.78	666.44
395.005	684.44
395.229	668.44
395.454	693.44
395.678	687.44
395.903	706.44
396.127	704.44
396.352	684.44
396.576	692.44
396.801	667.44
397.025	690.44
397.249	713.44
397.474	713.44
397.698	700.44
397.922	669.44
398.147	699.44
398.371	690.44
398.595	708.44
398.82	714.44
399.044	728.44
399.268	741.44
399.492	715.44
399.717	725.44
399.941	755.44
400.165	736.44
400.389	749.44
400.613	735.44
400.837	729.44
401.062	715.44
401.286	751.44
401.51	733.44
401.734	721.44
401.958	729.44
402.182	727.44
402.406	715.44
402.63	770.44
402.854	735.44
403.078	716.44
403.302	709.44
403.526	746.44
403.75	728.44
403.974	714.44
404.198	705.44
404.422	740.44
404.645	738.44
404.869	717.44
405.093	752.44
405.317	742.44
405.541	745.44
405.765	767.44
405.988	739.44
406.212	735.44
406.436	740.44
406.66	746.44
406.883	754.44
407.107	763.44
407.331	779.44
407.555	787.44
407.778	764.44
408.002	727.44
408.226	758.44
408.449	796.44
408.673	762.44
408.896	768.44
409.12	760.44
409.344	753.44
409.567	748.44
409.791	749.44
410.014	769.44
410.238	763.44
410.461	756.44
410.685	738.44
410.908	764.44
411.132	740.44
411.355	736.44
411.578	733.44
411.802	746.44
412.025	756.44
412.249	725.44
412.472	749.44
412.695	756.44
412.919	723.44
413.142	738.44
413.365	732.44
413.589	734.44
413.812	730.44
414.035	753.44
414.258	706.44
414.482	747.44
414.705	721.44
414.928	705.44
415.151	725.44
415.374	729.44
415.597	700.44
415.821	705.44
416.044	724.44
416.267	710.44
416.49	722.44
416.713	686.44
416.936	707.44
417.159	709.44
417.382	719.44
417.605	718.44
417.828	730.44
418.051	716.44
418.274	689.44
418.497	700.44
418.72	709.44
418.943	681.44
419.166	703.44
419.389	758.44
419.611	719.44
419.834	732.44
420.057	721.44
420.28	693.44
420.503	707.44
420.726	698.44
420.948	707.44
421.171	692.44
421.394	705.44
421.617	691.44
421.839	693.44
422.062	700.44
422.285	667.44
422.507	695.44
422.73	714.44
422.953	676.44
423.175	711.44
423.398	682.44
423.621	680.44
423.843	716.44
424.066	693.44
424.288	682.44
424.511	699.44
424.733	712.44
424.956	719.44
425.178	713.44
425.401	724.44
425.623	719.44
425.846	688.44
426.068	707.44
426.291	680.44
426.513	717.44
426.735	699.44
426.958	688.44
427.18	679.44
427.402	691.44
427.625	708.44
427.847	684.44
428.069	685.44
428.292	725.44
428.514	703.44
428.736	711.44
428.958	705.44
429.181	700.44
429.403	692.44
429.625	665.44
429.847	697.44
430.069	684.44
430.292	687.44
430.514	692.44
430.736	710.44
430.958	689.44
431.18	675.44
431.402	691.44
431.624	694.44
431.846	694.44
432.068	681.44
432.29	694.44
432.512	691.44
432.734	689.44
432.956	689.44
433.178	689.44
433.4	695.44
433.622	703.44
433.844	684.44
434.066	683.44
434.287	700.44
434.509	685.44
434.731	693.44
434.953	700.44
435.175	725.44
435.397	692.44
435.618	716.44
435.84	689.44
436.062	693.44
436.284	692.44
436.505	692.44
436.727	700.44
436.949	731.44
437.17	668.44
437.392	680.44
437.614	683.44
437.835	693.44
438.057	665.44
438.278	659.44
438.5	653.44
438.721	665.44
438.943	698.44
439.165	701.44
439.386	665.44
439.608	689.44
439.829	667.44
440.05	689.44
440.272	662.44
440.493	693.44
440.715	704.44
440.936	698.44
441.158	693.44
441.379	692.44
441.6	671.44
441.822	687.44
442.043	673.44
442.264	693.44
442.486	669.44
442.707	684.44
442.928	705.44
443.149	684.44
443.371	719.44
443.592	665.44
443.813	689.44
444.034	688.44
444.255	688.44
444.476	679.44
444.698	709.44
444.919	697.44
445.14	748.44
445.361	744.44
445.582	694.44
445.803	682.44
446.024	664.44
446.245	714.44
446.466	677.44
446.687	691.44
446.908	687.44
447.129	652.44
447.35	659.44
447.571	671.44
447.792	629.44
448.013	659.44
448.234	642.44
448.455	648.44
448.675	653.44
448.896	683.44
449.117	632.44
449.338	671.44
449.559	636.44
449.779	634.44
450	643.44
450.221	648.44
450.442	630.44
450.662	633.44
450.883	646.44
451.104	637.44
451.324	658.44
451.545	632.44
451.766	639.44
451.986	647.44
452.207	636.44
452.428	647.44
452.648	643.44
452.869	636.44
453.089	645.44
453.31	637.44
453.53	634.44
453.751	640.44
453.971	633.44
454.192	656.44
454.412	618.44
454.633	637.44
454.853	636.44
455.073	646.44
455.294	656.44
455.514	651.44
455.734	637.44
455.955	632.44
456.175	649.44
456.395	619.44
456.616	634.44
456.836	629.44
457.056	623.44
457.276	605.44
457.497	659.44
457.717	617.44
457.937	643.44
458.157	627.44
458.377	635.44
458.598	649.44
458.818	634.44
459.038	633.44
459.258	668.44
459.478	661.44
459.698	652.44
459.918	665.44
460.138	659.44
460.358	681.44
460.578	679.44
460.798	685.44
461.018	700.44
461.238	660.44
461.458	690.44
461.678	681.44
461.898	685.44
462.118	668.44
462.338	651.44
462.558	693.44
462.777	693.44
462.997	696.44
463.217	711.44
463.437	716.44
463.657	687.44
463.876	705.44
464.096	717.44
464.316	721.44
464.536	694.44
464.755	688.44
464.975	700.44
465.195	673.44
465.414	690.44
465.634	693.44
465.854	675.44
466.073	669.44
466.293	660.44
466.512	676.44
466.732	659.44
466.951	654.44
467.171	678.44
467.391	681.44
467.61	682.44
467.829	652.44
468.049	687.44
468.268	677.44
468.488	661.44
468.707	690.44
468.927	703.44
469.146	671.44
469.365	667.44
469.585	671.44
469.804	718.44
470.023	697.44
470.243	665.44
470.462	690.44
470.681	694.44
470.901	717.44
471.12	693.44
471.339	679.44
471.558	696.44
471.777	684.44
471.997	704.44
472.216	709.44
472.435	677.44
472.654	709.44
472.873	712.44
473.092	695.44
473.311	709.44
473.53	730.44
473.749	707.44
473.968	723.44
474.187	717.44
474.406	691.44
474.625	718.44
474.844	748.44
475.063	745.44
475.282	740.44
475.501	755.44
475.72	762.44
475.939	743.44
476.158	758.44
476.377	759.44
476.596	761.44
476.814	787.44
477.033	740.44
477.252	773.44
477.471	776.44
477.69	792.44
477.908	799.44
478.127	795.44
478.346	786.44
478.564	796.44
478.783	796.44
479.002	801.44
479.22	834.44
479.439	821.44
479.658	811.44
479.876	804.44
480.095	819.44
480.313	851.44
480.532	781.44
480.751	838.44
480.969	833.44
481.188	843.44
481.406	828.44
481.624	860.44
481.843	851.44
482.061	836.44
482.28	840.44
482.498	843.44
482.717	824.44
482.935	853.44
483.153	863.44
483.372	858.44
483.59	860.44
483.808	844.44
484.027	881.44
484.245	877.44
484.463	881.44
484.681	876.44
484.9	884.44
485.118	869.44
485.336	890.44
485.554	843.44
485.772	857.44
485.99	868.44
486.209	879.44
486.427	857.44
486.645	865.44
486.863	877.44
487.081	910.44
487.299	903.44
487.517	889.44
487.735	905.44
487.953	884.44
488.171	917.44
488.389	892.44
488.607	882.44
488.825	898.44
489.043	896.44
489.261	907.44
489.479	894.44
489.696	896.44
489.914	893.44
490.132	905.44
490.35	895.44
490.568	876.44
490.786	905.44
491.003	902.44
491.221	913.44
491.439	908.44
491.657	893.44
491.874	914.44
492.092	915.44
492.31	934.44
492.527	921.44
492.745	902.44
492.963	918.44
493.18	920.44
493.398	897.44
493.615	936.44
493.833	930.44
494.05	896.44
494.268	901.44
494.485	915.44
494.703	925.44
494.92	916.44
495.138	938.44
495.355	950.44
495.573	949.44
495.79	916.44
496.008	908.44
496.225	950.44
496.442	927.44
496.66	935.44
496.877	927.44
497.094	948.44
497.312	957.44
497.529	922.44
497.746	959.44
497.963	939.44
498.181	958.44
498.398	957.44
498.615	981.44
498.832	969.44
499.049	981.44
499.267	994.44
499.484	1007.44
499.701	1023.44
499.918	1030.44
500.135	1035.44
500.352	1068.44
500.569	1073.44
500.786	1053.44
501.003	1041.44
501.22	1026.44
501.437	1004.44
501.654	1000.44
