Data from Fe(NO3)3@0.05M.TitratingCurve.Agarose3%dH2O.NegLispCup.LampEnergy10.LIBS07252019_HRD10591_16-47-59-333.txt Node
Date: Thu Jul 25 16:47:59 EDT 2019
User: cochatt
Spectrometer: HR+D1059
Trigger mode: 1
Integration Time (sec): 1.000000E-1
Scans to average: 1
Electric dark correction enabled: true
Nonlinearity correction enabled: false
Boxcar width: 0
XAxis mode: Wavelengths
Number of Pixels in Spectrum: 2048
>>>>>Begin Spectral Data<<<<<
223.165	-14.38
223.4	-14.38
223.635	-14.38
223.869	-17.38
224.104	-30.38
224.338	-15.38
224.573	-15.38
224.808	-23.38
225.042	-11.38
225.277	-4.38
225.511	-5.38
225.746	13.62
225.98	19.62
226.215	13.62
226.449	7.62
226.683	21.62
226.918	35.62
227.152	25.62
227.387	34.62
227.621	35.62
227.856	52.62
228.09	53.62
228.324	41.62
228.559	55.62
228.793	57.62
229.027	66.62
229.262	77.62
229.496	81.62
229.73	91.62
229.964	82.62
230.199	95.62
230.433	77.62
230.667	98.62
230.901	102.62
231.136	89.62
231.37	105.62
231.604	95.62
231.838	98.62
232.072	103.62
232.306	89.62
232.541	115.62
232.775	111.62
233.009	113.62
233.243	99.62
233.477	108.62
233.711	118.62
233.945	115.62
234.179	116.62
234.413	127.62
234.647	107.62
234.881	115.62
235.115	100.62
235.349	107.62
235.583	97.62
235.817	106.62
236.051	123.62
236.285	104.62
236.519	118.62
236.753	103.62
236.987	99.62
237.221	118.62
237.455	103.62
237.689	104.62
237.922	117.62
238.156	105.62
238.39	119.62
238.624	120.62
238.858	127.62
239.091	114.62
239.325	113.62
239.559	116.62
239.793	124.62
240.027	122.62
240.26	126.62
240.494	117.62
240.728	121.62
240.961	124.62
241.195	121.62
241.429	123.62
241.662	117.62
241.896	119.62
242.13	124.62
242.363	123.62
242.597	120.62
242.83	131.62
243.064	125.62
243.298	132.62
243.531	135.62
243.765	134.62
243.998	129.62
244.232	160.62
244.465	132.62
244.699	128.62
244.932	145.62
245.166	125.62
245.399	117.62
245.633	138.62
245.866	131.62
246.099	136.62
246.333	145.62
246.566	140.62
246.8	148.62
247.033	134.62
247.266	144.62
247.5	137.62
247.733	150.62
247.966	142.62
248.2	131.62
248.433	145.62
248.666	142.62
248.899	169.62
249.133	140.62
249.366	132.62
249.599	141.62
249.832	142.62
250.066	140.62
250.299	145.62
250.532	150.62
250.765	149.62
250.998	147.62
251.231	159.62
251.465	145.62
251.698	134.62
251.931	161.62
252.164	159.62
252.397	145.62
252.63	160.62
252.863	172.62
253.096	165.62
253.329	163.62
253.562	138.62
253.795	166.62
254.028	165.62
254.261	156.62
254.494	173.62
254.727	168.62
254.96	175.62
255.193	165.62
255.426	161.62
255.659	125.62
255.892	157.62
256.124	162.62
256.357	160.62
256.59	166.62
256.823	163.62
257.056	162.62
257.289	157.62
257.521	175.62
257.754	173.62
257.987	171.62
258.22	172.62
258.452	154.62
258.685	155.62
258.918	173.62
259.151	180.62
259.383	180.62
259.616	183.62
259.849	173.62
260.081	192.62
260.314	200.62
260.547	183.62
260.779	162.62
261.012	168.62
261.244	167.62
261.477	195.62
261.71	175.62
261.942	181.62
262.175	169.62
262.407	169.62
262.64	190.62
262.872	177.62
263.105	195.62
263.337	188.62
263.57	171.62
263.802	191.62
264.035	193.62
264.267	190.62
264.499	182.62
264.732	200.62
264.964	192.62
265.197	180.62
265.429	186.62
265.661	184.62
265.894	180.62
266.126	203.62
266.358	202.62
266.591	182.62
266.823	192.62
267.055	180.62
267.287	178.62
267.52	207.62
267.752	200.62
267.984	204.62
268.216	200.62
268.448	192.62
268.681	180.62
268.913	196.62
269.145	180.62
269.377	187.62
269.609	208.62
269.841	214.62
270.073	195.62
270.306	196.62
270.538	193.62
270.77	187.62
271.002	204.62
271.234	209.62
271.466	203.62
271.698	219.62
271.93	209.62
272.162	200.62
272.394	212.62
272.626	205.62
272.858	205.62
273.09	213.62
273.322	212.62
273.553	224.62
273.785	225.62
274.017	213.62
274.249	226.62
274.481	227.62
274.713	233.62
274.945	224.62
275.176	244.62
275.408	232.62
275.64	220.62
275.872	233.62
276.104	251.62
276.335	211.62
276.567	226.62
276.799	216.62
277.031	219.62
277.262	223.62
277.494	233.62
277.726	236.62
277.957	222.62
278.189	213.62
278.421	228.62
278.652	235.62
278.884	236.62
279.115	218.62
279.347	233.62
279.579	228.62
279.81	244.62
280.042	217.62
280.273	225.62
280.505	217.62
280.736	225.62
280.968	231.62
281.199	242.62
281.431	220.62
281.662	245.62
281.894	226.62
282.125	233.62
282.356	249.62
282.588	238.62
282.819	242.62
283.051	222.62
283.282	233.62
283.513	230.62
283.745	230.62
283.976	248.62
284.207	260.62
284.439	247.62
284.67	245.62
284.901	255.62
285.132	233.62
285.364	240.62
285.595	246.62
285.826	244.62
286.057	253.62
286.288	245.62
286.52	257.62
286.751	260.62
286.982	269.62
287.213	263.62
287.444	260.62
287.675	262.62
287.906	243.62
288.138	269.62
288.369	269.62
288.6	269.62
288.831	263.62
289.062	260.62
289.293	257.62
289.524	241.62
289.755	280.62
289.986	266.62
290.217	263.62
290.448	256.62
290.679	272.62
290.91	264.62
291.141	267.62
291.371	255.62
291.602	252.62
291.833	260.62
292.064	259.62
292.295	259.62
292.526	269.62
292.757	261.62
292.987	268.62
293.218	261.62
293.449	267.62
293.68	257.62
293.91	266.62
294.141	269.62
294.372	262.62
294.603	277.62
294.833	283.62
295.064	268.62
295.295	257.62
295.525	259.62
295.756	267.62
295.987	257.62
296.217	265.62
296.448	268.62
296.679	275.62
296.909	268.62
297.14	259.62
297.37	282.62
297.601	277.62
297.831	287.62
298.062	276.62
298.292	270.62
298.523	295.62
298.753	283.62
298.984	282.62
299.214	272.62
299.445	284.62
299.675	272.62
299.905	275.62
300.136	293.62
300.366	267.62
300.597	291.62
300.827	284.62
301.057	297.62
301.288	296.62
301.518	284.62
301.748	292.62
301.979	304.62
302.209	313.62
302.439	298.62
302.669	299.62
302.9	295.62
303.13	293.62
303.36	288.62
303.59	296.62
303.82	288.62
304.051	290.62
304.281	296.62
304.511	297.62
304.741	288.62
304.971	289.62
305.201	289.62
305.431	295.62
305.661	272.62
305.891	310.62
306.121	279.62
306.352	310.62
306.582	284.62
306.812	288.62
307.042	302.62
307.272	291.62
307.502	307.62
307.731	306.62
307.961	307.62
308.191	302.62
308.421	301.62
308.651	292.62
308.881	281.62
309.111	294.62
309.341	291.62
309.571	276.62
309.8	291.62
310.03	291.62
310.26	308.62
310.49	298.62
310.72	307.62
310.949	293.62
311.179	261.62
311.409	296.62
311.639	306.62
311.868	311.62
312.098	298.62
312.328	288.62
312.557	316.62
312.787	305.62
313.017	314.62
313.246	312.62
313.476	307.62
313.706	300.62
313.935	305.62
314.165	316.62
314.394	320.62
314.624	322.62
314.853	326.62
315.083	309.62
315.312	307.62
315.542	310.62
315.771	297.62
316.001	337.62
316.23	323.62
316.46	307.62
316.689	317.62
316.919	323.62
317.148	318.62
317.377	308.62
317.607	316.62
317.836	301.62
318.065	327.62
318.295	305.62
318.524	320.62
318.753	315.62
318.983	312.62
319.212	319.62
319.441	323.62
319.67	325.62
319.9	295.62
320.129	332.62
320.358	310.62
320.587	317.62
320.816	311.62
321.046	320.62
321.275	321.62
321.504	317.62
321.733	320.62
321.962	297.62
322.191	324.62
322.42	300.62
322.649	322.62
322.878	320.62
323.108	320.62
323.337	318.62
323.566	327.62
323.795	332.62
324.024	338.62
324.253	319.62
324.482	325.62
324.71	320.62
324.939	315.62
325.168	297.62
325.397	330.62
325.626	346.62
325.855	326.62
326.084	331.62
326.313	326.62
326.542	333.62
326.77	355.62
326.999	332.62
327.228	351.62
327.457	334.62
327.686	331.62
327.914	330.62
328.143	352.62
328.372	343.62
328.6	339.62
328.829	339.62
329.058	345.62
329.287	348.62
329.515	333.62
329.744	344.62
329.972	340.62
330.201	357.62
330.43	355.62
330.658	344.62
330.887	355.62
331.115	346.62
331.344	360.62
331.572	338.62
331.801	377.62
332.03	362.62
332.258	373.62
332.486	381.62
332.715	388.62
332.943	405.62
333.172	390.62
333.4	424.62
333.629	440.62
333.857	423.62
334.085	448.62
334.314	439.62
334.542	403.62
334.771	374.62
334.999	412.62
335.227	408.62
335.455	412.62
335.684	394.62
335.912	407.62
336.14	397.62
336.369	405.62
336.597	411.62
336.825	401.62
337.053	396.62
337.281	392.62
337.51	374.62
337.738	377.62
337.966	379.62
338.194	371.62
338.422	368.62
338.65	380.62
338.878	376.62
339.106	377.62
339.334	368.62
339.562	378.62
339.79	360.62
340.018	346.62
340.246	376.62
340.474	367.62
340.702	353.62
340.93	357.62
341.158	354.62
341.386	361.62
341.614	357.62
341.842	363.62
342.07	356.62
342.298	362.62
342.526	376.62
342.754	366.62
342.981	327.62
343.209	355.62
343.437	378.62
343.665	380.62
343.893	416.62
344.12	436.62
344.348	414.62
344.576	379.62
344.804	372.62
345.031	381.62
345.259	373.62
345.487	370.62
345.714	367.62
345.942	357.62
346.17	346.62
346.397	356.62
346.625	362.62
346.853	371.62
347.08	331.62
347.308	361.62
347.535	344.62
347.763	375.62
347.99	353.62
348.218	347.62
348.445	339.62
348.673	353.62
348.9	358.62
349.128	347.62
349.355	336.62
349.583	349.62
349.81	340.62
350.037	343.62
350.265	339.62
350.492	342.62
350.72	330.62
350.947	326.62
351.174	331.62
351.402	339.62
351.629	348.62
351.856	330.62
352.083	332.62
352.311	346.62
352.538	342.62
352.765	330.62
352.992	340.62
353.22	327.62
353.447	325.62
353.674	324.62
353.901	345.62
354.128	333.62
354.355	337.62
354.583	345.62
354.81	357.62
355.037	337.62
355.264	340.62
355.491	338.62
355.718	345.62
355.945	349.62
356.172	357.62
356.399	341.62
356.626	341.62
356.853	353.62
357.08	353.62
357.307	337.62
357.534	346.62
357.761	354.62
357.988	345.62
358.215	368.62
358.441	362.62
358.668	333.62
358.895	345.62
359.122	351.62
359.349	335.62
359.576	347.62
359.802	344.62
360.029	339.62
360.256	357.62
360.483	362.62
360.709	333.62
360.936	359.62
361.163	349.62
361.39	335.62
361.616	354.62
361.843	371.62
362.07	363.62
362.296	341.62
362.523	343.62
362.749	337.62
362.976	344.62
363.203	335.62
363.429	333.62
363.656	335.62
363.882	325.62
364.109	350.62
364.335	321.62
364.562	337.62
364.788	353.62
365.015	362.62
365.241	350.62
365.468	331.62
365.694	350.62
365.92	353.62
366.147	324.62
366.373	354.62
366.599	342.62
366.826	330.62
367.052	347.62
367.278	366.62
367.505	331.62
367.731	354.62
367.957	378.62
368.184	357.62
368.41	369.62
368.636	387.62
368.862	379.62
369.089	336.62
369.315	353.62
369.541	361.62
369.767	375.62
369.993	372.62
370.219	346.62
370.445	379.62
370.672	374.62
370.898	374.62
371.124	362.62
371.35	367.62
371.576	373.62
371.802	394.62
372.028	357.62
372.254	383.62
372.48	374.62
372.706	387.62
372.932	382.62
373.158	394.62
373.384	404.62
373.61	412.62
373.835	403.62
374.061	376.62
374.287	386.62
374.513	389.62
374.739	397.62
374.965	423.62
375.191	427.62
375.416	396.62
375.642	398.62
375.868	396.62
376.094	387.62
376.319	387.62
376.545	397.62
376.771	384.62
376.997	376.62
377.222	358.62
377.448	371.62
377.674	370.62
377.899	372.62
378.125	385.62
378.35	362.62
378.576	379.62
378.802	385.62
379.027	406.62
379.253	385.62
379.478	367.62
379.704	376.62
379.929	374.62
380.155	380.62
380.38	386.62
380.606	392.62
380.831	393.62
381.057	396.62
381.282	367.62
381.507	385.62
381.733	379.62
381.958	372.62
382.184	401.62
382.409	407.62
382.634	407.62
382.86	417.62
383.085	420.62
383.31	405.62
383.535	416.62
383.761	413.62
383.986	428.62
384.211	424.62
384.436	450.62
384.662	451.62
384.887	458.62
385.112	426.62
385.337	421.62
385.562	441.62
385.787	449.62
386.013	457.62
386.238	466.62
386.463	460.62
386.688	473.62
386.913	433.62
387.138	427.62
387.363	447.62
387.588	462.62
387.813	457.62
388.038	435.62
388.263	449.62
388.488	462.62
388.713	476.62
388.938	447.62
389.163	451.62
389.387	431.62
389.612	433.62
389.837	440.62
390.062	450.62
390.287	453.62
390.512	436.62
390.736	441.62
390.961	459.62
391.186	465.62
391.411	479.62
391.636	508.62
391.86	506.62
392.085	494.62
392.31	504.62
392.534	483.62
392.759	484.62
392.984	464.62
393.208	481.62
393.433	472.62
393.658	501.62
393.882	466.62
394.107	465.62
394.331	489.62
394.556	490.62
394.78	483.62
395.005	496.62
395.229	479.62
395.454	495.62
395.678	518.62
395.903	499.62
396.127	483.62
396.352	479.62
396.576	491.62
396.801	479.62
397.025	525.62
397.249	525.62
397.474	505.62
397.698	489.62
397.922	498.62
398.147	525.62
398.371	534.62
398.595	533.62
398.82	559.62
399.044	613.62
399.268	652.62
399.492	709.62
399.717	760.62
399.941	755.62
400.165	715.62
400.389	657.62
400.613	623.62
400.837	586.62
401.062	586.62
401.286	568.62
401.51	573.62
401.734	553.62
401.958	559.62
402.182	565.62
402.406	569.62
402.63	575.62
402.854	593.62
403.078	585.62
403.302	587.62
403.526	609.62
403.75	603.62
403.974	630.62
404.198	612.62
404.422	637.62
404.645	610.62
404.869	625.62
405.093	612.62
405.317	619.62
405.541	630.62
405.765	601.62
405.988	610.62
406.212	603.62
406.436	593.62
406.66	636.62
406.883	626.62
407.107	647.62
407.331	650.62
407.555	676.62
407.778	674.62
408.002	651.62
408.226	651.62
408.449	671.62
408.673	635.62
408.896	640.62
409.12	653.62
409.344	637.62
409.567	616.62
409.791	609.62
410.014	589.62
410.238	595.62
410.461	582.62
410.685	601.62
410.908	587.62
411.132	585.62
411.355	586.62
411.578	563.62
411.802	563.62
412.025	597.62
412.249	576.62
412.472	607.62
412.695	579.62
412.919	583.62
413.142	575.62
413.365	567.62
413.589	563.62
413.812	537.62
414.035	579.62
414.258	561.62
414.482	565.62
414.705	581.62
414.928	591.62
415.151	595.62
415.374	588.62
415.597	563.62
415.821	566.62
416.044	562.62
416.267	562.62
416.49	570.62
416.713	556.62
416.936	561.62
417.159	553.62
417.382	540.62
417.605	545.62
417.828	563.62
418.051	573.62
418.274	562.62
418.497	546.62
418.72	573.62
418.943	578.62
419.166	611.62
419.389	604.62
419.611	621.62
419.834	603.62
420.057	575.62
420.28	581.62
420.503	565.62
420.726	549.62
420.948	548.62
421.171	551.62
421.394	563.62
421.617	567.62
421.839	573.62
422.062	582.62
422.285	543.62
422.507	561.62
422.73	561.62
422.953	567.62
423.175	598.62
423.398	580.62
423.621	559.62
423.843	611.62
424.066	581.62
424.288	596.62
424.511	569.62
424.733	586.62
424.956	570.62
425.178	578.62
425.401	566.62
425.623	573.62
425.846	545.62
426.068	549.62
426.291	548.62
426.513	527.62
426.735	536.62
426.958	528.62
427.18	543.62
427.402	515.62
427.625	549.62
427.847	508.62
428.069	503.62
428.292	513.62
428.514	500.62
428.736	487.62
428.958	516.62
429.181	493.62
429.403	523.62
429.625	511.62
429.847	486.62
430.069	504.62
430.292	505.62
430.514	501.62
430.736	511.62
430.958	529.62
431.18	516.62
431.402	503.62
431.624	488.62
431.846	487.62
432.068	525.62
432.29	514.62
432.512	523.62
432.734	510.62
432.956	514.62
433.178	511.62
433.4	507.62
433.622	539.62
433.844	504.62
434.066	525.62
434.287	500.62
434.509	528.62
434.731	549.62
434.953	569.62
435.175	571.62
435.397	589.62
435.618	534.62
435.84	525.62
436.062	534.62
436.284	536.62
436.505	524.62
436.727	500.62
436.949	518.62
437.17	484.62
437.392	505.62
437.614	521.62
437.835	513.62
438.057	485.62
438.278	518.62
438.5	530.62
438.721	515.62
438.943	493.62
439.165	508.62
439.386	505.62
439.608	511.62
439.829	522.62
440.05	532.62
440.272	515.62
440.493	513.62
440.715	524.62
440.936	537.62
441.158	557.62
441.379	537.62
441.6	564.62
441.822	552.62
442.043	565.62
442.264	578.62
442.486	546.62
442.707	574.62
442.928	576.62
443.149	567.62
443.371	559.62
443.592	545.62
443.813	572.62
444.034	584.62
444.255	612.62
444.476	634.62
444.698	649.62
444.919	632.62
445.14	760.62
445.361	661.62
445.582	593.62
445.803	554.62
446.024	539.62
446.245	553.62
446.466	572.62
446.687	556.62
446.908	546.62
447.129	537.62
447.35	519.62
447.571	538.62
447.792	520.62
448.013	514.62
448.234	502.62
448.455	524.62
448.675	498.62
448.896	492.62
449.117	484.62
449.338	479.62
449.559	503.62
449.779	497.62
450	483.62
450.221	467.62
450.442	498.62
450.662	489.62
450.883	498.62
451.104	472.62
451.324	497.62
451.545	492.62
451.766	473.62
451.986	482.62
452.207	482.62
452.428	474.62
452.648	456.62
452.869	481.62
453.089	456.62
453.31	479.62
453.53	476.62
453.751	443.62
453.971	479.62
454.192	448.62
454.412	464.62
454.633	461.62
454.853	470.62
455.073	481.62
455.294	449.62
455.514	450.62
455.734	462.62
455.955	461.62
456.175	473.62
456.395	466.62
456.616	443.62
456.836	463.62
457.056	449.62
457.276	442.62
457.497	459.62
457.717	466.62
457.937	454.62
458.157	466.62
458.377	492.62
458.598	516.62
458.818	508.62
459.038	500.62
459.258	501.62
459.478	506.62
459.698	530.62
459.918	536.62
460.138	563.62
460.358	601.62
460.578	587.62
460.798	575.62
461.018	594.62
461.238	609.62
461.458	570.62
461.678	574.62
461.898	588.62
462.118	607.62
462.338	627.62
462.558	641.62
462.777	645.62
462.997	665.62
463.217	708.62
463.437	740.62
463.657	704.62
463.876	688.62
464.096	691.62
464.316	668.62
464.536	645.62
464.755	625.62
464.975	625.62
465.195	594.62
465.414	592.62
465.634	551.62
465.854	542.62
466.073	513.62
466.293	528.62
466.512	527.62
466.732	500.62
466.951	535.62
467.171	519.62
467.391	526.62
467.61	532.62
467.829	530.62
468.049	496.62
468.268	497.62
468.488	487.62
468.707	484.62
468.927	489.62
469.146	483.62
469.365	504.62
469.585	482.62
469.804	506.62
470.023	511.62
470.243	517.62
470.462	501.62
470.681	484.62
470.901	507.62
471.12	522.62
471.339	502.62
471.558	504.62
471.777	502.62
471.997	487.62
472.216	475.62
472.435	496.62
472.654	488.62
472.873	475.62
473.092	461.62
473.311	478.62
473.53	494.62
473.749	480.62
473.968	485.62
474.187	484.62
474.406	481.62
474.625	484.62
474.844	472.62
475.063	491.62
475.282	488.62
475.501	480.62
475.72	468.62
475.939	487.62
476.158	474.62
476.377	491.62
476.596	480.62
476.814	490.62
477.033	513.62
477.252	517.62
477.471	521.62
477.69	504.62
477.908	555.62
478.127	559.62
478.346	552.62
478.564	571.62
478.783	559.62
479.002	557.62
479.22	579.62
479.439	583.62
479.658	586.62
479.876	571.62
480.095	597.62
480.313	604.62
480.532	587.62
480.751	597.62
480.969	577.62
481.188	564.62
481.406	555.62
481.624	556.62
481.843	543.62
482.061	545.62
482.28	555.62
482.498	518.62
482.717	541.62
482.935	562.62
483.153	520.62
483.372	532.62
483.59	574.62
483.808	547.62
484.027	547.62
484.245	544.62
484.463	543.62
484.681	541.62
484.9	559.62
485.118	529.62
485.336	538.62
485.554	562.62
485.772	551.62
485.99	565.62
486.209	565.62
486.427	544.62
486.645	545.62
486.863	565.62
487.081	540.62
487.299	529.62
487.517	533.62
487.735	552.62
487.953	555.62
488.171	539.62
488.389	548.62
488.607	545.62
488.825	580.62
489.043	548.62
489.261	560.62
489.479	569.62
489.696	547.62
489.914	547.62
490.132	564.62
490.35	553.62
490.568	540.62
490.786	576.62
491.003	587.62
491.221	586.62
491.439	559.62
491.657	563.62
491.874	568.62
492.092	564.62
492.31	595.62
492.527	582.62
492.745	565.62
492.963	587.62
493.18	588.62
493.398	589.62
493.615	575.62
493.833	613.62
494.05	571.62
494.268	617.62
494.485	620.62
494.703	609.62
494.92	598.62
495.138	611.62
495.355	605.62
495.573	606.62
495.79	588.62
496.008	615.62
496.225	600.62
496.442	606.62
496.66	642.62
496.877	631.62
497.094	635.62
497.312	637.62
497.529	661.62
497.746	669.62
497.963	701.62
498.181	719.62
498.398	721.62
498.615	788.62
498.832	784.62
499.049	851.62
499.267	930.62
499.484	964.62
499.701	1047.62
499.918	1123.62
500.135	1270.62
500.352	1383.62
500.569	1409.62
500.786	1427.62
501.003	1369.62
501.22	1218.62
501.437	1129.62
501.654	1015.62
