Data from Fe(NO3)3@0.025M.TitratingCurve.Agarose3%dH2O.NegLispCup.LampEnergy10.LIBS07252019_HRD10591_16-54-11-336.txt Node
Date: Thu Jul 25 16:54:11 EDT 2019
User: cochatt
Spectrometer: HR+D1059
Trigger mode: 1
Integration Time (sec): 1.000000E-1
Scans to average: 1
Electric dark correction enabled: true
Nonlinearity correction enabled: false
Boxcar width: 0
XAxis mode: Wavelengths
Number of Pixels in Spectrum: 2048
>>>>>Begin Spectral Data<<<<<
223.165	-20.38
223.4	-20.38
223.635	-20.38
223.869	-11.38
224.104	-17.38
224.338	-6.38
224.573	-27.38
224.808	-8.38
225.042	-13.38
225.277	-6.38
225.511	-6.38
225.746	8.62
225.98	5.62
226.215	16.62
226.449	20.62
226.683	20.62
226.918	25.62
227.152	19.62
227.387	22.62
227.621	33.62
227.856	36.62
228.09	38.62
228.324	46.62
228.559	44.62
228.793	52.62
229.027	69.62
229.262	77.62
229.496	82.62
229.73	88.62
229.964	102.62
230.199	107.62
230.433	98.62
230.667	82.62
230.901	97.62
231.136	112.62
231.37	97.62
231.604	91.62
231.838	105.62
232.072	114.62
232.306	99.62
232.541	99.62
232.775	114.62
233.009	94.62
233.243	110.62
233.477	118.62
233.711	110.62
233.945	110.62
234.179	116.62
234.413	117.62
234.647	112.62
234.881	102.62
235.115	118.62
235.349	99.62
235.583	111.62
235.817	119.62
236.051	104.62
236.285	117.62
236.519	126.62
236.753	124.62
236.987	124.62
237.221	112.62
237.455	123.62
237.689	128.62
237.922	122.62
238.156	113.62
238.39	137.62
238.624	116.62
238.858	116.62
239.091	134.62
239.325	123.62
239.559	119.62
239.793	134.62
240.027	160.62
240.26	140.62
240.494	132.62
240.728	126.62
240.961	125.62
241.195	141.62
241.429	136.62
241.662	144.62
241.896	139.62
242.13	132.62
242.363	140.62
242.597	138.62
242.83	148.62
243.064	132.62
243.298	146.62
243.531	134.62
243.765	127.62
243.998	145.62
244.232	143.62
244.465	144.62
244.699	149.62
244.932	158.62
245.166	146.62
245.399	140.62
245.633	156.62
245.866	150.62
246.099	155.62
246.333	150.62
246.566	140.62
246.8	155.62
247.033	156.62
247.266	157.62
247.5	151.62
247.733	159.62
247.966	177.62
248.2	164.62
248.433	165.62
248.666	160.62
248.899	174.62
249.133	173.62
249.366	180.62
249.599	169.62
249.832	187.62
250.066	163.62
250.299	168.62
250.532	158.62
250.765	180.62
250.998	179.62
251.231	166.62
251.465	159.62
251.698	168.62
251.931	166.62
252.164	178.62
252.397	171.62
252.63	176.62
252.863	190.62
253.096	189.62
253.329	188.62
253.562	174.62
253.795	187.62
254.028	204.62
254.261	209.62
254.494	186.62
254.727	204.62
254.96	184.62
255.193	183.62
255.426	197.62
255.659	183.62
255.892	195.62
256.124	178.62
256.357	186.62
256.59	205.62
256.823	202.62
257.056	182.62
257.289	179.62
257.521	213.62
257.754	186.62
257.987	195.62
258.22	198.62
258.452	201.62
258.685	196.62
258.918	204.62
259.151	219.62
259.383	203.62
259.616	210.62
259.849	214.62
260.081	224.62
260.314	253.62
260.547	219.62
260.779	222.62
261.012	215.62
261.244	245.62
261.477	224.62
261.71	236.62
261.942	200.62
262.175	213.62
262.407	216.62
262.64	220.62
262.872	201.62
263.105	221.62
263.337	242.62
263.57	225.62
263.802	219.62
264.035	215.62
264.267	198.62
264.499	220.62
264.732	229.62
264.964	225.62
265.197	218.62
265.429	213.62
265.661	210.62
265.894	213.62
266.126	228.62
266.358	228.62
266.591	212.62
266.823	217.62
267.055	223.62
267.287	252.62
267.52	222.62
267.752	213.62
267.984	227.62
268.216	232.62
268.448	223.62
268.681	247.62
268.913	240.62
269.145	251.62
269.377	232.62
269.609	237.62
269.841	230.62
270.073	242.62
270.306	221.62
270.538	235.62
270.77	233.62
271.002	235.62
271.234	245.62
271.466	250.62
271.698	258.62
271.93	256.62
272.162	257.62
272.394	248.62
272.626	258.62
272.858	250.62
273.09	265.62
273.322	272.62
273.553	253.62
273.785	267.62
274.017	248.62
274.249	288.62
274.481	301.62
274.713	286.62
274.945	280.62
275.176	299.62
275.408	308.62
275.64	302.62
275.872	284.62
276.104	284.62
276.335	264.62
276.567	264.62
276.799	263.62
277.031	267.62
277.262	275.62
277.494	276.62
277.726	280.62
277.957	268.62
278.189	269.62
278.421	263.62
278.652	274.62
278.884	263.62
279.115	267.62
279.347	287.62
279.579	279.62
279.81	285.62
280.042	285.62
280.273	278.62
280.505	279.62
280.736	283.62
280.968	289.62
281.199	268.62
281.431	282.62
281.662	286.62
281.894	290.62
282.125	291.62
282.356	284.62
282.588	307.62
282.819	276.62
283.051	292.62
283.282	284.62
283.513	288.62
283.745	304.62
283.976	296.62
284.207	304.62
284.439	301.62
284.67	301.62
284.901	301.62
285.132	289.62
285.364	303.62
285.595	309.62
285.826	306.62
286.057	316.62
286.288	306.62
286.52	302.62
286.751	298.62
286.982	289.62
287.213	289.62
287.444	291.62
287.675	311.62
287.906	307.62
288.138	301.62
288.369	312.62
288.6	314.62
288.831	287.62
289.062	316.62
289.293	315.62
289.524	316.62
289.755	323.62
289.986	302.62
290.217	309.62
290.448	324.62
290.679	317.62
290.91	301.62
291.141	325.62
291.371	299.62
291.602	334.62
291.833	312.62
292.064	314.62
292.295	323.62
292.526	318.62
292.757	310.62
292.987	300.62
293.218	312.62
293.449	328.62
293.68	311.62
293.91	320.62
294.141	303.62
294.372	312.62
294.603	338.62
294.833	325.62
295.064	331.62
295.295	318.62
295.525	339.62
295.756	322.62
295.987	308.62
296.217	319.62
296.448	319.62
296.679	327.62
296.909	326.62
297.14	342.62
297.37	348.62
297.601	337.62
297.831	316.62
298.062	346.62
298.292	330.62
298.523	326.62
298.753	340.62
298.984	340.62
299.214	329.62
299.445	332.62
299.675	355.62
299.905	320.62
300.136	318.62
300.366	328.62
300.597	328.62
300.827	348.62
301.057	344.62
301.288	365.62
301.518	368.62
301.748	362.62
301.979	356.62
302.209	365.62
302.439	357.62
302.669	364.62
302.9	363.62
303.13	365.62
303.36	354.62
303.59	347.62
303.82	352.62
304.051	353.62
304.281	348.62
304.511	383.62
304.741	367.62
304.971	356.62
305.201	374.62
305.431	369.62
305.661	376.62
305.891	367.62
306.121	367.62
306.352	375.62
306.582	375.62
306.812	364.62
307.042	371.62
307.272	391.62
307.502	366.62
307.731	366.62
307.961	369.62
308.191	363.62
308.421	371.62
308.651	371.62
308.881	372.62
309.111	371.62
309.341	362.62
309.571	365.62
309.8	373.62
310.03	366.62
310.26	379.62
310.49	357.62
310.72	361.62
310.949	388.62
311.179	382.62
311.409	378.62
311.639	386.62
311.868	385.62
312.098	370.62
312.328	393.62
312.557	395.62
312.787	388.62
313.017	375.62
313.246	399.62
313.476	387.62
313.706	382.62
313.935	379.62
314.165	380.62
314.394	380.62
314.624	389.62
314.853	389.62
315.083	390.62
315.312	411.62
315.542	380.62
315.771	389.62
316.001	394.62
316.23	412.62
316.46	410.62
316.689	412.62
316.919	385.62
317.148	412.62
317.377	411.62
317.607	417.62
317.836	404.62
318.065	410.62
318.295	399.62
318.524	406.62
318.753	390.62
318.983	409.62
319.212	391.62
319.441	391.62
319.67	410.62
319.9	413.62
320.129	414.62
320.358	397.62
320.587	389.62
320.816	390.62
321.046	418.62
321.275	399.62
321.504	419.62
321.733	398.62
321.962	383.62
322.191	408.62
322.42	421.62
322.649	422.62
322.878	380.62
323.108	416.62
323.337	422.62
323.566	404.62
323.795	434.62
324.024	427.62
324.253	432.62
324.482	399.62
324.71	420.62
324.939	421.62
325.168	410.62
325.397	427.62
325.626	429.62
325.855	422.62
326.084	435.62
326.313	431.62
326.542	436.62
326.77	420.62
326.999	417.62
327.228	421.62
327.457	443.62
327.686	446.62
327.914	440.62
328.143	439.62
328.372	461.62
328.6	435.62
328.829	434.62
329.058	433.62
329.287	432.62
329.515	432.62
329.744	447.62
329.972	424.62
330.201	468.62
330.43	455.62
330.658	445.62
330.887	445.62
331.115	439.62
331.344	442.62
331.572	445.62
331.801	447.62
332.03	459.62
332.258	455.62
332.486	469.62
332.715	482.62
332.943	492.62
333.172	471.62
333.4	491.62
333.629	487.62
333.857	510.62
334.085	499.62
334.314	504.62
334.542	494.62
334.771	511.62
334.999	498.62
335.227	506.62
335.455	500.62
335.684	488.62
335.912	521.62
336.14	503.62
336.369	498.62
336.597	502.62
336.825	504.62
337.053	491.62
337.281	477.62
337.51	487.62
337.738	491.62
337.966	465.62
338.194	483.62
338.422	486.62
338.65	489.62
338.878	490.62
339.106	469.62
339.334	491.62
339.562	479.62
339.79	470.62
340.018	493.62
340.246	456.62
340.474	457.62
340.702	465.62
340.93	465.62
341.158	468.62
341.386	471.62
341.614	480.62
341.842	449.62
342.07	469.62
342.298	473.62
342.526	465.62
342.754	465.62
342.981	468.62
343.209	485.62
343.437	483.62
343.665	495.62
343.893	507.62
344.12	508.62
344.348	496.62
344.576	488.62
344.804	488.62
345.031	471.62
345.259	472.62
345.487	469.62
345.714	474.62
345.942	462.62
346.17	455.62
346.397	475.62
346.625	460.62
346.853	463.62
347.08	455.62
347.308	449.62
347.535	439.62
347.763	467.62
347.99	439.62
348.218	450.62
348.445	456.62
348.673	449.62
348.9	459.62
349.128	468.62
349.355	478.62
349.583	432.62
349.81	466.62
350.037	446.62
350.265	450.62
350.492	419.62
350.72	431.62
350.947	463.62
351.174	449.62
351.402	461.62
351.629	467.62
351.856	456.62
352.083	445.62
352.311	439.62
352.538	459.62
352.765	442.62
352.992	442.62
353.22	427.62
353.447	424.62
353.674	429.62
353.901	429.62
354.128	437.62
354.355	445.62
354.583	431.62
354.81	443.62
355.037	440.62
355.264	432.62
355.491	439.62
355.718	443.62
355.945	447.62
356.172	436.62
356.399	434.62
356.626	454.62
356.853	450.62
357.08	460.62
357.307	459.62
357.534	460.62
357.761	461.62
357.988	453.62
358.215	458.62
358.441	460.62
358.668	451.62
358.895	462.62
359.122	439.62
359.349	436.62
359.576	444.62
359.802	437.62
360.029	450.62
360.256	469.62
360.483	449.62
360.709	441.62
360.936	461.62
361.163	455.62
361.39	440.62
361.616	432.62
361.843	455.62
362.07	454.62
362.296	436.62
362.523	454.62
362.749	454.62
362.976	468.62
363.203	449.62
363.429	449.62
363.656	443.62
363.882	464.62
364.109	438.62
364.335	435.62
364.562	435.62
364.788	443.62
365.015	437.62
365.241	463.62
365.468	442.62
365.694	455.62
365.92	462.62
366.147	459.62
366.373	455.62
366.599	447.62
366.826	449.62
367.052	445.62
367.278	457.62
367.505	436.62
367.731	464.62
367.957	470.62
368.184	485.62
368.41	444.62
368.636	455.62
368.862	460.62
369.089	461.62
369.315	471.62
369.541	483.62
369.767	479.62
369.993	474.62
370.219	480.62
370.445	479.62
370.672	473.62
370.898	478.62
371.124	476.62
371.35	483.62
371.576	495.62
371.802	487.62
372.028	493.62
372.254	502.62
372.48	491.62
372.706	484.62
372.932	480.62
373.158	510.62
373.384	499.62
373.61	500.62
373.835	525.62
374.061	499.62
374.287	493.62
374.513	495.62
374.739	525.62
374.965	532.62
375.191	523.62
375.416	502.62
375.642	512.62
375.868	523.62
376.094	488.62
376.319	481.62
376.545	481.62
376.771	490.62
376.997	454.62
377.222	477.62
377.448	468.62
377.674	478.62
377.899	469.62
378.125	480.62
378.35	484.62
378.576	464.62
378.802	468.62
379.027	483.62
379.253	487.62
379.478	471.62
379.704	492.62
379.929	492.62
380.155	488.62
380.38	492.62
380.606	490.62
380.831	478.62
381.057	494.62
381.282	508.62
381.507	487.62
381.733	513.62
381.958	511.62
382.184	496.62
382.409	515.62
382.634	511.62
382.86	499.62
383.085	508.62
383.31	508.62
383.535	518.62
383.761	526.62
383.986	539.62
384.211	528.62
384.436	540.62
384.662	538.62
384.887	538.62
385.112	542.62
385.337	538.62
385.562	545.62
385.787	546.62
386.013	539.62
386.238	541.62
386.463	571.62
386.688	550.62
386.913	556.62
387.138	567.62
387.363	549.62
387.588	551.62
387.813	572.62
388.038	554.62
388.263	561.62
388.488	571.62
388.713	542.62
388.938	578.62
389.163	558.62
389.387	541.62
389.612	547.62
389.837	568.62
390.062	531.62
390.287	546.62
390.512	562.62
390.736	555.62
390.961	552.62
391.186	589.62
391.411	588.62
391.636	588.62
391.86	597.62
392.085	618.62
392.31	595.62
392.534	597.62
392.759	604.62
392.984	592.62
393.208	584.62
393.433	577.62
393.658	577.62
393.882	602.62
394.107	618.62
394.331	590.62
394.556	571.62
394.78	605.62
395.005	608.62
395.229	595.62
395.454	626.62
395.678	595.62
395.903	601.62
396.127	621.62
396.352	630.62
396.576	599.62
396.801	617.62
397.025	588.62
397.249	611.62
397.474	613.62
397.698	615.62
397.922	648.62
398.147	627.62
398.371	644.62
398.595	641.62
398.82	652.62
399.044	654.62
399.268	718.62
399.492	738.62
399.717	792.62
399.941	768.62
400.165	781.62
400.389	750.62
400.613	742.62
400.837	707.62
401.062	688.62
401.286	683.62
401.51	670.62
401.734	688.62
401.958	668.62
402.182	683.62
402.406	657.62
402.63	660.62
402.854	652.62
403.078	679.62
403.302	664.62
403.526	694.62
403.75	682.62
403.974	682.62
404.198	682.62
404.422	682.62
404.645	691.62
404.869	684.62
405.093	701.62
405.317	677.62
405.541	692.62
405.765	688.62
405.988	702.62
406.212	707.62
406.436	696.62
406.66	731.62
406.883	697.62
407.107	720.62
407.331	751.62
407.555	764.62
407.778	755.62
408.002	768.62
408.226	725.62
408.449	755.62
408.673	771.62
408.896	742.62
409.12	706.62
409.344	715.62
409.567	714.62
409.791	711.62
410.014	709.62
410.238	727.62
410.461	700.62
410.685	700.62
410.908	671.62
411.132	670.62
411.355	693.62
411.578	692.62
411.802	685.62
412.025	690.62
412.249	690.62
412.472	665.62
412.695	678.62
412.919	676.62
413.142	675.62
413.365	684.62
413.589	680.62
413.812	684.62
414.035	660.62
414.258	679.62
414.482	658.62
414.705	661.62
414.928	677.62
415.151	661.62
415.374	657.62
415.597	652.62
415.821	657.62
416.044	627.62
416.267	637.62
416.49	637.62
416.713	623.62
416.936	651.62
417.159	630.62
417.382	642.62
417.605	653.62
417.828	625.62
418.051	634.62
418.274	629.62
418.497	650.62
418.72	612.62
418.943	648.62
419.166	662.62
419.389	703.62
419.611	672.62
419.834	677.62
420.057	647.62
420.28	637.62
420.503	641.62
420.726	640.62
420.948	624.62
421.171	634.62
421.394	635.62
421.617	611.62
421.839	627.62
422.062	640.62
422.285	624.62
422.507	643.62
422.73	639.62
422.953	630.62
423.175	637.62
423.398	612.62
423.621	616.62
423.843	623.62
424.066	664.62
424.288	633.62
424.511	620.62
424.733	595.62
424.956	618.62
425.178	628.62
425.401	649.62
425.623	626.62
425.846	634.62
426.068	605.62
426.291	611.62
426.513	614.62
426.735	622.62
426.958	629.62
427.18	602.62
427.402	604.62
427.625	593.62
427.847	594.62
428.069	597.62
428.292	595.62
428.514	593.62
428.736	588.62
428.958	610.62
429.181	568.62
429.403	602.62
429.625	602.62
429.847	597.62
430.069	596.62
430.292	607.62
430.514	594.62
430.736	584.62
430.958	628.62
431.18	599.62
431.402	584.62
431.624	584.62
431.846	610.62
432.068	610.62
432.29	602.62
432.512	583.62
432.734	610.62
432.956	589.62
433.178	595.62
433.4	584.62
433.622	608.62
433.844	600.62
434.066	616.62
434.287	605.62
434.509	606.62
434.731	637.62
434.953	618.62
435.175	616.62
435.397	623.62
435.618	630.62
435.84	620.62
436.062	599.62
436.284	598.62
436.505	580.62
436.727	599.62
436.949	612.62
437.17	614.62
437.392	587.62
437.614	587.62
437.835	567.62
438.057	595.62
438.278	574.62
438.5	575.62
438.721	592.62
438.943	584.62
439.165	581.62
439.386	592.62
439.608	566.62
439.829	589.62
440.05	593.62
440.272	578.62
440.493	599.62
440.715	592.62
440.936	592.62
441.158	596.62
441.379	597.62
441.6	610.62
441.822	632.62
442.043	616.62
442.264	598.62
442.486	611.62
442.707	596.62
442.928	604.62
443.149	628.62
443.371	609.62
443.592	594.62
443.813	629.62
444.034	603.62
444.255	624.62
444.476	637.62
444.698	666.62
444.919	619.62
445.14	760.62
445.361	692.62
445.582	632.62
445.803	610.62
446.024	604.62
446.245	589.62
446.466	605.62
446.687	584.62
446.908	578.62
447.129	555.62
447.35	572.62
447.571	587.62
447.792	569.62
448.013	580.62
448.234	543.62
448.455	554.62
448.675	542.62
448.896	550.62
449.117	534.62
449.338	548.62
449.559	537.62
449.779	542.62
450	525.62
450.221	536.62
450.442	531.62
450.662	542.62
450.883	530.62
451.104	538.62
451.324	544.62
451.545	549.62
451.766	528.62
451.986	548.62
452.207	547.62
452.428	521.62
452.648	516.62
452.869	528.62
453.089	526.62
453.31	540.62
453.53	518.62
453.751	548.62
453.971	497.62
454.192	531.62
454.412	516.62
454.633	511.62
454.853	525.62
455.073	531.62
455.294	495.62
455.514	503.62
455.734	531.62
455.955	519.62
456.175	528.62
456.395	502.62
456.616	525.62
456.836	513.62
457.056	535.62
457.276	517.62
457.497	568.62
457.717	519.62
457.937	532.62
458.157	528.62
458.377	531.62
458.598	531.62
458.818	580.62
459.038	579.62
459.258	566.62
459.478	612.62
459.698	609.62
459.918	611.62
460.138	615.62
460.358	611.62
460.578	614.62
460.798	639.62
461.018	622.62
461.238	630.62
461.458	623.62
461.678	629.62
461.898	627.62
462.118	656.62
462.338	673.62
462.558	680.62
462.777	669.62
462.997	718.62
463.217	730.62
463.437	737.62
463.657	680.62
463.876	688.62
464.096	706.62
464.316	670.62
464.536	698.62
464.755	654.62
464.975	669.62
465.195	636.62
465.414	644.62
465.634	634.62
465.854	635.62
466.073	596.62
466.293	608.62
466.512	581.62
466.732	599.62
466.951	584.62
467.171	580.62
467.391	579.62
467.61	566.62
467.829	560.62
468.049	534.62
468.268	588.62
468.488	550.62
468.707	568.62
468.927	563.62
469.146	548.62
469.365	556.62
469.585	554.62
469.804	553.62
470.023	568.62
470.243	567.62
470.462	588.62
470.681	587.62
470.901	565.62
471.12	592.62
471.339	578.62
471.558	578.62
471.777	563.62
471.997	574.62
472.216	581.62
472.435	569.62
472.654	580.62
472.873	561.62
473.092	564.62
473.311	590.62
473.53	572.62
473.749	582.62
473.968	573.62
474.187	554.62
474.406	562.62
474.625	594.62
474.844	556.62
475.063	594.62
475.282	576.62
475.501	559.62
475.72	583.62
475.939	594.62
476.158	599.62
476.377	620.62
476.596	612.62
476.814	629.62
477.033	594.62
477.252	610.62
477.471	623.62
477.69	606.62
477.908	629.62
478.127	626.62
478.346	664.62
478.564	677.62
478.783	644.62
479.002	653.62
479.22	679.62
479.439	686.62
479.658	678.62
479.876	635.62
480.095	685.62
480.313	691.62
480.532	672.62
480.751	697.62
480.969	678.62
481.188	708.62
481.406	703.62
481.624	686.62
481.843	662.62
482.061	680.62
482.28	698.62
482.498	688.62
482.717	700.62
482.935	694.62
483.153	687.62
483.372	671.62
483.59	686.62
483.808	695.62
484.027	717.62
484.245	682.62
484.463	706.62
484.681	690.62
484.9	675.62
485.118	707.62
485.336	680.62
485.554	695.62
485.772	694.62
485.99	703.62
486.209	704.62
486.427	718.62
486.645	702.62
486.863	703.62
487.081	692.62
487.299	678.62
487.517	696.62
487.735	674.62
487.953	711.62
488.171	720.62
488.389	711.62
488.607	677.62
488.825	691.62
489.043	716.62
489.261	700.62
489.479	690.62
489.696	714.62
489.914	692.62
490.132	703.62
490.35	690.62
490.568	677.62
490.786	703.62
491.003	704.62
491.221	685.62
491.439	686.62
491.657	685.62
491.874	704.62
492.092	704.62
492.31	712.62
492.527	687.62
492.745	728.62
492.963	706.62
493.18	705.62
493.398	714.62
493.615	708.62
493.833	704.62
494.05	714.62
494.268	719.62
494.485	717.62
494.703	728.62
494.92	731.62
495.138	711.62
495.355	736.62
495.573	742.62
495.79	735.62
496.008	765.62
496.225	743.62
496.442	746.62
496.66	774.62
496.877	784.62
497.094	786.62
497.312	775.62
497.529	803.62
497.746	832.62
497.963	829.62
498.181	850.62
498.398	886.62
498.615	924.62
498.832	954.62
499.049	965.62
499.267	1003.62
499.484	1033.62
499.701	1095.62
499.918	1134.62
500.135	1149.62
500.352	1248.62
500.569	1242.62
500.786	1276.62
501.003	1261.62
501.22	1182.62
501.437	1133.62
501.654	1074.62
