Data from Fe(NO3)3@0.1M.TitratingCurve.Agarose3%dH2O.NegLispCup.LampEnergy10.LIBS07252019_HRD10591_16-41-25-333.txt Node
Date: Thu Jul 25 16:41:25 EDT 2019
User: cochatt
Spectrometer: HR+D1059
Trigger mode: 1
Integration Time (sec): 1.000000E-1
Scans to average: 1
Electric dark correction enabled: true
Nonlinearity correction enabled: false
Boxcar width: 0
XAxis mode: Wavelengths
Number of Pixels in Spectrum: 2048
>>>>>Begin Spectral Data<<<<<
223.165	-16.44
223.4	-16.44
223.635	-16.44
223.869	-23.44
224.104	-22.44
224.338	-12.44
224.573	-39.44
224.808	-0.44
225.042	-0.44
225.277	-2.44
225.511	3.56
225.746	6.56
225.98	7.56
226.215	11.56
226.449	15.56
226.683	22.56
226.918	13.56
227.152	36.56
227.387	36.56
227.621	36.56
227.856	57.56
228.09	59.56
228.324	46.56
228.559	54.56
228.793	56.56
229.027	73.56
229.262	69.56
229.496	69.56
229.73	74.56
229.964	80.56
230.199	80.56
230.433	76.56
230.667	89.56
230.901	75.56
231.136	95.56
231.37	102.56
231.604	99.56
231.838	103.56
232.072	112.56
232.306	84.56
232.541	93.56
232.775	83.56
233.009	85.56
233.243	97.56
233.477	97.56
233.711	94.56
233.945	98.56
234.179	88.56
234.413	93.56
234.647	88.56
234.881	86.56
235.115	91.56
235.349	98.56
235.583	92.56
235.817	90.56
236.051	93.56
236.285	88.56
236.519	84.56
236.753	66.56
236.987	80.56
237.221	82.56
237.455	82.56
237.689	87.56
237.922	88.56
238.156	74.56
238.39	90.56
238.624	78.56
238.858	80.56
239.091	92.56
239.325	84.56
239.559	92.56
239.793	103.56
240.027	93.56
240.26	91.56
240.494	90.56
240.728	97.56
240.961	94.56
241.195	76.56
241.429	83.56
241.662	102.56
241.896	94.56
242.13	108.56
242.363	89.56
242.597	92.56
242.83	103.56
243.064	92.56
243.298	88.56
243.531	89.56
243.765	83.56
243.998	94.56
244.232	99.56
244.465	97.56
244.699	99.56
244.932	88.56
245.166	78.56
245.399	93.56
245.633	106.56
245.866	100.56
246.099	94.56
246.333	94.56
246.566	90.56
246.8	95.56
247.033	90.56
247.266	95.56
247.5	80.56
247.733	95.56
247.966	99.56
248.2	95.56
248.433	103.56
248.666	94.56
248.899	108.56
249.133	100.56
249.366	91.56
249.599	92.56
249.832	92.56
250.066	106.56
250.299	104.56
250.532	100.56
250.765	102.56
250.998	106.56
251.231	101.56
251.465	87.56
251.698	96.56
251.931	100.56
252.164	103.56
252.397	105.56
252.63	106.56
252.863	91.56
253.096	103.56
253.329	112.56
253.562	116.56
253.795	101.56
254.028	109.56
254.261	91.56
254.494	118.56
254.727	114.56
254.96	103.56
255.193	108.56
255.426	104.56
255.659	103.56
255.892	100.56
256.124	102.56
256.357	105.56
256.59	102.56
256.823	108.56
257.056	105.56
257.289	101.56
257.521	98.56
257.754	105.56
257.987	102.56
258.22	106.56
258.452	98.56
258.685	100.56
258.918	105.56
259.151	92.56
259.383	93.56
259.616	109.56
259.849	99.56
260.081	110.56
260.314	104.56
260.547	107.56
260.779	109.56
261.012	108.56
261.244	112.56
261.477	116.56
261.71	106.56
261.942	106.56
262.175	97.56
262.407	104.56
262.64	93.56
262.872	105.56
263.105	114.56
263.337	94.56
263.57	107.56
263.802	107.56
264.035	109.56
264.267	110.56
264.499	109.56
264.732	111.56
264.964	119.56
265.197	101.56
265.429	107.56
265.661	98.56
265.894	109.56
266.126	113.56
266.358	102.56
266.591	126.56
266.823	119.56
267.055	105.56
267.287	122.56
267.52	128.56
267.752	106.56
267.984	111.56
268.216	109.56
268.448	119.56
268.681	106.56
268.913	124.56
269.145	112.56
269.377	125.56
269.609	104.56
269.841	108.56
270.073	109.56
270.306	120.56
270.538	114.56
270.77	118.56
271.002	118.56
271.234	106.56
271.466	116.56
271.698	104.56
271.93	124.56
272.162	107.56
272.394	111.56
272.626	112.56
272.858	134.56
273.09	120.56
273.322	110.56
273.553	124.56
273.785	127.56
274.017	128.56
274.249	124.56
274.481	122.56
274.713	110.56
274.945	111.56
275.176	119.56
275.408	104.56
275.64	112.56
275.872	115.56
276.104	122.56
276.335	123.56
276.567	106.56
276.799	116.56
277.031	110.56
277.262	130.56
277.494	122.56
277.726	119.56
277.957	125.56
278.189	109.56
278.421	117.56
278.652	127.56
278.884	127.56
279.115	133.56
279.347	115.56
279.579	126.56
279.81	130.56
280.042	130.56
280.273	123.56
280.505	128.56
280.736	131.56
280.968	132.56
281.199	115.56
281.431	131.56
281.662	116.56
281.894	115.56
282.125	123.56
282.356	132.56
282.588	119.56
282.819	127.56
283.051	132.56
283.282	120.56
283.513	139.56
283.745	128.56
283.976	127.56
284.207	117.56
284.439	130.56
284.67	130.56
284.901	124.56
285.132	146.56
285.364	135.56
285.595	140.56
285.826	134.56
286.057	118.56
286.288	121.56
286.52	125.56
286.751	115.56
286.982	142.56
287.213	133.56
287.444	121.56
287.675	134.56
287.906	127.56
288.138	124.56
288.369	128.56
288.6	131.56
288.831	126.56
289.062	124.56
289.293	127.56
289.524	120.56
289.755	141.56
289.986	150.56
290.217	125.56
290.448	118.56
290.679	127.56
290.91	128.56
291.141	137.56
291.371	132.56
291.602	140.56
291.833	128.56
292.064	135.56
292.295	137.56
292.526	124.56
292.757	121.56
292.987	144.56
293.218	138.56
293.449	129.56
293.68	127.56
293.91	124.56
294.141	126.56
294.372	118.56
294.603	127.56
294.833	128.56
295.064	123.56
295.295	127.56
295.525	129.56
295.756	119.56
295.987	126.56
296.217	131.56
296.448	144.56
296.679	132.56
296.909	141.56
297.14	126.56
297.37	141.56
297.601	142.56
297.831	149.56
298.062	142.56
298.292	134.56
298.523	128.56
298.753	143.56
298.984	138.56
299.214	138.56
299.445	148.56
299.675	150.56
299.905	159.56
300.136	133.56
300.366	142.56
300.597	132.56
300.827	143.56
301.057	134.56
301.288	143.56
301.518	139.56
301.748	148.56
301.979	140.56
302.209	154.56
302.439	130.56
302.669	161.56
302.9	141.56
303.13	140.56
303.36	145.56
303.59	126.56
303.82	127.56
304.051	130.56
304.281	134.56
304.511	141.56
304.741	152.56
304.971	133.56
305.201	152.56
305.431	140.56
305.661	145.56
305.891	138.56
306.121	141.56
306.352	143.56
306.582	126.56
306.812	136.56
307.042	145.56
307.272	138.56
307.502	136.56
307.731	141.56
307.961	131.56
308.191	145.56
308.421	143.56
308.651	140.56
308.881	127.56
309.111	154.56
309.341	138.56
309.571	155.56
309.8	154.56
310.03	150.56
310.26	146.56
310.49	137.56
310.72	131.56
310.949	133.56
311.179	152.56
311.409	143.56
311.639	157.56
311.868	134.56
312.098	152.56
312.328	141.56
312.557	149.56
312.787	143.56
313.017	148.56
313.246	169.56
313.476	142.56
313.706	138.56
313.935	138.56
314.165	138.56
314.394	148.56
314.624	143.56
314.853	148.56
315.083	149.56
315.312	154.56
315.542	148.56
315.771	142.56
316.001	141.56
316.23	151.56
316.46	138.56
316.689	132.56
316.919	136.56
317.148	146.56
317.377	132.56
317.607	142.56
317.836	146.56
318.065	134.56
318.295	158.56
318.524	152.56
318.753	134.56
318.983	131.56
319.212	156.56
319.441	155.56
319.67	150.56
319.9	151.56
320.129	162.56
320.358	140.56
320.587	156.56
320.816	146.56
321.046	143.56
321.275	150.56
321.504	140.56
321.733	151.56
321.962	173.56
322.191	140.56
322.42	157.56
322.649	148.56
322.878	153.56
323.108	151.56
323.337	142.56
323.566	156.56
323.795	148.56
324.024	160.56
324.253	147.56
324.482	157.56
324.71	152.56
324.939	139.56
325.168	142.56
325.397	137.56
325.626	150.56
325.855	142.56
326.084	159.56
326.313	167.56
326.542	143.56
326.77	162.56
326.999	155.56
327.228	168.56
327.457	164.56
327.686	148.56
327.914	151.56
328.143	162.56
328.372	157.56
328.6	164.56
328.829	140.56
329.058	170.56
329.287	174.56
329.515	155.56
329.744	150.56
329.972	154.56
330.201	157.56
330.43	154.56
330.658	150.56
330.887	145.56
331.115	167.56
331.344	168.56
331.572	165.56
331.801	151.56
332.03	176.56
332.258	170.56
332.486	187.56
332.715	166.56
332.943	175.56
333.172	180.56
333.4	167.56
333.629	185.56
333.857	172.56
334.085	178.56
334.314	183.56
334.542	179.56
334.771	179.56
334.999	175.56
335.227	192.56
335.455	181.56
335.684	172.56
335.912	177.56
336.14	178.56
336.369	172.56
336.597	181.56
336.825	171.56
337.053	175.56
337.281	168.56
337.51	170.56
337.738	168.56
337.966	164.56
338.194	171.56
338.422	162.56
338.65	165.56
338.878	167.56
339.106	164.56
339.334	169.56
339.562	165.56
339.79	159.56
340.018	158.56
340.246	149.56
340.474	153.56
340.702	168.56
340.93	166.56
341.158	172.56
341.386	161.56
341.614	162.56
341.842	171.56
342.07	149.56
342.298	154.56
342.526	158.56
342.754	167.56
342.981	148.56
343.209	157.56
343.437	173.56
343.665	188.56
343.893	182.56
344.12	190.56
344.348	168.56
344.576	176.56
344.804	174.56
345.031	175.56
345.259	165.56
345.487	154.56
345.714	166.56
345.942	153.56
346.17	167.56
346.397	144.56
346.625	161.56
346.853	169.56
347.08	150.56
347.308	172.56
347.535	144.56
347.763	158.56
347.99	156.56
348.218	172.56
348.445	157.56
348.673	169.56
348.9	155.56
349.128	165.56
349.355	163.56
349.583	158.56
349.81	171.56
350.037	160.56
350.265	151.56
350.492	169.56
350.72	171.56
350.947	160.56
351.174	156.56
351.402	154.56
351.629	164.56
351.856	150.56
352.083	170.56
352.311	171.56
352.538	147.56
352.765	163.56
352.992	174.56
353.22	156.56
353.447	149.56
353.674	175.56
353.901	171.56
354.128	166.56
354.355	148.56
354.583	157.56
354.81	138.56
355.037	161.56
355.264	161.56
355.491	169.56
355.718	154.56
355.945	154.56
356.172	160.56
356.399	150.56
356.626	162.56
356.853	176.56
357.08	167.56
357.307	152.56
357.534	161.56
357.761	156.56
357.988	177.56
358.215	157.56
358.441	167.56
358.668	171.56
358.895	157.56
359.122	155.56
359.349	161.56
359.576	168.56
359.802	176.56
360.029	169.56
360.256	162.56
360.483	150.56
360.709	171.56
360.936	142.56
361.163	163.56
361.39	157.56
361.616	146.56
361.843	174.56
362.07	167.56
362.296	160.56
362.523	152.56
362.749	176.56
362.976	151.56
363.203	164.56
363.429	170.56
363.656	157.56
363.882	169.56
364.109	165.56
364.335	172.56
364.562	160.56
364.788	174.56
365.015	158.56
365.241	163.56
365.468	170.56
365.694	167.56
365.92	166.56
366.147	162.56
366.373	162.56
366.599	167.56
366.826	168.56
367.052	169.56
367.278	168.56
367.505	179.56
367.731	162.56
367.957	156.56
368.184	157.56
368.41	160.56
368.636	165.56
368.862	174.56
369.089	161.56
369.315	164.56
369.541	161.56
369.767	172.56
369.993	149.56
370.219	148.56
370.445	175.56
370.672	163.56
370.898	183.56
371.124	178.56
371.35	182.56
371.576	173.56
371.802	159.56
372.028	169.56
372.254	173.56
372.48	175.56
372.706	174.56
372.932	181.56
373.158	176.56
373.384	187.56
373.61	176.56
373.835	186.56
374.061	168.56
374.287	190.56
374.513	193.56
374.739	182.56
374.965	180.56
375.191	187.56
375.416	183.56
375.642	182.56
375.868	179.56
376.094	171.56
376.319	182.56
376.545	166.56
376.771	191.56
376.997	175.56
377.222	165.56
377.448	181.56
377.674	170.56
377.899	186.56
378.125	176.56
378.35	177.56
378.576	168.56
378.802	176.56
379.027	157.56
379.253	172.56
379.478	179.56
379.704	182.56
379.929	180.56
380.155	177.56
380.38	177.56
380.606	169.56
380.831	169.56
381.057	169.56
381.282	164.56
381.507	194.56
381.733	167.56
381.958	175.56
382.184	184.56
382.409	178.56
382.634	173.56
382.86	178.56
383.085	191.56
383.31	175.56
383.535	199.56
383.761	180.56
383.986	182.56
384.211	193.56
384.436	169.56
384.662	190.56
384.887	190.56
385.112	195.56
385.337	187.56
385.562	189.56
385.787	207.56
386.013	213.56
386.238	194.56
386.463	190.56
386.688	166.56
386.913	186.56
387.138	198.56
387.363	202.56
387.588	188.56
387.813	196.56
388.038	187.56
388.263	194.56
388.488	187.56
388.713	185.56
388.938	190.56
389.163	202.56
389.387	195.56
389.612	209.56
389.837	196.56
390.062	184.56
390.287	192.56
390.512	168.56
390.736	202.56
390.961	200.56
391.186	195.56
391.411	226.56
391.636	234.56
391.86	213.56
392.085	206.56
392.31	219.56
392.534	228.56
392.759	194.56
392.984	211.56
393.208	201.56
393.433	208.56
393.658	205.56
393.882	195.56
394.107	205.56
394.331	209.56
394.556	215.56
394.78	207.56
395.005	200.56
395.229	213.56
395.454	214.56
395.678	201.56
395.903	226.56
396.127	219.56
396.352	207.56
396.576	214.56
396.801	195.56
397.025	215.56
397.249	229.56
397.474	214.56
397.698	217.56
397.922	215.56
398.147	209.56
398.371	213.56
398.595	221.56
398.82	219.56
399.044	237.56
399.268	245.56
399.492	272.56
399.717	310.56
399.941	278.56
400.165	255.56
400.389	230.56
400.613	230.56
400.837	234.56
401.062	214.56
401.286	232.56
401.51	221.56
401.734	219.56
401.958	234.56
402.182	223.56
402.406	233.56
402.63	246.56
402.854	232.56
403.078	238.56
403.302	227.56
403.526	248.56
403.75	244.56
403.974	244.56
404.198	231.56
404.422	264.56
404.645	234.56
404.869	254.56
405.093	238.56
405.317	243.56
405.541	229.56
405.765	230.56
405.988	247.56
406.212	238.56
406.436	239.56
406.66	271.56
406.883	270.56
407.107	267.56
407.331	269.56
407.555	270.56
407.778	280.56
408.002	263.56
408.226	265.56
408.449	270.56
408.673	248.56
408.896	256.56
409.12	241.56
409.344	239.56
409.567	254.56
409.791	249.56
410.014	247.56
410.238	238.56
410.461	253.56
410.685	235.56
410.908	238.56
411.132	244.56
411.355	251.56
411.578	250.56
411.802	262.56
412.025	233.56
412.249	233.56
412.472	243.56
412.695	198.56
412.919	232.56
413.142	244.56
413.365	237.56
413.589	242.56
413.812	246.56
414.035	228.56
414.258	235.56
414.482	221.56
414.705	249.56
414.928	234.56
415.151	238.56
415.374	227.56
415.597	238.56
415.821	248.56
416.044	249.56
416.267	235.56
416.49	247.56
416.713	211.56
416.936	234.56
417.159	247.56
417.382	231.56
417.605	242.56
417.828	254.56
418.051	220.56
418.274	238.56
418.497	230.56
418.72	233.56
418.943	254.56
419.166	258.56
419.389	252.56
419.611	251.56
419.834	238.56
420.057	233.56
420.28	235.56
420.503	232.56
420.726	227.56
420.948	233.56
421.171	232.56
421.394	242.56
421.617	242.56
421.839	240.56
422.062	247.56
422.285	226.56
422.507	236.56
422.73	219.56
422.953	222.56
423.175	238.56
423.398	238.56
423.621	242.56
423.843	237.56
424.066	251.56
424.288	238.56
424.511	228.56
424.733	240.56
424.956	244.56
425.178	248.56
425.401	236.56
425.623	244.56
425.846	214.56
426.068	223.56
426.291	215.56
426.513	243.56
426.735	215.56
426.958	244.56
427.18	229.56
427.402	233.56
427.625	214.56
427.847	222.56
428.069	221.56
428.292	218.56
428.514	216.56
428.736	214.56
428.958	228.56
429.181	222.56
429.403	229.56
429.625	232.56
429.847	236.56
430.069	226.56
430.292	210.56
430.514	218.56
430.736	223.56
430.958	208.56
431.18	225.56
431.402	212.56
431.624	229.56
431.846	221.56
432.068	228.56
432.29	221.56
432.512	221.56
432.734	216.56
432.956	223.56
433.178	240.56
433.4	228.56
433.622	227.56
433.844	240.56
434.066	234.56
434.287	246.56
434.509	231.56
434.731	252.56
434.953	258.56
435.175	240.56
435.397	256.56
435.618	239.56
435.84	230.56
436.062	236.56
436.284	237.56
436.505	250.56
436.727	248.56
436.949	228.56
437.17	229.56
437.392	223.56
437.614	225.56
437.835	220.56
438.057	211.56
438.278	205.56
438.5	236.56
438.721	227.56
438.943	226.56
439.165	237.56
439.386	234.56
439.608	232.56
439.829	239.56
440.05	248.56
440.272	226.56
440.493	248.56
440.715	220.56
440.936	251.56
441.158	245.56
441.379	262.56
441.6	260.56
441.822	270.56
442.043	267.56
442.264	251.56
442.486	240.56
442.707	242.56
442.928	261.56
443.149	270.56
443.371	255.56
443.592	258.56
443.813	271.56
444.034	263.56
444.255	254.56
444.476	270.56
444.698	284.56
444.919	264.56
445.14	365.56
445.361	314.56
445.582	264.56
445.803	248.56
446.024	258.56
446.245	264.56
446.466	246.56
446.687	239.56
446.908	250.56
447.129	263.56
447.35	230.56
447.571	248.56
447.792	229.56
448.013	240.56
448.234	251.56
448.455	243.56
448.675	231.56
448.896	232.56
449.117	233.56
449.338	230.56
449.559	242.56
449.779	249.56
450	214.56
450.221	225.56
450.442	206.56
450.662	229.56
450.883	237.56
451.104	232.56
451.324	223.56
451.545	235.56
451.766	234.56
451.986	225.56
452.207	224.56
452.428	223.56
452.648	216.56
452.869	220.56
453.089	206.56
453.31	215.56
453.53	207.56
453.751	214.56
453.971	214.56
454.192	220.56
454.412	200.56
454.633	211.56
454.853	230.56
455.073	215.56
455.294	221.56
455.514	210.56
455.734	206.56
455.955	219.56
456.175	211.56
456.395	199.56
456.616	220.56
456.836	203.56
457.056	205.56
457.276	207.56
457.497	218.56
457.717	202.56
457.937	221.56
458.157	217.56
458.377	223.56
458.598	212.56
458.818	220.56
459.038	218.56
459.258	230.56
459.478	228.56
459.698	222.56
459.918	220.56
460.138	227.56
460.358	247.56
460.578	247.56
460.798	265.56
461.018	251.56
461.238	261.56
461.458	264.56
461.678	262.56
461.898	250.56
462.118	248.56
462.338	262.56
462.558	263.56
462.777	279.56
462.997	301.56
463.217	295.56
463.437	298.56
463.657	290.56
463.876	289.56
464.096	276.56
464.316	276.56
464.536	286.56
464.755	268.56
464.975	267.56
465.195	270.56
465.414	243.56
465.634	235.56
465.854	226.56
466.073	234.56
466.293	232.56
466.512	238.56
466.732	229.56
466.951	212.56
467.171	224.56
467.391	227.56
467.61	244.56
467.829	229.56
468.049	230.56
468.268	224.56
468.488	227.56
468.707	242.56
468.927	235.56
469.146	220.56
469.365	231.56
469.585	236.56
469.804	228.56
470.023	223.56
470.243	224.56
470.462	229.56
470.681	241.56
470.901	245.56
471.12	222.56
471.339	231.56
471.558	235.56
471.777	228.56
471.997	227.56
472.216	208.56
472.435	231.56
472.654	216.56
472.873	218.56
473.092	225.56
473.311	222.56
473.53	227.56
473.749	219.56
473.968	219.56
474.187	212.56
474.406	202.56
474.625	228.56
474.844	226.56
475.063	224.56
475.282	220.56
475.501	229.56
475.72	211.56
475.939	217.56
476.158	216.56
476.377	215.56
476.596	222.56
476.814	233.56
477.033	195.56
477.252	222.56
477.471	204.56
477.69	236.56
477.908	248.56
478.127	250.56
478.346	238.56
478.564	262.56
478.783	246.56
479.002	251.56
479.22	238.56
479.439	228.56
479.658	238.56
479.876	262.56
480.095	248.56
480.313	262.56
480.532	266.56
480.751	247.56
480.969	228.56
481.188	253.56
481.406	234.56
481.624	230.56
481.843	212.56
482.061	226.56
482.28	237.56
482.498	237.56
482.717	249.56
482.935	238.56
483.153	222.56
483.372	249.56
483.59	237.56
483.808	234.56
484.027	217.56
484.245	230.56
484.463	228.56
484.681	256.56
484.9	244.56
485.118	243.56
485.336	228.56
485.554	232.56
485.772	225.56
485.99	228.56
486.209	234.56
486.427	256.56
486.645	232.56
486.863	242.56
487.081	258.56
487.299	245.56
487.517	239.56
487.735	244.56
487.953	230.56
488.171	264.56
488.389	247.56
488.607	239.56
488.825	236.56
489.043	233.56
489.261	236.56
489.479	246.56
489.696	266.56
489.914	239.56
490.132	250.56
490.35	250.56
490.568	232.56
490.786	237.56
491.003	262.56
491.221	252.56
491.439	246.56
491.657	260.56
491.874	260.56
492.092	275.56
492.31	252.56
492.527	261.56
492.745	251.56
492.963	269.56
493.18	254.56
493.398	270.56
493.615	256.56
493.833	264.56
494.05	255.56
494.268	255.56
494.485	264.56
494.703	269.56
494.92	274.56
495.138	260.56
495.355	277.56
495.573	266.56
495.79	258.56
496.008	263.56
496.225	270.56
496.442	271.56
496.66	270.56
496.877	276.56
497.094	283.56
497.312	278.56
497.529	270.56
497.746	270.56
497.963	283.56
498.181	280.56
498.398	307.56
498.615	308.56
498.832	315.56
499.049	342.56
499.267	361.56
499.484	388.56
499.701	396.56
499.918	432.56
500.135	483.56
500.352	524.56
500.569	528.56
500.786	506.56
501.003	479.56
501.22	438.56
501.437	440.56
501.654	384.56
501.871	358.56
502.088	321.56
502.305	336.56
502.522	306.56
502.739	307.56
