Data from Fe(NO3)3@0.025M.TitratingCurve.Agarose3%dH2O.NegLispCup.LampEnergy10.LIBS07252019_HRD10591_16-56-47-335.txt Node
Date: Thu Jul 25 16:56:47 EDT 2019
User: cochatt
Spectrometer: HR+D1059
Trigger mode: 1
Integration Time (sec): 1.000000E-1
Scans to average: 1
Electric dark correction enabled: true
Nonlinearity correction enabled: false
Boxcar width: 0
XAxis mode: Wavelengths
Number of Pixels in Spectrum: 2048
>>>>>Begin Spectral Data<<<<<
223.165	-16.56
223.4	-16.56
223.635	-16.56
223.869	-17.56
224.104	-4.56
224.338	-13.56
224.573	-16.56
224.808	-9.56
225.042	2.44
225.277	-10.56
225.511	-4.56
225.746	7.44
225.98	4.44
226.215	14.44
226.449	12.44
226.683	12.44
226.918	24.44
227.152	15.44
227.387	39.44
227.621	35.44
227.856	48.44
228.09	48.44
228.324	57.44
228.559	62.44
228.793	59.44
229.027	69.44
229.262	84.44
229.496	86.44
229.73	79.44
229.964	74.44
230.199	75.44
230.433	71.44
230.667	78.44
230.901	87.44
231.136	94.44
231.37	102.44
231.604	110.44
231.838	98.44
232.072	100.44
232.306	91.44
232.541	90.44
232.775	100.44
233.009	99.44
233.243	93.44
233.477	108.44
233.711	101.44
233.945	112.44
234.179	102.44
234.413	104.44
234.647	117.44
234.881	100.44
235.115	122.44
235.349	98.44
235.583	86.44
235.817	94.44
236.051	104.44
236.285	91.44
236.519	98.44
236.753	109.44
236.987	90.44
237.221	97.44
237.455	111.44
237.689	106.44
237.922	101.44
238.156	104.44
238.39	103.44
238.624	103.44
238.858	100.44
239.091	110.44
239.325	97.44
239.559	95.44
239.793	93.44
240.027	106.44
240.26	107.44
240.494	104.44
240.728	94.44
240.961	98.44
241.195	122.44
241.429	110.44
241.662	114.44
241.896	109.44
242.13	91.44
242.363	108.44
242.597	105.44
242.83	97.44
243.064	119.44
243.298	107.44
243.531	114.44
243.765	126.44
243.998	115.44
244.232	122.44
244.465	109.44
244.699	118.44
244.932	114.44
245.166	115.44
245.399	104.44
245.633	114.44
245.866	112.44
246.099	99.44
246.333	125.44
246.566	115.44
246.8	131.44
247.033	112.44
247.266	118.44
247.5	122.44
247.733	114.44
247.966	120.44
248.2	133.44
248.433	126.44
248.666	118.44
248.899	133.44
249.133	112.44
249.366	117.44
249.599	108.44
249.832	122.44
250.066	131.44
250.299	112.44
250.532	117.44
250.765	114.44
250.998	114.44
251.231	125.44
251.465	106.44
251.698	128.44
251.931	127.44
252.164	127.44
252.397	116.44
252.63	129.44
252.863	143.44
253.096	133.44
253.329	114.44
253.562	132.44
253.795	138.44
254.028	131.44
254.261	130.44
254.494	121.44
254.727	149.44
254.96	140.44
255.193	130.44
255.426	116.44
255.659	135.44
255.892	139.44
256.124	143.44
256.357	134.44
256.59	134.44
256.823	148.44
257.056	144.44
257.289	149.44
257.521	130.44
257.754	134.44
257.987	136.44
258.22	138.44
258.452	134.44
258.685	138.44
258.918	131.44
259.151	126.44
259.383	152.44
259.616	151.44
259.849	143.44
260.081	151.44
260.314	150.44
260.547	130.44
260.779	150.44
261.012	156.44
261.244	139.44
261.477	148.44
261.71	154.44
261.942	153.44
262.175	148.44
262.407	143.44
262.64	168.44
262.872	143.44
263.105	146.44
263.337	143.44
263.57	152.44
263.802	154.44
264.035	154.44
264.267	143.44
264.499	157.44
264.732	172.44
264.964	153.44
265.197	155.44
265.429	159.44
265.661	156.44
265.894	171.44
266.126	152.44
266.358	167.44
266.591	157.44
266.823	148.44
267.055	167.44
267.287	171.44
267.52	151.44
267.752	152.44
267.984	160.44
268.216	166.44
268.448	175.44
268.681	166.44
268.913	157.44
269.145	159.44
269.377	165.44
269.609	167.44
269.841	171.44
270.073	171.44
270.306	164.44
270.538	161.44
270.77	154.44
271.002	162.44
271.234	175.44
271.466	158.44
271.698	168.44
271.93	160.44
272.162	172.44
272.394	160.44
272.626	170.44
272.858	174.44
273.09	171.44
273.322	179.44
273.553	171.44
273.785	174.44
274.017	168.44
274.249	168.44
274.481	180.44
274.713	171.44
274.945	172.44
275.176	180.44
275.408	172.44
275.64	175.44
275.872	162.44
276.104	182.44
276.335	195.44
276.567	169.44
276.799	178.44
277.031	187.44
277.262	171.44
277.494	191.44
277.726	182.44
277.957	194.44
278.189	194.44
278.421	181.44
278.652	200.44
278.884	198.44
279.115	199.44
279.347	199.44
279.579	187.44
279.81	192.44
280.042	186.44
280.273	188.44
280.505	195.44
280.736	200.44
280.968	181.44
281.199	189.44
281.431	195.44
281.662	181.44
281.894	201.44
282.125	182.44
282.356	196.44
282.588	204.44
282.819	181.44
283.051	200.44
283.282	204.44
283.513	209.44
283.745	182.44
283.976	200.44
284.207	194.44
284.439	208.44
284.67	197.44
284.901	194.44
285.132	213.44
285.364	212.44
285.595	204.44
285.826	172.44
286.057	202.44
286.288	208.44
286.52	196.44
286.751	223.44
286.982	212.44
287.213	211.44
287.444	222.44
287.675	202.44
287.906	201.44
288.138	222.44
288.369	194.44
288.6	212.44
288.831	198.44
289.062	213.44
289.293	210.44
289.524	223.44
289.755	204.44
289.986	206.44
290.217	215.44
290.448	206.44
290.679	199.44
290.91	213.44
291.141	216.44
291.371	216.44
291.602	204.44
291.833	220.44
292.064	207.44
292.295	217.44
292.526	228.44
292.757	207.44
292.987	218.44
293.218	216.44
293.449	225.44
293.68	230.44
293.91	218.44
294.141	229.44
294.372	215.44
294.603	212.44
294.833	238.44
295.064	218.44
295.295	219.44
295.525	220.44
295.756	212.44
295.987	227.44
296.217	219.44
296.448	230.44
296.679	221.44
296.909	223.44
297.14	232.44
297.37	222.44
297.601	222.44
297.831	234.44
298.062	231.44
298.292	221.44
298.523	244.44
298.753	231.44
298.984	220.44
299.214	227.44
299.445	219.44
299.675	227.44
299.905	223.44
300.136	232.44
300.366	240.44
300.597	240.44
300.827	229.44
301.057	232.44
301.288	238.44
301.518	255.44
301.748	243.44
301.979	248.44
302.209	251.44
302.439	241.44
302.669	239.44
302.9	222.44
303.13	251.44
303.36	247.44
303.59	236.44
303.82	242.44
304.051	244.44
304.281	259.44
304.511	240.44
304.741	237.44
304.971	231.44
305.201	245.44
305.431	242.44
305.661	240.44
305.891	234.44
306.121	250.44
306.352	247.44
306.582	228.44
306.812	247.44
307.042	258.44
307.272	249.44
307.502	234.44
307.731	262.44
307.961	252.44
308.191	254.44
308.421	234.44
308.651	239.44
308.881	267.44
309.111	269.44
309.341	243.44
309.571	264.44
309.8	262.44
310.03	251.44
310.26	248.44
310.49	252.44
310.72	238.44
310.949	251.44
311.179	254.44
311.409	264.44
311.639	251.44
311.868	250.44
312.098	259.44
312.328	260.44
312.557	259.44
312.787	278.44
313.017	259.44
313.246	265.44
313.476	277.44
313.706	257.44
313.935	260.44
314.165	258.44
314.394	259.44
314.624	275.44
314.853	270.44
315.083	270.44
315.312	266.44
315.542	269.44
315.771	278.44
316.001	287.44
316.23	255.44
316.46	263.44
316.689	282.44
316.919	286.44
317.148	267.44
317.377	266.44
317.607	270.44
317.836	270.44
318.065	263.44
318.295	267.44
318.524	277.44
318.753	263.44
318.983	271.44
319.212	269.44
319.441	282.44
319.67	280.44
319.9	267.44
320.129	277.44
320.358	275.44
320.587	269.44
320.816	269.44
321.046	272.44
321.275	263.44
321.504	275.44
321.733	276.44
321.962	269.44
322.191	264.44
322.42	284.44
322.649	276.44
322.878	262.44
323.108	289.44
323.337	287.44
323.566	295.44
323.795	284.44
324.024	292.44
324.253	267.44
324.482	276.44
324.71	283.44
324.939	309.44
325.168	298.44
325.397	294.44
325.626	292.44
325.855	290.44
326.084	291.44
326.313	278.44
326.542	310.44
326.77	290.44
326.999	302.44
327.228	288.44
327.457	309.44
327.686	295.44
327.914	287.44
328.143	296.44
328.372	284.44
328.6	294.44
328.829	287.44
329.058	306.44
329.287	298.44
329.515	293.44
329.744	302.44
329.972	297.44
330.201	276.44
330.43	299.44
330.658	303.44
330.887	315.44
331.115	314.44
331.344	310.44
331.572	325.44
331.801	315.44
332.03	319.44
332.258	326.44
332.486	314.44
332.715	342.44
332.943	330.44
333.172	339.44
333.4	335.44
333.629	327.44
333.857	349.44
334.085	336.44
334.314	352.44
334.542	339.44
334.771	345.44
334.999	347.44
335.227	348.44
335.455	350.44
335.684	333.44
335.912	333.44
336.14	340.44
336.369	342.44
336.597	352.44
336.825	335.44
337.053	320.44
337.281	334.44
337.51	326.44
337.738	348.44
337.966	336.44
338.194	306.44
338.422	306.44
338.65	331.44
338.878	312.44
339.106	325.44
339.334	328.44
339.562	333.44
339.79	304.44
340.018	299.44
340.246	311.44
340.474	306.44
340.702	328.44
340.93	310.44
341.158	308.44
341.386	312.44
341.614	328.44
341.842	317.44
342.07	298.44
342.298	299.44
342.526	298.44
342.754	308.44
342.981	335.44
343.209	322.44
343.437	338.44
343.665	339.44
343.893	350.44
344.12	351.44
344.348	335.44
344.576	334.44
344.804	314.44
345.031	326.44
345.259	308.44
345.487	306.44
345.714	313.44
345.942	309.44
346.17	312.44
346.397	335.44
346.625	311.44
346.853	303.44
347.08	310.44
347.308	294.44
347.535	310.44
347.763	307.44
347.99	301.44
348.218	318.44
348.445	308.44
348.673	280.44
348.9	302.44
349.128	303.44
349.355	321.44
349.583	308.44
349.81	294.44
350.037	309.44
350.265	314.44
350.492	301.44
350.72	298.44
350.947	295.44
351.174	316.44
351.402	310.44
351.629	297.44
351.856	300.44
352.083	302.44
352.311	292.44
352.538	293.44
352.765	294.44
352.992	320.44
353.22	302.44
353.447	296.44
353.674	301.44
353.901	290.44
354.128	316.44
354.355	299.44
354.583	308.44
354.81	308.44
355.037	300.44
355.264	298.44
355.491	291.44
355.718	278.44
355.945	301.44
356.172	306.44
356.399	308.44
356.626	297.44
356.853	282.44
357.08	299.44
357.307	302.44
357.534	295.44
357.761	303.44
357.988	302.44
358.215	295.44
358.441	295.44
358.668	314.44
358.895	317.44
359.122	326.44
359.349	303.44
359.576	308.44
359.802	295.44
360.029	295.44
360.256	296.44
360.483	275.44
360.709	295.44
360.936	326.44
361.163	319.44
361.39	306.44
361.616	311.44
361.843	298.44
362.07	298.44
362.296	312.44
362.523	318.44
362.749	309.44
362.976	327.44
363.203	314.44
363.429	308.44
363.656	317.44
363.882	321.44
364.109	296.44
364.335	302.44
364.562	310.44
364.788	295.44
365.015	303.44
365.241	298.44
365.468	310.44
365.694	311.44
365.92	325.44
366.147	313.44
366.373	315.44
366.599	306.44
366.826	316.44
367.052	301.44
367.278	314.44
367.505	296.44
367.731	313.44
367.957	328.44
368.184	315.44
368.41	310.44
368.636	314.44
368.862	312.44
369.089	320.44
369.315	332.44
369.541	312.44
369.767	322.44
369.993	313.44
370.219	298.44
370.445	319.44
370.672	322.44
370.898	329.44
371.124	313.44
371.35	332.44
371.576	328.44
371.802	348.44
372.028	336.44
372.254	341.44
372.48	335.44
372.706	332.44
372.932	330.44
373.158	346.44
373.384	332.44
373.61	328.44
373.835	321.44
374.061	344.44
374.287	331.44
374.513	334.44
374.739	340.44
374.965	315.44
375.191	362.44
375.416	324.44
375.642	339.44
375.868	360.44
376.094	340.44
376.319	326.44
376.545	327.44
376.771	334.44
376.997	336.44
377.222	325.44
377.448	312.44
377.674	322.44
377.899	331.44
378.125	330.44
378.35	329.44
378.576	299.44
378.802	328.44
379.027	318.44
379.253	337.44
379.478	342.44
379.704	345.44
379.929	330.44
380.155	319.44
380.38	340.44
380.606	328.44
380.831	321.44
381.057	343.44
381.282	324.44
381.507	330.44
381.733	339.44
381.958	346.44
382.184	350.44
382.409	338.44
382.634	341.44
382.86	352.44
383.085	341.44
383.31	340.44
383.535	336.44
383.761	353.44
383.986	344.44
384.211	353.44
384.436	355.44
384.662	364.44
384.887	352.44
385.112	369.44
385.337	359.44
385.562	366.44
385.787	386.44
386.013	383.44
386.238	390.44
386.463	384.44
386.688	384.44
386.913	379.44
387.138	375.44
387.363	379.44
387.588	380.44
387.813	391.44
388.038	384.44
388.263	358.44
388.488	362.44
388.713	356.44
388.938	379.44
389.163	367.44
389.387	370.44
389.612	374.44
389.837	379.44
390.062	376.44
390.287	380.44
390.512	387.44
390.736	378.44
390.961	384.44
391.186	381.44
391.411	389.44
391.636	413.44
391.86	392.44
392.085	394.44
392.31	406.44
392.534	412.44
392.759	406.44
392.984	396.44
393.208	396.44
393.433	413.44
393.658	390.44
393.882	409.44
394.107	411.44
394.331	414.44
394.556	400.44
394.78	397.44
395.005	414.44
395.229	400.44
395.454	404.44
395.678	412.44
395.903	395.44
396.127	420.44
396.352	424.44
396.576	395.44
396.801	410.44
397.025	427.44
397.249	434.44
397.474	428.44
397.698	428.44
397.922	427.44
398.147	439.44
398.371	446.44
398.595	444.44
398.82	432.44
399.044	485.44
399.268	494.44
399.492	547.44
399.717	557.44
399.941	549.44
400.165	531.44
400.389	489.44
400.613	482.44
400.837	472.44
401.062	467.44
401.286	459.44
401.51	462.44
401.734	455.44
401.958	468.44
402.182	453.44
402.406	444.44
402.63	446.44
402.854	456.44
403.078	469.44
403.302	458.44
403.526	478.44
403.75	456.44
403.974	452.44
404.198	473.44
404.422	486.44
404.645	488.44
404.869	461.44
405.093	465.44
405.317	453.44
405.541	465.44
405.765	450.44
405.988	481.44
406.212	467.44
406.436	480.44
406.66	492.44
406.883	488.44
407.107	512.44
407.331	500.44
407.555	518.44
407.778	528.44
408.002	523.44
408.226	507.44
408.449	505.44
408.673	508.44
408.896	482.44
409.12	501.44
409.344	485.44
409.567	475.44
409.791	491.44
410.014	480.44
410.238	471.44
410.461	472.44
410.685	474.44
410.908	486.44
411.132	468.44
411.355	456.44
411.578	458.44
411.802	471.44
412.025	468.44
412.249	471.44
412.472	446.44
412.695	451.44
412.919	453.44
413.142	456.44
413.365	471.44
413.589	443.44
413.812	441.44
414.035	453.44
414.258	457.44
414.482	450.44
414.705	463.44
414.928	450.44
415.151	454.44
415.374	436.44
415.597	455.44
415.821	445.44
416.044	444.44
416.267	430.44
416.49	444.44
416.713	419.44
416.936	452.44
417.159	422.44
417.382	420.44
417.605	408.44
417.828	434.44
418.051	442.44
418.274	441.44
418.497	436.44
418.72	430.44
418.943	440.44
419.166	454.44
419.389	459.44
419.611	458.44
419.834	447.44
420.057	435.44
420.28	429.44
420.503	428.44
420.726	426.44
420.948	434.44
421.171	422.44
421.394	440.44
421.617	436.44
421.839	430.44
422.062	436.44
422.285	427.44
422.507	406.44
422.73	421.44
422.953	429.44
423.175	424.44
423.398	414.44
423.621	431.44
423.843	427.44
424.066	427.44
424.288	419.44
424.511	395.44
424.733	435.44
424.956	431.44
425.178	451.44
425.401	430.44
425.623	446.44
425.846	421.44
426.068	434.44
426.291	414.44
426.513	422.44
426.735	420.44
426.958	440.44
427.18	424.44
427.402	407.44
427.625	390.44
427.847	398.44
428.069	406.44
428.292	416.44
428.514	396.44
428.736	397.44
428.958	393.44
429.181	398.44
429.403	403.44
429.625	384.44
429.847	401.44
430.069	422.44
430.292	396.44
430.514	380.44
430.736	401.44
430.958	390.44
431.18	388.44
431.402	422.44
431.624	423.44
431.846	415.44
432.068	397.44
432.29	392.44
432.512	394.44
432.734	405.44
432.956	404.44
433.178	393.44
433.4	395.44
433.622	381.44
433.844	389.44
434.066	418.44
434.287	415.44
434.509	408.44
434.731	420.44
434.953	425.44
435.175	426.44
435.397	425.44
435.618	415.44
435.84	398.44
436.062	411.44
436.284	404.44
436.505	394.44
436.727	386.44
436.949	391.44
437.17	392.44
437.392	388.44
437.614	389.44
437.835	378.44
438.057	381.44
438.278	376.44
438.5	379.44
438.721	378.44
438.943	387.44
439.165	382.44
439.386	372.44
439.608	377.44
439.829	375.44
440.05	390.44
440.272	383.44
440.493	375.44
440.715	398.44
440.936	399.44
441.158	404.44
441.379	407.44
441.6	407.44
441.822	406.44
442.043	409.44
442.264	412.44
442.486	405.44
442.707	403.44
442.928	418.44
443.149	400.44
443.371	404.44
443.592	410.44
443.813	416.44
444.034	436.44
444.255	416.44
444.476	418.44
444.698	445.44
444.919	443.44
445.14	517.44
445.361	490.44
445.582	431.44
445.803	408.44
446.024	374.44
446.245	404.44
446.466	404.44
446.687	405.44
446.908	378.44
447.129	390.44
447.35	374.44
447.571	381.44
447.792	371.44
448.013	364.44
448.234	380.44
448.455	344.44
448.675	378.44
448.896	365.44
449.117	365.44
449.338	358.44
449.559	349.44
449.779	360.44
450	340.44
450.221	364.44
450.442	378.44
450.662	375.44
450.883	370.44
451.104	352.44
451.324	355.44
451.545	348.44
451.766	358.44
451.986	350.44
452.207	356.44
452.428	357.44
452.648	351.44
452.869	340.44
453.089	343.44
453.31	366.44
453.53	355.44
453.751	361.44
453.971	337.44
454.192	349.44
454.412	351.44
454.633	363.44
454.853	358.44
455.073	339.44
455.294	348.44
455.514	352.44
455.734	350.44
455.955	325.44
456.175	355.44
456.395	358.44
456.616	359.44
456.836	376.44
457.056	352.44
457.276	345.44
457.497	341.44
457.717	344.44
457.937	362.44
458.157	363.44
458.377	364.44
458.598	344.44
458.818	364.44
459.038	372.44
459.258	376.44
459.478	396.44
459.698	388.44
459.918	405.44
460.138	395.44
460.358	437.44
460.578	421.44
460.798	437.44
461.018	424.44
461.238	430.44
461.458	442.44
461.678	439.44
461.898	461.44
462.118	450.44
462.338	458.44
462.558	453.44
462.777	480.44
462.997	494.44
463.217	503.44
463.437	513.44
463.657	508.44
463.876	468.44
464.096	462.44
464.316	476.44
464.536	459.44
464.755	466.44
464.975	440.44
465.195	423.44
465.414	413.44
465.634	398.44
465.854	406.44
466.073	406.44
466.293	401.44
466.512	384.44
466.732	398.44
466.951	401.44
467.171	386.44
467.391	370.44
467.61	388.44
467.829	357.44
468.049	351.44
468.268	346.44
468.488	372.44
468.707	359.44
468.927	358.44
469.146	367.44
469.365	372.44
469.585	378.44
469.804	379.44
470.023	386.44
470.243	378.44
470.462	388.44
470.681	406.44
470.901	390.44
471.12	378.44
471.339	373.44
471.558	376.44
471.777	373.44
471.997	388.44
472.216	375.44
472.435	390.44
472.654	359.44
472.873	374.44
473.092	385.44
473.311	388.44
473.53	366.44
473.749	374.44
473.968	353.44
474.187	396.44
474.406	385.44
474.625	400.44
474.844	373.44
475.063	369.44
475.282	364.44
475.501	355.44
475.72	380.44
475.939	384.44
476.158	375.44
476.377	398.44
476.596	394.44
476.814	403.44
477.033	391.44
477.252	424.44
477.471	408.44
477.69	431.44
477.908	406.44
478.127	436.44
478.346	419.44
478.564	429.44
478.783	439.44
479.002	438.44
479.22	447.44
479.439	447.44
479.658	422.44
479.876	450.44
480.095	458.44
480.313	452.44
480.532	458.44
480.751	460.44
480.969	458.44
481.188	446.44
481.406	430.44
481.624	431.44
481.843	429.44
482.061	420.44
482.28	427.44
482.498	430.44
482.717	447.44
482.935	443.44
483.153	419.44
483.372	422.44
483.59	451.44
483.808	436.44
484.027	452.44
484.245	445.44
484.463	440.44
484.681	458.44
484.9	452.44
485.118	464.44
485.336	429.44
485.554	436.44
485.772	462.44
485.99	440.44
486.209	445.44
486.427	454.44
486.645	447.44
486.863	457.44
487.081	466.44
487.299	453.44
487.517	450.44
487.735	456.44
487.953	449.44
488.171	452.44
488.389	450.44
488.607	459.44
488.825	459.44
489.043	456.44
489.261	441.44
489.479	448.44
489.696	448.44
489.914	440.44
490.132	442.44
490.35	471.44
490.568	457.44
490.786	475.44
491.003	450.44
491.221	455.44
491.439	435.44
491.657	446.44
491.874	440.44
492.092	443.44
492.31	456.44
492.527	438.44
492.745	470.44
492.963	450.44
493.18	439.44
493.398	450.44
493.615	457.44
493.833	460.44
494.05	468.44
494.268	464.44
494.485	467.44
494.703	489.44
494.92	471.44
495.138	461.44
495.355	461.44
495.573	498.44
495.79	480.44
496.008	467.44
496.225	482.44
496.442	483.44
496.66	488.44
496.877	502.44
497.094	502.44
497.312	502.44
497.529	517.44
497.746	528.44
497.963	529.44
498.181	544.44
498.398	577.44
498.615	608.44
498.832	637.44
499.049	636.44
499.267	674.44
499.484	705.44
499.701	770.44
499.918	810.44
500.135	872.44
500.352	896.44
500.569	923.44
500.786	909.44
501.003	848.44
501.22	842.44
501.437	806.44
501.654	726.44
501.871	685.44
502.088	633.44
