Data from Fe(NO3)3@0.1M.TitratingCurve.Agarose3%dH2O.NegLispCup.LampEnergy10.LIBS07252019_HRD10591_16-41-08-333.txt Node
Date: Thu Jul 25 16:41:08 EDT 2019
User: cochatt
Spectrometer: HR+D1059
Trigger mode: 1
Integration Time (sec): 1.000000E-1
Scans to average: 1
Electric dark correction enabled: true
Nonlinearity correction enabled: false
Boxcar width: 0
XAxis mode: Wavelengths
Number of Pixels in Spectrum: 2048
>>>>>Begin Spectral Data<<<<<
223.165	-5.88
223.4	-5.88
223.635	-5.88
223.869	-21.88
224.104	-16.88
224.338	-21.88
224.573	-26.88
224.808	-19.88
225.042	8.12
225.277	-15.88
225.511	1.12
225.746	0.12
225.98	6.12
226.215	20.12
226.449	13.12
226.683	21.12
226.918	32.12
227.152	27.12
227.387	42.12
227.621	35.12
227.856	33.12
228.09	43.12
228.324	54.12
228.559	51.12
228.793	59.12
229.027	83.12
229.262	85.12
229.496	74.12
229.73	81.12
229.964	85.12
230.199	99.12
230.433	89.12
230.667	99.12
230.901	96.12
231.136	99.12
231.37	114.12
231.604	109.12
231.838	101.12
232.072	106.12
232.306	103.12
232.541	96.12
232.775	108.12
233.009	115.12
233.243	111.12
233.477	111.12
233.711	115.12
233.945	106.12
234.179	117.12
234.413	109.12
234.647	104.12
234.881	97.12
235.115	96.12
235.349	112.12
235.583	108.12
235.817	107.12
236.051	113.12
236.285	89.12
236.519	119.12
236.753	95.12
236.987	113.12
237.221	105.12
237.455	114.12
237.689	113.12
237.922	123.12
238.156	112.12
238.39	112.12
238.624	100.12
238.858	114.12
239.091	106.12
239.325	117.12
239.559	109.12
239.793	111.12
240.027	121.12
240.26	114.12
240.494	101.12
240.728	98.12
240.961	109.12
241.195	114.12
241.429	113.12
241.662	127.12
241.896	113.12
242.13	120.12
242.363	122.12
242.597	121.12
242.83	122.12
243.064	119.12
243.298	125.12
243.531	140.12
243.765	117.12
243.998	115.12
244.232	137.12
244.465	129.12
244.699	119.12
244.932	137.12
245.166	124.12
245.399	123.12
245.633	121.12
245.866	143.12
246.099	119.12
246.333	123.12
246.566	132.12
246.8	117.12
247.033	121.12
247.266	126.12
247.5	131.12
247.733	132.12
247.966	125.12
248.2	135.12
248.433	152.12
248.666	134.12
248.899	139.12
249.133	136.12
249.366	136.12
249.599	134.12
249.832	131.12
250.066	141.12
250.299	144.12
250.532	148.12
250.765	143.12
250.998	153.12
251.231	138.12
251.465	139.12
251.698	157.12
251.931	154.12
252.164	147.12
252.397	145.12
252.63	147.12
252.863	154.12
253.096	143.12
253.329	148.12
253.562	149.12
253.795	162.12
254.028	150.12
254.261	150.12
254.494	154.12
254.727	155.12
254.96	148.12
255.193	124.12
255.426	154.12
255.659	135.12
255.892	138.12
256.124	152.12
256.357	150.12
256.59	164.12
256.823	157.12
257.056	150.12
257.289	153.12
257.521	152.12
257.754	145.12
257.987	142.12
258.22	165.12
258.452	162.12
258.685	153.12
258.918	151.12
259.151	144.12
259.383	165.12
259.616	158.12
259.849	175.12
260.081	163.12
260.314	169.12
260.547	165.12
260.779	168.12
261.012	167.12
261.244	166.12
261.477	163.12
261.71	163.12
261.942	157.12
262.175	170.12
262.407	164.12
262.64	179.12
262.872	151.12
263.105	164.12
263.337	168.12
263.57	169.12
263.802	176.12
264.035	155.12
264.267	171.12
264.499	177.12
264.732	186.12
264.964	196.12
265.197	164.12
265.429	183.12
265.661	157.12
265.894	172.12
266.126	166.12
266.358	177.12
266.591	181.12
266.823	162.12
267.055	179.12
267.287	178.12
267.52	181.12
267.752	192.12
267.984	159.12
268.216	179.12
268.448	177.12
268.681	189.12
268.913	187.12
269.145	175.12
269.377	169.12
269.609	177.12
269.841	180.12
270.073	191.12
270.306	174.12
270.538	174.12
270.77	165.12
271.002	169.12
271.234	184.12
271.466	196.12
271.698	203.12
271.93	180.12
272.162	185.12
272.394	188.12
272.626	191.12
272.858	201.12
273.09	200.12
273.322	193.12
273.553	199.12
273.785	207.12
274.017	186.12
274.249	205.12
274.481	203.12
274.713	199.12
274.945	199.12
275.176	210.12
275.408	196.12
275.64	225.12
275.872	196.12
276.104	200.12
276.335	198.12
276.567	208.12
276.799	193.12
277.031	185.12
277.262	219.12
277.494	213.12
277.726	212.12
277.957	207.12
278.189	205.12
278.421	212.12
278.652	196.12
278.884	210.12
279.115	189.12
279.347	200.12
279.579	225.12
279.81	208.12
280.042	209.12
280.273	217.12
280.505	216.12
280.736	212.12
280.968	215.12
281.199	205.12
281.431	211.12
281.662	210.12
281.894	217.12
282.125	217.12
282.356	228.12
282.588	236.12
282.819	220.12
283.051	230.12
283.282	219.12
283.513	229.12
283.745	246.12
283.976	232.12
284.207	228.12
284.439	237.12
284.67	233.12
284.901	225.12
285.132	234.12
285.364	234.12
285.595	232.12
285.826	230.12
286.057	220.12
286.288	243.12
286.52	258.12
286.751	252.12
286.982	239.12
287.213	222.12
287.444	229.12
287.675	225.12
287.906	220.12
288.138	227.12
288.369	233.12
288.6	236.12
288.831	235.12
289.062	236.12
289.293	242.12
289.524	245.12
289.755	232.12
289.986	226.12
290.217	229.12
290.448	235.12
290.679	243.12
290.91	248.12
291.141	257.12
291.371	245.12
291.602	248.12
291.833	243.12
292.064	263.12
292.295	241.12
292.526	251.12
292.757	241.12
292.987	256.12
293.218	243.12
293.449	256.12
293.68	266.12
293.91	239.12
294.141	260.12
294.372	243.12
294.603	241.12
294.833	234.12
295.064	242.12
295.295	249.12
295.525	255.12
295.756	267.12
295.987	244.12
296.217	250.12
296.448	266.12
296.679	265.12
296.909	255.12
297.14	259.12
297.37	269.12
297.601	269.12
297.831	253.12
298.062	273.12
298.292	262.12
298.523	288.12
298.753	268.12
298.984	265.12
299.214	261.12
299.445	261.12
299.675	264.12
299.905	259.12
300.136	275.12
300.366	280.12
300.597	280.12
300.827	281.12
301.057	274.12
301.288	274.12
301.518	284.12
301.748	290.12
301.979	287.12
302.209	275.12
302.439	264.12
302.669	277.12
302.9	283.12
303.13	271.12
303.36	280.12
303.59	283.12
303.82	276.12
304.051	285.12
304.281	273.12
304.511	293.12
304.741	288.12
304.971	276.12
305.201	274.12
305.431	274.12
305.661	301.12
305.891	279.12
306.121	283.12
306.352	274.12
306.582	284.12
306.812	267.12
307.042	273.12
307.272	283.12
307.502	277.12
307.731	311.12
307.961	294.12
308.191	273.12
308.421	260.12
308.651	291.12
308.881	287.12
309.111	306.12
309.341	283.12
309.571	282.12
309.8	274.12
310.03	285.12
310.26	285.12
310.49	271.12
310.72	294.12
310.949	280.12
311.179	289.12
311.409	307.12
311.639	296.12
311.868	295.12
312.098	284.12
312.328	281.12
312.557	311.12
312.787	300.12
313.017	305.12
313.246	299.12
313.476	301.12
313.706	303.12
313.935	313.12
314.165	288.12
314.394	289.12
314.624	306.12
314.853	300.12
315.083	297.12
315.312	304.12
315.542	309.12
315.771	291.12
316.001	314.12
316.23	304.12
316.46	299.12
316.689	308.12
316.919	317.12
317.148	290.12
317.377	319.12
317.607	300.12
317.836	305.12
318.065	293.12
318.295	285.12
318.524	308.12
318.753	297.12
318.983	300.12
319.212	310.12
319.441	309.12
319.67	307.12
319.9	303.12
320.129	301.12
320.358	300.12
320.587	300.12
320.816	316.12
321.046	298.12
321.275	302.12
321.504	298.12
321.733	298.12
321.962	319.12
322.191	315.12
322.42	291.12
322.649	284.12
322.878	302.12
323.108	325.12
323.337	312.12
323.566	306.12
323.795	325.12
324.024	307.12
324.253	305.12
324.482	290.12
324.71	316.12
324.939	301.12
325.168	303.12
325.397	321.12
325.626	306.12
325.855	313.12
326.084	323.12
326.313	308.12
326.542	319.12
326.77	321.12
326.999	315.12
327.228	329.12
327.457	328.12
327.686	323.12
327.914	317.12
328.143	336.12
328.372	339.12
328.6	294.12
328.829	323.12
329.058	316.12
329.287	312.12
329.515	329.12
329.744	333.12
329.972	325.12
330.201	332.12
330.43	346.12
330.658	348.12
330.887	342.12
331.115	344.12
331.344	343.12
331.572	352.12
331.801	360.12
332.03	348.12
332.258	373.12
332.486	364.12
332.715	390.12
332.943	389.12
333.172	389.12
333.4	408.12
333.629	412.12
333.857	404.12
334.085	400.12
334.314	423.12
334.542	406.12
334.771	393.12
334.999	417.12
335.227	391.12
335.455	392.12
335.684	403.12
335.912	413.12
336.14	370.12
336.369	376.12
336.597	391.12
336.825	379.12
337.053	395.12
337.281	380.12
337.51	367.12
337.738	383.12
337.966	363.12
338.194	360.12
338.422	353.12
338.65	359.12
338.878	360.12
339.106	339.12
339.334	352.12
339.562	358.12
339.79	349.12
340.018	353.12
340.246	335.12
340.474	358.12
340.702	361.12
340.93	357.12
341.158	340.12
341.386	334.12
341.614	344.12
341.842	346.12
342.07	349.12
342.298	342.12
342.526	336.12
342.754	338.12
342.981	356.12
343.209	346.12
343.437	358.12
343.665	363.12
343.893	407.12
344.12	401.12
344.348	395.12
344.576	393.12
344.804	347.12
345.031	367.12
345.259	361.12
345.487	345.12
345.714	351.12
345.942	357.12
346.17	351.12
346.397	350.12
346.625	320.12
346.853	333.12
347.08	333.12
347.308	356.12
347.535	332.12
347.763	346.12
347.99	354.12
348.218	331.12
348.445	338.12
348.673	321.12
348.9	330.12
349.128	323.12
349.355	348.12
349.583	336.12
349.81	339.12
350.037	318.12
350.265	328.12
350.492	338.12
350.72	343.12
350.947	332.12
351.174	319.12
351.402	331.12
351.629	333.12
351.856	324.12
352.083	314.12
352.311	331.12
352.538	331.12
352.765	318.12
352.992	315.12
353.22	340.12
353.447	331.12
353.674	323.12
353.901	319.12
354.128	324.12
354.355	313.12
354.583	315.12
354.81	306.12
355.037	344.12
355.264	331.12
355.491	332.12
355.718	335.12
355.945	329.12
356.172	329.12
356.399	346.12
356.626	335.12
356.853	319.12
357.08	337.12
357.307	321.12
357.534	347.12
357.761	333.12
357.988	335.12
358.215	327.12
358.441	335.12
358.668	319.12
358.895	346.12
359.122	341.12
359.349	330.12
359.576	346.12
359.802	346.12
360.029	338.12
360.256	334.12
360.483	325.12
360.709	340.12
360.936	345.12
361.163	321.12
361.39	332.12
361.616	318.12
361.843	344.12
362.07	324.12
362.296	327.12
362.523	339.12
362.749	316.12
362.976	326.12
363.203	324.12
363.429	341.12
363.656	335.12
363.882	321.12
364.109	325.12
364.335	338.12
364.562	316.12
364.788	321.12
365.015	328.12
365.241	325.12
365.468	328.12
365.694	337.12
365.92	343.12
366.147	342.12
366.373	301.12
366.599	332.12
366.826	319.12
367.052	327.12
367.278	331.12
367.505	346.12
367.731	347.12
367.957	330.12
368.184	335.12
368.41	331.12
368.636	347.12
368.862	340.12
369.089	339.12
369.315	348.12
369.541	355.12
369.767	367.12
369.993	359.12
370.219	349.12
370.445	357.12
370.672	361.12
370.898	359.12
371.124	337.12
371.35	374.12
371.576	360.12
371.802	359.12
372.028	352.12
372.254	358.12
372.48	363.12
372.706	355.12
372.932	363.12
373.158	359.12
373.384	362.12
373.61	372.12
373.835	386.12
374.061	359.12
374.287	364.12
374.513	386.12
374.739	385.12
374.965	406.12
375.191	387.12
375.416	389.12
375.642	390.12
375.868	402.12
376.094	361.12
376.319	377.12
376.545	348.12
376.771	365.12
376.997	358.12
377.222	356.12
377.448	353.12
377.674	356.12
377.899	361.12
378.125	369.12
378.35	370.12
378.576	359.12
378.802	355.12
379.027	368.12
379.253	362.12
379.478	367.12
379.704	367.12
379.929	364.12
380.155	371.12
380.38	363.12
380.606	359.12
380.831	377.12
381.057	387.12
381.282	353.12
381.507	352.12
381.733	375.12
381.958	378.12
382.184	379.12
382.409	385.12
382.634	379.12
382.86	369.12
383.085	395.12
383.31	401.12
383.535	375.12
383.761	409.12
383.986	384.12
384.211	410.12
384.436	408.12
384.662	404.12
384.887	411.12
385.112	415.12
385.337	417.12
385.562	431.12
385.787	403.12
386.013	442.12
386.238	431.12
386.463	419.12
386.688	424.12
386.913	416.12
387.138	413.12
387.363	433.12
387.588	415.12
387.813	425.12
388.038	420.12
388.263	405.12
388.488	441.12
388.713	466.12
388.938	419.12
389.163	415.12
389.387	434.12
389.612	427.12
389.837	421.12
390.062	418.12
390.287	422.12
390.512	438.12
390.736	438.12
390.961	412.12
391.186	429.12
391.411	449.12
391.636	448.12
391.86	459.12
392.085	460.12
392.31	468.12
392.534	459.12
392.759	453.12
392.984	465.12
393.208	455.12
393.433	442.12
393.658	439.12
393.882	448.12
394.107	459.12
394.331	447.12
394.556	438.12
394.78	451.12
395.005	457.12
395.229	447.12
395.454	474.12
395.678	482.12
395.903	474.12
396.127	455.12
396.352	454.12
396.576	434.12
396.801	455.12
397.025	479.12
397.249	472.12
397.474	491.12
397.698	483.12
397.922	468.12
398.147	483.12
398.371	483.12
398.595	524.12
398.82	525.12
399.044	563.12
399.268	596.12
399.492	668.12
399.717	706.12
399.941	700.12
400.165	657.12
400.389	595.12
400.613	570.12
400.837	559.12
401.062	541.12
401.286	552.12
401.51	515.12
401.734	534.12
401.958	503.12
402.182	539.12
402.406	549.12
402.63	559.12
402.854	550.12
403.078	543.12
403.302	531.12
403.526	567.12
403.75	571.12
403.974	579.12
404.198	589.12
404.422	579.12
404.645	550.12
404.869	561.12
405.093	563.12
405.317	562.12
405.541	561.12
405.765	575.12
405.988	570.12
406.212	545.12
406.436	559.12
406.66	591.12
406.883	584.12
407.107	607.12
407.331	640.12
407.555	631.12
407.778	650.12
408.002	681.12
408.226	626.12
408.449	611.12
408.673	583.12
408.896	586.12
409.12	593.12
409.344	591.12
409.567	584.12
409.791	618.12
410.014	581.12
410.238	591.12
410.461	589.12
410.685	557.12
410.908	567.12
411.132	575.12
411.355	539.12
411.578	551.12
411.802	577.12
412.025	551.12
412.249	562.12
412.472	563.12
412.695	531.12
412.919	556.12
413.142	535.12
413.365	535.12
413.589	549.12
413.812	528.12
414.035	532.12
414.258	534.12
414.482	521.12
414.705	547.12
414.928	528.12
415.151	535.12
415.374	524.12
415.597	546.12
415.821	500.12
416.044	518.12
416.267	539.12
416.49	509.12
416.713	515.12
416.936	517.12
417.159	533.12
417.382	513.12
417.605	510.12
417.828	525.12
418.051	531.12
418.274	529.12
418.497	532.12
418.72	528.12
418.943	550.12
419.166	568.12
419.389	579.12
419.611	572.12
419.834	539.12
420.057	527.12
420.28	520.12
420.503	504.12
420.726	536.12
420.948	503.12
421.171	520.12
421.394	514.12
421.617	491.12
421.839	533.12
422.062	532.12
422.285	525.12
422.507	529.12
422.73	521.12
422.953	527.12
423.175	538.12
423.398	539.12
423.621	527.12
423.843	566.12
424.066	527.12
424.288	542.12
424.511	557.12
424.733	539.12
424.956	510.12
425.178	531.12
425.401	518.12
425.623	523.12
425.846	521.12
426.068	508.12
426.291	485.12
426.513	491.12
426.735	497.12
426.958	513.12
427.18	495.12
427.402	470.12
427.625	492.12
427.847	482.12
428.069	490.12
428.292	487.12
428.514	478.12
428.736	475.12
428.958	480.12
429.181	489.12
429.403	474.12
429.625	466.12
429.847	486.12
430.069	453.12
430.292	473.12
430.514	469.12
430.736	476.12
430.958	469.12
431.18	464.12
431.402	485.12
431.624	474.12
431.846	473.12
432.068	470.12
432.29	471.12
432.512	468.12
432.734	500.12
432.956	475.12
433.178	485.12
433.4	489.12
433.622	488.12
433.844	498.12
434.066	508.12
434.287	501.12
434.509	512.12
434.731	492.12
434.953	533.12
435.175	517.12
435.397	524.12
435.618	499.12
435.84	469.12
436.062	489.12
436.284	483.12
436.505	475.12
436.727	477.12
436.949	501.12
437.17	488.12
437.392	468.12
437.614	466.12
437.835	445.12
438.057	461.12
438.278	457.12
438.5	453.12
438.721	467.12
438.943	473.12
439.165	471.12
439.386	483.12
439.608	473.12
439.829	498.12
440.05	472.12
440.272	482.12
440.493	487.12
440.715	514.12
440.936	519.12
441.158	488.12
441.379	513.12
441.6	543.12
441.822	518.12
442.043	544.12
442.264	534.12
442.486	514.12
442.707	521.12
442.928	503.12
443.149	524.12
443.371	544.12
443.592	524.12
443.813	539.12
444.034	538.12
444.255	583.12
444.476	576.12
444.698	605.12
444.919	610.12
445.14	680.12
445.361	612.12
445.582	565.12
445.803	527.12
446.024	527.12
446.245	515.12
446.466	515.12
446.687	488.12
446.908	480.12
447.129	481.12
447.35	490.12
447.571	457.12
447.792	458.12
448.013	471.12
448.234	466.12
448.455	466.12
448.675	472.12
448.896	460.12
449.117	438.12
449.338	443.12
449.559	458.12
449.779	447.12
450	435.12
450.221	437.12
450.442	442.12
450.662	453.12
450.883	484.12
451.104	465.12
451.324	462.12
451.545	466.12
451.766	433.12
451.986	454.12
452.207	456.12
452.428	461.12
452.648	457.12
452.869	418.12
453.089	425.12
453.31	441.12
453.53	425.12
453.751	423.12
453.971	431.12
454.192	437.12
454.412	433.12
454.633	413.12
454.853	445.12
455.073	436.12
455.294	416.12
455.514	436.12
455.734	402.12
455.955	421.12
456.175	429.12
456.395	431.12
456.616	415.12
456.836	429.12
457.056	397.12
457.276	411.12
457.497	440.12
457.717	421.12
457.937	433.12
458.157	421.12
458.377	434.12
458.598	437.12
458.818	467.12
459.038	463.12
459.258	478.12
459.478	483.12
459.698	487.12
459.918	515.12
460.138	515.12
460.358	550.12
460.578	529.12
460.798	557.12
461.018	550.12
461.238	566.12
461.458	559.12
461.678	520.12
461.898	553.12
462.118	557.12
462.338	587.12
462.558	596.12
462.777	603.12
462.997	653.12
463.217	672.12
463.437	677.12
463.657	619.12
463.876	629.12
464.096	616.12
464.316	600.12
464.536	615.12
464.755	608.12
464.975	563.12
465.195	570.12
465.414	548.12
465.634	488.12
465.854	483.12
466.073	507.12
466.293	490.12
466.512	486.12
466.732	471.12
466.951	483.12
467.171	462.12
467.391	484.12
467.61	448.12
467.829	486.12
468.049	470.12
468.268	444.12
468.488	442.12
468.707	473.12
468.927	427.12
469.146	458.12
469.365	453.12
469.585	455.12
469.804	462.12
470.023	464.12
470.243	468.12
470.462	484.12
470.681	507.12
470.901	503.12
471.12	479.12
471.339	461.12
471.558	442.12
471.777	465.12
471.997	455.12
472.216	441.12
472.435	444.12
472.654	424.12
472.873	448.12
473.092	440.12
473.311	442.12
473.53	446.12
473.749	445.12
473.968	463.12
474.187	439.12
474.406	427.12
474.625	449.12
474.844	433.12
475.063	424.12
475.282	455.12
475.501	424.12
475.72	461.12
475.939	454.12
476.158	456.12
476.377	470.12
476.596	440.12
476.814	458.12
477.033	434.12
477.252	476.12
477.471	478.12
477.69	487.12
477.908	529.12
478.127	506.12
478.346	503.12
478.564	511.12
478.783	508.12
479.002	535.12
479.22	531.12
479.439	538.12
479.658	520.12
479.876	525.12
480.095	532.12
480.313	556.12
480.532	545.12
480.751	520.12
480.969	505.12
481.188	531.12
481.406	513.12
481.624	488.12
481.843	500.12
482.061	495.12
482.28	500.12
482.498	487.12
482.717	488.12
482.935	475.12
483.153	475.12
483.372	476.12
483.59	475.12
483.808	480.12
484.027	477.12
484.245	484.12
484.463	499.12
484.681	495.12
484.9	498.12
485.118	515.12
485.336	498.12
485.554	508.12
485.772	521.12
485.99	497.12
486.209	488.12
486.427	513.12
486.645	524.12
486.863	504.12
487.081	489.12
487.299	511.12
487.517	527.12
487.735	491.12
487.953	479.12
488.171	522.12
488.389	537.12
488.607	493.12
488.825	479.12
489.043	499.12
489.261	517.12
489.479	510.12
489.696	503.12
489.914	500.12
490.132	515.12
490.35	498.12
490.568	500.12
490.786	508.12
491.003	513.12
491.221	533.12
491.439	525.12
491.657	522.12
491.874	551.12
492.092	528.12
492.31	543.12
492.527	541.12
492.745	521.12
492.963	519.12
493.18	550.12
493.398	533.12
493.615	533.12
493.833	508.12
494.05	534.12
494.268	541.12
494.485	551.12
494.703	519.12
494.92	552.12
495.138	547.12
495.355	555.12
495.573	528.12
495.79	529.12
496.008	539.12
496.225	551.12
496.442	550.12
496.66	593.12
496.877	590.12
497.094	591.12
497.312	590.12
497.529	601.12
497.746	620.12
497.963	600.12
498.181	631.12
498.398	669.12
498.615	675.12
498.832	736.12
499.049	775.12
499.267	837.12
499.484	898.12
499.701	963.12
499.918	1049.12
500.135	1176.12
500.352	1248.12
500.569	1307.12
500.786	1285.12
501.003	1240.12
501.22	1139.12
501.437	999.12
501.654	925.12
