Data from Fe(NO3)3@0.025M.TitratingCurve.Agarose3%dH2O.NegLispCup.LampEnergy10.LIBS07252019_HRD10591_16-56-14-335.txt Node
Date: Thu Jul 25 16:56:14 EDT 2019
User: cochatt
Spectrometer: HR+D1059
Trigger mode: 1
Integration Time (sec): 1.000000E-1
Scans to average: 1
Electric dark correction enabled: true
Nonlinearity correction enabled: false
Boxcar width: 0
XAxis mode: Wavelengths
Number of Pixels in Spectrum: 2048
>>>>>Begin Spectral Data<<<<<
223.165	-16.81
223.4	-16.81
223.635	-16.81
223.869	-9.81
224.104	-13.81
224.338	-18.81
224.573	-17.81
224.808	-7.81
225.042	-5.81
225.277	-4.81
225.511	-4.81
225.746	7.19
225.98	-19.81
226.215	9.19
226.449	15.19
226.683	20.19
226.918	32.19
227.152	36.19
227.387	40.19
227.621	35.19
227.856	37.19
228.09	46.19
228.324	39.19
228.559	54.19
228.793	49.19
229.027	84.19
229.262	73.19
229.496	74.19
229.73	79.19
229.964	91.19
230.199	87.19
230.433	92.19
230.667	73.19
230.901	80.19
231.136	92.19
231.37	80.19
231.604	93.19
231.838	86.19
232.072	95.19
232.306	101.19
232.541	88.19
232.775	97.19
233.009	91.19
233.243	104.19
233.477	96.19
233.711	101.19
233.945	95.19
234.179	87.19
234.413	87.19
234.647	82.19
234.881	101.19
235.115	91.19
235.349	102.19
235.583	84.19
235.817	99.19
236.051	93.19
236.285	101.19
236.519	92.19
236.753	102.19
236.987	92.19
237.221	80.19
237.455	102.19
237.689	95.19
237.922	86.19
238.156	85.19
238.39	90.19
238.624	83.19
238.858	91.19
239.091	108.19
239.325	88.19
239.559	95.19
239.793	100.19
240.027	89.19
240.26	87.19
240.494	101.19
240.728	96.19
240.961	103.19
241.195	92.19
241.429	110.19
241.662	108.19
241.896	110.19
242.13	101.19
242.363	100.19
242.597	100.19
242.83	104.19
243.064	105.19
243.298	117.19
243.531	109.19
243.765	95.19
243.998	107.19
244.232	105.19
244.465	87.19
244.699	112.19
244.932	113.19
245.166	103.19
245.399	102.19
245.633	115.19
245.866	107.19
246.099	103.19
246.333	99.19
246.566	109.19
246.8	108.19
247.033	115.19
247.266	96.19
247.5	107.19
247.733	113.19
247.966	118.19
248.2	111.19
248.433	111.19
248.666	120.19
248.899	129.19
249.133	96.19
249.366	105.19
249.599	106.19
249.832	111.19
250.066	111.19
250.299	131.19
250.532	108.19
250.765	105.19
250.998	131.19
251.231	116.19
251.465	125.19
251.698	117.19
251.931	119.19
252.164	110.19
252.397	119.19
252.63	117.19
252.863	112.19
253.096	126.19
253.329	124.19
253.562	115.19
253.795	125.19
254.028	125.19
254.261	119.19
254.494	121.19
254.727	132.19
254.96	104.19
255.193	115.19
255.426	130.19
255.659	136.19
255.892	123.19
256.124	127.19
256.357	126.19
256.59	118.19
256.823	114.19
257.056	131.19
257.289	119.19
257.521	131.19
257.754	119.19
257.987	128.19
258.22	128.19
258.452	124.19
258.685	133.19
258.918	143.19
259.151	123.19
259.383	124.19
259.616	121.19
259.849	142.19
260.081	133.19
260.314	143.19
260.547	133.19
260.779	125.19
261.012	139.19
261.244	127.19
261.477	129.19
261.71	128.19
261.942	133.19
262.175	130.19
262.407	146.19
262.64	126.19
262.872	132.19
263.105	151.19
263.337	143.19
263.57	131.19
263.802	154.19
264.035	130.19
264.267	150.19
264.499	141.19
264.732	128.19
264.964	151.19
265.197	132.19
265.429	137.19
265.661	138.19
265.894	136.19
266.126	135.19
266.358	148.19
266.591	127.19
266.823	133.19
267.055	142.19
267.287	147.19
267.52	149.19
267.752	141.19
267.984	142.19
268.216	160.19
268.448	151.19
268.681	153.19
268.913	140.19
269.145	163.19
269.377	142.19
269.609	142.19
269.841	158.19
270.073	160.19
270.306	149.19
270.538	145.19
270.77	166.19
271.002	172.19
271.234	154.19
271.466	162.19
271.698	143.19
271.93	165.19
272.162	155.19
272.394	160.19
272.626	157.19
272.858	154.19
273.09	154.19
273.322	163.19
273.553	154.19
273.785	153.19
274.017	176.19
274.249	164.19
274.481	157.19
274.713	160.19
274.945	160.19
275.176	168.19
275.408	150.19
275.64	158.19
275.872	165.19
276.104	156.19
276.335	160.19
276.567	160.19
276.799	162.19
277.031	165.19
277.262	169.19
277.494	171.19
277.726	163.19
277.957	173.19
278.189	167.19
278.421	173.19
278.652	161.19
278.884	173.19
279.115	173.19
279.347	164.19
279.579	184.19
279.81	177.19
280.042	177.19
280.273	177.19
280.505	182.19
280.736	181.19
280.968	170.19
281.199	190.19
281.431	180.19
281.662	186.19
281.894	187.19
282.125	181.19
282.356	182.19
282.588	156.19
282.819	162.19
283.051	161.19
283.282	170.19
283.513	188.19
283.745	191.19
283.976	181.19
284.207	185.19
284.439	187.19
284.67	188.19
284.901	189.19
285.132	192.19
285.364	202.19
285.595	187.19
285.826	171.19
286.057	183.19
286.288	187.19
286.52	204.19
286.751	193.19
286.982	182.19
287.213	189.19
287.444	200.19
287.675	198.19
287.906	191.19
288.138	201.19
288.369	187.19
288.6	188.19
288.831	196.19
289.062	196.19
289.293	213.19
289.524	199.19
289.755	204.19
289.986	201.19
290.217	208.19
290.448	197.19
290.679	183.19
290.91	218.19
291.141	196.19
291.371	195.19
291.602	208.19
291.833	201.19
292.064	208.19
292.295	212.19
292.526	193.19
292.757	186.19
292.987	204.19
293.218	210.19
293.449	217.19
293.68	221.19
293.91	192.19
294.141	196.19
294.372	211.19
294.603	204.19
294.833	194.19
295.064	207.19
295.295	205.19
295.525	199.19
295.756	201.19
295.987	211.19
296.217	208.19
296.448	207.19
296.679	201.19
296.909	215.19
297.14	224.19
297.37	225.19
297.601	219.19
297.831	214.19
298.062	212.19
298.292	224.19
298.523	208.19
298.753	218.19
298.984	217.19
299.214	215.19
299.445	229.19
299.675	225.19
299.905	201.19
300.136	200.19
300.366	218.19
300.597	226.19
300.827	232.19
301.057	226.19
301.288	228.19
301.518	214.19
301.748	233.19
301.979	254.19
302.209	237.19
302.439	217.19
302.669	245.19
302.9	225.19
303.13	224.19
303.36	246.19
303.59	232.19
303.82	213.19
304.051	232.19
304.281	221.19
304.511	236.19
304.741	232.19
304.971	254.19
305.201	241.19
305.431	237.19
305.661	241.19
305.891	228.19
306.121	216.19
306.352	225.19
306.582	228.19
306.812	228.19
307.042	228.19
307.272	253.19
307.502	240.19
307.731	238.19
307.961	237.19
308.191	236.19
308.421	233.19
308.651	237.19
308.881	242.19
309.111	261.19
309.341	241.19
309.571	249.19
309.8	224.19
310.03	238.19
310.26	231.19
310.49	249.19
310.72	243.19
310.949	231.19
311.179	245.19
311.409	241.19
311.639	243.19
311.868	241.19
312.098	256.19
312.328	254.19
312.557	249.19
312.787	244.19
313.017	252.19
313.246	243.19
313.476	249.19
313.706	260.19
313.935	248.19
314.165	241.19
314.394	260.19
314.624	262.19
314.853	265.19
315.083	252.19
315.312	260.19
315.542	256.19
315.771	259.19
316.001	269.19
316.23	252.19
316.46	259.19
316.689	271.19
316.919	264.19
317.148	240.19
317.377	264.19
317.607	263.19
317.836	237.19
318.065	260.19
318.295	262.19
318.524	247.19
318.753	257.19
318.983	277.19
319.212	259.19
319.441	239.19
319.67	270.19
319.9	265.19
320.129	260.19
320.358	269.19
320.587	265.19
320.816	265.19
321.046	259.19
321.275	247.19
321.504	264.19
321.733	265.19
321.962	267.19
322.191	275.19
322.42	253.19
322.649	260.19
322.878	262.19
323.108	269.19
323.337	263.19
323.566	272.19
323.795	285.19
324.024	276.19
324.253	263.19
324.482	272.19
324.71	270.19
324.939	286.19
325.168	263.19
325.397	283.19
325.626	271.19
325.855	281.19
326.084	273.19
326.313	289.19
326.542	265.19
326.77	267.19
326.999	269.19
327.228	288.19
327.457	277.19
327.686	292.19
327.914	280.19
328.143	287.19
328.372	280.19
328.6	292.19
328.829	301.19
329.058	290.19
329.287	276.19
329.515	301.19
329.744	301.19
329.972	287.19
330.201	276.19
330.43	301.19
330.658	286.19
330.887	307.19
331.115	292.19
331.344	298.19
331.572	294.19
331.801	290.19
332.03	302.19
332.258	301.19
332.486	317.19
332.715	316.19
332.943	308.19
333.172	321.19
333.4	327.19
333.629	353.19
333.857	306.19
334.085	340.19
334.314	355.19
334.542	337.19
334.771	344.19
334.999	331.19
335.227	342.19
335.455	348.19
335.684	332.19
335.912	351.19
336.14	330.19
336.369	337.19
336.597	325.19
336.825	323.19
337.053	336.19
337.281	335.19
337.51	321.19
337.738	324.19
337.966	313.19
338.194	316.19
338.422	320.19
338.65	318.19
338.878	322.19
339.106	313.19
339.334	305.19
339.562	313.19
339.79	304.19
340.018	280.19
340.246	300.19
340.474	301.19
340.702	303.19
340.93	309.19
341.158	319.19
341.386	301.19
341.614	288.19
341.842	296.19
342.07	302.19
342.298	284.19
342.526	320.19
342.754	301.19
342.981	302.19
343.209	303.19
343.437	322.19
343.665	344.19
343.893	329.19
344.12	333.19
344.348	334.19
344.576	333.19
344.804	332.19
345.031	327.19
345.259	316.19
345.487	301.19
345.714	307.19
345.942	304.19
346.17	291.19
346.397	289.19
346.625	299.19
346.853	301.19
347.08	313.19
347.308	318.19
347.535	292.19
347.763	284.19
347.99	294.19
348.218	291.19
348.445	282.19
348.673	289.19
348.9	304.19
349.128	296.19
349.355	286.19
349.583	313.19
349.81	304.19
350.037	284.19
350.265	296.19
350.492	288.19
350.72	288.19
350.947	304.19
351.174	299.19
351.402	292.19
351.629	303.19
351.856	286.19
352.083	301.19
352.311	298.19
352.538	289.19
352.765	292.19
352.992	267.19
353.22	290.19
353.447	310.19
353.674	311.19
353.901	292.19
354.128	322.19
354.355	281.19
354.583	300.19
354.81	281.19
355.037	292.19
355.264	280.19
355.491	292.19
355.718	305.19
355.945	287.19
356.172	290.19
356.399	302.19
356.626	307.19
356.853	321.19
357.08	292.19
357.307	307.19
357.534	295.19
357.761	302.19
357.988	291.19
358.215	317.19
358.441	294.19
358.668	296.19
358.895	295.19
359.122	313.19
359.349	300.19
359.576	292.19
359.802	304.19
360.029	309.19
360.256	299.19
360.483	300.19
360.709	291.19
360.936	315.19
361.163	293.19
361.39	300.19
361.616	278.19
361.843	315.19
362.07	290.19
362.296	317.19
362.523	295.19
362.749	291.19
362.976	293.19
363.203	302.19
363.429	322.19
363.656	310.19
363.882	312.19
364.109	326.19
364.335	302.19
364.562	307.19
364.788	295.19
365.015	305.19
365.241	303.19
365.468	325.19
365.694	305.19
365.92	298.19
366.147	302.19
366.373	294.19
366.599	309.19
366.826	296.19
367.052	307.19
367.278	289.19
367.505	315.19
367.731	311.19
367.957	313.19
368.184	305.19
368.41	328.19
368.636	315.19
368.862	307.19
369.089	306.19
369.315	311.19
369.541	329.19
369.767	317.19
369.993	316.19
370.219	308.19
370.445	301.19
370.672	336.19
370.898	296.19
371.124	329.19
371.35	320.19
371.576	316.19
371.802	318.19
372.028	343.19
372.254	342.19
372.48	321.19
372.706	348.19
372.932	328.19
373.158	311.19
373.384	328.19
373.61	323.19
373.835	343.19
374.061	333.19
374.287	334.19
374.513	315.19
374.739	340.19
374.965	329.19
375.191	360.19
375.416	353.19
375.642	348.19
375.868	342.19
376.094	329.19
376.319	322.19
376.545	325.19
376.771	312.19
376.997	329.19
377.222	329.19
377.448	316.19
377.674	324.19
377.899	318.19
378.125	324.19
378.35	317.19
378.576	313.19
378.802	316.19
379.027	325.19
379.253	319.19
379.478	318.19
379.704	318.19
379.929	318.19
380.155	338.19
380.38	322.19
380.606	320.19
380.831	334.19
381.057	339.19
381.282	329.19
381.507	346.19
381.733	324.19
381.958	334.19
382.184	327.19
382.409	363.19
382.634	329.19
382.86	336.19
383.085	347.19
383.31	340.19
383.535	359.19
383.761	356.19
383.986	357.19
384.211	358.19
384.436	355.19
384.662	367.19
384.887	358.19
385.112	364.19
385.337	365.19
385.562	372.19
385.787	367.19
386.013	383.19
386.238	372.19
386.463	365.19
386.688	374.19
386.913	355.19
387.138	352.19
387.363	387.19
387.588	379.19
387.813	390.19
388.038	370.19
388.263	382.19
388.488	380.19
388.713	372.19
388.938	401.19
389.163	375.19
389.387	390.19
389.612	360.19
389.837	379.19
390.062	362.19
390.287	382.19
390.512	368.19
390.736	384.19
390.961	401.19
391.186	388.19
391.411	408.19
391.636	408.19
391.86	396.19
392.085	422.19
392.31	385.19
392.534	412.19
392.759	407.19
392.984	409.19
393.208	412.19
393.433	374.19
393.658	380.19
393.882	397.19
394.107	403.19
394.331	387.19
394.556	402.19
394.78	375.19
395.005	387.19
395.229	408.19
395.454	427.19
395.678	415.19
395.903	416.19
396.127	392.19
396.352	388.19
396.576	403.19
396.801	403.19
397.025	417.19
397.249	427.19
397.474	429.19
397.698	413.19
397.922	440.19
398.147	429.19
398.371	424.19
398.595	445.19
398.82	463.19
399.044	493.19
399.268	512.19
399.492	539.19
399.717	533.19
399.941	545.19
400.165	536.19
400.389	531.19
400.613	503.19
400.837	465.19
401.062	451.19
401.286	458.19
401.51	451.19
401.734	454.19
401.958	457.19
402.182	446.19
402.406	445.19
402.63	470.19
402.854	466.19
403.078	469.19
403.302	452.19
403.526	443.19
403.75	447.19
403.974	466.19
404.198	443.19
404.422	464.19
404.645	461.19
404.869	466.19
405.093	468.19
405.317	469.19
405.541	481.19
405.765	467.19
405.988	464.19
406.212	481.19
406.436	481.19
406.66	515.19
406.883	480.19
407.107	514.19
407.331	497.19
407.555	519.19
407.778	524.19
408.002	528.19
408.226	501.19
408.449	486.19
408.673	497.19
408.896	493.19
409.12	500.19
409.344	481.19
409.567	487.19
409.791	470.19
410.014	480.19
410.238	476.19
410.461	480.19
410.685	466.19
410.908	468.19
411.132	455.19
411.355	465.19
411.578	450.19
411.802	483.19
412.025	448.19
412.249	449.19
412.472	442.19
412.695	450.19
412.919	437.19
413.142	433.19
413.365	433.19
413.589	465.19
413.812	421.19
414.035	446.19
414.258	452.19
414.482	468.19
414.705	452.19
414.928	448.19
415.151	445.19
415.374	467.19
415.597	483.19
415.821	411.19
416.044	428.19
416.267	443.19
416.49	429.19
416.713	445.19
416.936	430.19
417.159	423.19
417.382	413.19
417.605	422.19
417.828	422.19
418.051	445.19
418.274	436.19
418.497	435.19
418.72	438.19
418.943	443.19
419.166	457.19
419.389	473.19
419.611	451.19
419.834	457.19
420.057	444.19
420.28	446.19
420.503	411.19
420.726	395.19
420.948	439.19
421.171	431.19
421.394	446.19
421.617	435.19
421.839	434.19
422.062	411.19
422.285	433.19
422.507	420.19
422.73	417.19
422.953	424.19
423.175	417.19
423.398	438.19
423.621	423.19
423.843	437.19
424.066	446.19
424.288	442.19
424.511	427.19
424.733	403.19
424.956	407.19
425.178	440.19
425.401	427.19
425.623	416.19
425.846	401.19
426.068	423.19
426.291	442.19
426.513	431.19
426.735	414.19
426.958	425.19
427.18	412.19
427.402	400.19
427.625	407.19
427.847	404.19
428.069	408.19
428.292	406.19
428.514	412.19
428.736	400.19
428.958	390.19
429.181	401.19
429.403	396.19
429.625	396.19
429.847	402.19
430.069	382.19
430.292	417.19
430.514	371.19
430.736	391.19
430.958	398.19
431.18	405.19
431.402	409.19
431.624	383.19
431.846	404.19
432.068	360.19
432.29	406.19
432.512	414.19
432.734	408.19
432.956	394.19
433.178	393.19
433.4	399.19
433.622	407.19
433.844	412.19
434.066	391.19
434.287	413.19
434.509	400.19
434.731	439.19
434.953	425.19
435.175	395.19
435.397	424.19
435.618	428.19
435.84	415.19
436.062	390.19
436.284	381.19
436.505	392.19
436.727	406.19
436.949	399.19
437.17	393.19
437.392	386.19
437.614	386.19
437.835	379.19
438.057	385.19
438.278	377.19
438.5	379.19
438.721	387.19
438.943	390.19
439.165	397.19
439.386	392.19
439.608	401.19
439.829	373.19
440.05	387.19
440.272	381.19
440.493	398.19
440.715	395.19
440.936	405.19
441.158	405.19
441.379	425.19
441.6	411.19
441.822	417.19
442.043	404.19
442.264	444.19
442.486	411.19
442.707	406.19
442.928	401.19
443.149	411.19
443.371	413.19
443.592	414.19
443.813	415.19
444.034	420.19
444.255	435.19
444.476	465.19
444.698	455.19
444.919	455.19
445.14	536.19
445.361	469.19
445.582	420.19
445.803	414.19
446.024	424.19
446.245	407.19
446.466	393.19
446.687	392.19
446.908	388.19
447.129	400.19
447.35	395.19
447.571	381.19
447.792	383.19
448.013	369.19
448.234	379.19
448.455	371.19
448.675	375.19
448.896	343.19
449.117	357.19
449.338	361.19
449.559	355.19
449.779	363.19
450	363.19
450.221	365.19
450.442	375.19
450.662	350.19
450.883	362.19
451.104	375.19
451.324	364.19
451.545	352.19
451.766	350.19
451.986	349.19
452.207	351.19
452.428	363.19
452.648	369.19
452.869	374.19
453.089	348.19
453.31	356.19
453.53	360.19
453.751	356.19
453.971	334.19
454.192	340.19
454.412	348.19
454.633	360.19
454.853	352.19
455.073	355.19
455.294	351.19
455.514	336.19
455.734	334.19
455.955	342.19
456.175	350.19
456.395	363.19
456.616	358.19
456.836	359.19
457.056	343.19
457.276	347.19
457.497	360.19
457.717	367.19
457.937	360.19
458.157	373.19
458.377	364.19
458.598	370.19
458.818	385.19
459.038	400.19
459.258	387.19
459.478	386.19
459.698	407.19
459.918	407.19
460.138	427.19
460.358	420.19
460.578	458.19
460.798	445.19
461.018	416.19
461.238	460.19
461.458	444.19
461.678	448.19
461.898	429.19
462.118	456.19
462.338	475.19
462.558	471.19
462.777	480.19
462.997	507.19
463.217	509.19
463.437	495.19
463.657	500.19
463.876	476.19
464.096	474.19
464.316	474.19
464.536	467.19
464.755	464.19
464.975	464.19
465.195	449.19
465.414	438.19
465.634	400.19
465.854	411.19
466.073	430.19
466.293	405.19
466.512	398.19
466.732	399.19
466.951	396.19
467.171	371.19
467.391	379.19
467.61	392.19
467.829	362.19
468.049	376.19
468.268	368.19
468.488	385.19
468.707	380.19
468.927	365.19
469.146	369.19
469.365	378.19
469.585	385.19
469.804	384.19
470.023	397.19
470.243	358.19
470.462	379.19
470.681	397.19
470.901	398.19
471.12	392.19
471.339	388.19
471.558	394.19
471.777	392.19
471.997	381.19
472.216	382.19
472.435	375.19
472.654	383.19
472.873	377.19
473.092	397.19
473.311	391.19
473.53	371.19
473.749	381.19
473.968	395.19
474.187	389.19
474.406	382.19
474.625	408.19
474.844	377.19
475.063	380.19
475.282	373.19
475.501	377.19
475.72	394.19
475.939	400.19
476.158	397.19
476.377	405.19
476.596	383.19
476.814	399.19
477.033	411.19
477.252	404.19
477.471	425.19
477.69	418.19
477.908	429.19
478.127	439.19
478.346	436.19
478.564	446.19
478.783	440.19
479.002	441.19
479.22	432.19
479.439	451.19
479.658	456.19
479.876	468.19
480.095	487.19
480.313	493.19
480.532	460.19
480.751	471.19
480.969	471.19
481.188	456.19
481.406	460.19
481.624	441.19
481.843	461.19
482.061	450.19
482.28	435.19
482.498	461.19
482.717	442.19
482.935	448.19
483.153	436.19
483.372	444.19
483.59	460.19
483.808	456.19
484.027	447.19
484.245	457.19
484.463	469.19
484.681	436.19
484.9	450.19
485.118	436.19
485.336	451.19
485.554	447.19
485.772	466.19
485.99	466.19
486.209	446.19
486.427	467.19
486.645	487.19
486.863	468.19
487.081	453.19
487.299	455.19
487.517	447.19
487.735	460.19
487.953	464.19
488.171	449.19
488.389	447.19
488.607	451.19
488.825	444.19
489.043	454.19
489.261	455.19
489.479	440.19
489.696	454.19
489.914	448.19
490.132	452.19
490.35	470.19
490.568	447.19
490.786	466.19
491.003	447.19
491.221	482.19
491.439	448.19
491.657	465.19
491.874	460.19
492.092	474.19
492.31	464.19
492.527	457.19
492.745	453.19
492.963	465.19
493.18	480.19
493.398	475.19
493.615	476.19
493.833	464.19
494.05	473.19
494.268	491.19
494.485	471.19
494.703	492.19
494.92	467.19
495.138	482.19
495.355	489.19
495.573	496.19
495.79	498.19
496.008	513.19
496.225	501.19
496.442	510.19
496.66	521.19
496.877	517.19
497.094	535.19
497.312	544.19
497.529	519.19
497.746	551.19
497.963	569.19
498.181	597.19
498.398	623.19
498.615	625.19
498.832	659.19
499.049	657.19
499.267	699.19
499.484	749.19
499.701	788.19
499.918	824.19
500.135	872.19
500.352	870.19
500.569	930.19
500.786	891.19
501.003	874.19
501.22	830.19
501.437	786.19
501.654	757.19
501.871	697.19
502.088	662.19
