Data from Fe(NO3)3@0.1M.TitratingCurve.Agarose3%dH2O.NegLispCup.LampEnergy10.LIBS07252019_HRD10591_16-39-49-332.txt Node
Date: Thu Jul 25 16:39:49 EDT 2019
User: cochatt
Spectrometer: HR+D1059
Trigger mode: 1
Integration Time (sec): 1.000000E-1
Scans to average: 1
Electric dark correction enabled: true
Nonlinearity correction enabled: false
Boxcar width: 0
XAxis mode: Wavelengths
Number of Pixels in Spectrum: 2048
>>>>>Begin Spectral Data<<<<<
223.165	-15.25
223.4	-15.25
223.635	-15.25
223.869	-6.25
224.104	-24.25
224.338	-12.25
224.573	-0.25
224.808	-27.25
225.042	-9.25
225.277	4.75
225.511	-16.25
225.746	6.75
225.98	2.75
226.215	1.75
226.449	17.75
226.683	30.75
226.918	18.75
227.152	27.75
227.387	34.75
227.621	39.75
227.856	43.75
228.09	36.75
228.324	49.75
228.559	54.75
228.793	53.75
229.027	67.75
229.262	80.75
229.496	85.75
229.73	69.75
229.964	79.75
230.199	96.75
230.433	85.75
230.667	88.75
230.901	77.75
231.136	92.75
231.37	85.75
231.604	95.75
231.838	70.75
232.072	93.75
232.306	89.75
232.541	88.75
232.775	98.75
233.009	96.75
233.243	99.75
233.477	86.75
233.711	98.75
233.945	99.75
234.179	80.75
234.413	95.75
234.647	98.75
234.881	105.75
235.115	97.75
235.349	99.75
235.583	97.75
235.817	101.75
236.051	95.75
236.285	88.75
236.519	92.75
236.753	100.75
236.987	101.75
237.221	79.75
237.455	100.75
237.689	96.75
237.922	98.75
238.156	98.75
238.39	89.75
238.624	92.75
238.858	96.75
239.091	112.75
239.325	109.75
239.559	115.75
239.793	98.75
240.027	94.75
240.26	87.75
240.494	88.75
240.728	90.75
240.961	104.75
241.195	105.75
241.429	82.75
241.662	99.75
241.896	93.75
242.13	110.75
242.363	92.75
242.597	106.75
242.83	109.75
243.064	109.75
243.298	118.75
243.531	108.75
243.765	105.75
243.998	106.75
244.232	117.75
244.465	118.75
244.699	125.75
244.932	122.75
245.166	116.75
245.399	116.75
245.633	120.75
245.866	101.75
246.099	115.75
246.333	111.75
246.566	120.75
246.8	114.75
247.033	122.75
247.266	121.75
247.5	109.75
247.733	114.75
247.966	103.75
248.2	119.75
248.433	121.75
248.666	106.75
248.899	118.75
249.133	115.75
249.366	107.75
249.599	111.75
249.832	111.75
250.066	133.75
250.299	111.75
250.532	115.75
250.765	112.75
250.998	130.75
251.231	118.75
251.465	120.75
251.698	123.75
251.931	119.75
252.164	131.75
252.397	128.75
252.63	122.75
252.863	125.75
253.096	131.75
253.329	124.75
253.562	137.75
253.795	115.75
254.028	127.75
254.261	127.75
254.494	139.75
254.727	126.75
254.96	129.75
255.193	138.75
255.426	124.75
255.659	127.75
255.892	143.75
256.124	137.75
256.357	131.75
256.59	130.75
256.823	120.75
257.056	130.75
257.289	125.75
257.521	121.75
257.754	133.75
257.987	133.75
258.22	128.75
258.452	143.75
258.685	123.75
258.918	125.75
259.151	155.75
259.383	142.75
259.616	143.75
259.849	141.75
260.081	143.75
260.314	150.75
260.547	133.75
260.779	144.75
261.012	148.75
261.244	148.75
261.477	129.75
261.71	143.75
261.942	137.75
262.175	137.75
262.407	145.75
262.64	138.75
262.872	140.75
263.105	128.75
263.337	135.75
263.57	138.75
263.802	150.75
264.035	152.75
264.267	155.75
264.499	133.75
264.732	147.75
264.964	154.75
265.197	134.75
265.429	155.75
265.661	148.75
265.894	154.75
266.126	161.75
266.358	151.75
266.591	153.75
266.823	156.75
267.055	139.75
267.287	155.75
267.52	165.75
267.752	170.75
267.984	147.75
268.216	149.75
268.448	149.75
268.681	165.75
268.913	140.75
269.145	157.75
269.377	150.75
269.609	151.75
269.841	148.75
270.073	149.75
270.306	155.75
270.538	160.75
270.77	138.75
271.002	153.75
271.234	153.75
271.466	164.75
271.698	171.75
271.93	155.75
272.162	170.75
272.394	154.75
272.626	165.75
272.858	160.75
273.09	163.75
273.322	146.75
273.553	168.75
273.785	156.75
274.017	169.75
274.249	163.75
274.481	163.75
274.713	175.75
274.945	172.75
275.176	173.75
275.408	166.75
275.64	177.75
275.872	181.75
276.104	171.75
276.335	160.75
276.567	146.75
276.799	162.75
277.031	170.75
277.262	181.75
277.494	178.75
277.726	178.75
277.957	188.75
278.189	179.75
278.421	170.75
278.652	183.75
278.884	186.75
279.115	166.75
279.347	164.75
279.579	156.75
279.81	162.75
280.042	190.75
280.273	162.75
280.505	170.75
280.736	172.75
280.968	164.75
281.199	191.75
281.431	178.75
281.662	185.75
281.894	175.75
282.125	185.75
282.356	187.75
282.588	193.75
282.819	187.75
283.051	180.75
283.282	185.75
283.513	182.75
283.745	187.75
283.976	200.75
284.207	181.75
284.439	195.75
284.67	210.75
284.901	188.75
285.132	194.75
285.364	193.75
285.595	185.75
285.826	203.75
286.057	183.75
286.288	177.75
286.52	177.75
286.751	182.75
286.982	184.75
287.213	186.75
287.444	198.75
287.675	194.75
287.906	191.75
288.138	190.75
288.369	218.75
288.6	198.75
288.831	203.75
289.062	199.75
289.293	201.75
289.524	183.75
289.755	180.75
289.986	200.75
290.217	194.75
290.448	215.75
290.679	182.75
290.91	201.75
291.141	204.75
291.371	214.75
291.602	207.75
291.833	191.75
292.064	194.75
292.295	202.75
292.526	205.75
292.757	210.75
292.987	208.75
293.218	202.75
293.449	200.75
293.68	207.75
293.91	217.75
294.141	193.75
294.372	217.75
294.603	186.75
294.833	197.75
295.064	203.75
295.295	197.75
295.525	211.75
295.756	202.75
295.987	214.75
296.217	216.75
296.448	209.75
296.679	225.75
296.909	211.75
297.14	218.75
297.37	213.75
297.601	206.75
297.831	205.75
298.062	204.75
298.292	225.75
298.523	211.75
298.753	217.75
298.984	213.75
299.214	210.75
299.445	207.75
299.675	210.75
299.905	209.75
300.136	206.75
300.366	214.75
300.597	219.75
300.827	220.75
301.057	221.75
301.288	238.75
301.518	234.75
301.748	218.75
301.979	235.75
302.209	223.75
302.439	218.75
302.669	229.75
302.9	220.75
303.13	217.75
303.36	240.75
303.59	242.75
303.82	229.75
304.051	223.75
304.281	234.75
304.511	226.75
304.741	242.75
304.971	231.75
305.201	202.75
305.431	225.75
305.661	213.75
305.891	217.75
306.121	224.75
306.352	212.75
306.582	214.75
306.812	224.75
307.042	233.75
307.272	226.75
307.502	215.75
307.731	218.75
307.961	225.75
308.191	227.75
308.421	218.75
308.651	229.75
308.881	221.75
309.111	241.75
309.341	233.75
309.571	218.75
309.8	228.75
310.03	224.75
310.26	220.75
310.49	217.75
310.72	223.75
310.949	232.75
311.179	240.75
311.409	222.75
311.639	225.75
311.868	243.75
312.098	234.75
312.328	231.75
312.557	247.75
312.787	229.75
313.017	234.75
313.246	230.75
313.476	223.75
313.706	232.75
313.935	225.75
314.165	217.75
314.394	245.75
314.624	238.75
314.853	239.75
315.083	238.75
315.312	240.75
315.542	242.75
315.771	234.75
316.001	240.75
316.23	238.75
316.46	218.75
316.689	241.75
316.919	233.75
317.148	228.75
317.377	237.75
317.607	238.75
317.836	223.75
318.065	225.75
318.295	238.75
318.524	229.75
318.753	225.75
318.983	249.75
319.212	255.75
319.441	244.75
319.67	234.75
319.9	229.75
320.129	242.75
320.358	249.75
320.587	240.75
320.816	237.75
321.046	233.75
321.275	250.75
321.504	265.75
321.733	244.75
321.962	230.75
322.191	233.75
322.42	238.75
322.649	247.75
322.878	249.75
323.108	253.75
323.337	259.75
323.566	246.75
323.795	248.75
324.024	234.75
324.253	259.75
324.482	258.75
324.71	242.75
324.939	264.75
325.168	251.75
325.397	273.75
325.626	259.75
325.855	261.75
326.084	250.75
326.313	254.75
326.542	253.75
326.77	253.75
326.999	249.75
327.228	265.75
327.457	243.75
327.686	256.75
327.914	252.75
328.143	268.75
328.372	278.75
328.6	253.75
328.829	258.75
329.058	256.75
329.287	281.75
329.515	268.75
329.744	291.75
329.972	265.75
330.201	258.75
330.43	259.75
330.658	262.75
330.887	275.75
331.115	274.75
331.344	272.75
331.572	272.75
331.801	277.75
332.03	280.75
332.258	291.75
332.486	296.75
332.715	288.75
332.943	293.75
333.172	316.75
333.4	320.75
333.629	319.75
333.857	324.75
334.085	321.75
334.314	314.75
334.542	313.75
334.771	303.75
334.999	296.75
335.227	309.75
335.455	317.75
335.684	326.75
335.912	309.75
336.14	312.75
336.369	303.75
336.597	285.75
336.825	296.75
337.053	297.75
337.281	313.75
337.51	298.75
337.738	294.75
337.966	293.75
338.194	288.75
338.422	288.75
338.65	280.75
338.878	271.75
339.106	279.75
339.334	277.75
339.562	285.75
339.79	281.75
340.018	250.75
340.246	272.75
340.474	269.75
340.702	273.75
340.93	266.75
341.158	298.75
341.386	283.75
341.614	274.75
341.842	261.75
342.07	266.75
342.298	265.75
342.526	290.75
342.754	279.75
342.981	271.75
343.209	280.75
343.437	298.75
343.665	297.75
343.893	326.75
344.12	325.75
344.348	301.75
344.576	279.75
344.804	289.75
345.031	273.75
345.259	295.75
345.487	278.75
345.714	281.75
345.942	284.75
346.17	263.75
346.397	271.75
346.625	278.75
346.853	263.75
347.08	280.75
347.308	263.75
347.535	259.75
347.763	277.75
347.99	263.75
348.218	256.75
348.445	262.75
348.673	266.75
348.9	265.75
349.128	280.75
349.355	260.75
349.583	266.75
349.81	262.75
350.037	264.75
350.265	248.75
350.492	254.75
350.72	261.75
350.947	262.75
351.174	257.75
351.402	241.75
351.629	260.75
351.856	263.75
352.083	258.75
352.311	254.75
352.538	260.75
352.765	266.75
352.992	259.75
353.22	272.75
353.447	274.75
353.674	275.75
353.901	259.75
354.128	257.75
354.355	248.75
354.583	271.75
354.81	251.75
355.037	261.75
355.264	257.75
355.491	268.75
355.718	265.75
355.945	278.75
356.172	257.75
356.399	271.75
356.626	263.75
356.853	264.75
357.08	274.75
357.307	276.75
357.534	266.75
357.761	266.75
357.988	245.75
358.215	285.75
358.441	278.75
358.668	278.75
358.895	255.75
359.122	279.75
359.349	259.75
359.576	281.75
359.802	274.75
360.029	261.75
360.256	273.75
360.483	265.75
360.709	262.75
360.936	262.75
361.163	264.75
361.39	263.75
361.616	251.75
361.843	263.75
362.07	260.75
362.296	264.75
362.523	260.75
362.749	264.75
362.976	255.75
363.203	267.75
363.429	263.75
363.656	269.75
363.882	275.75
364.109	266.75
364.335	265.75
364.562	253.75
364.788	285.75
365.015	257.75
365.241	264.75
365.468	254.75
365.694	267.75
365.92	261.75
366.147	263.75
366.373	258.75
366.599	261.75
366.826	256.75
367.052	248.75
367.278	265.75
367.505	272.75
367.731	261.75
367.957	265.75
368.184	274.75
368.41	246.75
368.636	259.75
368.862	267.75
369.089	288.75
369.315	272.75
369.541	263.75
369.767	269.75
369.993	272.75
370.219	279.75
370.445	287.75
370.672	278.75
370.898	274.75
371.124	278.75
371.35	292.75
371.576	278.75
371.802	278.75
372.028	293.75
372.254	272.75
372.48	295.75
372.706	267.75
372.932	294.75
373.158	296.75
373.384	290.75
373.61	292.75
373.835	293.75
374.061	283.75
374.287	275.75
374.513	300.75
374.739	301.75
374.965	326.75
375.191	314.75
375.416	311.75
375.642	311.75
375.868	288.75
376.094	304.75
376.319	281.75
376.545	301.75
376.771	299.75
376.997	279.75
377.222	305.75
377.448	301.75
377.674	311.75
377.899	312.75
378.125	291.75
378.35	290.75
378.576	289.75
378.802	287.75
379.027	285.75
379.253	288.75
379.478	293.75
379.704	282.75
379.929	280.75
380.155	290.75
380.38	275.75
380.606	303.75
380.831	277.75
381.057	285.75
381.282	301.75
381.507	306.75
381.733	305.75
381.958	304.75
382.184	302.75
382.409	315.75
382.634	322.75
382.86	314.75
383.085	307.75
383.31	301.75
383.535	317.75
383.761	338.75
383.986	311.75
384.211	349.75
384.436	353.75
384.662	318.75
384.887	325.75
385.112	303.75
385.337	328.75
385.562	349.75
385.787	335.75
386.013	347.75
386.238	337.75
386.463	341.75
386.688	336.75
386.913	334.75
387.138	341.75
387.363	331.75
387.588	331.75
387.813	320.75
388.038	335.75
388.263	329.75
388.488	337.75
388.713	351.75
388.938	354.75
389.163	313.75
389.387	330.75
389.612	321.75
389.837	341.75
390.062	333.75
390.287	350.75
390.512	350.75
390.736	347.75
390.961	345.75
391.186	357.75
391.411	365.75
391.636	356.75
391.86	365.75
392.085	372.75
392.31	375.75
392.534	384.75
392.759	358.75
392.984	371.75
393.208	357.75
393.433	354.75
393.658	357.75
393.882	365.75
394.107	383.75
394.331	382.75
394.556	349.75
394.78	367.75
395.005	355.75
395.229	357.75
395.454	393.75
395.678	373.75
395.903	372.75
396.127	383.75
396.352	364.75
396.576	358.75
396.801	363.75
397.025	376.75
397.249	369.75
397.474	375.75
397.698	361.75
397.922	401.75
398.147	383.75
398.371	379.75
398.595	406.75
398.82	426.75
399.044	447.75
399.268	480.75
399.492	548.75
399.717	569.75
399.941	541.75
400.165	494.75
400.389	474.75
400.613	450.75
400.837	431.75
401.062	418.75
401.286	435.75
401.51	400.75
401.734	410.75
401.958	410.75
402.182	413.75
402.406	423.75
402.63	439.75
402.854	430.75
403.078	426.75
403.302	462.75
403.526	445.75
403.75	450.75
403.974	472.75
404.198	465.75
404.422	473.75
404.645	455.75
404.869	451.75
405.093	468.75
405.317	450.75
405.541	459.75
405.765	447.75
405.988	456.75
406.212	448.75
406.436	427.75
406.66	462.75
406.883	458.75
407.107	501.75
407.331	534.75
407.555	497.75
407.778	519.75
408.002	498.75
408.226	494.75
408.449	468.75
408.673	474.75
408.896	473.75
409.12	461.75
409.344	444.75
409.567	467.75
409.791	472.75
410.014	458.75
410.238	480.75
410.461	449.75
410.685	469.75
410.908	449.75
411.132	448.75
411.355	430.75
411.578	455.75
411.802	447.75
412.025	442.75
412.249	434.75
412.472	442.75
412.695	430.75
412.919	423.75
413.142	413.75
413.365	436.75
413.589	425.75
413.812	422.75
414.035	417.75
414.258	425.75
414.482	422.75
414.705	413.75
414.928	438.75
415.151	421.75
415.374	445.75
415.597	426.75
415.821	421.75
416.044	426.75
416.267	417.75
416.49	410.75
416.713	425.75
416.936	420.75
417.159	422.75
417.382	412.75
417.605	423.75
417.828	416.75
418.051	415.75
418.274	421.75
418.497	422.75
418.72	423.75
418.943	437.75
419.166	445.75
419.389	483.75
419.611	455.75
419.834	433.75
420.057	449.75
420.28	432.75
420.503	417.75
420.726	409.75
420.948	398.75
421.171	427.75
421.394	415.75
421.617	429.75
421.839	424.75
422.062	431.75
422.285	406.75
422.507	435.75
422.73	422.75
422.953	451.75
423.175	431.75
423.398	440.75
423.621	440.75
423.843	448.75
424.066	454.75
424.288	426.75
424.511	417.75
424.733	449.75
424.956	441.75
425.178	406.75
425.401	422.75
425.623	432.75
425.846	417.75
426.068	406.75
426.291	420.75
426.513	418.75
426.735	396.75
426.958	395.75
427.18	394.75
427.402	402.75
427.625	399.75
427.847	380.75
428.069	401.75
428.292	389.75
428.514	391.75
428.736	399.75
428.958	380.75
429.181	377.75
429.403	373.75
429.625	356.75
429.847	380.75
430.069	387.75
430.292	369.75
430.514	384.75
430.736	383.75
430.958	386.75
431.18	378.75
431.402	374.75
431.624	379.75
431.846	377.75
432.068	370.75
432.29	387.75
432.512	410.75
432.734	399.75
432.956	371.75
433.178	383.75
433.4	387.75
433.622	403.75
433.844	406.75
434.066	393.75
434.287	397.75
434.509	418.75
434.731	409.75
434.953	417.75
435.175	430.75
435.397	425.75
435.618	403.75
435.84	401.75
436.062	386.75
436.284	385.75
436.505	389.75
436.727	386.75
436.949	394.75
437.17	373.75
437.392	398.75
437.614	373.75
437.835	375.75
438.057	389.75
438.278	363.75
438.5	374.75
438.721	384.75
438.943	404.75
439.165	395.75
439.386	396.75
439.608	391.75
439.829	391.75
440.05	389.75
440.272	414.75
440.493	409.75
440.715	391.75
440.936	410.75
441.158	400.75
441.379	423.75
441.6	432.75
441.822	436.75
442.043	437.75
442.264	414.75
442.486	439.75
442.707	431.75
442.928	425.75
443.149	422.75
443.371	430.75
443.592	461.75
443.813	453.75
444.034	450.75
444.255	460.75
444.476	487.75
444.698	507.75
444.919	500.75
445.14	583.75
445.361	485.75
445.582	467.75
445.803	422.75
446.024	415.75
446.245	421.75
446.466	405.75
446.687	415.75
446.908	420.75
447.129	403.75
447.35	398.75
447.571	400.75
447.792	369.75
448.013	390.75
448.234	390.75
448.455	391.75
448.675	382.75
448.896	383.75
449.117	378.75
449.338	379.75
449.559	363.75
449.779	366.75
450	379.75
450.221	374.75
450.442	400.75
450.662	359.75
450.883	362.75
451.104	368.75
451.324	360.75
451.545	367.75
451.766	365.75
451.986	376.75
452.207	378.75
452.428	381.75
452.648	371.75
452.869	370.75
453.089	350.75
453.31	367.75
453.53	343.75
453.751	327.75
453.971	337.75
454.192	346.75
454.412	350.75
454.633	353.75
454.853	343.75
455.073	353.75
455.294	321.75
455.514	341.75
455.734	339.75
455.955	337.75
456.175	335.75
456.395	343.75
456.616	324.75
456.836	345.75
457.056	329.75
457.276	338.75
457.497	331.75
457.717	343.75
457.937	323.75
458.157	346.75
458.377	375.75
458.598	367.75
458.818	384.75
459.038	350.75
459.258	376.75
459.478	413.75
459.698	380.75
459.918	398.75
460.138	426.75
460.358	431.75
460.578	432.75
460.798	449.75
461.018	455.75
461.238	454.75
461.458	443.75
461.678	443.75
461.898	460.75
462.118	451.75
462.338	474.75
462.558	477.75
462.777	483.75
462.997	523.75
463.217	549.75
463.437	555.75
463.657	519.75
463.876	502.75
464.096	509.75
464.316	490.75
464.536	497.75
464.755	483.75
464.975	463.75
465.195	456.75
465.414	433.75
465.634	410.75
465.854	413.75
466.073	381.75
466.293	396.75
466.512	373.75
466.732	378.75
466.951	376.75
467.171	389.75
467.391	382.75
467.61	402.75
467.829	373.75
468.049	385.75
468.268	371.75
468.488	384.75
468.707	374.75
468.927	365.75
469.146	368.75
469.365	384.75
469.585	370.75
469.804	380.75
470.023	392.75
470.243	397.75
470.462	392.75
470.681	405.75
470.901	394.75
471.12	385.75
471.339	401.75
471.558	372.75
471.777	367.75
471.997	359.75
472.216	352.75
472.435	362.75
472.654	349.75
472.873	335.75
473.092	358.75
473.311	355.75
473.53	342.75
473.749	371.75
473.968	365.75
474.187	357.75
474.406	365.75
474.625	342.75
474.844	365.75
475.063	367.75
475.282	359.75
475.501	375.75
475.72	382.75
475.939	355.75
476.158	367.75
476.377	379.75
476.596	375.75
476.814	359.75
477.033	380.75
477.252	373.75
477.471	374.75
477.69	385.75
477.908	403.75
478.127	406.75
478.346	419.75
478.564	418.75
478.783	410.75
479.002	423.75
479.22	422.75
479.439	431.75
479.658	431.75
479.876	415.75
480.095	437.75
480.313	459.75
480.532	455.75
480.751	458.75
480.969	430.75
481.188	416.75
481.406	410.75
481.624	420.75
481.843	410.75
482.061	391.75
482.28	390.75
482.498	372.75
482.717	387.75
482.935	410.75
483.153	413.75
483.372	402.75
483.59	392.75
483.808	396.75
484.027	414.75
484.245	393.75
484.463	394.75
484.681	398.75
484.9	405.75
485.118	396.75
485.336	397.75
485.554	406.75
485.772	402.75
485.99	413.75
486.209	410.75
486.427	410.75
486.645	414.75
486.863	431.75
487.081	409.75
487.299	403.75
487.517	418.75
487.735	405.75
487.953	400.75
488.171	405.75
488.389	413.75
488.607	408.75
488.825	394.75
489.043	392.75
489.261	408.75
489.479	414.75
489.696	419.75
489.914	407.75
490.132	400.75
490.35	412.75
490.568	425.75
490.786	427.75
491.003	431.75
491.221	434.75
491.439	431.75
491.657	405.75
491.874	439.75
492.092	455.75
492.31	438.75
492.527	422.75
492.745	431.75
492.963	437.75
493.18	432.75
493.398	433.75
493.615	422.75
493.833	429.75
494.05	422.75
494.268	424.75
494.485	443.75
494.703	421.75
494.92	438.75
495.138	413.75
495.355	432.75
495.573	448.75
495.79	450.75
496.008	452.75
496.225	424.75
496.442	461.75
496.66	454.75
496.877	455.75
497.094	475.75
497.312	468.75
497.529	478.75
497.746	481.75
497.963	499.75
498.181	498.75
498.398	516.75
498.615	558.75
498.832	587.75
499.049	623.75
499.267	635.75
499.484	738.75
499.701	778.75
499.918	865.75
500.135	965.75
500.352	1063.75
500.569	1090.75
500.786	1084.75
501.003	977.75
501.22	904.75
501.437	787.75
501.654	733.75
501.871	690.75
502.088	654.75
502.305	614.75
