Data from Fe(NO3)3@0.0125M.TitratingCurve.Agarose3%dH2O.NegLispCup.LampEnergy10.LIBS07252019_HRD10591_16-58-46-336.txt Node
Date: Thu Jul 25 16:58:46 EDT 2019
User: cochatt
Spectrometer: HR+D1059
Trigger mode: 1
Integration Time (sec): 1.000000E-1
Scans to average: 1
Electric dark correction enabled: true
Nonlinearity correction enabled: false
Boxcar width: 0
XAxis mode: Wavelengths
Number of Pixels in Spectrum: 2048
>>>>>Begin Spectral Data<<<<<
223.165	-13.69
223.4	-13.69
223.635	-13.69
223.869	-18.69
224.104	-18.69
224.338	-22.69
224.573	-29.69
224.808	-2.69
225.042	8.31
225.277	-1.69
225.511	-7.69
225.746	8.31
225.98	7.31
226.215	21.31
226.449	2.31
226.683	27.31
226.918	19.31
227.152	21.31
227.387	26.31
227.621	32.31
227.856	37.31
228.09	32.31
228.324	43.31
228.559	60.31
228.793	66.31
229.027	96.31
229.262	130.31
229.496	107.31
229.73	123.31
229.964	138.31
230.199	126.31
230.433	130.31
230.667	137.31
230.901	143.31
231.136	131.31
231.37	128.31
231.604	134.31
231.838	145.31
232.072	124.31
232.306	126.31
232.541	140.31
232.775	144.31
233.009	152.31
233.243	157.31
233.477	165.31
233.711	159.31
233.945	149.31
234.179	158.31
234.413	138.31
234.647	161.31
234.881	163.31
235.115	153.31
235.349	160.31
235.583	152.31
235.817	163.31
236.051	169.31
236.285	157.31
236.519	172.31
236.753	161.31
236.987	168.31
237.221	161.31
237.455	177.31
237.689	171.31
237.922	190.31
238.156	176.31
238.39	171.31
238.624	174.31
238.858	194.31
239.091	168.31
239.325	187.31
239.559	187.31
239.793	190.31
240.027	192.31
240.26	208.31
240.494	203.31
240.728	203.31
240.961	194.31
241.195	192.31
241.429	213.31
241.662	201.31
241.896	195.31
242.13	192.31
242.363	196.31
242.597	191.31
242.83	236.31
243.064	203.31
243.298	227.31
243.531	215.31
243.765	206.31
243.998	220.31
244.232	214.31
244.465	227.31
244.699	230.31
244.932	229.31
245.166	220.31
245.399	237.31
245.633	246.31
245.866	231.31
246.099	213.31
246.333	235.31
246.566	227.31
246.8	241.31
247.033	229.31
247.266	232.31
247.5	248.31
247.733	238.31
247.966	248.31
248.2	256.31
248.433	258.31
248.666	254.31
248.899	270.31
249.133	262.31
249.366	276.31
249.599	274.31
249.832	261.31
250.066	248.31
250.299	246.31
250.532	265.31
250.765	276.31
250.998	262.31
251.231	275.31
251.465	278.31
251.698	270.31
251.931	272.31
252.164	269.31
252.397	272.31
252.63	290.31
252.863	279.31
253.096	291.31
253.329	287.31
253.562	278.31
253.795	300.31
254.028	304.31
254.261	290.31
254.494	304.31
254.727	304.31
254.96	294.31
255.193	315.31
255.426	314.31
255.659	280.31
255.892	316.31
256.124	301.31
256.357	290.31
256.59	316.31
256.823	330.31
257.056	325.31
257.289	321.31
257.521	325.31
257.754	305.31
257.987	293.31
258.22	337.31
258.452	314.31
258.685	314.31
258.918	333.31
259.151	317.31
259.383	336.31
259.616	334.31
259.849	353.31
260.081	370.31
260.314	382.31
260.547	341.31
260.779	359.31
261.012	362.31
261.244	358.31
261.477	364.31
261.71	352.31
261.942	360.31
262.175	352.31
262.407	374.31
262.64	372.31
262.872	368.31
263.105	360.31
263.337	380.31
263.57	379.31
263.802	386.31
264.035	375.31
264.267	377.31
264.499	368.31
264.732	363.31
264.964	357.31
265.197	358.31
265.429	385.31
265.661	361.31
265.894	373.31
266.126	394.31
266.358	381.31
266.591	407.31
266.823	399.31
267.055	391.31
267.287	411.31
267.52	392.31
267.752	417.31
267.984	416.31
268.216	387.31
268.448	412.31
268.681	393.31
268.913	396.31
269.145	406.31
269.377	402.31
269.609	401.31
269.841	416.31
270.073	421.31
270.306	396.31
270.538	402.31
270.77	404.31
271.002	405.31
271.234	417.31
271.466	424.31
271.698	437.31
271.93	423.31
272.162	445.31
272.394	440.31
272.626	437.31
272.858	442.31
273.09	453.31
273.322	456.31
273.553	460.31
273.785	461.31
274.017	459.31
274.249	463.31
274.481	460.31
274.713	473.31
274.945	485.31
275.176	502.31
275.408	498.31
275.64	482.31
275.872	501.31
276.104	496.31
276.335	473.31
276.567	466.31
276.799	499.31
277.031	480.31
277.262	483.31
277.494	487.31
277.726	494.31
277.957	493.31
278.189	492.31
278.421	482.31
278.652	491.31
278.884	490.31
279.115	488.31
279.347	515.31
279.579	481.31
279.81	507.31
280.042	470.31
280.273	510.31
280.505	517.31
280.736	518.31
280.968	503.31
281.199	510.31
281.431	507.31
281.662	490.31
281.894	524.31
282.125	509.31
282.356	516.31
282.588	548.31
282.819	537.31
283.051	521.31
283.282	537.31
283.513	534.31
283.745	548.31
283.976	515.31
284.207	521.31
284.439	529.31
284.67	548.31
284.901	540.31
285.132	539.31
285.364	547.31
285.595	566.31
285.826	550.31
286.057	570.31
286.288	553.31
286.52	564.31
286.751	554.31
286.982	568.31
287.213	574.31
287.444	580.31
287.675	570.31
287.906	574.31
288.138	547.31
288.369	583.31
288.6	599.31
288.831	569.31
289.062	577.31
289.293	587.31
289.524	585.31
289.755	582.31
289.986	605.31
290.217	571.31
290.448	590.31
290.679	604.31
290.91	569.31
291.141	586.31
291.371	601.31
291.602	544.31
291.833	596.31
292.064	595.31
292.295	598.31
292.526	616.31
292.757	590.31
292.987	570.31
293.218	596.31
293.449	589.31
293.68	576.31
293.91	617.31
294.141	622.31
294.372	581.31
294.603	603.31
294.833	615.31
295.064	613.31
295.295	624.31
295.525	592.31
295.756	611.31
295.987	595.31
296.217	621.31
296.448	627.31
296.679	623.31
296.909	636.31
297.14	619.31
297.37	651.31
297.601	645.31
297.831	633.31
298.062	634.31
298.292	642.31
298.523	634.31
298.753	663.31
298.984	627.31
299.214	625.31
299.445	638.31
299.675	636.31
299.905	641.31
300.136	629.31
300.366	655.31
300.597	659.31
300.827	646.31
301.057	672.31
301.288	694.31
301.518	657.31
301.748	701.31
301.979	690.31
302.209	668.31
302.439	702.31
302.669	659.31
302.9	676.31
303.13	698.31
303.36	700.31
303.59	694.31
303.82	689.31
304.051	711.31
304.281	695.31
304.511	685.31
304.741	670.31
304.971	694.31
305.201	698.31
305.431	685.31
305.661	690.31
305.891	672.31
306.121	694.31
306.352	701.31
306.582	722.31
306.812	704.31
307.042	720.31
307.272	693.31
307.502	708.31
307.731	702.31
307.961	684.31
308.191	712.31
308.421	679.31
308.651	730.31
308.881	700.31
309.111	695.31
309.341	745.31
309.571	721.31
309.8	691.31
310.03	718.31
310.26	710.31
310.49	741.31
310.72	729.31
310.949	713.31
311.179	734.31
311.409	724.31
311.639	710.31
311.868	736.31
312.098	757.31
312.328	712.31
312.557	737.31
312.787	770.31
313.017	746.31
313.246	772.31
313.476	745.31
313.706	747.31
313.935	778.31
314.165	778.31
314.394	770.31
314.624	776.31
314.853	780.31
315.083	750.31
315.312	760.31
315.542	771.31
315.771	762.31
316.001	774.31
316.23	802.31
316.46	791.31
316.689	802.31
316.919	777.31
317.148	788.31
317.377	794.31
317.607	794.31
317.836	812.31
318.065	773.31
318.295	806.31
318.524	808.31
318.753	800.31
318.983	826.31
319.212	801.31
319.441	802.31
319.67	782.31
319.9	800.31
320.129	819.31
320.358	808.31
320.587	826.31
320.816	825.31
321.046	828.31
321.275	796.31
321.504	796.31
321.733	834.31
321.962	827.31
322.191	804.31
322.42	820.31
322.649	820.31
322.878	853.31
323.108	809.31
323.337	824.31
323.566	845.31
323.795	840.31
324.024	819.31
324.253	816.31
324.482	876.31
324.71	837.31
324.939	854.31
325.168	852.31
325.397	872.31
325.626	851.31
325.855	860.31
326.084	836.31
326.313	853.31
326.542	863.31
326.77	850.31
326.999	876.31
327.228	866.31
327.457	869.31
327.686	858.31
327.914	874.31
328.143	889.31
328.372	861.31
328.6	862.31
328.829	869.31
329.058	858.31
329.287	848.31
329.515	877.31
329.744	884.31
329.972	885.31
330.201	864.31
330.43	886.31
330.658	871.31
330.887	864.31
331.115	898.31
331.344	913.31
331.572	896.31
331.801	905.31
332.03	928.31
332.258	898.31
332.486	889.31
332.715	893.31
332.943	889.31
333.172	892.31
333.4	898.31
333.629	910.31
333.857	918.31
334.085	933.31
334.314	935.31
334.542	926.31
334.771	959.31
334.999	946.31
335.227	955.31
335.455	940.31
335.684	975.31
335.912	954.31
336.14	946.31
336.369	944.31
336.597	971.31
336.825	938.31
337.053	965.31
337.281	948.31
337.51	919.31
337.738	950.31
337.966	949.31
338.194	973.31
338.422	933.31
338.65	924.31
338.878	906.31
339.106	961.31
339.334	964.31
339.562	899.31
339.79	941.31
340.018	936.31
340.246	914.31
340.474	937.31
340.702	909.31
340.93	918.31
341.158	920.31
341.386	894.31
341.614	933.31
341.842	918.31
342.07	890.31
342.298	906.31
342.526	941.31
342.754	930.31
342.981	913.31
343.209	904.31
343.437	916.31
343.665	925.31
343.893	941.31
344.12	938.31
344.348	950.31
344.576	956.31
344.804	964.31
345.031	934.31
345.259	935.31
345.487	942.31
345.714	917.31
345.942	959.31
346.17	938.31
346.397	921.31
346.625	908.31
346.853	901.31
347.08	903.31
347.308	909.31
347.535	933.31
347.763	914.31
347.99	895.31
348.218	906.31
348.445	903.31
348.673	881.31
348.9	909.31
349.128	933.31
349.355	931.31
349.583	915.31
349.81	905.31
350.037	895.31
350.265	880.31
350.492	876.31
350.72	875.31
350.947	873.31
351.174	884.31
351.402	916.31
351.629	894.31
351.856	869.31
352.083	893.31
352.311	890.31
352.538	892.31
352.765	913.31
352.992	887.31
353.22	885.31
353.447	900.31
353.674	892.31
353.901	893.31
354.128	887.31
354.355	861.31
354.583	913.31
354.81	891.31
355.037	891.31
355.264	892.31
355.491	899.31
355.718	910.31
355.945	889.31
356.172	876.31
356.399	865.31
356.626	890.31
356.853	881.31
357.08	898.31
357.307	918.31
357.534	882.31
357.761	877.31
357.988	880.31
358.215	898.31
358.441	871.31
358.668	894.31
358.895	885.31
359.122	905.31
359.349	905.31
359.576	903.31
359.802	891.31
360.029	902.31
360.256	896.31
360.483	906.31
360.709	892.31
360.936	915.31
361.163	896.31
361.39	890.31
361.616	899.31
361.843	897.31
362.07	897.31
362.296	941.31
362.523	913.31
362.749	921.31
362.976	907.31
363.203	940.31
363.429	920.31
363.656	934.31
363.882	894.31
364.109	900.31
364.335	905.31
364.562	914.31
364.788	924.31
365.015	922.31
365.241	915.31
365.468	942.31
365.694	915.31
365.92	924.31
366.147	919.31
366.373	899.31
366.599	918.31
366.826	949.31
367.052	924.31
367.278	920.31
367.505	936.31
367.731	941.31
367.957	932.31
368.184	929.31
368.41	946.31
368.636	919.31
368.862	955.31
369.089	927.31
369.315	961.31
369.541	938.31
369.767	969.31
369.993	954.31
370.219	945.31
370.445	952.31
370.672	938.31
370.898	970.31
371.124	964.31
371.35	945.31
371.576	963.31
371.802	981.31
372.028	957.31
372.254	973.31
372.48	957.31
372.706	966.31
372.932	989.31
373.158	973.31
373.384	970.31
373.61	985.31
373.835	989.31
374.061	965.31
374.287	980.31
374.513	965.31
374.739	990.31
374.965	999.31
375.191	962.31
375.416	982.31
375.642	997.31
375.868	976.31
376.094	958.31
376.319	952.31
376.545	952.31
376.771	938.31
376.997	952.31
377.222	948.31
377.448	964.31
377.674	973.31
377.899	958.31
378.125	961.31
378.35	961.31
378.576	929.31
378.802	909.31
379.027	933.31
379.253	952.31
379.478	973.31
379.704	975.31
379.929	976.31
380.155	962.31
380.38	970.31
380.606	951.31
380.831	944.31
381.057	937.31
381.282	969.31
381.507	966.31
381.733	1001.31
381.958	964.31
382.184	968.31
382.409	983.31
382.634	990.31
382.86	973.31
383.085	978.31
383.31	965.31
383.535	957.31
383.761	995.31
383.986	998.31
384.211	994.31
384.436	991.31
384.662	1010.31
384.887	1013.31
385.112	1010.31
385.337	1019.31
385.562	1015.31
385.787	1002.31
386.013	1040.31
386.238	1041.31
386.463	1014.31
386.688	1041.31
386.913	1023.31
387.138	1055.31
387.363	1052.31
387.588	1065.31
387.813	1044.31
388.038	1008.31
388.263	1048.31
388.488	1021.31
388.713	1049.31
388.938	1039.31
389.163	1061.31
389.387	1059.31
389.612	1033.31
389.837	1052.31
390.062	1020.31
390.287	1089.31
390.512	1033.31
390.736	1063.31
390.961	1053.31
391.186	1064.31
391.411	1055.31
391.636	1085.31
391.86	1084.31
392.085	1048.31
392.31	1052.31
392.534	1065.31
392.759	1069.31
392.984	1076.31
393.208	1118.31
393.433	1093.31
393.658	1090.31
393.882	1068.31
394.107	1080.31
394.331	1072.31
394.556	1058.31
394.78	1075.31
395.005	1054.31
395.229	1060.31
395.454	1107.31
395.678	1096.31
395.903	1080.31
396.127	1100.31
396.352	1067.31
396.576	1076.31
396.801	1086.31
397.025	1107.31
397.249	1093.31
397.474	1124.31
397.698	1101.31
397.922	1146.31
398.147	1110.31
398.371	1101.31
398.595	1144.31
398.82	1153.31
399.044	1176.31
399.268	1182.31
399.492	1195.31
399.717	1237.31
399.941	1228.31
400.165	1207.31
400.389	1214.31
400.613	1187.31
400.837	1185.31
401.062	1174.31
401.286	1180.31
401.51	1148.31
401.734	1161.31
401.958	1148.31
402.182	1149.31
402.406	1160.31
402.63	1150.31
402.854	1198.31
403.078	1152.31
403.302	1140.31
403.526	1132.31
403.75	1146.31
403.974	1192.31
404.198	1117.31
404.422	1144.31
404.645	1162.31
404.869	1149.31
405.093	1148.31
405.317	1161.31
405.541	1162.31
405.765	1188.31
405.988	1192.31
406.212	1172.31
406.436	1166.31
406.66	1200.31
406.883	1178.31
407.107	1228.31
407.331	1227.31
407.555	1274.31
407.778	1218.31
408.002	1236.31
408.226	1230.31
408.449	1259.31
408.673	1244.31
408.896	1204.31
409.12	1212.31
409.344	1220.31
409.567	1174.31
409.791	1205.31
410.014	1191.31
410.238	1177.31
410.461	1205.31
410.685	1204.31
410.908	1216.31
411.132	1186.31
411.355	1172.31
411.578	1181.31
411.802	1176.31
412.025	1159.31
412.249	1162.31
412.472	1147.31
412.695	1153.31
412.919	1177.31
413.142	1160.31
413.365	1170.31
413.589	1190.31
413.812	1147.31
414.035	1154.31
414.258	1151.31
414.482	1160.31
414.705	1122.31
414.928	1136.31
415.151	1132.31
415.374	1093.31
415.597	1105.31
415.821	1118.31
416.044	1115.31
416.267	1115.31
416.49	1097.31
416.713	1120.31
416.936	1131.31
417.159	1094.31
417.382	1101.31
417.605	1063.31
417.828	1093.31
418.051	1110.31
418.274	1098.31
418.497	1102.31
418.72	1084.31
418.943	1081.31
419.166	1107.31
419.389	1163.31
419.611	1162.31
419.834	1154.31
420.057	1097.31
420.28	1105.31
420.503	1058.31
420.726	1030.31
420.948	1056.31
421.171	1122.31
421.394	1051.31
421.617	1072.31
421.839	1061.31
422.062	1059.31
422.285	1026.31
422.507	1083.31
422.73	1076.31
422.953	1073.31
423.175	1068.31
423.398	1072.31
423.621	1038.31
423.843	1069.31
424.066	1090.31
424.288	1072.31
424.511	1061.31
424.733	1079.31
424.956	1052.31
425.178	1076.31
425.401	1074.31
425.623	1069.31
425.846	1034.31
426.068	1063.31
426.291	1065.31
426.513	1054.31
426.735	1049.31
426.958	1066.31
427.18	1020.31
427.402	1039.31
427.625	1074.31
427.847	1073.31
428.069	1047.31
428.292	1049.31
428.514	1053.31
428.736	1038.31
428.958	1065.31
429.181	1046.31
429.403	1056.31
429.625	1073.31
429.847	1040.31
430.069	1030.31
430.292	1056.31
430.514	1028.31
430.736	1036.31
430.958	1043.31
431.18	1058.31
431.402	1050.31
431.624	1025.31
431.846	1031.31
432.068	1064.31
432.29	1058.31
432.512	1057.31
432.734	1074.31
432.956	1015.31
433.178	1052.31
433.4	1017.31
433.622	1068.31
433.844	1053.31
434.066	1063.31
434.287	1048.31
434.509	1065.31
434.731	1053.31
434.953	1039.31
435.175	1042.31
435.397	1083.31
435.618	1032.31
435.84	1062.31
436.062	1052.31
436.284	1010.31
436.505	1021.31
436.727	1013.31
436.949	1032.31
437.17	1044.31
437.392	1030.31
437.614	992.31
437.835	1024.31
438.057	1012.31
438.278	996.31
438.5	1010.31
438.721	1010.31
438.943	1012.31
439.165	987.31
439.386	1019.31
439.608	1005.31
439.829	1016.31
440.05	1018.31
440.272	999.31
440.493	1035.31
440.715	1018.31
440.936	1049.31
441.158	1023.31
441.379	1021.31
441.6	1049.31
441.822	1046.31
442.043	1045.31
442.264	1024.31
442.486	992.31
442.707	1044.31
442.928	1032.31
443.149	1023.31
443.371	1038.31
443.592	1037.31
443.813	1040.31
444.034	1015.31
444.255	1004.31
444.476	1027.31
444.698	1042.31
444.919	1056.31
445.14	1127.31
445.361	1072.31
445.582	1021.31
445.803	1044.31
446.024	1014.31
446.245	1002.31
446.466	1016.31
446.687	1013.31
446.908	984.31
447.129	988.31
447.35	977.31
447.571	991.31
447.792	945.31
448.013	975.31
448.234	948.31
448.455	947.31
448.675	959.31
448.896	923.31
449.117	948.31
449.338	954.31
449.559	954.31
449.779	937.31
450	949.31
450.221	920.31
450.442	952.31
450.662	946.31
450.883	927.31
451.104	961.31
451.324	930.31
451.545	939.31
451.766	932.31
451.986	937.31
452.207	947.31
452.428	918.31
452.648	956.31
452.869	924.31
453.089	946.31
453.31	937.31
453.53	931.31
453.751	930.31
453.971	924.31
454.192	914.31
454.412	904.31
454.633	924.31
454.853	899.31
455.073	897.31
455.294	938.31
455.514	934.31
455.734	900.31
455.955	906.31
456.175	920.31
456.395	896.31
456.616	924.31
456.836	928.31
457.056	918.31
457.276	925.31
457.497	966.31
457.717	925.31
457.937	927.31
458.157	952.31
458.377	928.31
458.598	947.31
458.818	964.31
459.038	964.31
459.258	971.31
459.478	981.31
459.698	975.31
459.918	976.31
460.138	990.31
460.358	1012.31
460.578	1020.31
460.798	1017.31
461.018	1006.31
461.238	1052.31
461.458	1045.31
461.678	1032.31
461.898	1053.31
462.118	1038.31
462.338	1061.31
462.558	1044.31
462.777	1089.31
462.997	1069.31
463.217	1069.31
463.437	1075.31
463.657	1101.31
463.876	1098.31
464.096	1087.31
464.316	1064.31
464.536	1066.31
464.755	1084.31
464.975	1083.31
465.195	1024.31
465.414	1049.31
465.634	998.31
465.854	1031.31
466.073	1026.31
466.293	996.31
466.512	982.31
466.732	980.31
466.951	978.31
467.171	978.31
467.391	1001.31
467.61	984.31
467.829	966.31
468.049	986.31
468.268	973.31
468.488	1002.31
468.707	971.31
468.927	970.31
469.146	998.31
469.365	947.31
469.585	970.31
469.804	978.31
470.023	979.31
470.243	1010.31
470.462	1004.31
470.681	985.31
470.901	1007.31
471.12	984.31
471.339	988.31
471.558	1011.31
471.777	1005.31
471.997	996.31
472.216	1025.31
472.435	1005.31
472.654	990.31
472.873	1028.31
473.092	1046.31
473.311	1024.31
473.53	1028.31
473.749	1010.31
473.968	1043.31
474.187	1000.31
474.406	1041.31
474.625	1002.31
474.844	1038.31
475.063	1062.31
475.282	1051.31
475.501	1041.31
475.72	1061.31
475.939	1058.31
476.158	1072.31
476.377	1075.31
476.596	1081.31
476.814	1137.31
477.033	1084.31
477.252	1098.31
477.471	1080.31
477.69	1134.31
477.908	1140.31
478.127	1144.31
478.346	1116.31
478.564	1120.31
478.783	1164.31
479.002	1172.31
479.22	1173.31
479.439	1171.31
479.658	1164.31
479.876	1180.31
480.095	1204.31
480.313	1207.31
480.532	1196.31
480.751	1188.31
480.969	1211.31
481.188	1207.31
481.406	1207.31
481.624	1192.31
481.843	1203.31
482.061	1225.31
482.28	1230.31
482.498	1208.31
482.717	1188.31
482.935	1216.31
483.153	1225.31
483.372	1219.31
483.59	1202.31
483.808	1204.31
484.027	1210.31
484.245	1246.31
484.463	1243.31
484.681	1225.31
484.9	1232.31
485.118	1248.31
485.336	1227.31
485.554	1249.31
485.772	1265.31
485.99	1249.31
486.209	1253.31
486.427	1245.31
486.645	1248.31
486.863	1260.31
487.081	1203.31
487.299	1260.31
487.517	1250.31
487.735	1240.31
487.953	1259.31
488.171	1269.31
488.389	1248.31
488.607	1224.31
488.825	1272.31
489.043	1271.31
489.261	1273.31
489.479	1242.31
489.696	1267.31
489.914	1238.31
490.132	1242.31
490.35	1241.31
490.568	1285.31
490.786	1269.31
491.003	1258.31
491.221	1264.31
491.439	1279.31
491.657	1234.31
491.874	1285.31
492.092	1291.31
492.31	1263.31
492.527	1282.31
492.745	1293.31
492.963	1268.31
493.18	1280.31
493.398	1282.31
493.615	1256.31
493.833	1290.31
494.05	1296.31
494.268	1281.31
494.485	1285.31
494.703	1295.31
494.92	1340.31
495.138	1297.31
495.355	1325.31
495.573	1319.31
495.79	1340.31
496.008	1347.31
