Data from Fe(NO3)3@0.025M.TitratingCurve.Agarose3%dH2O.NegLispCup.LampEnergy10.LIBS07252019_HRD10591_16-56-44-336.txt Node
Date: Thu Jul 25 16:56:44 EDT 2019
User: cochatt
Spectrometer: HR+D1059
Trigger mode: 1
Integration Time (sec): 1.000000E-1
Scans to average: 1
Electric dark correction enabled: true
Nonlinearity correction enabled: false
Boxcar width: 0
XAxis mode: Wavelengths
Number of Pixels in Spectrum: 2048
>>>>>Begin Spectral Data<<<<<
223.165	-25.5
223.4	-25.5
223.635	-25.5
223.869	-20.5
224.104	-25.5
224.338	-13.5
224.573	-9.5
224.808	-19.5
225.042	1.5
225.277	10.5
225.511	-1.5
225.746	3.5
225.98	10.5
226.215	13.5
226.449	12.5
226.683	14.5
226.918	24.5
227.152	24.5
227.387	27.5
227.621	37.5
227.856	42.5
228.09	43.5
228.324	48.5
228.559	53.5
228.793	61.5
229.027	86.5
229.262	87.5
229.496	78.5
229.73	70.5
229.964	69.5
230.199	97.5
230.433	83.5
230.667	88.5
230.901	100.5
231.136	90.5
231.37	85.5
231.604	86.5
231.838	92.5
232.072	97.5
232.306	99.5
232.541	95.5
232.775	76.5
233.009	89.5
233.243	106.5
233.477	98.5
233.711	114.5
233.945	74.5
234.179	94.5
234.413	105.5
234.647	93.5
234.881	97.5
235.115	104.5
235.349	87.5
235.583	98.5
235.817	80.5
236.051	83.5
236.285	99.5
236.519	102.5
236.753	92.5
236.987	91.5
237.221	115.5
237.455	93.5
237.689	109.5
237.922	111.5
238.156	81.5
238.39	83.5
238.624	107.5
238.858	91.5
239.091	108.5
239.325	102.5
239.559	101.5
239.793	111.5
240.027	95.5
240.26	88.5
240.494	107.5
240.728	100.5
240.961	94.5
241.195	113.5
241.429	105.5
241.662	94.5
241.896	102.5
242.13	109.5
242.363	93.5
242.597	104.5
242.83	98.5
243.064	104.5
243.298	99.5
243.531	116.5
243.765	111.5
243.998	101.5
244.232	101.5
244.465	111.5
244.699	114.5
244.932	118.5
245.166	111.5
245.399	105.5
245.633	116.5
245.866	107.5
246.099	108.5
246.333	106.5
246.566	109.5
246.8	104.5
247.033	115.5
247.266	109.5
247.5	90.5
247.733	119.5
247.966	124.5
248.2	103.5
248.433	111.5
248.666	106.5
248.899	107.5
249.133	122.5
249.366	114.5
249.599	113.5
249.832	105.5
250.066	95.5
250.299	115.5
250.532	114.5
250.765	105.5
250.998	113.5
251.231	121.5
251.465	131.5
251.698	122.5
251.931	119.5
252.164	117.5
252.397	124.5
252.63	136.5
252.863	128.5
253.096	132.5
253.329	116.5
253.562	128.5
253.795	123.5
254.028	122.5
254.261	117.5
254.494	123.5
254.727	113.5
254.96	123.5
255.193	126.5
255.426	127.5
255.659	121.5
255.892	118.5
256.124	118.5
256.357	117.5
256.59	123.5
256.823	121.5
257.056	124.5
257.289	121.5
257.521	123.5
257.754	120.5
257.987	133.5
258.22	124.5
258.452	124.5
258.685	135.5
258.918	135.5
259.151	140.5
259.383	137.5
259.616	137.5
259.849	134.5
260.081	141.5
260.314	131.5
260.547	136.5
260.779	139.5
261.012	140.5
261.244	139.5
261.477	145.5
261.71	139.5
261.942	132.5
262.175	139.5
262.407	114.5
262.64	151.5
262.872	159.5
263.105	144.5
263.337	137.5
263.57	125.5
263.802	151.5
264.035	147.5
264.267	151.5
264.499	142.5
264.732	148.5
264.964	146.5
265.197	141.5
265.429	142.5
265.661	153.5
265.894	130.5
266.126	161.5
266.358	141.5
266.591	134.5
266.823	138.5
267.055	144.5
267.287	152.5
267.52	132.5
267.752	136.5
267.984	145.5
268.216	132.5
268.448	142.5
268.681	147.5
268.913	131.5
269.145	141.5
269.377	148.5
269.609	159.5
269.841	166.5
270.073	155.5
270.306	146.5
270.538	136.5
270.77	140.5
271.002	159.5
271.234	149.5
271.466	169.5
271.698	160.5
271.93	163.5
272.162	155.5
272.394	150.5
272.626	150.5
272.858	142.5
273.09	154.5
273.322	148.5
273.553	154.5
273.785	159.5
274.017	156.5
274.249	164.5
274.481	170.5
274.713	149.5
274.945	172.5
275.176	176.5
275.408	164.5
275.64	169.5
275.872	172.5
276.104	164.5
276.335	152.5
276.567	153.5
276.799	159.5
277.031	164.5
277.262	161.5
277.494	157.5
277.726	175.5
277.957	179.5
278.189	170.5
278.421	166.5
278.652	165.5
278.884	164.5
279.115	187.5
279.347	163.5
279.579	166.5
279.81	168.5
280.042	190.5
280.273	167.5
280.505	155.5
280.736	161.5
280.968	166.5
281.199	171.5
281.431	168.5
281.662	174.5
281.894	179.5
282.125	163.5
282.356	159.5
282.588	168.5
282.819	181.5
283.051	182.5
283.282	184.5
283.513	182.5
283.745	188.5
283.976	198.5
284.207	185.5
284.439	157.5
284.67	176.5
284.901	186.5
285.132	168.5
285.364	191.5
285.595	185.5
285.826	168.5
286.057	183.5
286.288	180.5
286.52	189.5
286.751	204.5
286.982	177.5
287.213	185.5
287.444	195.5
287.675	181.5
287.906	194.5
288.138	182.5
288.369	185.5
288.6	181.5
288.831	194.5
289.062	191.5
289.293	186.5
289.524	171.5
289.755	164.5
289.986	194.5
290.217	191.5
290.448	181.5
290.679	190.5
290.91	198.5
291.141	193.5
291.371	203.5
291.602	187.5
291.833	193.5
292.064	203.5
292.295	208.5
292.526	212.5
292.757	199.5
292.987	193.5
293.218	178.5
293.449	202.5
293.68	195.5
293.91	189.5
294.141	196.5
294.372	187.5
294.603	207.5
294.833	197.5
295.064	198.5
295.295	202.5
295.525	200.5
295.756	193.5
295.987	183.5
296.217	187.5
296.448	205.5
296.679	205.5
296.909	195.5
297.14	212.5
297.37	188.5
297.601	218.5
297.831	205.5
298.062	201.5
298.292	213.5
298.523	198.5
298.753	206.5
298.984	207.5
299.214	193.5
299.445	209.5
299.675	210.5
299.905	214.5
300.136	210.5
300.366	204.5
300.597	208.5
300.827	205.5
301.057	217.5
301.288	217.5
301.518	218.5
301.748	214.5
301.979	223.5
302.209	211.5
302.439	218.5
302.669	226.5
302.9	212.5
303.13	225.5
303.36	219.5
303.59	212.5
303.82	204.5
304.051	215.5
304.281	220.5
304.511	216.5
304.741	220.5
304.971	234.5
305.201	205.5
305.431	218.5
305.661	219.5
305.891	211.5
306.121	206.5
306.352	228.5
306.582	227.5
306.812	229.5
307.042	224.5
307.272	215.5
307.502	215.5
307.731	215.5
307.961	212.5
308.191	227.5
308.421	227.5
308.651	226.5
308.881	240.5
309.111	213.5
309.341	216.5
309.571	229.5
309.8	221.5
310.03	214.5
310.26	216.5
310.49	232.5
310.72	219.5
310.949	231.5
311.179	222.5
311.409	226.5
311.639	229.5
311.868	238.5
312.098	243.5
312.328	238.5
312.557	241.5
312.787	232.5
313.017	226.5
313.246	228.5
313.476	236.5
313.706	234.5
313.935	239.5
314.165	245.5
314.394	251.5
314.624	230.5
314.853	252.5
315.083	247.5
315.312	217.5
315.542	227.5
315.771	227.5
316.001	243.5
316.23	232.5
316.46	236.5
316.689	236.5
316.919	257.5
317.148	223.5
317.377	248.5
317.607	240.5
317.836	261.5
318.065	253.5
318.295	231.5
318.524	239.5
318.753	245.5
318.983	244.5
319.212	229.5
319.441	243.5
319.67	228.5
319.9	242.5
320.129	239.5
320.358	244.5
320.587	239.5
320.816	243.5
321.046	251.5
321.275	231.5
321.504	243.5
321.733	236.5
321.962	249.5
322.191	235.5
322.42	241.5
322.649	252.5
322.878	252.5
323.108	245.5
323.337	266.5
323.566	248.5
323.795	245.5
324.024	274.5
324.253	239.5
324.482	248.5
324.71	261.5
324.939	263.5
325.168	258.5
325.397	256.5
325.626	248.5
325.855	257.5
326.084	280.5
326.313	269.5
326.542	255.5
326.77	252.5
326.999	261.5
327.228	263.5
327.457	261.5
327.686	268.5
327.914	265.5
328.143	286.5
328.372	248.5
328.6	265.5
328.829	268.5
329.058	266.5
329.287	267.5
329.515	283.5
329.744	263.5
329.972	257.5
330.201	252.5
330.43	277.5
330.658	277.5
330.887	278.5
331.115	272.5
331.344	269.5
331.572	270.5
331.801	275.5
332.03	280.5
332.258	283.5
332.486	267.5
332.715	286.5
332.943	287.5
333.172	306.5
333.4	294.5
333.629	303.5
333.857	317.5
334.085	316.5
334.314	307.5
334.542	303.5
334.771	281.5
334.999	314.5
335.227	307.5
335.455	290.5
335.684	303.5
335.912	305.5
336.14	303.5
336.369	286.5
336.597	314.5
336.825	311.5
337.053	312.5
337.281	297.5
337.51	306.5
337.738	294.5
337.966	296.5
338.194	274.5
338.422	287.5
338.65	287.5
338.878	274.5
339.106	276.5
339.334	303.5
339.562	289.5
339.79	291.5
340.018	283.5
340.246	273.5
340.474	287.5
340.702	286.5
340.93	295.5
341.158	297.5
341.386	289.5
341.614	277.5
341.842	288.5
342.07	281.5
342.298	289.5
342.526	291.5
342.754	288.5
342.981	295.5
343.209	300.5
343.437	284.5
343.665	292.5
343.893	290.5
344.12	313.5
344.348	299.5
344.576	303.5
344.804	297.5
345.031	308.5
345.259	283.5
345.487	279.5
345.714	279.5
345.942	265.5
346.17	263.5
346.397	294.5
346.625	273.5
346.853	299.5
347.08	283.5
347.308	268.5
347.535	278.5
347.763	261.5
347.99	256.5
348.218	279.5
348.445	259.5
348.673	275.5
348.9	280.5
349.128	264.5
349.355	269.5
349.583	283.5
349.81	279.5
350.037	286.5
350.265	277.5
350.492	280.5
350.72	263.5
350.947	264.5
351.174	265.5
351.402	280.5
351.629	258.5
351.856	260.5
352.083	264.5
352.311	268.5
352.538	270.5
352.765	255.5
352.992	280.5
353.22	283.5
353.447	278.5
353.674	269.5
353.901	271.5
354.128	269.5
354.355	276.5
354.583	282.5
354.81	270.5
355.037	262.5
355.264	283.5
355.491	266.5
355.718	267.5
355.945	269.5
356.172	258.5
356.399	282.5
356.626	271.5
356.853	277.5
357.08	275.5
357.307	282.5
357.534	264.5
357.761	283.5
357.988	264.5
358.215	283.5
358.441	265.5
358.668	251.5
358.895	276.5
359.122	283.5
359.349	278.5
359.576	279.5
359.802	260.5
360.029	272.5
360.256	292.5
360.483	260.5
360.709	266.5
360.936	277.5
361.163	290.5
361.39	271.5
361.616	273.5
361.843	279.5
362.07	262.5
362.296	282.5
362.523	278.5
362.749	283.5
362.976	281.5
363.203	299.5
363.429	293.5
363.656	311.5
363.882	273.5
364.109	277.5
364.335	268.5
364.562	275.5
364.788	273.5
365.015	265.5
365.241	279.5
365.468	275.5
365.694	276.5
365.92	269.5
366.147	265.5
366.373	295.5
366.599	283.5
366.826	277.5
367.052	273.5
367.278	268.5
367.505	274.5
367.731	288.5
367.957	278.5
368.184	300.5
368.41	288.5
368.636	279.5
368.862	283.5
369.089	295.5
369.315	272.5
369.541	283.5
369.767	297.5
369.993	275.5
370.219	286.5
370.445	307.5
370.672	298.5
370.898	288.5
371.124	300.5
371.35	304.5
371.576	300.5
371.802	288.5
372.028	302.5
372.254	315.5
372.48	310.5
372.706	307.5
372.932	300.5
373.158	319.5
373.384	312.5
373.61	296.5
373.835	300.5
374.061	290.5
374.287	298.5
374.513	315.5
374.739	297.5
374.965	314.5
375.191	310.5
375.416	296.5
375.642	321.5
375.868	296.5
376.094	303.5
376.319	308.5
376.545	315.5
376.771	310.5
376.997	297.5
377.222	324.5
377.448	281.5
377.674	283.5
377.899	279.5
378.125	289.5
378.35	304.5
378.576	298.5
378.802	289.5
379.027	295.5
379.253	299.5
379.478	288.5
379.704	297.5
379.929	298.5
380.155	323.5
380.38	298.5
380.606	290.5
380.831	290.5
381.057	298.5
381.282	308.5
381.507	294.5
381.733	295.5
381.958	297.5
382.184	305.5
382.409	297.5
382.634	305.5
382.86	300.5
383.085	314.5
383.31	314.5
383.535	312.5
383.761	305.5
383.986	312.5
384.211	323.5
384.436	327.5
384.662	304.5
384.887	345.5
385.112	332.5
385.337	329.5
385.562	353.5
385.787	354.5
386.013	335.5
386.238	341.5
386.463	332.5
386.688	353.5
386.913	340.5
387.138	331.5
387.363	344.5
387.588	319.5
387.813	333.5
388.038	352.5
388.263	332.5
388.488	339.5
388.713	348.5
388.938	333.5
389.163	339.5
389.387	347.5
389.612	343.5
389.837	318.5
390.062	323.5
390.287	329.5
390.512	336.5
390.736	354.5
390.961	351.5
391.186	324.5
391.411	343.5
391.636	341.5
391.86	368.5
392.085	367.5
392.31	355.5
392.534	368.5
392.759	355.5
392.984	365.5
393.208	340.5
393.433	338.5
393.658	355.5
393.882	330.5
394.107	324.5
394.331	357.5
394.556	344.5
394.78	367.5
395.005	359.5
395.229	329.5
395.454	372.5
395.678	371.5
395.903	380.5
396.127	346.5
396.352	371.5
396.576	371.5
396.801	359.5
397.025	356.5
397.249	369.5
397.474	389.5
397.698	357.5
397.922	381.5
398.147	395.5
398.371	380.5
398.595	398.5
398.82	403.5
399.044	400.5
399.268	441.5
399.492	466.5
399.717	483.5
399.941	478.5
400.165	461.5
400.389	455.5
400.613	420.5
400.837	411.5
401.062	407.5
401.286	392.5
401.51	395.5
401.734	407.5
401.958	409.5
402.182	397.5
402.406	402.5
402.63	399.5
402.854	398.5
403.078	414.5
403.302	407.5
403.526	387.5
403.75	425.5
403.974	403.5
404.198	412.5
404.422	414.5
404.645	419.5
404.869	400.5
405.093	398.5
405.317	390.5
405.541	403.5
405.765	406.5
405.988	419.5
406.212	433.5
406.436	426.5
406.66	451.5
406.883	435.5
407.107	437.5
407.331	435.5
407.555	440.5
407.778	460.5
408.002	441.5
408.226	437.5
408.449	439.5
408.673	425.5
408.896	435.5
409.12	423.5
409.344	407.5
409.567	404.5
409.791	415.5
410.014	417.5
410.238	423.5
410.461	405.5
410.685	415.5
410.908	412.5
411.132	427.5
411.355	396.5
411.578	407.5
411.802	417.5
412.025	404.5
412.249	401.5
412.472	411.5
412.695	394.5
412.919	410.5
413.142	409.5
413.365	410.5
413.589	411.5
413.812	394.5
414.035	392.5
414.258	368.5
414.482	403.5
414.705	405.5
414.928	397.5
415.151	420.5
415.374	396.5
415.597	385.5
415.821	393.5
416.044	386.5
416.267	384.5
416.49	390.5
416.713	409.5
416.936	379.5
417.159	386.5
417.382	376.5
417.605	379.5
417.828	371.5
418.051	386.5
418.274	376.5
418.497	381.5
418.72	377.5
418.943	376.5
419.166	376.5
419.389	411.5
419.611	398.5
419.834	385.5
420.057	401.5
420.28	369.5
420.503	391.5
420.726	387.5
420.948	382.5
421.171	392.5
421.394	401.5
421.617	370.5
421.839	367.5
422.062	373.5
422.285	376.5
422.507	387.5
422.73	377.5
422.953	368.5
423.175	368.5
423.398	386.5
423.621	375.5
423.843	384.5
424.066	389.5
424.288	378.5
424.511	384.5
424.733	387.5
424.956	349.5
425.178	370.5
425.401	375.5
425.623	379.5
425.846	364.5
426.068	379.5
426.291	375.5
426.513	352.5
426.735	376.5
426.958	371.5
427.18	359.5
427.402	365.5
427.625	374.5
427.847	364.5
428.069	351.5
428.292	371.5
428.514	354.5
428.736	353.5
428.958	357.5
429.181	344.5
429.403	348.5
429.625	339.5
429.847	363.5
430.069	364.5
430.292	361.5
430.514	345.5
430.736	348.5
430.958	363.5
431.18	369.5
431.402	343.5
431.624	364.5
431.846	356.5
432.068	375.5
432.29	357.5
432.512	340.5
432.734	342.5
432.956	369.5
433.178	347.5
433.4	365.5
433.622	375.5
433.844	373.5
434.066	360.5
434.287	354.5
434.509	368.5
434.731	375.5
434.953	391.5
435.175	364.5
435.397	385.5
435.618	343.5
435.84	349.5
436.062	362.5
436.284	354.5
436.505	379.5
436.727	349.5
436.949	347.5
437.17	336.5
437.392	361.5
437.614	344.5
437.835	335.5
438.057	353.5
438.278	341.5
438.5	342.5
438.721	325.5
438.943	349.5
439.165	337.5
439.386	350.5
439.608	362.5
439.829	375.5
440.05	348.5
440.272	356.5
440.493	351.5
440.715	349.5
440.936	344.5
441.158	347.5
441.379	349.5
441.6	367.5
441.822	361.5
442.043	371.5
442.264	360.5
442.486	355.5
442.707	363.5
442.928	380.5
443.149	371.5
443.371	367.5
443.592	374.5
443.813	355.5
444.034	373.5
444.255	385.5
444.476	389.5
444.698	416.5
444.919	407.5
445.14	476.5
445.361	436.5
445.582	381.5
445.803	372.5
446.024	369.5
446.245	372.5
446.466	358.5
446.687	361.5
446.908	343.5
447.129	330.5
447.35	332.5
447.571	340.5
447.792	330.5
448.013	322.5
448.234	332.5
448.455	325.5
448.675	344.5
448.896	329.5
449.117	324.5
449.338	319.5
449.559	315.5
449.779	324.5
450	321.5
450.221	314.5
450.442	314.5
450.662	321.5
450.883	303.5
451.104	324.5
451.324	317.5
451.545	327.5
451.766	305.5
451.986	331.5
452.207	340.5
452.428	321.5
452.648	314.5
452.869	300.5
453.089	304.5
453.31	306.5
453.53	304.5
453.751	306.5
453.971	312.5
454.192	315.5
454.412	297.5
454.633	301.5
454.853	327.5
455.073	323.5
455.294	310.5
455.514	307.5
455.734	308.5
455.955	296.5
456.175	307.5
456.395	310.5
456.616	300.5
456.836	305.5
457.056	308.5
457.276	312.5
457.497	296.5
457.717	310.5
457.937	319.5
458.157	326.5
458.377	353.5
458.598	325.5
458.818	360.5
459.038	348.5
459.258	353.5
459.478	338.5
459.698	342.5
459.918	353.5
460.138	375.5
460.358	373.5
460.578	375.5
460.798	399.5
461.018	380.5
461.238	386.5
461.458	400.5
461.678	374.5
461.898	392.5
462.118	388.5
462.338	406.5
462.558	402.5
462.777	434.5
462.997	416.5
463.217	433.5
463.437	421.5
463.657	436.5
463.876	431.5
464.096	427.5
464.316	413.5
464.536	397.5
464.755	396.5
464.975	387.5
465.195	376.5
465.414	376.5
465.634	349.5
465.854	355.5
466.073	357.5
466.293	359.5
466.512	347.5
466.732	351.5
466.951	360.5
467.171	363.5
467.391	343.5
467.61	342.5
467.829	340.5
468.049	345.5
468.268	328.5
468.488	334.5
468.707	337.5
468.927	341.5
469.146	352.5
469.365	331.5
469.585	341.5
469.804	355.5
470.023	351.5
470.243	329.5
470.462	353.5
470.681	357.5
470.901	328.5
471.12	340.5
471.339	343.5
471.558	356.5
471.777	327.5
471.997	347.5
472.216	352.5
472.435	335.5
472.654	314.5
472.873	325.5
473.092	329.5
473.311	338.5
473.53	337.5
473.749	329.5
473.968	334.5
474.187	332.5
474.406	343.5
474.625	325.5
474.844	352.5
475.063	357.5
475.282	344.5
475.501	350.5
475.72	340.5
475.939	341.5
476.158	361.5
476.377	359.5
476.596	339.5
476.814	370.5
477.033	369.5
477.252	350.5
477.471	367.5
477.69	360.5
477.908	385.5
478.127	364.5
478.346	367.5
478.564	385.5
478.783	380.5
479.002	396.5
479.22	383.5
479.439	403.5
479.658	403.5
479.876	389.5
480.095	392.5
480.313	412.5
480.532	417.5
480.751	410.5
480.969	397.5
481.188	395.5
481.406	411.5
481.624	391.5
481.843	380.5
482.061	387.5
482.28	372.5
482.498	403.5
482.717	404.5
482.935	368.5
483.153	374.5
483.372	387.5
483.59	389.5
483.808	371.5
484.027	380.5
484.245	361.5
484.463	385.5
484.681	412.5
484.9	413.5
485.118	398.5
485.336	396.5
485.554	413.5
485.772	393.5
485.99	392.5
486.209	407.5
486.427	402.5
486.645	416.5
486.863	393.5
487.081	386.5
487.299	384.5
487.517	406.5
487.735	398.5
487.953	402.5
488.171	413.5
488.389	415.5
488.607	403.5
488.825	397.5
489.043	399.5
489.261	393.5
489.479	412.5
489.696	411.5
489.914	402.5
490.132	414.5
490.35	409.5
490.568	399.5
490.786	413.5
491.003	413.5
491.221	409.5
491.439	414.5
491.657	419.5
491.874	417.5
492.092	417.5
492.31	410.5
492.527	396.5
492.745	400.5
492.963	403.5
493.18	393.5
493.398	419.5
493.615	393.5
493.833	391.5
494.05	436.5
494.268	417.5
494.485	424.5
494.703	418.5
494.92	412.5
495.138	434.5
495.355	433.5
495.573	424.5
495.79	421.5
496.008	433.5
496.225	406.5
496.442	443.5
496.66	431.5
496.877	442.5
497.094	469.5
497.312	457.5
497.529	467.5
497.746	459.5
497.963	469.5
498.181	477.5
498.398	515.5
498.615	530.5
498.832	545.5
499.049	574.5
499.267	600.5
499.484	592.5
499.701	667.5
499.918	699.5
500.135	725.5
500.352	753.5
500.569	792.5
500.786	761.5
501.003	744.5
501.22	730.5
501.437	659.5
501.654	606.5
501.871	602.5
502.088	556.5
502.305	556.5
502.522	545.5
502.739	523.5
502.956	509.5
503.172	495.5
503.389	491.5
503.606	470.5
503.823	466.5
504.04	465.5
504.256	454.5
504.473	455.5
504.69	470.5
504.907	447.5
505.123	426.5
505.34	443.5
505.557	403.5
505.773	415.5
505.99	411.5
506.207	388.5
506.423	389.5
506.64	371.5
506.856	400.5
507.073	390.5
507.289	397.5
507.506	360.5
507.722	371.5
507.939	373.5
508.155	356.5
508.372	365.5
508.588	352.5
508.805	361.5
509.021	355.5
509.238	341.5
509.454	335.5
509.67	363.5
509.887	344.5
510.103	329.5
510.319	341.5
510.536	330.5
510.752	344.5
510.968	343.5
511.184	351.5
511.401	320.5
511.617	347.5
511.833	344.5
512.049	331.5
512.265	320.5
512.481	348.5
512.698	350.5
512.914	347.5
513.13	337.5
513.346	348.5
513.562	351.5
513.778	355.5
513.994	361.5
514.21	332.5
514.426	338.5
514.642	349.5
514.858	354.5
515.074	364.5
515.29	372.5
515.506	362.5
515.721	369.5
515.937	366.5
516.153	365.5
516.369	365.5
516.585	384.5
516.801	374.5
517.016	386.5
517.232	409.5
517.448	407.5
517.664	418.5
517.879	409.5
518.095	385.5
518.311	408.5
518.527	372.5
518.742	398.5
518.958	376.5
519.173	397.5
519.389	361.5
519.605	373.5
519.82	356.5
520.036	366.5
