Data from Fe(NO3)3@0.0125M.TitratingCurve.Agarose3%dH2O.NegLispCup.LampEnergy10.LIBS07252019_HRD10591_17-00-22-336.txt Node
Date: Thu Jul 25 17:00:22 EDT 2019
User: cochatt
Spectrometer: HR+D1059
Trigger mode: 1
Integration Time (sec): 1.000000E-1
Scans to average: 1
Electric dark correction enabled: true
Nonlinearity correction enabled: false
Boxcar width: 0
XAxis mode: Wavelengths
Number of Pixels in Spectrum: 2048
>>>>>Begin Spectral Data<<<<<
223.165	-8.25
223.4	-8.25
223.635	-8.25
223.869	-23.25
224.104	-4.25
224.338	-10.25
224.573	-15.25
224.808	-12.25
225.042	-14.25
225.277	-10.25
225.511	4.75
225.746	-8.25
225.98	7.75
226.215	2.75
226.449	6.75
226.683	21.75
226.918	30.75
227.152	31.75
227.387	34.75
227.621	34.75
227.856	47.75
228.09	48.75
228.324	43.75
228.559	72.75
228.793	52.75
229.027	79.75
229.262	79.75
229.496	74.75
229.73	94.75
229.964	88.75
230.199	91.75
230.433	100.75
230.667	98.75
230.901	115.75
231.136	119.75
231.37	111.75
231.604	113.75
231.838	108.75
232.072	106.75
232.306	113.75
232.541	115.75
232.775	108.75
233.009	108.75
233.243	109.75
233.477	101.75
233.711	101.75
233.945	117.75
234.179	112.75
234.413	105.75
234.647	111.75
234.881	116.75
235.115	108.75
235.349	118.75
235.583	97.75
235.817	119.75
236.051	110.75
236.285	102.75
236.519	111.75
236.753	93.75
236.987	121.75
237.221	112.75
237.455	122.75
237.689	109.75
237.922	102.75
238.156	124.75
238.39	121.75
238.624	123.75
238.858	122.75
239.091	124.75
239.325	116.75
239.559	132.75
239.793	128.75
240.027	136.75
240.26	125.75
240.494	117.75
240.728	111.75
240.961	121.75
241.195	121.75
241.429	122.75
241.662	129.75
241.896	134.75
242.13	128.75
242.363	128.75
242.597	128.75
242.83	135.75
243.064	126.75
243.298	118.75
243.531	121.75
243.765	127.75
243.998	130.75
244.232	133.75
244.465	136.75
244.699	124.75
244.932	138.75
245.166	136.75
245.399	101.75
245.633	127.75
245.866	150.75
246.099	129.75
246.333	141.75
246.566	139.75
246.8	151.75
247.033	140.75
247.266	138.75
247.5	140.75
247.733	151.75
247.966	139.75
248.2	159.75
248.433	168.75
248.666	156.75
248.899	161.75
249.133	155.75
249.366	155.75
249.599	156.75
249.832	159.75
250.066	153.75
250.299	161.75
250.532	141.75
250.765	157.75
250.998	164.75
251.231	157.75
251.465	158.75
251.698	172.75
251.931	152.75
252.164	165.75
252.397	178.75
252.63	149.75
252.863	186.75
253.096	168.75
253.329	173.75
253.562	154.75
253.795	168.75
254.028	164.75
254.261	180.75
254.494	182.75
254.727	175.75
254.96	157.75
255.193	171.75
255.426	159.75
255.659	143.75
255.892	180.75
256.124	168.75
256.357	172.75
256.59	187.75
256.823	184.75
257.056	171.75
257.289	183.75
257.521	177.75
257.754	162.75
257.987	176.75
258.22	172.75
258.452	184.75
258.685	199.75
258.918	197.75
259.151	198.75
259.383	188.75
259.616	189.75
259.849	199.75
260.081	208.75
260.314	221.75
260.547	196.75
260.779	175.75
261.012	199.75
261.244	198.75
261.477	198.75
261.71	204.75
261.942	203.75
262.175	181.75
262.407	198.75
262.64	189.75
262.872	209.75
263.105	194.75
263.337	209.75
263.57	215.75
263.802	212.75
264.035	212.75
264.267	193.75
264.499	209.75
264.732	172.75
264.964	189.75
265.197	200.75
265.429	204.75
265.661	195.75
265.894	196.75
266.126	224.75
266.358	200.75
266.591	198.75
266.823	208.75
267.055	213.75
267.287	216.75
267.52	203.75
267.752	195.75
267.984	213.75
268.216	201.75
268.448	203.75
268.681	212.75
268.913	210.75
269.145	215.75
269.377	209.75
269.609	190.75
269.841	203.75
270.073	203.75
270.306	205.75
270.538	219.75
270.77	218.75
271.002	219.75
271.234	228.75
271.466	212.75
271.698	225.75
271.93	215.75
272.162	217.75
272.394	207.75
272.626	227.75
272.858	240.75
273.09	217.75
273.322	233.75
273.553	230.75
273.785	224.75
274.017	262.75
274.249	251.75
274.481	259.75
274.713	263.75
274.945	275.75
275.176	287.75
275.408	278.75
275.64	255.75
275.872	257.75
276.104	244.75
276.335	242.75
276.567	237.75
276.799	259.75
277.031	237.75
277.262	243.75
277.494	239.75
277.726	234.75
277.957	236.75
278.189	247.75
278.421	246.75
278.652	241.75
278.884	252.75
279.115	255.75
279.347	275.75
279.579	239.75
279.81	256.75
280.042	261.75
280.273	235.75
280.505	232.75
280.736	257.75
280.968	263.75
281.199	256.75
281.431	267.75
281.662	275.75
281.894	255.75
282.125	253.75
282.356	257.75
282.588	278.75
282.819	248.75
283.051	263.75
283.282	277.75
283.513	269.75
283.745	281.75
283.976	268.75
284.207	253.75
284.439	245.75
284.67	269.75
284.901	271.75
285.132	265.75
285.364	278.75
285.595	275.75
285.826	280.75
286.057	289.75
286.288	289.75
286.52	275.75
286.751	282.75
286.982	275.75
287.213	276.75
287.444	294.75
287.675	278.75
287.906	288.75
288.138	275.75
288.369	280.75
288.6	268.75
288.831	278.75
289.062	295.75
289.293	294.75
289.524	290.75
289.755	288.75
289.986	278.75
290.217	294.75
290.448	298.75
290.679	291.75
290.91	299.75
291.141	287.75
291.371	297.75
291.602	303.75
291.833	289.75
292.064	320.75
292.295	283.75
292.526	300.75
292.757	288.75
292.987	276.75
293.218	288.75
293.449	304.75
293.68	288.75
293.91	311.75
294.141	293.75
294.372	296.75
294.603	297.75
294.833	326.75
295.064	317.75
295.295	315.75
295.525	310.75
295.756	315.75
295.987	299.75
296.217	316.75
296.448	303.75
296.679	310.75
296.909	323.75
297.14	312.75
297.37	295.75
297.601	323.75
297.831	315.75
298.062	322.75
298.292	321.75
298.523	334.75
298.753	333.75
298.984	314.75
299.214	304.75
299.445	315.75
299.675	321.75
299.905	321.75
300.136	337.75
300.366	332.75
300.597	328.75
300.827	326.75
301.057	330.75
301.288	331.75
301.518	326.75
301.748	345.75
301.979	356.75
302.209	348.75
302.439	331.75
302.669	341.75
302.9	343.75
303.13	330.75
303.36	352.75
303.59	317.75
303.82	337.75
304.051	338.75
304.281	358.75
304.511	345.75
304.741	348.75
304.971	344.75
305.201	356.75
305.431	339.75
305.661	363.75
305.891	354.75
306.121	364.75
306.352	360.75
306.582	338.75
306.812	347.75
307.042	353.75
307.272	362.75
307.502	346.75
307.731	343.75
307.961	344.75
308.191	340.75
308.421	354.75
308.651	351.75
308.881	350.75
309.111	365.75
309.341	344.75
309.571	347.75
309.8	341.75
310.03	355.75
310.26	357.75
310.49	357.75
310.72	356.75
310.949	322.75
311.179	349.75
311.409	358.75
311.639	353.75
311.868	352.75
312.098	346.75
312.328	367.75
312.557	369.75
312.787	368.75
313.017	383.75
313.246	379.75
313.476	353.75
313.706	357.75
313.935	370.75
314.165	369.75
314.394	367.75
314.624	375.75
314.853	385.75
315.083	385.75
315.312	388.75
315.542	383.75
315.771	378.75
316.001	369.75
316.23	388.75
316.46	381.75
316.689	394.75
316.919	408.75
317.148	391.75
317.377	378.75
317.607	377.75
317.836	389.75
318.065	383.75
318.295	401.75
318.524	391.75
318.753	387.75
318.983	390.75
319.212	409.75
319.441	389.75
319.67	388.75
319.9	380.75
320.129	397.75
320.358	402.75
320.587	407.75
320.816	404.75
321.046	380.75
321.275	416.75
321.504	416.75
321.733	410.75
321.962	403.75
322.191	411.75
322.42	407.75
322.649	409.75
322.878	398.75
323.108	392.75
323.337	384.75
323.566	396.75
323.795	405.75
324.024	408.75
324.253	406.75
324.482	399.75
324.71	403.75
324.939	389.75
325.168	416.75
325.397	409.75
325.626	401.75
325.855	417.75
326.084	435.75
326.313	426.75
326.542	410.75
326.77	421.75
326.999	423.75
327.228	439.75
327.457	431.75
327.686	414.75
327.914	419.75
328.143	423.75
328.372	429.75
328.6	422.75
328.829	399.75
329.058	430.75
329.287	431.75
329.515	440.75
329.744	431.75
329.972	436.75
330.201	439.75
330.43	449.75
330.658	439.75
330.887	445.75
331.115	411.75
331.344	441.75
331.572	459.75
331.801	456.75
332.03	449.75
332.258	448.75
332.486	467.75
332.715	473.75
332.943	457.75
333.172	455.75
333.4	466.75
333.629	457.75
333.857	461.75
334.085	472.75
334.314	470.75
334.542	457.75
334.771	492.75
334.999	489.75
335.227	479.75
335.455	477.75
335.684	470.75
335.912	472.75
336.14	500.75
336.369	467.75
336.597	472.75
336.825	491.75
337.053	486.75
337.281	467.75
337.51	480.75
337.738	490.75
337.966	476.75
338.194	476.75
338.422	490.75
338.65	466.75
338.878	474.75
339.106	458.75
339.334	470.75
339.562	464.75
339.79	464.75
340.018	482.75
340.246	455.75
340.474	464.75
340.702	452.75
340.93	460.75
341.158	462.75
341.386	444.75
341.614	468.75
341.842	454.75
342.07	455.75
342.298	452.75
342.526	450.75
342.754	470.75
342.981	460.75
343.209	452.75
343.437	482.75
343.665	457.75
343.893	471.75
344.12	503.75
344.348	483.75
344.576	482.75
344.804	474.75
345.031	453.75
345.259	471.75
345.487	454.75
345.714	465.75
345.942	477.75
346.17	460.75
346.397	457.75
346.625	457.75
346.853	433.75
347.08	436.75
347.308	457.75
347.535	461.75
347.763	456.75
347.99	429.75
348.218	433.75
348.445	445.75
348.673	448.75
348.9	449.75
349.128	444.75
349.355	432.75
349.583	451.75
349.81	444.75
350.037	445.75
350.265	464.75
350.492	473.75
350.72	452.75
350.947	442.75
351.174	450.75
351.402	427.75
351.629	427.75
351.856	447.75
352.083	437.75
352.311	442.75
352.538	440.75
352.765	424.75
352.992	458.75
353.22	435.75
353.447	447.75
353.674	449.75
353.901	460.75
354.128	437.75
354.355	437.75
354.583	442.75
354.81	447.75
355.037	411.75
355.264	438.75
355.491	433.75
355.718	454.75
355.945	451.75
356.172	453.75
356.399	442.75
356.626	425.75
356.853	454.75
357.08	468.75
357.307	452.75
357.534	460.75
357.761	456.75
357.988	464.75
358.215	475.75
358.441	471.75
358.668	455.75
358.895	457.75
359.122	442.75
359.349	448.75
359.576	462.75
359.802	431.75
360.029	464.75
360.256	433.75
360.483	456.75
360.709	436.75
360.936	464.75
361.163	448.75
361.39	451.75
361.616	455.75
361.843	469.75
362.07	454.75
362.296	454.75
362.523	450.75
362.749	449.75
362.976	465.75
363.203	469.75
363.429	440.75
363.656	468.75
363.882	470.75
364.109	453.75
364.335	451.75
364.562	461.75
364.788	472.75
365.015	467.75
365.241	453.75
365.468	471.75
365.694	447.75
365.92	463.75
366.147	475.75
366.373	451.75
366.599	469.75
366.826	459.75
367.052	471.75
367.278	474.75
367.505	457.75
367.731	479.75
367.957	469.75
368.184	467.75
368.41	473.75
368.636	496.75
368.862	474.75
369.089	483.75
369.315	490.75
369.541	501.75
369.767	499.75
369.993	477.75
370.219	487.75
370.445	479.75
370.672	474.75
370.898	466.75
371.124	481.75
371.35	488.75
371.576	504.75
371.802	508.75
372.028	489.75
372.254	479.75
372.48	513.75
372.706	523.75
372.932	526.75
373.158	504.75
373.384	499.75
373.61	509.75
373.835	531.75
374.061	507.75
374.287	487.75
374.513	528.75
374.739	533.75
374.965	524.75
375.191	533.75
375.416	515.75
375.642	498.75
375.868	524.75
376.094	517.75
376.319	508.75
376.545	516.75
376.771	507.75
376.997	503.75
377.222	513.75
377.448	489.75
377.674	487.75
377.899	498.75
378.125	502.75
378.35	497.75
378.576	492.75
378.802	512.75
379.027	495.75
379.253	496.75
379.478	498.75
379.704	491.75
379.929	499.75
380.155	506.75
380.38	484.75
380.606	515.75
380.831	528.75
381.057	519.75
381.282	510.75
381.507	517.75
381.733	508.75
381.958	532.75
382.184	516.75
382.409	497.75
382.634	540.75
382.86	527.75
383.085	511.75
383.31	517.75
383.535	532.75
383.761	512.75
383.986	511.75
384.211	531.75
384.436	540.75
384.662	525.75
384.887	540.75
385.112	537.75
385.337	556.75
385.562	565.75
385.787	540.75
386.013	568.75
386.238	549.75
386.463	564.75
386.688	547.75
386.913	540.75
387.138	559.75
387.363	555.75
387.588	564.75
387.813	559.75
388.038	571.75
388.263	557.75
388.488	561.75
388.713	569.75
388.938	586.75
389.163	589.75
389.387	556.75
389.612	571.75
389.837	570.75
390.062	567.75
390.287	571.75
390.512	575.75
390.736	575.75
390.961	597.75
391.186	565.75
391.411	594.75
391.636	625.75
391.86	599.75
392.085	583.75
392.31	582.75
392.534	590.75
392.759	599.75
392.984	572.75
393.208	604.75
393.433	647.75
393.658	650.75
393.882	608.75
394.107	606.75
394.331	598.75
394.556	580.75
394.78	599.75
395.005	616.75
395.229	600.75
395.454	631.75
395.678	605.75
395.903	583.75
396.127	581.75
396.352	612.75
396.576	629.75
396.801	604.75
397.025	648.75
397.249	647.75
397.474	670.75
397.698	603.75
397.922	644.75
398.147	609.75
398.371	631.75
398.595	635.75
398.82	635.75
399.044	651.75
399.268	665.75
399.492	732.75
399.717	723.75
399.941	724.75
400.165	751.75
400.389	708.75
400.613	700.75
400.837	687.75
401.062	681.75
401.286	681.75
401.51	676.75
401.734	664.75
401.958	661.75
402.182	659.75
402.406	689.75
402.63	663.75
402.854	668.75
403.078	673.75
403.302	652.75
403.526	652.75
403.75	671.75
403.974	667.75
404.198	651.75
404.422	691.75
404.645	666.75
404.869	657.75
405.093	681.75
405.317	669.75
405.541	677.75
405.765	677.75
405.988	684.75
406.212	710.75
406.436	689.75
406.66	708.75
406.883	695.75
407.107	700.75
407.331	723.75
407.555	758.75
407.778	731.75
408.002	744.75
408.226	767.75
408.449	772.75
408.673	751.75
408.896	734.75
409.12	711.75
409.344	722.75
409.567	722.75
409.791	721.75
410.014	717.75
410.238	722.75
410.461	671.75
410.685	716.75
410.908	721.75
411.132	689.75
411.355	687.75
411.578	681.75
411.802	695.75
412.025	707.75
412.249	701.75
412.472	689.75
412.695	693.75
412.919	692.75
413.142	685.75
413.365	658.75
413.589	672.75
413.812	658.75
414.035	691.75
414.258	676.75
414.482	674.75
414.705	654.75
414.928	679.75
415.151	682.75
415.374	678.75
415.597	670.75
415.821	652.75
416.044	642.75
416.267	637.75
416.49	649.75
416.713	644.75
416.936	676.75
417.159	632.75
417.382	651.75
417.605	632.75
417.828	641.75
418.051	650.75
418.274	629.75
418.497	634.75
418.72	663.75
418.943	659.75
419.166	668.75
419.389	696.75
419.611	692.75
419.834	671.75
420.057	647.75
420.28	654.75
420.503	627.75
420.726	615.75
420.948	596.75
421.171	632.75
421.394	623.75
421.617	637.75
421.839	633.75
422.062	642.75
422.285	625.75
422.507	638.75
422.73	633.75
422.953	652.75
423.175	625.75
423.398	638.75
423.621	632.75
423.843	644.75
424.066	618.75
424.288	618.75
424.511	630.75
424.733	608.75
424.956	620.75
425.178	650.75
425.401	643.75
425.623	630.75
425.846	608.75
426.068	630.75
426.291	631.75
426.513	630.75
426.735	619.75
426.958	618.75
427.18	614.75
427.402	641.75
427.625	630.75
427.847	615.75
428.069	608.75
428.292	623.75
428.514	595.75
428.736	628.75
428.958	612.75
429.181	600.75
429.403	599.75
429.625	592.75
429.847	599.75
430.069	621.75
430.292	598.75
430.514	592.75
430.736	622.75
430.958	629.75
431.18	639.75
431.402	614.75
431.624	627.75
431.846	603.75
432.068	625.75
432.29	623.75
432.512	604.75
432.734	623.75
432.956	620.75
433.178	644.75
433.4	618.75
433.622	618.75
433.844	635.75
434.066	635.75
434.287	618.75
434.509	624.75
434.731	646.75
434.953	609.75
435.175	624.75
435.397	636.75
435.618	644.75
435.84	636.75
436.062	628.75
436.284	589.75
436.505	609.75
436.727	620.75
436.949	616.75
437.17	598.75
437.392	611.75
437.614	611.75
437.835	595.75
438.057	580.75
438.278	597.75
438.5	613.75
438.721	612.75
438.943	598.75
439.165	616.75
439.386	604.75
439.608	608.75
439.829	607.75
440.05	623.75
440.272	624.75
440.493	630.75
440.715	619.75
440.936	621.75
441.158	604.75
441.379	631.75
441.6	637.75
441.822	647.75
442.043	627.75
442.264	648.75
442.486	618.75
442.707	631.75
442.928	635.75
443.149	628.75
443.371	620.75
443.592	625.75
443.813	621.75
444.034	634.75
444.255	623.75
444.476	645.75
444.698	651.75
444.919	654.75
445.14	722.75
445.361	693.75
445.582	645.75
445.803	612.75
446.024	618.75
446.245	613.75
446.466	603.75
446.687	592.75
446.908	616.75
447.129	605.75
447.35	619.75
447.571	598.75
447.792	582.75
448.013	603.75
448.234	593.75
448.455	601.75
448.675	566.75
448.896	587.75
449.117	595.75
449.338	582.75
449.559	575.75
449.779	607.75
450	591.75
450.221	577.75
450.442	588.75
450.662	570.75
450.883	589.75
451.104	554.75
451.324	557.75
451.545	567.75
451.766	596.75
451.986	569.75
452.207	563.75
452.428	585.75
452.648	556.75
452.869	555.75
453.089	566.75
453.31	569.75
453.53	564.75
453.751	567.75
453.971	547.75
454.192	561.75
454.412	567.75
454.633	553.75
454.853	559.75
455.073	559.75
455.294	563.75
455.514	552.75
455.734	575.75
455.955	576.75
456.175	535.75
456.395	561.75
456.616	589.75
456.836	571.75
457.056	564.75
457.276	540.75
457.497	583.75
457.717	545.75
457.937	555.75
458.157	560.75
458.377	559.75
458.598	587.75
458.818	606.75
459.038	590.75
459.258	578.75
459.478	609.75
459.698	603.75
459.918	598.75
460.138	631.75
460.358	633.75
460.578	653.75
460.798	648.75
461.018	651.75
461.238	647.75
461.458	681.75
461.678	666.75
461.898	661.75
462.118	662.75
462.338	684.75
462.558	675.75
462.777	707.75
462.997	688.75
463.217	724.75
463.437	736.75
463.657	708.75
463.876	710.75
464.096	684.75
464.316	676.75
464.536	701.75
464.755	709.75
464.975	697.75
465.195	667.75
465.414	629.75
465.634	644.75
465.854	635.75
466.073	635.75
466.293	632.75
466.512	618.75
466.732	603.75
466.951	610.75
467.171	618.75
467.391	629.75
467.61	617.75
467.829	595.75
468.049	627.75
468.268	608.75
468.488	598.75
468.707	620.75
468.927	619.75
469.146	616.75
469.365	616.75
469.585	605.75
469.804	609.75
470.023	608.75
470.243	607.75
470.462	613.75
470.681	634.75
470.901	603.75
471.12	627.75
471.339	647.75
471.558	631.75
471.777	634.75
471.997	618.75
472.216	637.75
472.435	603.75
472.654	635.75
472.873	611.75
473.092	627.75
473.311	619.75
473.53	608.75
473.749	596.75
473.968	620.75
474.187	626.75
474.406	626.75
474.625	613.75
474.844	636.75
475.063	627.75
475.282	629.75
475.501	640.75
475.72	659.75
475.939	636.75
476.158	641.75
476.377	658.75
476.596	675.75
476.814	671.75
477.033	667.75
477.252	654.75
477.471	671.75
477.69	704.75
477.908	701.75
478.127	716.75
478.346	699.75
478.564	692.75
478.783	713.75
479.002	712.75
479.22	721.75
479.439	725.75
479.658	745.75
479.876	725.75
480.095	747.75
480.313	745.75
480.532	761.75
480.751	726.75
480.969	723.75
481.188	715.75
481.406	739.75
481.624	752.75
481.843	736.75
482.061	731.75
482.28	757.75
482.498	742.75
482.717	730.75
482.935	736.75
483.153	747.75
483.372	721.75
483.59	743.75
483.808	736.75
484.027	740.75
484.245	752.75
484.463	742.75
484.681	745.75
484.9	748.75
485.118	756.75
485.336	715.75
485.554	756.75
485.772	743.75
485.99	729.75
486.209	755.75
486.427	764.75
486.645	769.75
486.863	773.75
487.081	768.75
487.299	743.75
487.517	771.75
487.735	755.75
487.953	748.75
488.171	775.75
488.389	743.75
488.607	799.75
488.825	778.75
489.043	773.75
489.261	781.75
489.479	773.75
489.696	771.75
489.914	778.75
490.132	754.75
490.35	797.75
490.568	759.75
490.786	777.75
491.003	772.75
491.221	757.75
491.439	803.75
491.657	781.75
491.874	793.75
492.092	793.75
492.31	788.75
492.527	792.75
492.745	810.75
492.963	789.75
493.18	783.75
493.398	780.75
493.615	804.75
493.833	814.75
494.05	792.75
494.268	825.75
494.485	803.75
494.703	805.75
494.92	814.75
495.138	806.75
495.355	817.75
495.573	822.75
495.79	833.75
496.008	856.75
496.225	855.75
496.442	842.75
496.66	831.75
496.877	859.75
497.094	892.75
497.312	867.75
497.529	863.75
497.746	875.75
497.963	893.75
498.181	945.75
498.398	931.75
498.615	964.75
498.832	982.75
499.049	1003.75
499.267	1060.75
499.484	1064.75
499.701	1062.75
499.918	1127.75
500.135	1177.75
500.352	1203.75
500.569	1168.75
500.786	1176.75
501.003	1184.75
501.22	1174.75
501.437	1107.75
