Data from Fe(NO3)3@0.1M.TitratingCurve.Agarose3%dH2O.NegLispCup.LampEnergy10.LIBS07252019_HRD10591_16-39-10-331.txt Node
Date: Thu Jul 25 16:39:10 EDT 2019
User: cochatt
Spectrometer: HR+D1059
Trigger mode: 1
Integration Time (sec): 1.000000E-1
Scans to average: 1
Electric dark correction enabled: true
Nonlinearity correction enabled: false
Boxcar width: 0
XAxis mode: Wavelengths
Number of Pixels in Spectrum: 2048
>>>>>Begin Spectral Data<<<<<
223.165	-6.69
223.4	-6.69
223.635	-6.69
223.869	-9.69
224.104	-8.69
224.338	-20.69
224.573	-14.69
224.808	-20.69
225.042	-29.69
225.277	-5.69
225.511	0.31
225.746	2.31
225.98	1.31
226.215	1.31
226.449	16.31
226.683	32.31
226.918	27.31
227.152	35.31
227.387	36.31
227.621	23.31
227.856	41.31
228.09	36.31
228.324	58.31
228.559	65.31
228.793	66.31
229.027	80.31
229.262	84.31
229.496	91.31
229.73	80.31
229.964	92.31
230.199	95.31
230.433	86.31
230.667	93.31
230.901	103.31
231.136	113.31
231.37	89.31
231.604	114.31
231.838	112.31
232.072	111.31
232.306	112.31
232.541	117.31
232.775	96.31
233.009	114.31
233.243	119.31
233.477	98.31
233.711	113.31
233.945	124.31
234.179	115.31
234.413	105.31
234.647	94.31
234.881	99.31
235.115	122.31
235.349	118.31
235.583	108.31
235.817	115.31
236.051	79.31
236.285	88.31
236.519	115.31
236.753	112.31
236.987	106.31
237.221	119.31
237.455	111.31
237.689	104.31
237.922	122.31
238.156	115.31
238.39	108.31
238.624	119.31
238.858	136.31
239.091	104.31
239.325	132.31
239.559	125.31
239.793	120.31
240.027	136.31
240.26	107.31
240.494	119.31
240.728	122.31
240.961	120.31
241.195	113.31
241.429	116.31
241.662	140.31
241.896	123.31
242.13	127.31
242.363	121.31
242.597	130.31
242.83	131.31
243.064	121.31
243.298	141.31
243.531	114.31
243.765	129.31
243.998	133.31
244.232	130.31
244.465	146.31
244.699	137.31
244.932	135.31
245.166	127.31
245.399	138.31
245.633	142.31
245.866	132.31
246.099	139.31
246.333	143.31
246.566	139.31
246.8	143.31
247.033	141.31
247.266	144.31
247.5	149.31
247.733	133.31
247.966	141.31
248.2	165.31
248.433	152.31
248.666	137.31
248.899	153.31
249.133	135.31
249.366	147.31
249.599	161.31
249.832	152.31
250.066	147.31
250.299	147.31
250.532	145.31
250.765	153.31
250.998	146.31
251.231	155.31
251.465	154.31
251.698	152.31
251.931	137.31
252.164	156.31
252.397	139.31
252.63	142.31
252.863	150.31
253.096	155.31
253.329	157.31
253.562	165.31
253.795	161.31
254.028	157.31
254.261	179.31
254.494	161.31
254.727	149.31
254.96	180.31
255.193	186.31
255.426	159.31
255.659	168.31
255.892	173.31
256.124	168.31
256.357	187.31
256.59	159.31
256.823	149.31
257.056	180.31
257.289	173.31
257.521	147.31
257.754	175.31
257.987	171.31
258.22	178.31
258.452	172.31
258.685	170.31
258.918	154.31
259.151	172.31
259.383	165.31
259.616	182.31
259.849	179.31
260.081	177.31
260.314	185.31
260.547	177.31
260.779	192.31
261.012	184.31
261.244	190.31
261.477	176.31
261.71	172.31
261.942	187.31
262.175	175.31
262.407	179.31
262.64	177.31
262.872	191.31
263.105	197.31
263.337	183.31
263.57	187.31
263.802	197.31
264.035	192.31
264.267	174.31
264.499	185.31
264.732	177.31
264.964	196.31
265.197	184.31
265.429	210.31
265.661	189.31
265.894	184.31
266.126	199.31
266.358	191.31
266.591	194.31
266.823	203.31
267.055	189.31
267.287	195.31
267.52	182.31
267.752	191.31
267.984	184.31
268.216	191.31
268.448	205.31
268.681	196.31
268.913	196.31
269.145	202.31
269.377	181.31
269.609	190.31
269.841	193.31
270.073	201.31
270.306	207.31
270.538	207.31
270.77	197.31
271.002	203.31
271.234	210.31
271.466	215.31
271.698	208.31
271.93	204.31
272.162	226.31
272.394	218.31
272.626	200.31
272.858	204.31
273.09	219.31
273.322	225.31
273.553	214.31
273.785	208.31
274.017	207.31
274.249	225.31
274.481	213.31
274.713	219.31
274.945	233.31
275.176	234.31
275.408	235.31
275.64	230.31
275.872	203.31
276.104	240.31
276.335	213.31
276.567	219.31
276.799	217.31
277.031	223.31
277.262	232.31
277.494	244.31
277.726	236.31
277.957	221.31
278.189	231.31
278.421	241.31
278.652	225.31
278.884	227.31
279.115	224.31
279.347	246.31
279.579	242.31
279.81	246.31
280.042	225.31
280.273	239.31
280.505	241.31
280.736	246.31
280.968	256.31
281.199	240.31
281.431	243.31
281.662	244.31
281.894	254.31
282.125	235.31
282.356	232.31
282.588	236.31
282.819	249.31
283.051	240.31
283.282	241.31
283.513	247.31
283.745	255.31
283.976	246.31
284.207	244.31
284.439	265.31
284.67	273.31
284.901	244.31
285.132	274.31
285.364	271.31
285.595	250.31
285.826	247.31
286.057	266.31
286.288	258.31
286.52	247.31
286.751	254.31
286.982	260.31
287.213	265.31
287.444	268.31
287.675	251.31
287.906	273.31
288.138	267.31
288.369	279.31
288.6	280.31
288.831	270.31
289.062	269.31
289.293	263.31
289.524	270.31
289.755	287.31
289.986	291.31
290.217	283.31
290.448	258.31
290.679	266.31
290.91	275.31
291.141	275.31
291.371	283.31
291.602	285.31
291.833	261.31
292.064	293.31
292.295	292.31
292.526	280.31
292.757	274.31
292.987	275.31
293.218	283.31
293.449	270.31
293.68	263.31
293.91	260.31
294.141	261.31
294.372	264.31
294.603	273.31
294.833	282.31
295.064	282.31
295.295	271.31
295.525	276.31
295.756	280.31
295.987	269.31
296.217	272.31
296.448	283.31
296.679	285.31
296.909	284.31
297.14	288.31
297.37	307.31
297.601	298.31
297.831	286.31
298.062	293.31
298.292	309.31
298.523	305.31
298.753	309.31
298.984	295.31
299.214	288.31
299.445	301.31
299.675	285.31
299.905	295.31
300.136	302.31
300.366	294.31
300.597	292.31
300.827	298.31
301.057	301.31
301.288	310.31
301.518	293.31
301.748	319.31
301.979	312.31
302.209	337.31
302.439	326.31
302.669	309.31
302.9	289.31
303.13	297.31
303.36	322.31
303.59	315.31
303.82	326.31
304.051	309.31
304.281	319.31
304.511	317.31
304.741	307.31
304.971	305.31
305.201	320.31
305.431	319.31
305.661	289.31
305.891	298.31
306.121	306.31
306.352	304.31
306.582	300.31
306.812	307.31
307.042	292.31
307.272	296.31
307.502	310.31
307.731	303.31
307.961	283.31
308.191	321.31
308.421	313.31
308.651	322.31
308.881	303.31
309.111	301.31
309.341	303.31
309.571	312.31
309.8	316.31
310.03	304.31
310.26	317.31
310.49	308.31
310.72	320.31
310.949	322.31
311.179	313.31
311.409	292.31
311.639	309.31
311.868	294.31
312.098	319.31
312.328	324.31
312.557	323.31
312.787	316.31
313.017	325.31
313.246	319.31
313.476	329.31
313.706	333.31
313.935	326.31
314.165	332.31
314.394	330.31
314.624	343.31
314.853	347.31
315.083	327.31
315.312	334.31
315.542	323.31
315.771	330.31
316.001	339.31
316.23	326.31
316.46	324.31
316.689	315.31
316.919	309.31
317.148	330.31
317.377	343.31
317.607	327.31
317.836	289.31
318.065	319.31
318.295	326.31
318.524	337.31
318.753	338.31
318.983	326.31
319.212	323.31
319.441	314.31
319.67	335.31
319.9	303.31
320.129	330.31
320.358	328.31
320.587	318.31
320.816	325.31
321.046	324.31
321.275	336.31
321.504	327.31
321.733	319.31
321.962	329.31
322.191	339.31
322.42	339.31
322.649	329.31
322.878	341.31
323.108	324.31
323.337	340.31
323.566	343.31
323.795	330.31
324.024	330.31
324.253	353.31
324.482	337.31
324.71	356.31
324.939	351.31
325.168	326.31
325.397	347.31
325.626	347.31
325.855	362.31
326.084	369.31
326.313	356.31
326.542	367.31
326.77	373.31
326.999	359.31
327.228	367.31
327.457	360.31
327.686	377.31
327.914	354.31
328.143	353.31
328.372	368.31
328.6	369.31
328.829	348.31
329.058	339.31
329.287	350.31
329.515	340.31
329.744	355.31
329.972	356.31
330.201	342.31
330.43	360.31
330.658	357.31
330.887	371.31
331.115	371.31
331.344	377.31
331.572	387.31
331.801	383.31
332.03	380.31
332.258	387.31
332.486	387.31
332.715	427.31
332.943	408.31
333.172	448.31
333.4	435.31
333.629	427.31
333.857	459.31
334.085	476.31
334.314	476.31
334.542	445.31
334.771	417.31
334.999	446.31
335.227	444.31
335.455	459.31
335.684	432.31
335.912	423.31
336.14	417.31
336.369	409.31
336.597	450.31
336.825	433.31
337.053	419.31
337.281	423.31
337.51	415.31
337.738	408.31
337.966	419.31
338.194	383.31
338.422	384.31
338.65	390.31
338.878	394.31
339.106	374.31
339.334	378.31
339.562	401.31
339.79	387.31
340.018	387.31
340.246	379.31
340.474	354.31
340.702	369.31
340.93	370.31
341.158	373.31
341.386	381.31
341.614	394.31
341.842	379.31
342.07	383.31
342.298	378.31
342.526	367.31
342.754	380.31
342.981	396.31
343.209	368.31
343.437	388.31
343.665	409.31
343.893	433.31
344.12	439.31
344.348	437.31
344.576	424.31
344.804	419.31
345.031	383.31
345.259	391.31
345.487	392.31
345.714	403.31
345.942	377.31
346.17	362.31
346.397	395.31
346.625	367.31
346.853	359.31
347.08	364.31
347.308	380.31
347.535	385.31
347.763	386.31
347.99	363.31
348.218	367.31
348.445	355.31
348.673	360.31
348.9	365.31
349.128	375.31
349.355	357.31
349.583	366.31
349.81	369.31
350.037	362.31
350.265	359.31
350.492	358.31
350.72	362.31
350.947	362.31
351.174	371.31
351.402	338.31
351.629	367.31
351.856	352.31
352.083	353.31
352.311	358.31
352.538	341.31
352.765	367.31
352.992	323.31
353.22	354.31
353.447	362.31
353.674	362.31
353.901	345.31
354.128	340.31
354.355	342.31
354.583	388.31
354.81	369.31
355.037	378.31
355.264	362.31
355.491	385.31
355.718	357.31
355.945	364.31
356.172	378.31
356.399	375.31
356.626	356.31
356.853	351.31
357.08	364.31
357.307	355.31
357.534	341.31
357.761	349.31
357.988	364.31
358.215	378.31
358.441	355.31
358.668	369.31
358.895	376.31
359.122	353.31
359.349	349.31
359.576	354.31
359.802	364.31
360.029	366.31
360.256	361.31
360.483	373.31
360.709	369.31
360.936	351.31
361.163	353.31
361.39	363.31
361.616	357.31
361.843	379.31
362.07	364.31
362.296	369.31
362.523	367.31
362.749	375.31
362.976	359.31
363.203	372.31
363.429	359.31
363.656	377.31
363.882	385.31
364.109	378.31
364.335	357.31
364.562	371.31
364.788	360.31
365.015	371.31
365.241	369.31
365.468	364.31
365.694	371.31
365.92	385.31
366.147	362.31
366.373	370.31
366.599	351.31
366.826	367.31
367.052	357.31
367.278	369.31
367.505	363.31
367.731	368.31
367.957	376.31
368.184	364.31
368.41	355.31
368.636	370.31
368.862	373.31
369.089	379.31
369.315	364.31
369.541	382.31
369.767	381.31
369.993	384.31
370.219	381.31
370.445	387.31
370.672	388.31
370.898	397.31
371.124	404.31
371.35	383.31
371.576	393.31
371.802	398.31
372.028	423.31
372.254	387.31
372.48	402.31
372.706	416.31
372.932	401.31
373.158	403.31
373.384	404.31
373.61	425.31
373.835	379.31
374.061	393.31
374.287	424.31
374.513	411.31
374.739	427.31
374.965	409.31
375.191	438.31
375.416	420.31
375.642	418.31
375.868	401.31
376.094	409.31
376.319	407.31
376.545	405.31
376.771	398.31
376.997	398.31
377.222	390.31
377.448	403.31
377.674	407.31
377.899	390.31
378.125	410.31
378.35	395.31
378.576	376.31
378.802	398.31
379.027	396.31
379.253	397.31
379.478	386.31
379.704	392.31
379.929	394.31
380.155	409.31
380.38	390.31
380.606	403.31
380.831	411.31
381.057	402.31
381.282	397.31
381.507	408.31
381.733	399.31
381.958	406.31
382.184	420.31
382.409	417.31
382.634	414.31
382.86	426.31
383.085	424.31
383.31	423.31
383.535	438.31
383.761	447.31
383.986	440.31
384.211	447.31
384.436	448.31
384.662	450.31
384.887	474.31
385.112	477.31
385.337	493.31
385.562	473.31
385.787	476.31
386.013	476.31
386.238	460.31
386.463	478.31
386.688	478.31
386.913	472.31
387.138	479.31
387.363	492.31
387.588	472.31
387.813	451.31
388.038	483.31
388.263	484.31
388.488	474.31
388.713	500.31
388.938	472.31
389.163	478.31
389.387	464.31
389.612	487.31
389.837	479.31
390.062	485.31
390.287	465.31
390.512	473.31
390.736	518.31
390.961	490.31
391.186	484.31
391.411	476.31
391.636	507.31
391.86	533.31
392.085	511.31
392.31	538.31
392.534	524.31
392.759	502.31
392.984	511.31
393.208	526.31
393.433	496.31
393.658	490.31
393.882	520.31
394.107	480.31
394.331	518.31
394.556	498.31
394.78	537.31
395.005	513.31
395.229	489.31
395.454	540.31
395.678	528.31
395.903	550.31
396.127	538.31
396.352	521.31
396.576	510.31
396.801	509.31
397.025	514.31
397.249	526.31
397.474	535.31
397.698	541.31
397.922	528.31
398.147	535.31
398.371	580.31
398.595	575.31
398.82	578.31
399.044	604.31
399.268	643.31
399.492	709.31
399.717	808.31
399.941	794.31
400.165	738.31
400.389	711.31
400.613	615.31
400.837	598.31
401.062	576.31
401.286	606.31
401.51	580.31
401.734	618.31
401.958	619.31
402.182	589.31
402.406	584.31
402.63	618.31
402.854	623.31
403.078	615.31
403.302	642.31
403.526	639.31
403.75	663.31
403.974	657.31
404.198	642.31
404.422	656.31
404.645	657.31
404.869	640.31
405.093	649.31
405.317	636.31
405.541	633.31
405.765	657.31
405.988	620.31
406.212	645.31
406.436	641.31
406.66	648.31
406.883	661.31
407.107	680.31
407.331	699.31
407.555	715.31
407.778	754.31
408.002	733.31
408.226	693.31
408.449	705.31
408.673	676.31
408.896	661.31
409.12	682.31
409.344	673.31
409.567	673.31
409.791	653.31
410.014	676.31
410.238	660.31
410.461	675.31
410.685	665.31
410.908	642.31
411.132	642.31
411.355	620.31
411.578	614.31
411.802	611.31
412.025	626.31
412.249	634.31
412.472	614.31
412.695	609.31
412.919	595.31
413.142	599.31
413.365	589.31
413.589	600.31
413.812	613.31
414.035	602.31
414.258	618.31
414.482	615.31
414.705	618.31
414.928	618.31
415.151	610.31
415.374	612.31
415.597	606.31
415.821	615.31
416.044	605.31
416.267	588.31
416.49	576.31
416.713	614.31
416.936	586.31
417.159	587.31
417.382	592.31
417.605	586.31
417.828	594.31
418.051	599.31
418.274	598.31
418.497	580.31
418.72	601.31
418.943	600.31
419.166	626.31
419.389	659.31
419.611	639.31
419.834	617.31
420.057	626.31
420.28	600.31
420.503	572.31
420.726	584.31
420.948	593.31
421.171	588.31
421.394	593.31
421.617	578.31
421.839	615.31
422.062	610.31
422.285	597.31
422.507	587.31
422.73	566.31
422.953	608.31
423.175	599.31
423.398	595.31
423.621	589.31
423.843	616.31
424.066	631.31
424.288	597.31
424.511	625.31
424.733	596.31
424.956	584.31
425.178	589.31
425.401	584.31
425.623	578.31
425.846	565.31
426.068	578.31
426.291	563.31
426.513	587.31
426.735	567.31
426.958	567.31
427.18	540.31
427.402	560.31
427.625	552.31
427.847	558.31
428.069	527.31
428.292	557.31
428.514	519.31
428.736	526.31
428.958	523.31
429.181	554.31
429.403	516.31
429.625	532.31
429.847	520.31
430.069	541.31
430.292	558.31
430.514	529.31
430.736	541.31
430.958	543.31
431.18	554.31
431.402	543.31
431.624	533.31
431.846	542.31
432.068	567.31
432.29	547.31
432.512	523.31
432.734	535.31
432.956	539.31
433.178	538.31
433.4	558.31
433.622	555.31
433.844	561.31
434.066	567.31
434.287	552.31
434.509	569.31
434.731	596.31
434.953	597.31
435.175	589.31
435.397	584.31
435.618	584.31
435.84	574.31
436.062	573.31
436.284	547.31
436.505	560.31
436.727	559.31
436.949	543.31
437.17	551.31
437.392	548.31
437.614	550.31
437.835	540.31
438.057	522.31
438.278	525.31
438.5	535.31
438.721	528.31
438.943	551.31
439.165	532.31
439.386	528.31
439.608	519.31
439.829	557.31
440.05	551.31
440.272	569.31
440.493	552.31
440.715	573.31
440.936	551.31
441.158	577.31
441.379	593.31
441.6	601.31
441.822	607.31
442.043	593.31
442.264	578.31
442.486	584.31
442.707	624.31
442.928	599.31
443.149	584.31
443.371	594.31
443.592	576.31
443.813	591.31
444.034	586.31
444.255	618.31
444.476	654.31
444.698	651.31
444.919	673.31
445.14	767.31
445.361	695.31
445.582	628.31
445.803	590.31
446.024	579.31
446.245	582.31
446.466	586.31
446.687	568.31
446.908	560.31
447.129	564.31
447.35	538.31
447.571	541.31
447.792	546.31
448.013	518.31
448.234	521.31
448.455	519.31
448.675	525.31
448.896	513.31
449.117	497.31
449.338	525.31
449.559	522.31
449.779	507.31
450	521.31
450.221	508.31
450.442	520.31
450.662	486.31
450.883	506.31
451.104	523.31
451.324	526.31
451.545	520.31
451.766	534.31
451.986	502.31
452.207	528.31
452.428	525.31
452.648	516.31
452.869	486.31
453.089	479.31
453.31	489.31
453.53	482.31
453.751	479.31
453.971	468.31
454.192	490.31
454.412	481.31
454.633	469.31
454.853	497.31
455.073	481.31
455.294	470.31
455.514	480.31
455.734	476.31
455.955	469.31
456.175	473.31
456.395	480.31
456.616	473.31
456.836	478.31
457.056	493.31
457.276	460.31
457.497	472.31
457.717	458.31
457.937	516.31
458.157	479.31
458.377	490.31
458.598	507.31
458.818	520.31
459.038	508.31
459.258	524.31
459.478	528.31
459.698	548.31
459.918	559.31
460.138	577.31
460.358	610.31
460.578	609.31
460.798	605.31
461.018	616.31
461.238	626.31
461.458	616.31
461.678	614.31
461.898	640.31
462.118	656.31
462.338	644.31
462.558	674.31
462.777	693.31
462.997	731.31
463.217	794.31
463.437	755.31
463.657	719.31
463.876	726.31
464.096	688.31
464.316	685.31
464.536	717.31
464.755	684.31
464.975	646.31
465.195	645.31
465.414	613.31
465.634	598.31
465.854	574.31
466.073	559.31
466.293	570.31
466.512	545.31
466.732	526.31
466.951	535.31
467.171	509.31
467.391	533.31
467.61	540.31
467.829	498.31
468.049	514.31
468.268	499.31
468.488	490.31
468.707	483.31
468.927	516.31
469.146	505.31
469.365	502.31
469.585	542.31
469.804	524.31
470.023	529.31
470.243	531.31
470.462	510.31
470.681	523.31
470.901	531.31
471.12	547.31
471.339	534.31
471.558	518.31
471.777	513.31
471.997	517.31
472.216	509.31
472.435	514.31
472.654	505.31
472.873	484.31
473.092	496.31
473.311	476.31
473.53	503.31
473.749	519.31
473.968	513.31
474.187	480.31
474.406	503.31
474.625	509.31
474.844	470.31
475.063	479.31
475.282	497.31
475.501	497.31
475.72	495.31
475.939	495.31
476.158	511.31
476.377	491.31
476.596	533.31
476.814	545.31
477.033	530.31
477.252	530.31
477.471	543.31
477.69	561.31
477.908	545.31
478.127	574.31
478.346	590.31
478.564	583.31
478.783	595.31
479.002	604.31
479.22	585.31
479.439	580.31
479.658	599.31
479.876	619.31
480.095	585.31
480.313	602.31
480.532	643.31
480.751	628.31
480.969	597.31
481.188	588.31
481.406	569.31
481.624	576.31
481.843	559.31
482.061	559.31
482.28	568.31
482.498	563.31
482.717	544.31
482.935	554.31
483.153	571.31
483.372	544.31
483.59	548.31
483.808	551.31
484.027	573.31
484.245	572.31
484.463	578.31
484.681	588.31
484.9	580.31
485.118	589.31
485.336	574.31
485.554	570.31
485.772	580.31
485.99	580.31
486.209	588.31
486.427	573.31
486.645	595.31
486.863	589.31
487.081	579.31
487.299	587.31
487.517	585.31
487.735	587.31
487.953	583.31
488.171	587.31
488.389	585.31
488.607	586.31
488.825	574.31
489.043	557.31
489.261	572.31
489.479	585.31
489.696	558.31
489.914	567.31
490.132	557.31
490.35	573.31
490.568	564.31
490.786	586.31
491.003	580.31
491.221	601.31
491.439	630.31
491.657	575.31
491.874	587.31
492.092	580.31
492.31	596.31
492.527	631.31
492.745	593.31
492.963	593.31
493.18	600.31
493.398	616.31
493.615	616.31
493.833	618.31
494.05	600.31
494.268	604.31
494.485	605.31
494.703	600.31
494.92	626.31
495.138	616.31
495.355	610.31
495.573	617.31
495.79	599.31
496.008	620.31
496.225	631.31
496.442	639.31
496.66	634.31
496.877	659.31
497.094	669.31
497.312	693.31
497.529	676.31
497.746	688.31
497.963	708.31
498.181	717.31
498.398	763.31
498.615	796.31
498.832	833.31
499.049	880.31
499.267	949.31
499.484	994.31
499.701	1096.31
499.918	1205.31
500.135	1317.31
500.352	1469.31
500.569	1475.31
500.786	1461.31
501.003	1388.31
501.22	1289.31
501.437	1172.31
501.654	1084.31
