Data from Fe(NO3)3@0.0125M.TitratingCurve.Agarose3%dH2O.NegLispCup.LampEnergy10.LIBS07252019_HRD10591_16-58-40-351.txt Node
Date: Thu Jul 25 16:58:40 EDT 2019
User: cochatt
Spectrometer: HR+D1059
Trigger mode: 1
Integration Time (sec): 1.000000E-1
Scans to average: 1
Electric dark correction enabled: true
Nonlinearity correction enabled: false
Boxcar width: 0
XAxis mode: Wavelengths
Number of Pixels in Spectrum: 2048
>>>>>Begin Spectral Data<<<<<
223.165	-9.94
223.4	-9.94
223.635	-9.94
223.869	-21.94
224.104	-12.94
224.338	-15.94
224.573	-7.94
224.808	-2.94
225.042	-8.94
225.277	-6.94
225.511	-9.94
225.746	0.06
225.98	10.06
226.215	10.06
226.449	12.06
226.683	4.06
226.918	27.06
227.152	34.06
227.387	30.06
227.621	37.06
227.856	43.06
228.09	42.06
228.324	39.06
228.559	69.06
228.793	77.06
229.027	95.06
229.262	100.06
229.496	112.06
229.73	108.06
229.964	126.06
230.199	104.06
230.433	117.06
230.667	128.06
230.901	117.06
231.136	126.06
231.37	123.06
231.604	122.06
231.838	134.06
232.072	133.06
232.306	132.06
232.541	137.06
232.775	138.06
233.009	140.06
233.243	142.06
233.477	140.06
233.711	160.06
233.945	153.06
234.179	154.06
234.413	148.06
234.647	147.06
234.881	145.06
235.115	141.06
235.349	149.06
235.583	152.06
235.817	147.06
236.051	138.06
236.285	154.06
236.519	152.06
236.753	153.06
236.987	163.06
237.221	144.06
237.455	150.06
237.689	146.06
237.922	160.06
238.156	154.06
238.39	157.06
238.624	163.06
238.858	157.06
239.091	161.06
239.325	170.06
239.559	170.06
239.793	176.06
240.027	176.06
240.26	184.06
240.494	167.06
240.728	176.06
240.961	182.06
241.195	180.06
241.429	182.06
241.662	176.06
241.896	174.06
242.13	197.06
242.363	188.06
242.597	169.06
242.83	184.06
243.064	169.06
243.298	184.06
243.531	188.06
243.765	194.06
243.998	187.06
244.232	182.06
244.465	184.06
244.699	200.06
244.932	201.06
245.166	211.06
245.399	213.06
245.633	216.06
245.866	210.06
246.099	199.06
246.333	212.06
246.566	189.06
246.8	213.06
247.033	227.06
247.266	211.06
247.5	219.06
247.733	219.06
247.966	225.06
248.2	210.06
248.433	230.06
248.666	217.06
248.899	210.06
249.133	228.06
249.366	240.06
249.599	245.06
249.832	220.06
250.066	233.06
250.299	240.06
250.532	240.06
250.765	243.06
250.998	230.06
251.231	240.06
251.465	245.06
251.698	244.06
251.931	243.06
252.164	241.06
252.397	248.06
252.63	248.06
252.863	254.06
253.096	261.06
253.329	268.06
253.562	264.06
253.795	281.06
254.028	272.06
254.261	264.06
254.494	268.06
254.727	254.06
254.96	271.06
255.193	261.06
255.426	264.06
255.659	277.06
255.892	266.06
256.124	260.06
256.357	267.06
256.59	281.06
256.823	288.06
257.056	299.06
257.289	280.06
257.521	277.06
257.754	299.06
257.987	274.06
258.22	268.06
258.452	290.06
258.685	281.06
258.918	288.06
259.151	307.06
259.383	296.06
259.616	306.06
259.849	301.06
260.081	298.06
260.314	316.06
260.547	321.06
260.779	304.06
261.012	320.06
261.244	323.06
261.477	316.06
261.71	323.06
261.942	309.06
262.175	325.06
262.407	308.06
262.64	329.06
262.872	321.06
263.105	319.06
263.337	320.06
263.57	325.06
263.802	344.06
264.035	338.06
264.267	310.06
264.499	313.06
264.732	333.06
264.964	350.06
265.197	326.06
265.429	335.06
265.661	326.06
265.894	349.06
266.126	348.06
266.358	322.06
266.591	329.06
266.823	356.06
267.055	343.06
267.287	348.06
267.52	357.06
267.752	354.06
267.984	357.06
268.216	362.06
268.448	333.06
268.681	352.06
268.913	359.06
269.145	361.06
269.377	385.06
269.609	354.06
269.841	382.06
270.073	352.06
270.306	358.06
270.538	376.06
270.77	354.06
271.002	380.06
271.234	384.06
271.466	386.06
271.698	373.06
271.93	377.06
272.162	373.06
272.394	378.06
272.626	385.06
272.858	378.06
273.09	411.06
273.322	396.06
273.553	402.06
273.785	411.06
274.017	406.06
274.249	414.06
274.481	435.06
274.713	397.06
274.945	421.06
275.176	434.06
275.408	410.06
275.64	440.06
275.872	410.06
276.104	410.06
276.335	420.06
276.567	439.06
276.799	410.06
277.031	429.06
277.262	451.06
277.494	422.06
277.726	408.06
277.957	429.06
278.189	434.06
278.421	416.06
278.652	452.06
278.884	437.06
279.115	435.06
279.347	460.06
279.579	468.06
279.81	440.06
280.042	457.06
280.273	447.06
280.505	458.06
280.736	481.06
280.968	444.06
281.199	451.06
281.431	461.06
281.662	465.06
281.894	472.06
282.125	454.06
282.356	449.06
282.588	458.06
282.819	470.06
283.051	488.06
283.282	473.06
283.513	481.06
283.745	493.06
283.976	485.06
284.207	504.06
284.439	474.06
284.67	476.06
284.901	482.06
285.132	491.06
285.364	475.06
285.595	488.06
285.826	494.06
286.057	489.06
286.288	503.06
286.52	502.06
286.751	492.06
286.982	492.06
287.213	489.06
287.444	510.06
287.675	505.06
287.906	514.06
288.138	513.06
288.369	513.06
288.6	498.06
288.831	515.06
289.062	523.06
289.293	517.06
289.524	501.06
289.755	526.06
289.986	525.06
290.217	519.06
290.448	545.06
290.679	518.06
290.91	517.06
291.141	525.06
291.371	515.06
291.602	527.06
291.833	540.06
292.064	550.06
292.295	534.06
292.526	541.06
292.757	541.06
292.987	531.06
293.218	540.06
293.449	552.06
293.68	542.06
293.91	542.06
294.141	542.06
294.372	551.06
294.603	541.06
294.833	567.06
295.064	554.06
295.295	571.06
295.525	536.06
295.756	566.06
295.987	572.06
296.217	556.06
296.448	550.06
296.679	544.06
296.909	569.06
297.14	570.06
297.37	585.06
297.601	573.06
297.831	555.06
298.062	581.06
298.292	536.06
298.523	587.06
298.753	584.06
298.984	565.06
299.214	603.06
299.445	598.06
299.675	588.06
299.905	583.06
300.136	585.06
300.366	593.06
300.597	592.06
300.827	613.06
301.057	587.06
301.288	618.06
301.518	613.06
301.748	579.06
301.979	628.06
302.209	615.06
302.439	616.06
302.669	593.06
302.9	620.06
303.13	630.06
303.36	636.06
303.59	628.06
303.82	649.06
304.051	635.06
304.281	646.06
304.511	649.06
304.741	622.06
304.971	654.06
305.201	625.06
305.431	632.06
305.661	643.06
305.891	650.06
306.121	627.06
306.352	646.06
306.582	648.06
306.812	653.06
307.042	640.06
307.272	646.06
307.502	617.06
307.731	651.06
307.961	650.06
308.191	663.06
308.421	668.06
308.651	662.06
308.881	629.06
309.111	648.06
309.341	646.06
309.571	649.06
309.8	667.06
310.03	662.06
310.26	683.06
310.49	663.06
310.72	654.06
310.949	660.06
311.179	659.06
311.409	666.06
311.639	678.06
311.868	658.06
312.098	667.06
312.328	683.06
312.557	701.06
312.787	663.06
313.017	680.06
313.246	709.06
313.476	698.06
313.706	685.06
313.935	693.06
314.165	700.06
314.394	687.06
314.624	720.06
314.853	720.06
315.083	713.06
315.312	712.06
315.542	689.06
315.771	730.06
316.001	685.06
316.23	709.06
316.46	708.06
316.689	728.06
316.919	721.06
317.148	717.06
317.377	730.06
317.607	718.06
317.836	726.06
318.065	739.06
318.295	743.06
318.524	726.06
318.753	713.06
318.983	743.06
319.212	732.06
319.441	736.06
319.67	728.06
319.9	744.06
320.129	740.06
320.358	754.06
320.587	734.06
320.816	742.06
321.046	741.06
321.275	738.06
321.504	755.06
321.733	756.06
321.962	782.06
322.191	733.06
322.42	757.06
322.649	766.06
322.878	777.06
323.108	743.06
323.337	774.06
323.566	765.06
323.795	800.06
324.024	760.06
324.253	788.06
324.482	768.06
324.71	774.06
324.939	764.06
325.168	787.06
325.397	773.06
325.626	781.06
325.855	794.06
326.084	782.06
326.313	816.06
326.542	794.06
326.77	806.06
326.999	810.06
327.228	801.06
327.457	801.06
327.686	805.06
327.914	783.06
328.143	811.06
328.372	795.06
328.6	808.06
328.829	814.06
329.058	789.06
329.287	802.06
329.515	805.06
329.744	792.06
329.972	792.06
330.201	811.06
330.43	787.06
330.658	817.06
330.887	834.06
331.115	805.06
331.344	822.06
331.572	818.06
331.801	820.06
332.03	837.06
332.258	859.06
332.486	840.06
332.715	848.06
332.943	833.06
333.172	853.06
333.4	856.06
333.629	842.06
333.857	856.06
334.085	850.06
334.314	881.06
334.542	856.06
334.771	894.06
334.999	871.06
335.227	862.06
335.455	878.06
335.684	853.06
335.912	882.06
336.14	875.06
336.369	887.06
336.597	873.06
336.825	885.06
337.053	886.06
337.281	895.06
337.51	859.06
337.738	863.06
337.966	873.06
338.194	845.06
338.422	837.06
338.65	882.06
338.878	881.06
339.106	856.06
339.334	854.06
339.562	842.06
339.79	846.06
340.018	857.06
340.246	853.06
340.474	871.06
340.702	862.06
340.93	882.06
341.158	857.06
341.386	844.06
341.614	843.06
341.842	857.06
342.07	869.06
342.298	849.06
342.526	867.06
342.754	859.06
342.981	852.06
343.209	847.06
343.437	844.06
343.665	840.06
343.893	862.06
344.12	877.06
344.348	871.06
344.576	884.06
344.804	856.06
345.031	856.06
345.259	851.06
345.487	869.06
345.714	856.06
345.942	824.06
346.17	873.06
346.397	850.06
346.625	812.06
346.853	830.06
347.08	824.06
347.308	837.06
347.535	848.06
347.763	807.06
347.99	824.06
348.218	832.06
348.445	806.06
348.673	810.06
348.9	840.06
349.128	852.06
349.355	830.06
349.583	828.06
349.81	856.06
350.037	812.06
350.265	824.06
350.492	844.06
350.72	785.06
350.947	829.06
351.174	839.06
351.402	850.06
351.629	841.06
351.856	828.06
352.083	855.06
352.311	834.06
352.538	806.06
352.765	806.06
352.992	837.06
353.22	829.06
353.447	810.06
353.674	828.06
353.901	801.06
354.128	820.06
354.355	824.06
354.583	797.06
354.81	804.06
355.037	817.06
355.264	852.06
355.491	816.06
355.718	812.06
355.945	824.06
356.172	835.06
356.399	798.06
356.626	845.06
356.853	833.06
357.08	828.06
357.307	840.06
357.534	798.06
357.761	832.06
357.988	836.06
358.215	820.06
358.441	849.06
358.668	826.06
358.895	830.06
359.122	818.06
359.349	823.06
359.576	813.06
359.802	844.06
360.029	803.06
360.256	791.06
360.483	836.06
360.709	828.06
360.936	831.06
361.163	813.06
361.39	825.06
361.616	824.06
361.843	850.06
362.07	841.06
362.296	818.06
362.523	846.06
362.749	842.06
362.976	857.06
363.203	848.06
363.429	864.06
363.656	837.06
363.882	838.06
364.109	844.06
364.335	822.06
364.562	836.06
364.788	839.06
365.015	846.06
365.241	862.06
365.468	861.06
365.694	834.06
365.92	858.06
366.147	858.06
366.373	851.06
366.599	860.06
366.826	846.06
367.052	853.06
367.278	840.06
367.505	843.06
367.731	872.06
367.957	858.06
368.184	864.06
368.41	850.06
368.636	880.06
368.862	883.06
369.089	854.06
369.315	882.06
369.541	873.06
369.767	901.06
369.993	882.06
370.219	871.06
370.445	877.06
370.672	883.06
370.898	900.06
371.124	873.06
371.35	874.06
371.576	896.06
371.802	873.06
372.028	907.06
372.254	901.06
372.48	885.06
372.706	890.06
372.932	890.06
373.158	882.06
373.384	911.06
373.61	897.06
373.835	917.06
374.061	902.06
374.287	884.06
374.513	892.06
374.739	876.06
374.965	916.06
375.191	932.06
375.416	926.06
375.642	906.06
375.868	885.06
376.094	874.06
376.319	889.06
376.545	889.06
376.771	874.06
376.997	901.06
377.222	895.06
377.448	871.06
377.674	890.06
377.899	865.06
378.125	887.06
378.35	863.06
378.576	877.06
378.802	887.06
379.027	878.06
379.253	881.06
379.478	890.06
379.704	888.06
379.929	887.06
380.155	862.06
380.38	866.06
380.606	877.06
380.831	863.06
381.057	884.06
381.282	864.06
381.507	893.06
381.733	863.06
381.958	889.06
382.184	890.06
382.409	881.06
382.634	906.06
382.86	908.06
383.085	917.06
383.31	911.06
383.535	887.06
383.761	904.06
383.986	930.06
384.211	913.06
384.436	915.06
384.662	924.06
384.887	936.06
385.112	948.06
385.337	961.06
385.562	958.06
385.787	933.06
386.013	936.06
386.238	941.06
386.463	961.06
386.688	964.06
386.913	944.06
387.138	955.06
387.363	974.06
387.588	960.06
387.813	959.06
388.038	964.06
388.263	933.06
388.488	938.06
388.713	974.06
388.938	963.06
389.163	954.06
389.387	971.06
389.612	986.06
389.837	971.06
390.062	954.06
390.287	957.06
390.512	961.06
390.736	962.06
390.961	963.06
391.186	981.06
391.411	997.06
391.636	970.06
391.86	999.06
392.085	993.06
392.31	991.06
392.534	986.06
392.759	1004.06
392.984	994.06
393.208	992.06
393.433	1025.06
393.658	1014.06
393.882	1000.06
394.107	973.06
394.331	978.06
394.556	980.06
394.78	981.06
395.005	989.06
395.229	974.06
395.454	971.06
395.678	991.06
395.903	999.06
396.127	1009.06
396.352	1002.06
396.576	998.06
396.801	994.06
397.025	1038.06
397.249	984.06
397.474	1036.06
397.698	998.06
397.922	1034.06
398.147	1031.06
398.371	1030.06
398.595	1037.06
398.82	1044.06
399.044	1054.06
399.268	1092.06
399.492	1115.06
399.717	1116.06
399.941	1099.06
400.165	1121.06
400.389	1124.06
400.613	1092.06
400.837	1091.06
401.062	1067.06
401.286	1090.06
401.51	1099.06
401.734	1046.06
401.958	1064.06
402.182	1068.06
402.406	1059.06
402.63	1073.06
402.854	1054.06
403.078	1051.06
403.302	1063.06
403.526	1066.06
403.75	1051.06
403.974	1051.06
404.198	1061.06
404.422	1096.06
404.645	1069.06
404.869	1080.06
405.093	1084.06
405.317	1062.06
405.541	1068.06
405.765	1085.06
405.988	1107.06
406.212	1067.06
406.436	1106.06
406.66	1107.06
406.883	1113.06
407.107	1131.06
407.331	1131.06
407.555	1148.06
407.778	1123.06
408.002	1138.06
408.226	1142.06
408.449	1170.06
408.673	1146.06
408.896	1146.06
409.12	1124.06
409.344	1122.06
409.567	1083.06
409.791	1111.06
410.014	1119.06
410.238	1083.06
410.461	1112.06
410.685	1097.06
410.908	1114.06
411.132	1128.06
411.355	1121.06
411.578	1070.06
411.802	1059.06
412.025	1061.06
412.249	1078.06
412.472	1045.06
412.695	1067.06
412.919	1106.06
413.142	1062.06
413.365	1045.06
413.589	1067.06
413.812	1097.06
414.035	1058.06
414.258	1049.06
414.482	1100.06
414.705	1059.06
414.928	1059.06
415.151	1037.06
415.374	1076.06
415.597	1048.06
415.821	1037.06
416.044	1034.06
416.267	1016.06
416.49	1023.06
416.713	1017.06
416.936	1064.06
417.159	1002.06
417.382	1018.06
417.605	1009.06
417.828	996.06
418.051	1020.06
418.274	1012.06
418.497	1013.06
418.72	1001.06
418.943	955.06
419.166	1066.06
419.389	1116.06
419.611	1085.06
419.834	1032.06
420.057	1015.06
420.28	981.06
420.503	995.06
420.726	981.06
420.948	965.06
421.171	1027.06
421.394	974.06
421.617	973.06
421.839	968.06
422.062	992.06
422.285	967.06
422.507	1010.06
422.73	995.06
422.953	1001.06
423.175	992.06
423.398	995.06
423.621	987.06
423.843	976.06
424.066	982.06
424.288	986.06
424.511	994.06
424.733	1003.06
424.956	994.06
425.178	957.06
425.401	968.06
425.623	982.06
425.846	944.06
426.068	966.06
426.291	993.06
426.513	975.06
426.735	988.06
426.958	968.06
427.18	962.06
427.402	967.06
427.625	977.06
427.847	971.06
428.069	932.06
428.292	1001.06
428.514	942.06
428.736	954.06
428.958	971.06
429.181	933.06
429.403	940.06
429.625	940.06
429.847	960.06
430.069	939.06
430.292	973.06
430.514	980.06
430.736	981.06
430.958	975.06
431.18	986.06
431.402	972.06
431.624	945.06
431.846	952.06
432.068	971.06
432.29	988.06
432.512	979.06
432.734	965.06
432.956	965.06
433.178	982.06
433.4	964.06
433.622	962.06
433.844	980.06
434.066	958.06
434.287	977.06
434.509	952.06
434.731	956.06
434.953	969.06
435.175	995.06
435.397	983.06
435.618	983.06
435.84	957.06
436.062	963.06
436.284	950.06
436.505	948.06
436.727	958.06
436.949	938.06
437.17	943.06
437.392	954.06
437.614	928.06
437.835	918.06
438.057	953.06
438.278	936.06
438.5	932.06
438.721	920.06
438.943	944.06
439.165	951.06
439.386	947.06
439.608	915.06
439.829	936.06
440.05	910.06
440.272	904.06
440.493	934.06
440.715	960.06
440.936	941.06
441.158	968.06
441.379	950.06
441.6	959.06
441.822	941.06
442.043	944.06
442.264	967.06
442.486	926.06
442.707	964.06
442.928	931.06
443.149	935.06
443.371	927.06
443.592	928.06
443.813	933.06
444.034	954.06
444.255	973.06
444.476	963.06
444.698	942.06
444.919	987.06
445.14	1086.06
445.361	967.06
445.582	938.06
445.803	970.06
446.024	940.06
446.245	934.06
446.466	950.06
446.687	940.06
446.908	886.06
447.129	927.06
447.35	921.06
447.571	903.06
447.792	891.06
448.013	897.06
448.234	893.06
448.455	893.06
448.675	895.06
448.896	889.06
449.117	859.06
449.338	857.06
449.559	875.06
449.779	856.06
450	878.06
450.221	892.06
450.442	874.06
450.662	880.06
450.883	846.06
451.104	885.06
451.324	888.06
451.545	887.06
451.766	856.06
451.986	857.06
452.207	849.06
452.428	854.06
452.648	849.06
452.869	848.06
453.089	853.06
453.31	822.06
453.53	861.06
453.751	851.06
453.971	850.06
454.192	851.06
454.412	860.06
454.633	842.06
454.853	850.06
455.073	824.06
455.294	841.06
455.514	838.06
455.734	842.06
455.955	834.06
456.175	835.06
456.395	848.06
456.616	852.06
456.836	875.06
457.056	827.06
457.276	850.06
457.497	858.06
457.717	860.06
457.937	862.06
458.157	855.06
458.377	865.06
458.598	893.06
458.818	868.06
459.038	876.06
459.258	912.06
459.478	884.06
459.698	905.06
459.918	886.06
460.138	914.06
460.358	935.06
460.578	940.06
460.798	923.06
461.018	961.06
461.238	952.06
461.458	968.06
461.678	937.06
461.898	985.06
462.118	985.06
462.338	980.06
462.558	966.06
462.777	979.06
462.997	982.06
463.217	1028.06
463.437	983.06
463.657	994.06
463.876	996.06
464.096	1009.06
464.316	983.06
464.536	999.06
464.755	988.06
464.975	966.06
465.195	973.06
465.414	945.06
465.634	918.06
465.854	941.06
466.073	919.06
466.293	904.06
466.512	922.06
466.732	924.06
466.951	907.06
467.171	896.06
467.391	908.06
467.61	934.06
467.829	876.06
468.049	933.06
468.268	918.06
468.488	931.06
468.707	903.06
468.927	941.06
469.146	931.06
469.365	919.06
469.585	905.06
469.804	930.06
470.023	940.06
470.243	892.06
470.462	933.06
470.681	902.06
470.901	926.06
471.12	932.06
471.339	902.06
471.558	918.06
471.777	952.06
471.997	930.06
472.216	902.06
472.435	945.06
472.654	938.06
472.873	933.06
473.092	933.06
473.311	936.06
473.53	941.06
473.749	948.06
473.968	947.06
474.187	961.06
474.406	949.06
474.625	921.06
474.844	944.06
475.063	956.06
475.282	942.06
475.501	941.06
475.72	958.06
475.939	991.06
476.158	968.06
476.377	1000.06
476.596	986.06
476.814	1028.06
477.033	1018.06
477.252	1019.06
477.471	1020.06
477.69	1014.06
477.908	996.06
478.127	1013.06
478.346	1051.06
478.564	1038.06
478.783	1034.06
479.002	1063.06
479.22	1088.06
479.439	1083.06
479.658	1086.06
479.876	1074.06
480.095	1097.06
480.313	1089.06
480.532	1101.06
480.751	1084.06
480.969	1073.06
481.188	1103.06
481.406	1115.06
481.624	1110.06
481.843	1106.06
482.061	1111.06
482.28	1108.06
482.498	1113.06
482.717	1074.06
482.935	1076.06
483.153	1110.06
483.372	1128.06
483.59	1112.06
483.808	1119.06
484.027	1101.06
484.245	1122.06
484.463	1113.06
484.681	1158.06
484.9	1132.06
485.118	1115.06
485.336	1138.06
485.554	1146.06
485.772	1167.06
485.99	1141.06
486.209	1128.06
486.427	1129.06
486.645	1169.06
486.863	1151.06
487.081	1147.06
487.299	1140.06
487.517	1141.06
487.735	1153.06
487.953	1161.06
488.171	1167.06
488.389	1106.06
488.607	1146.06
488.825	1140.06
489.043	1158.06
489.261	1142.06
489.479	1154.06
489.696	1152.06
489.914	1150.06
490.132	1138.06
490.35	1187.06
490.568	1171.06
490.786	1175.06
491.003	1155.06
491.221	1152.06
491.439	1164.06
491.657	1155.06
491.874	1160.06
492.092	1169.06
492.31	1184.06
492.527	1165.06
492.745	1146.06
492.963	1144.06
493.18	1163.06
493.398	1185.06
493.615	1188.06
493.833	1171.06
494.05	1178.06
494.268	1159.06
494.485	1186.06
494.703	1189.06
494.92	1186.06
495.138	1202.06
495.355	1185.06
495.573	1221.06
495.79	1222.06
496.008	1268.06
496.225	1210.06
496.442	1242.06
496.66	1252.06
496.877	1234.06
497.094	1244.06
497.312	1253.06
497.529	1281.06
497.746	1297.06
497.963	1305.06
498.181	1325.06
498.398	1325.06
498.615	1365.06
