Data from Fe(NO3)3@0.05M.TitratingCurve.Agarose3%dH2O.NegLispCup.LampEnergy10.LIBS07252019_HRD10591_16-47-35-333.txt Node
Date: Thu Jul 25 16:47:35 EDT 2019
User: cochatt
Spectrometer: HR+D1059
Trigger mode: 1
Integration Time (sec): 1.000000E-1
Scans to average: 1
Electric dark correction enabled: true
Nonlinearity correction enabled: false
Boxcar width: 0
XAxis mode: Wavelengths
Number of Pixels in Spectrum: 2048
>>>>>Begin Spectral Data<<<<<
223.165	-15.44
223.4	-15.44
223.635	-15.44
223.869	-27.44
224.104	-21.44
224.338	-20.44
224.573	-19.44
224.808	1.56
225.042	-10.44
225.277	-14.44
225.511	-0.44
225.746	5.56
225.98	-0.44
226.215	22.56
226.449	18.56
226.683	17.56
226.918	26.56
227.152	37.56
227.387	35.56
227.621	37.56
227.856	49.56
228.09	35.56
228.324	54.56
228.559	53.56
228.793	61.56
229.027	88.56
229.262	82.56
229.496	90.56
229.73	101.56
229.964	103.56
230.199	108.56
230.433	96.56
230.667	93.56
230.901	100.56
231.136	106.56
231.37	107.56
231.604	120.56
231.838	115.56
232.072	114.56
232.306	101.56
232.541	105.56
232.775	119.56
233.009	108.56
233.243	113.56
233.477	113.56
233.711	122.56
233.945	108.56
234.179	115.56
234.413	122.56
234.647	119.56
234.881	133.56
235.115	126.56
235.349	112.56
235.583	119.56
235.817	116.56
236.051	124.56
236.285	113.56
236.519	123.56
236.753	118.56
236.987	108.56
237.221	121.56
237.455	111.56
237.689	119.56
237.922	125.56
238.156	131.56
238.39	114.56
238.624	125.56
238.858	129.56
239.091	124.56
239.325	102.56
239.559	115.56
239.793	125.56
240.027	135.56
240.26	118.56
240.494	148.56
240.728	129.56
240.961	134.56
241.195	117.56
241.429	139.56
241.662	132.56
241.896	142.56
242.13	134.56
242.363	131.56
242.597	140.56
242.83	137.56
243.064	137.56
243.298	150.56
243.531	133.56
243.765	133.56
243.998	133.56
244.232	142.56
244.465	124.56
244.699	142.56
244.932	144.56
245.166	143.56
245.399	135.56
245.633	131.56
245.866	151.56
246.099	139.56
246.333	154.56
246.566	133.56
246.8	147.56
247.033	140.56
247.266	135.56
247.5	148.56
247.733	147.56
247.966	151.56
248.2	174.56
248.433	170.56
248.666	153.56
248.899	159.56
249.133	169.56
249.366	153.56
249.599	155.56
249.832	165.56
250.066	177.56
250.299	162.56
250.532	154.56
250.765	171.56
250.998	159.56
251.231	157.56
251.465	162.56
251.698	157.56
251.931	152.56
252.164	177.56
252.397	158.56
252.63	178.56
252.863	186.56
253.096	170.56
253.329	170.56
253.562	186.56
253.795	188.56
254.028	165.56
254.261	185.56
254.494	177.56
254.727	187.56
254.96	175.56
255.193	184.56
255.426	171.56
255.659	170.56
255.892	192.56
256.124	186.56
256.357	181.56
256.59	183.56
256.823	194.56
257.056	197.56
257.289	170.56
257.521	190.56
257.754	161.56
257.987	201.56
258.22	197.56
258.452	201.56
258.685	186.56
258.918	199.56
259.151	193.56
259.383	184.56
259.616	193.56
259.849	189.56
260.081	210.56
260.314	225.56
260.547	199.56
260.779	181.56
261.012	193.56
261.244	195.56
261.477	193.56
261.71	200.56
261.942	186.56
262.175	202.56
262.407	197.56
262.64	222.56
262.872	213.56
263.105	216.56
263.337	205.56
263.57	212.56
263.802	213.56
264.035	204.56
264.267	198.56
264.499	202.56
264.732	197.56
264.964	194.56
265.197	228.56
265.429	214.56
265.661	203.56
265.894	208.56
266.126	234.56
266.358	205.56
266.591	191.56
266.823	222.56
267.055	218.56
267.287	218.56
267.52	233.56
267.752	225.56
267.984	209.56
268.216	208.56
268.448	238.56
268.681	210.56
268.913	212.56
269.145	206.56
269.377	223.56
269.609	222.56
269.841	230.56
270.073	218.56
270.306	217.56
270.538	214.56
270.77	220.56
271.002	228.56
271.234	230.56
271.466	225.56
271.698	221.56
271.93	236.56
272.162	236.56
272.394	255.56
272.626	230.56
272.858	250.56
273.09	236.56
273.322	236.56
273.553	262.56
273.785	258.56
274.017	239.56
274.249	264.56
274.481	238.56
274.713	249.56
274.945	266.56
275.176	255.56
275.408	259.56
275.64	247.56
275.872	267.56
276.104	269.56
276.335	257.56
276.567	257.56
276.799	259.56
277.031	263.56
277.262	247.56
277.494	272.56
277.726	250.56
277.957	244.56
278.189	270.56
278.421	253.56
278.652	244.56
278.884	247.56
279.115	258.56
279.347	267.56
279.579	270.56
279.81	254.56
280.042	270.56
280.273	253.56
280.505	263.56
280.736	260.56
280.968	264.56
281.199	279.56
281.431	257.56
281.662	252.56
281.894	273.56
282.125	288.56
282.356	270.56
282.588	270.56
282.819	284.56
283.051	261.56
283.282	267.56
283.513	281.56
283.745	257.56
283.976	269.56
284.207	276.56
284.439	281.56
284.67	295.56
284.901	276.56
285.132	282.56
285.364	276.56
285.595	261.56
285.826	283.56
286.057	278.56
286.288	291.56
286.52	285.56
286.751	283.56
286.982	277.56
287.213	290.56
287.444	277.56
287.675	275.56
287.906	276.56
288.138	289.56
288.369	292.56
288.6	264.56
288.831	292.56
289.062	280.56
289.293	283.56
289.524	271.56
289.755	300.56
289.986	290.56
290.217	288.56
290.448	278.56
290.679	298.56
290.91	289.56
291.141	276.56
291.371	283.56
291.602	289.56
291.833	301.56
292.064	295.56
292.295	307.56
292.526	303.56
292.757	291.56
292.987	289.56
293.218	292.56
293.449	303.56
293.68	305.56
293.91	289.56
294.141	296.56
294.372	286.56
294.603	309.56
294.833	297.56
295.064	298.56
295.295	305.56
295.525	277.56
295.756	306.56
295.987	321.56
296.217	293.56
296.448	299.56
296.679	298.56
296.909	300.56
297.14	306.56
297.37	326.56
297.601	326.56
297.831	320.56
298.062	295.56
298.292	312.56
298.523	330.56
298.753	325.56
298.984	306.56
299.214	313.56
299.445	307.56
299.675	318.56
299.905	309.56
300.136	308.56
300.366	314.56
300.597	309.56
300.827	325.56
301.057	333.56
301.288	324.56
301.518	334.56
301.748	341.56
301.979	348.56
302.209	335.56
302.439	327.56
302.669	328.56
302.9	323.56
303.13	334.56
303.36	343.56
303.59	333.56
303.82	343.56
304.051	330.56
304.281	337.56
304.511	325.56
304.741	335.56
304.971	344.56
305.201	330.56
305.431	343.56
305.661	338.56
305.891	336.56
306.121	348.56
306.352	350.56
306.582	315.56
306.812	316.56
307.042	328.56
307.272	325.56
307.502	329.56
307.731	321.56
307.961	321.56
308.191	335.56
308.421	343.56
308.651	330.56
308.881	324.56
309.111	325.56
309.341	331.56
309.571	329.56
309.8	332.56
310.03	345.56
310.26	327.56
310.49	345.56
310.72	324.56
310.949	338.56
311.179	335.56
311.409	348.56
311.639	350.56
311.868	350.56
312.098	332.56
312.328	349.56
312.557	347.56
312.787	347.56
313.017	344.56
313.246	346.56
313.476	345.56
313.706	359.56
313.935	348.56
314.165	341.56
314.394	350.56
314.624	361.56
314.853	366.56
315.083	349.56
315.312	332.56
315.542	342.56
315.771	354.56
316.001	349.56
316.23	366.56
316.46	335.56
316.689	350.56
316.919	338.56
317.148	355.56
317.377	351.56
317.607	354.56
317.836	353.56
318.065	345.56
318.295	355.56
318.524	373.56
318.753	342.56
318.983	331.56
319.212	338.56
319.441	365.56
319.67	343.56
319.9	343.56
320.129	356.56
320.358	333.56
320.587	330.56
320.816	357.56
321.046	338.56
321.275	372.56
321.504	353.56
321.733	375.56
321.962	371.56
322.191	362.56
322.42	375.56
322.649	345.56
322.878	345.56
323.108	370.56
323.337	347.56
323.566	362.56
323.795	379.56
324.024	373.56
324.253	353.56
324.482	357.56
324.71	387.56
324.939	366.56
325.168	376.56
325.397	370.56
325.626	359.56
325.855	365.56
326.084	362.56
326.313	390.56
326.542	373.56
326.77	396.56
326.999	383.56
327.228	378.56
327.457	362.56
327.686	385.56
327.914	371.56
328.143	370.56
328.372	373.56
328.6	358.56
328.829	387.56
329.058	389.56
329.287	383.56
329.515	386.56
329.744	393.56
329.972	395.56
330.201	370.56
330.43	391.56
330.658	376.56
330.887	388.56
331.115	401.56
331.344	399.56
331.572	383.56
331.801	406.56
332.03	420.56
332.258	407.56
332.486	433.56
332.715	440.56
332.943	453.56
333.172	482.56
333.4	465.56
333.629	484.56
333.857	502.56
334.085	491.56
334.314	464.56
334.542	495.56
334.771	467.56
334.999	479.56
335.227	459.56
335.455	454.56
335.684	457.56
335.912	476.56
336.14	478.56
336.369	456.56
336.597	459.56
336.825	442.56
337.053	447.56
337.281	439.56
337.51	439.56
337.738	435.56
337.966	447.56
338.194	422.56
338.422	409.56
338.65	404.56
338.878	406.56
339.106	410.56
339.334	439.56
339.562	429.56
339.79	407.56
340.018	427.56
340.246	416.56
340.474	423.56
340.702	406.56
340.93	406.56
341.158	398.56
341.386	381.56
341.614	388.56
341.842	394.56
342.07	400.56
342.298	376.56
342.526	392.56
342.754	375.56
342.981	419.56
343.209	403.56
343.437	413.56
343.665	452.56
343.893	477.56
344.12	465.56
344.348	460.56
344.576	450.56
344.804	458.56
345.031	414.56
345.259	398.56
345.487	427.56
345.714	411.56
345.942	387.56
346.17	396.56
346.397	392.56
346.625	405.56
346.853	387.56
347.08	373.56
347.308	393.56
347.535	367.56
347.763	397.56
347.99	398.56
348.218	389.56
348.445	392.56
348.673	387.56
348.9	405.56
349.128	397.56
349.355	380.56
349.583	381.56
349.81	377.56
350.037	382.56
350.265	381.56
350.492	382.56
350.72	374.56
350.947	399.56
351.174	400.56
351.402	384.56
351.629	371.56
351.856	370.56
352.083	369.56
352.311	373.56
352.538	359.56
352.765	403.56
352.992	383.56
353.22	396.56
353.447	380.56
353.674	384.56
353.901	370.56
354.128	372.56
354.355	391.56
354.583	380.56
354.81	398.56
355.037	398.56
355.264	402.56
355.491	382.56
355.718	388.56
355.945	366.56
356.172	381.56
356.399	384.56
356.626	367.56
356.853	385.56
357.08	385.56
357.307	386.56
357.534	369.56
357.761	401.56
357.988	408.56
358.215	403.56
358.441	406.56
358.668	395.56
358.895	394.56
359.122	381.56
359.349	380.56
359.576	395.56
359.802	407.56
360.029	392.56
360.256	382.56
360.483	374.56
360.709	373.56
360.936	379.56
361.163	391.56
361.39	384.56
361.616	388.56
361.843	382.56
362.07	360.56
362.296	385.56
362.523	386.56
362.749	379.56
362.976	377.56
363.203	379.56
363.429	371.56
363.656	383.56
363.882	377.56
364.109	394.56
364.335	369.56
364.562	389.56
364.788	411.56
365.015	390.56
365.241	371.56
365.468	389.56
365.694	382.56
365.92	390.56
366.147	406.56
366.373	370.56
366.599	377.56
366.826	387.56
367.052	389.56
367.278	382.56
367.505	381.56
367.731	394.56
367.957	378.56
368.184	414.56
368.41	400.56
368.636	375.56
368.862	403.56
369.089	389.56
369.315	413.56
369.541	410.56
369.767	386.56
369.993	388.56
370.219	415.56
370.445	387.56
370.672	409.56
370.898	423.56
371.124	432.56
371.35	439.56
371.576	439.56
371.802	418.56
372.028	417.56
372.254	424.56
372.48	452.56
372.706	438.56
372.932	438.56
373.158	431.56
373.384	436.56
373.61	450.56
373.835	449.56
374.061	414.56
374.287	449.56
374.513	449.56
374.739	452.56
374.965	479.56
375.191	474.56
375.416	466.56
375.642	453.56
375.868	452.56
376.094	442.56
376.319	444.56
376.545	454.56
376.771	420.56
376.997	457.56
377.222	441.56
377.448	417.56
377.674	410.56
377.899	413.56
378.125	428.56
378.35	437.56
378.576	428.56
378.802	423.56
379.027	439.56
379.253	444.56
379.478	434.56
379.704	421.56
379.929	424.56
380.155	417.56
380.38	432.56
380.606	448.56
380.831	430.56
381.057	438.56
381.282	421.56
381.507	424.56
381.733	435.56
381.958	444.56
382.184	443.56
382.409	451.56
382.634	483.56
382.86	451.56
383.085	451.56
383.31	457.56
383.535	465.56
383.761	448.56
383.986	482.56
384.211	479.56
384.436	508.56
384.662	491.56
384.887	502.56
385.112	494.56
385.337	504.56
385.562	490.56
385.787	486.56
386.013	524.56
386.238	548.56
386.463	519.56
386.688	529.56
386.913	517.56
387.138	519.56
387.363	513.56
387.588	512.56
387.813	514.56
388.038	514.56
388.263	517.56
388.488	523.56
388.713	538.56
388.938	506.56
389.163	500.56
389.387	506.56
389.612	494.56
389.837	492.56
390.062	513.56
390.287	534.56
390.512	531.56
390.736	491.56
390.961	533.56
391.186	535.56
391.411	535.56
391.636	550.56
391.86	541.56
392.085	565.56
392.31	576.56
392.534	566.56
392.759	540.56
392.984	551.56
393.208	526.56
393.433	536.56
393.658	563.56
393.882	544.56
394.107	551.56
394.331	526.56
394.556	521.56
394.78	552.56
395.005	551.56
395.229	555.56
395.454	571.56
395.678	565.56
395.903	561.56
396.127	591.56
396.352	556.56
396.576	561.56
396.801	550.56
397.025	531.56
397.249	565.56
397.474	605.56
397.698	582.56
397.922	611.56
398.147	568.56
398.371	608.56
398.595	618.56
398.82	625.56
399.044	679.56
399.268	731.56
399.492	784.56
399.717	883.56
399.941	885.56
400.165	830.56
400.389	763.56
400.613	705.56
400.837	662.56
401.062	643.56
401.286	649.56
401.51	629.56
401.734	649.56
401.958	647.56
402.182	646.56
402.406	629.56
402.63	638.56
402.854	649.56
403.078	668.56
403.302	697.56
403.526	693.56
403.75	675.56
403.974	694.56
404.198	699.56
404.422	729.56
404.645	723.56
404.869	702.56
405.093	703.56
405.317	665.56
405.541	673.56
405.765	703.56
405.988	695.56
406.212	691.56
406.436	714.56
406.66	716.56
406.883	713.56
407.107	734.56
407.331	758.56
407.555	814.56
407.778	809.56
408.002	785.56
408.226	765.56
408.449	763.56
408.673	761.56
408.896	749.56
409.12	714.56
409.344	726.56
409.567	706.56
409.791	716.56
410.014	706.56
410.238	718.56
410.461	691.56
410.685	712.56
410.908	676.56
411.132	713.56
411.355	681.56
411.578	670.56
411.802	654.56
412.025	675.56
412.249	677.56
412.472	670.56
412.695	651.56
412.919	652.56
413.142	666.56
413.365	685.56
413.589	661.56
413.812	645.56
414.035	637.56
414.258	649.56
414.482	665.56
414.705	658.56
414.928	676.56
415.151	656.56
415.374	662.56
415.597	636.56
415.821	645.56
416.044	653.56
416.267	634.56
416.49	636.56
416.713	615.56
416.936	669.56
417.159	638.56
417.382	630.56
417.605	612.56
417.828	654.56
418.051	631.56
418.274	649.56
418.497	647.56
418.72	662.56
418.943	645.56
419.166	685.56
419.389	728.56
419.611	723.56
419.834	655.56
420.057	675.56
420.28	625.56
420.503	633.56
420.726	641.56
420.948	646.56
421.171	650.56
421.394	638.56
421.617	634.56
421.839	656.56
422.062	634.56
422.285	636.56
422.507	662.56
422.73	667.56
422.953	630.56
423.175	637.56
423.398	663.56
423.621	659.56
423.843	667.56
424.066	680.56
424.288	665.56
424.511	674.56
424.733	650.56
424.956	643.56
425.178	638.56
425.401	649.56
425.623	639.56
425.846	625.56
426.068	636.56
426.291	605.56
426.513	615.56
426.735	619.56
426.958	589.56
427.18	610.56
427.402	610.56
427.625	619.56
427.847	591.56
428.069	610.56
428.292	579.56
428.514	581.56
428.736	587.56
428.958	596.56
429.181	603.56
429.403	593.56
429.625	585.56
429.847	579.56
430.069	580.56
430.292	608.56
430.514	587.56
430.736	590.56
430.958	589.56
431.18	604.56
431.402	569.56
431.624	587.56
431.846	605.56
432.068	602.56
432.29	619.56
432.512	581.56
432.734	589.56
432.956	591.56
433.178	588.56
433.4	589.56
433.622	612.56
433.844	607.56
434.066	601.56
434.287	580.56
434.509	630.56
434.731	641.56
434.953	635.56
435.175	663.56
435.397	641.56
435.618	627.56
435.84	623.56
436.062	615.56
436.284	612.56
436.505	596.56
436.727	632.56
436.949	600.56
437.17	583.56
437.392	582.56
437.614	590.56
437.835	580.56
438.057	567.56
438.278	579.56
438.5	590.56
438.721	594.56
438.943	609.56
439.165	564.56
439.386	585.56
439.608	591.56
439.829	566.56
440.05	586.56
440.272	602.56
440.493	596.56
440.715	616.56
440.936	634.56
441.158	611.56
441.379	647.56
441.6	665.56
441.822	671.56
442.043	673.56
442.264	663.56
442.486	650.56
442.707	641.56
442.928	655.56
443.149	654.56
443.371	640.56
443.592	628.56
443.813	673.56
444.034	675.56
444.255	695.56
444.476	711.56
444.698	727.56
444.919	712.56
445.14	800.56
445.361	735.56
445.582	693.56
445.803	663.56
446.024	652.56
446.245	643.56
446.466	637.56
446.687	610.56
446.908	627.56
447.129	587.56
447.35	596.56
447.571	596.56
447.792	578.56
448.013	556.56
448.234	571.56
448.455	590.56
448.675	547.56
448.896	566.56
449.117	571.56
449.338	573.56
449.559	551.56
449.779	563.56
450	506.56
450.221	568.56
450.442	546.56
450.662	575.56
450.883	575.56
451.104	566.56
451.324	568.56
451.545	572.56
451.766	534.56
451.986	553.56
452.207	567.56
452.428	537.56
452.648	570.56
452.869	543.56
453.089	517.56
453.31	572.56
453.53	554.56
453.751	542.56
453.971	519.56
454.192	542.56
454.412	523.56
454.633	523.56
454.853	528.56
455.073	519.56
455.294	558.56
455.514	545.56
455.734	532.56
455.955	521.56
456.175	513.56
456.395	520.56
456.616	521.56
456.836	530.56
457.056	529.56
457.276	530.56
457.497	513.56
457.717	531.56
457.937	547.56
458.157	526.56
458.377	538.56
458.598	539.56
458.818	561.56
459.038	575.56
459.258	596.56
459.478	599.56
459.698	614.56
459.918	623.56
460.138	645.56
460.358	669.56
460.578	676.56
460.798	694.56
461.018	683.56
461.238	691.56
461.458	685.56
461.678	679.56
461.898	720.56
462.118	699.56
462.338	707.56
462.558	745.56
462.777	768.56
462.997	817.56
463.217	853.56
463.437	862.56
463.657	833.56
463.876	797.56
464.096	766.56
464.316	760.56
464.536	750.56
464.755	762.56
464.975	727.56
465.195	713.56
465.414	673.56
465.634	646.56
465.854	625.56
466.073	627.56
466.293	609.56
466.512	588.56
466.732	604.56
466.951	585.56
467.171	580.56
467.391	596.56
467.61	583.56
467.829	589.56
468.049	582.56
468.268	574.56
468.488	561.56
468.707	577.56
468.927	566.56
469.146	585.56
469.365	545.56
469.585	550.56
469.804	552.56
470.023	594.56
470.243	566.56
470.462	573.56
470.681	612.56
470.901	598.56
471.12	595.56
471.339	586.56
471.558	581.56
471.777	558.56
471.997	575.56
472.216	573.56
472.435	554.56
472.654	545.56
472.873	549.56
473.092	532.56
473.311	568.56
473.53	574.56
473.749	561.56
473.968	558.56
474.187	561.56
474.406	557.56
474.625	556.56
474.844	544.56
475.063	558.56
475.282	560.56
475.501	547.56
475.72	555.56
475.939	572.56
476.158	550.56
476.377	553.56
476.596	584.56
476.814	598.56
477.033	591.56
477.252	569.56
477.471	573.56
477.69	586.56
477.908	629.56
478.127	636.56
478.346	643.56
478.564	620.56
478.783	649.56
479.002	643.56
479.22	656.56
479.439	662.56
479.658	641.56
479.876	669.56
480.095	661.56
480.313	662.56
480.532	695.56
480.751	701.56
480.969	698.56
481.188	669.56
481.406	646.56
481.624	657.56
481.843	624.56
482.061	606.56
482.28	615.56
482.498	621.56
482.717	578.56
482.935	598.56
483.153	644.56
483.372	661.56
483.59	625.56
483.808	643.56
484.027	623.56
484.245	645.56
484.463	641.56
484.681	643.56
484.9	633.56
485.118	645.56
485.336	634.56
485.554	639.56
485.772	655.56
485.99	635.56
486.209	645.56
486.427	645.56
486.645	661.56
486.863	662.56
487.081	646.56
487.299	654.56
487.517	652.56
487.735	639.56
487.953	649.56
488.171	642.56
488.389	627.56
488.607	629.56
488.825	632.56
489.043	647.56
489.261	628.56
489.479	679.56
489.696	647.56
489.914	644.56
490.132	635.56
490.35	663.56
490.568	625.56
490.786	661.56
491.003	635.56
491.221	654.56
491.439	679.56
491.657	673.56
491.874	666.56
492.092	672.56
492.31	657.56
492.527	669.56
492.745	691.56
492.963	658.56
493.18	666.56
493.398	649.56
493.615	678.56
493.833	690.56
494.05	668.56
494.268	707.56
494.485	709.56
494.703	684.56
494.92	687.56
495.138	665.56
495.355	691.56
495.573	691.56
495.79	698.56
496.008	681.56
496.225	704.56
496.442	726.56
496.66	736.56
496.877	717.56
497.094	728.56
497.312	732.56
497.529	772.56
497.746	806.56
497.963	818.56
498.181	847.56
498.398	877.56
498.615	873.56
498.832	924.56
499.049	1035.56
499.267	1066.56
499.484	1145.56
499.701	1239.56
499.918	1328.56
500.135	1490.56
500.352	1620.56
500.569	1715.56
500.786	1659.56
501.003	1586.56
501.22	1440.56
501.437	1274.56
