Data from Fe(NO3)3@0.1M.TitratingCurve.Agarose3%dH2O.NegLispCup.LampEnergy10.LIBS07252019_HRD10591_16-41-28-333.txt Node
Date: Thu Jul 25 16:41:28 EDT 2019
User: cochatt
Spectrometer: HR+D1059
Trigger mode: 1
Integration Time (sec): 1.000000E-1
Scans to average: 1
Electric dark correction enabled: true
Nonlinearity correction enabled: false
Boxcar width: 0
XAxis mode: Wavelengths
Number of Pixels in Spectrum: 2048
>>>>>Begin Spectral Data<<<<<
223.165	-5.69
223.4	-5.69
223.635	-5.69
223.869	-8.69
224.104	-9.69
224.338	-22.69
224.573	-17.69
224.808	-14.69
225.042	-14.69
225.277	-9.69
225.511	-0.69
225.746	11.31
225.98	7.31
226.215	17.31
226.449	8.31
226.683	10.31
226.918	21.31
227.152	28.31
227.387	45.31
227.621	33.31
227.856	41.31
228.09	35.31
228.324	55.31
228.559	49.31
228.793	56.31
229.027	75.31
229.262	66.31
229.496	66.31
229.73	79.31
229.964	85.31
230.199	77.31
230.433	89.31
230.667	85.31
230.901	77.31
231.136	87.31
231.37	74.31
231.604	81.31
231.838	86.31
232.072	85.31
232.306	73.31
232.541	85.31
232.775	73.31
233.009	93.31
233.243	75.31
233.477	83.31
233.711	101.31
233.945	103.31
234.179	83.31
234.413	82.31
234.647	81.31
234.881	106.31
235.115	96.31
235.349	87.31
235.583	69.31
235.817	91.31
236.051	94.31
236.285	77.31
236.519	86.31
236.753	91.31
236.987	82.31
237.221	96.31
237.455	91.31
237.689	80.31
237.922	77.31
238.156	87.31
238.39	81.31
238.624	89.31
238.858	78.31
239.091	83.31
239.325	81.31
239.559	84.31
239.793	82.31
240.027	80.31
240.26	97.31
240.494	73.31
240.728	75.31
240.961	83.31
241.195	83.31
241.429	87.31
241.662	80.31
241.896	85.31
242.13	83.31
242.363	96.31
242.597	92.31
242.83	100.31
243.064	85.31
243.298	98.31
243.531	87.31
243.765	80.31
243.998	92.31
244.232	89.31
244.465	93.31
244.699	95.31
244.932	102.31
245.166	108.31
245.399	87.31
245.633	97.31
245.866	92.31
246.099	84.31
246.333	83.31
246.566	90.31
246.8	102.31
247.033	103.31
247.266	92.31
247.5	95.31
247.733	94.31
247.966	89.31
248.2	85.31
248.433	89.31
248.666	82.31
248.899	88.31
249.133	79.31
249.366	94.31
249.599	99.31
249.832	101.31
250.066	103.31
250.299	87.31
250.532	94.31
250.765	92.31
250.998	95.31
251.231	101.31
251.465	97.31
251.698	95.31
251.931	99.31
252.164	91.31
252.397	118.31
252.63	103.31
252.863	100.31
253.096	103.31
253.329	103.31
253.562	106.31
253.795	98.31
254.028	99.31
254.261	107.31
254.494	116.31
254.727	113.31
254.96	101.31
255.193	111.31
255.426	101.31
255.659	107.31
255.892	111.31
256.124	98.31
256.357	104.31
256.59	99.31
256.823	105.31
257.056	112.31
257.289	105.31
257.521	96.31
257.754	106.31
257.987	99.31
258.22	115.31
258.452	117.31
258.685	101.31
258.918	100.31
259.151	102.31
259.383	104.31
259.616	98.31
259.849	119.31
260.081	115.31
260.314	92.31
260.547	117.31
260.779	104.31
261.012	122.31
261.244	95.31
261.477	109.31
261.71	94.31
261.942	108.31
262.175	119.31
262.407	98.31
262.64	108.31
262.872	86.31
263.105	95.31
263.337	112.31
263.57	117.31
263.802	103.31
264.035	113.31
264.267	116.31
264.499	97.31
264.732	111.31
264.964	112.31
265.197	106.31
265.429	108.31
265.661	109.31
265.894	98.31
266.126	114.31
266.358	108.31
266.591	111.31
266.823	111.31
267.055	106.31
267.287	103.31
267.52	85.31
267.752	119.31
267.984	103.31
268.216	109.31
268.448	109.31
268.681	111.31
268.913	110.31
269.145	113.31
269.377	102.31
269.609	106.31
269.841	120.31
270.073	116.31
270.306	102.31
270.538	125.31
270.77	133.31
271.002	122.31
271.234	112.31
271.466	136.31
271.698	117.31
271.93	114.31
272.162	116.31
272.394	122.31
272.626	103.31
272.858	119.31
273.09	130.31
273.322	113.31
273.553	117.31
273.785	129.31
274.017	130.31
274.249	122.31
274.481	110.31
274.713	117.31
274.945	133.31
275.176	123.31
275.408	141.31
275.64	122.31
275.872	114.31
276.104	125.31
276.335	111.31
276.567	107.31
276.799	123.31
277.031	133.31
277.262	125.31
277.494	122.31
277.726	121.31
277.957	119.31
278.189	114.31
278.421	118.31
278.652	122.31
278.884	129.31
279.115	132.31
279.347	129.31
279.579	125.31
279.81	118.31
280.042	113.31
280.273	131.31
280.505	122.31
280.736	120.31
280.968	137.31
281.199	128.31
281.431	125.31
281.662	127.31
281.894	130.31
282.125	131.31
282.356	138.31
282.588	127.31
282.819	127.31
283.051	116.31
283.282	128.31
283.513	134.31
283.745	135.31
283.976	133.31
284.207	138.31
284.439	123.31
284.67	143.31
284.901	143.31
285.132	132.31
285.364	139.31
285.595	109.31
285.826	127.31
286.057	134.31
286.288	133.31
286.52	144.31
286.751	139.31
286.982	125.31
287.213	138.31
287.444	132.31
287.675	130.31
287.906	136.31
288.138	120.31
288.369	140.31
288.6	143.31
288.831	134.31
289.062	137.31
289.293	134.31
289.524	140.31
289.755	143.31
289.986	135.31
290.217	138.31
290.448	114.31
290.679	149.31
290.91	151.31
291.141	140.31
291.371	134.31
291.602	139.31
291.833	131.31
292.064	133.31
292.295	140.31
292.526	141.31
292.757	153.31
292.987	133.31
293.218	139.31
293.449	150.31
293.68	147.31
293.91	134.31
294.141	127.31
294.372	152.31
294.603	131.31
294.833	121.31
295.064	140.31
295.295	145.31
295.525	141.31
295.756	143.31
295.987	131.31
296.217	134.31
296.448	130.31
296.679	149.31
296.909	136.31
297.14	141.31
297.37	149.31
297.601	135.31
297.831	134.31
298.062	127.31
298.292	123.31
298.523	141.31
298.753	150.31
298.984	138.31
299.214	145.31
299.445	137.31
299.675	147.31
299.905	143.31
300.136	140.31
300.366	136.31
300.597	151.31
300.827	163.31
301.057	149.31
301.288	144.31
301.518	132.31
301.748	145.31
301.979	144.31
302.209	144.31
302.439	135.31
302.669	148.31
302.9	152.31
303.13	126.31
303.36	137.31
303.59	142.31
303.82	143.31
304.051	153.31
304.281	152.31
304.511	139.31
304.741	151.31
304.971	158.31
305.201	166.31
305.431	163.31
305.661	154.31
305.891	123.31
306.121	144.31
306.352	144.31
306.582	143.31
306.812	164.31
307.042	145.31
307.272	155.31
307.502	145.31
307.731	151.31
307.961	153.31
308.191	143.31
308.421	148.31
308.651	148.31
308.881	147.31
309.111	147.31
309.341	153.31
309.571	155.31
309.8	145.31
310.03	150.31
310.26	143.31
310.49	151.31
310.72	148.31
310.949	159.31
311.179	147.31
311.409	167.31
311.639	159.31
311.868	164.31
312.098	146.31
312.328	153.31
312.557	153.31
312.787	164.31
313.017	160.31
313.246	177.31
313.476	154.31
313.706	143.31
313.935	170.31
314.165	163.31
314.394	156.31
314.624	153.31
314.853	146.31
315.083	149.31
315.312	173.31
315.542	159.31
315.771	156.31
316.001	166.31
316.23	151.31
316.46	145.31
316.689	142.31
316.919	159.31
317.148	156.31
317.377	149.31
317.607	139.31
317.836	163.31
318.065	155.31
318.295	145.31
318.524	162.31
318.753	153.31
318.983	154.31
319.212	148.31
319.441	177.31
319.67	162.31
319.9	159.31
320.129	151.31
320.358	140.31
320.587	148.31
320.816	138.31
321.046	149.31
321.275	162.31
321.504	141.31
321.733	145.31
321.962	152.31
322.191	152.31
322.42	160.31
322.649	154.31
322.878	168.31
323.108	164.31
323.337	168.31
323.566	144.31
323.795	150.31
324.024	154.31
324.253	163.31
324.482	157.31
324.71	162.31
324.939	176.31
325.168	182.31
325.397	157.31
325.626	181.31
325.855	175.31
326.084	164.31
326.313	182.31
326.542	170.31
326.77	175.31
326.999	168.31
327.228	166.31
327.457	173.31
327.686	154.31
327.914	167.31
328.143	179.31
328.372	175.31
328.6	155.31
328.829	167.31
329.058	168.31
329.287	162.31
329.515	154.31
329.744	171.31
329.972	176.31
330.201	163.31
330.43	161.31
330.658	164.31
330.887	148.31
331.115	169.31
331.344	165.31
331.572	181.31
331.801	190.31
332.03	173.31
332.258	182.31
332.486	190.31
332.715	189.31
332.943	204.31
333.172	199.31
333.4	206.31
333.629	196.31
333.857	205.31
334.085	201.31
334.314	190.31
334.542	185.31
334.771	187.31
334.999	194.31
335.227	187.31
335.455	206.31
335.684	187.31
335.912	184.31
336.14	167.31
336.369	211.31
336.597	195.31
336.825	183.31
337.053	179.31
337.281	190.31
337.51	206.31
337.738	175.31
337.966	176.31
338.194	178.31
338.422	178.31
338.65	181.31
338.878	178.31
339.106	186.31
339.334	189.31
339.562	190.31
339.79	164.31
340.018	173.31
340.246	173.31
340.474	179.31
340.702	178.31
340.93	189.31
341.158	175.31
341.386	158.31
341.614	159.31
341.842	181.31
342.07	150.31
342.298	161.31
342.526	162.31
342.754	162.31
342.981	179.31
343.209	169.31
343.437	199.31
343.665	193.31
343.893	194.31
344.12	197.31
344.348	183.31
344.576	178.31
344.804	181.31
345.031	177.31
345.259	189.31
345.487	169.31
345.714	173.31
345.942	157.31
346.17	197.31
346.397	162.31
346.625	182.31
346.853	168.31
347.08	159.31
347.308	183.31
347.535	169.31
347.763	172.31
347.99	175.31
348.218	183.31
348.445	157.31
348.673	176.31
348.9	170.31
349.128	171.31
349.355	179.31
349.583	178.31
349.81	155.31
350.037	174.31
350.265	155.31
350.492	157.31
350.72	161.31
350.947	161.31
351.174	170.31
351.402	181.31
351.629	177.31
351.856	143.31
352.083	168.31
352.311	164.31
352.538	175.31
352.765	175.31
352.992	174.31
353.22	167.31
353.447	177.31
353.674	163.31
353.901	165.31
354.128	167.31
354.355	158.31
354.583	164.31
354.81	187.31
355.037	169.31
355.264	169.31
355.491	159.31
355.718	175.31
355.945	163.31
356.172	182.31
356.399	175.31
356.626	174.31
356.853	165.31
357.08	185.31
357.307	178.31
357.534	167.31
357.761	166.31
357.988	155.31
358.215	178.31
358.441	177.31
358.668	177.31
358.895	160.31
359.122	169.31
359.349	173.31
359.576	182.31
359.802	165.31
360.029	176.31
360.256	174.31
360.483	173.31
360.709	157.31
360.936	162.31
361.163	170.31
361.39	161.31
361.616	164.31
361.843	173.31
362.07	164.31
362.296	175.31
362.523	170.31
362.749	179.31
362.976	180.31
363.203	181.31
363.429	153.31
363.656	180.31
363.882	165.31
364.109	171.31
364.335	173.31
364.562	158.31
364.788	164.31
365.015	177.31
365.241	166.31
365.468	182.31
365.694	175.31
365.92	177.31
366.147	169.31
366.373	173.31
366.599	167.31
366.826	173.31
367.052	173.31
367.278	172.31
367.505	181.31
367.731	174.31
367.957	167.31
368.184	174.31
368.41	185.31
368.636	181.31
368.862	168.31
369.089	177.31
369.315	185.31
369.541	179.31
369.767	182.31
369.993	181.31
370.219	178.31
370.445	169.31
370.672	193.31
370.898	170.31
371.124	162.31
371.35	182.31
371.576	197.31
371.802	177.31
372.028	171.31
372.254	186.31
372.48	189.31
372.706	196.31
372.932	170.31
373.158	178.31
373.384	175.31
373.61	191.31
373.835	166.31
374.061	173.31
374.287	183.31
374.513	181.31
374.739	206.31
374.965	197.31
375.191	193.31
375.416	198.31
375.642	183.31
375.868	178.31
376.094	169.31
376.319	190.31
376.545	187.31
376.771	189.31
376.997	188.31
377.222	187.31
377.448	190.31
377.674	189.31
377.899	178.31
378.125	194.31
378.35	192.31
378.576	174.31
378.802	179.31
379.027	164.31
379.253	177.31
379.478	190.31
379.704	182.31
379.929	184.31
380.155	184.31
380.38	189.31
380.606	175.31
380.831	170.31
381.057	185.31
381.282	183.31
381.507	188.31
381.733	185.31
381.958	165.31
382.184	188.31
382.409	190.31
382.634	180.31
382.86	184.31
383.085	195.31
383.31	187.31
383.535	207.31
383.761	204.31
383.986	196.31
384.211	204.31
384.436	207.31
384.662	197.31
384.887	206.31
385.112	202.31
385.337	207.31
385.562	229.31
385.787	218.31
386.013	216.31
386.238	221.31
386.463	205.31
386.688	209.31
386.913	194.31
387.138	203.31
387.363	218.31
387.588	210.31
387.813	203.31
388.038	217.31
388.263	210.31
388.488	215.31
388.713	201.31
388.938	214.31
389.163	207.31
389.387	216.31
389.612	207.31
389.837	196.31
390.062	205.31
390.287	210.31
390.512	206.31
390.736	204.31
390.961	223.31
391.186	218.31
391.411	221.31
391.636	203.31
391.86	226.31
392.085	217.31
392.31	198.31
392.534	224.31
392.759	215.31
392.984	221.31
393.208	217.31
393.433	213.31
393.658	216.31
393.882	216.31
394.107	213.31
394.331	215.31
394.556	235.31
394.78	237.31
395.005	239.31
395.229	224.31
395.454	235.31
395.678	247.31
395.903	232.31
396.127	213.31
396.352	231.31
396.576	220.31
396.801	231.31
397.025	222.31
397.249	237.31
397.474	243.31
397.698	231.31
397.922	230.31
398.147	221.31
398.371	221.31
398.595	235.31
398.82	255.31
399.044	255.31
399.268	282.31
399.492	339.31
399.717	330.31
399.941	319.31
400.165	271.31
400.389	272.31
400.613	266.31
400.837	250.31
401.062	253.31
401.286	251.31
401.51	269.31
401.734	222.31
401.958	247.31
402.182	261.31
402.406	262.31
402.63	258.31
402.854	260.31
403.078	255.31
403.302	253.31
403.526	278.31
403.75	276.31
403.974	274.31
404.198	275.31
404.422	275.31
404.645	262.31
404.869	269.31
405.093	283.31
405.317	257.31
405.541	274.31
405.765	256.31
405.988	259.31
406.212	254.31
406.436	274.31
406.66	276.31
406.883	266.31
407.107	300.31
407.331	294.31
407.555	299.31
407.778	291.31
408.002	283.31
408.226	287.31
408.449	285.31
408.673	276.31
408.896	283.31
409.12	265.31
409.344	278.31
409.567	269.31
409.791	286.31
410.014	273.31
410.238	271.31
410.461	257.31
410.685	266.31
410.908	264.31
411.132	259.31
411.355	269.31
411.578	256.31
411.802	247.31
412.025	265.31
412.249	256.31
412.472	290.31
412.695	266.31
412.919	237.31
413.142	232.31
413.365	257.31
413.589	256.31
413.812	254.31
414.035	255.31
414.258	258.31
414.482	247.31
414.705	251.31
414.928	268.31
415.151	256.31
415.374	271.31
415.597	259.31
415.821	254.31
416.044	258.31
416.267	238.31
416.49	244.31
416.713	260.31
416.936	264.31
417.159	250.31
417.382	244.31
417.605	261.31
417.828	252.31
418.051	259.31
418.274	245.31
418.497	258.31
418.72	269.31
418.943	269.31
419.166	259.31
419.389	293.31
419.611	271.31
419.834	259.31
420.057	249.31
420.28	257.31
420.503	219.31
420.726	244.31
420.948	241.31
421.171	267.31
421.394	261.31
421.617	259.31
421.839	244.31
422.062	252.31
422.285	266.31
422.507	269.31
422.73	266.31
422.953	277.31
423.175	265.31
423.398	265.31
423.621	279.31
423.843	253.31
424.066	254.31
424.288	267.31
424.511	268.31
424.733	267.31
424.956	264.31
425.178	277.31
425.401	262.31
425.623	273.31
425.846	245.31
426.068	245.31
426.291	251.31
426.513	245.31
426.735	269.31
426.958	273.31
427.18	254.31
427.402	257.31
427.625	232.31
427.847	237.31
428.069	226.31
428.292	246.31
428.514	233.31
428.736	245.31
428.958	242.31
429.181	246.31
429.403	227.31
429.625	233.31
429.847	241.31
430.069	231.31
430.292	245.31
430.514	241.31
430.736	251.31
430.958	237.31
431.18	241.31
431.402	242.31
431.624	247.31
431.846	238.31
432.068	233.31
432.29	251.31
432.512	245.31
432.734	237.31
432.956	229.31
433.178	248.31
433.4	249.31
433.622	241.31
433.844	240.31
434.066	249.31
434.287	250.31
434.509	248.31
434.731	263.31
434.953	261.31
435.175	266.31
435.397	240.31
435.618	240.31
435.84	242.31
436.062	230.31
436.284	257.31
436.505	259.31
436.727	264.31
436.949	261.31
437.17	241.31
437.392	218.31
437.614	238.31
437.835	222.31
438.057	239.31
438.278	232.31
438.5	247.31
438.721	245.31
438.943	244.31
439.165	241.31
439.386	244.31
439.608	259.31
439.829	254.31
440.05	246.31
440.272	257.31
440.493	265.31
440.715	265.31
440.936	273.31
441.158	271.31
441.379	283.31
441.6	279.31
441.822	289.31
442.043	270.31
442.264	259.31
442.486	272.31
442.707	273.31
442.928	261.31
443.149	274.31
443.371	274.31
443.592	302.31
443.813	289.31
444.034	258.31
444.255	266.31
444.476	301.31
444.698	303.31
444.919	289.31
445.14	401.31
445.361	345.31
445.582	293.31
445.803	267.31
446.024	282.31
446.245	264.31
446.466	263.31
446.687	282.31
446.908	271.31
447.129	252.31
447.35	253.31
447.571	262.31
447.792	254.31
448.013	242.31
448.234	239.31
448.455	233.31
448.675	243.31
448.896	249.31
449.117	232.31
449.338	253.31
449.559	247.31
449.779	240.31
450	239.31
450.221	237.31
450.442	246.31
450.662	241.31
450.883	246.31
451.104	250.31
451.324	244.31
451.545	243.31
451.766	238.31
451.986	241.31
452.207	230.31
452.428	247.31
452.648	263.31
452.869	218.31
453.089	207.31
453.31	233.31
453.53	224.31
453.751	223.31
453.971	233.31
454.192	227.31
454.412	206.31
454.633	234.31
454.853	241.31
455.073	240.31
455.294	213.31
455.514	227.31
455.734	237.31
455.955	230.31
456.175	217.31
456.395	222.31
456.616	197.31
456.836	223.31
457.056	209.31
457.276	215.31
457.497	239.31
457.717	226.31
457.937	224.31
458.157	232.31
458.377	237.31
458.598	233.31
458.818	207.31
459.038	222.31
459.258	262.31
459.478	225.31
459.698	253.31
459.918	245.31
460.138	267.31
460.358	276.31
460.578	278.31
460.798	262.31
461.018	285.31
461.238	273.31
461.458	274.31
461.678	266.31
461.898	286.31
462.118	281.31
462.338	294.31
462.558	295.31
462.777	299.31
462.997	323.31
463.217	342.31
463.437	332.31
463.657	311.31
463.876	303.31
464.096	307.31
464.316	301.31
464.536	303.31
464.755	305.31
464.975	285.31
465.195	283.31
465.414	286.31
465.634	275.31
465.854	253.31
466.073	247.31
466.293	240.31
466.512	253.31
466.732	262.31
466.951	238.31
467.171	255.31
467.391	253.31
467.61	244.31
467.829	232.31
468.049	243.31
468.268	257.31
468.488	245.31
468.707	257.31
468.927	230.31
469.146	232.31
469.365	247.31
469.585	257.31
469.804	253.31
470.023	249.31
470.243	254.31
470.462	258.31
470.681	246.31
470.901	257.31
471.12	251.31
471.339	257.31
471.558	231.31
471.777	238.31
471.997	243.31
472.216	253.31
472.435	231.31
472.654	221.31
472.873	210.31
473.092	242.31
473.311	234.31
473.53	223.31
473.749	238.31
473.968	229.31
474.187	240.31
474.406	219.31
474.625	226.31
474.844	241.31
475.063	242.31
475.282	242.31
475.501	234.31
475.72	228.31
475.939	228.31
476.158	239.31
476.377	239.31
476.596	240.31
476.814	231.31
477.033	228.31
477.252	237.31
477.471	238.31
477.69	257.31
477.908	255.31
478.127	240.31
478.346	277.31
478.564	266.31
478.783	253.31
479.002	282.31
479.22	289.31
479.439	276.31
479.658	261.31
479.876	284.31
480.095	256.31
480.313	282.31
480.532	294.31
480.751	285.31
480.969	262.31
481.188	257.31
481.406	252.31
481.624	272.31
481.843	242.31
482.061	228.31
482.28	263.31
482.498	242.31
482.717	257.31
482.935	257.31
483.153	256.31
483.372	252.31
483.59	286.31
483.808	260.31
484.027	261.31
484.245	239.31
484.463	245.31
484.681	272.31
484.9	268.31
485.118	259.31
485.336	256.31
485.554	256.31
485.772	267.31
485.99	250.31
486.209	247.31
486.427	277.31
486.645	259.31
486.863	280.31
487.081	277.31
487.299	267.31
487.517	268.31
487.735	279.31
487.953	279.31
488.171	273.31
488.389	275.31
488.607	237.31
488.825	258.31
489.043	269.31
489.261	264.31
489.479	262.31
489.696	266.31
489.914	252.31
490.132	249.31
490.35	259.31
490.568	271.31
490.786	265.31
491.003	279.31
491.221	278.31
491.439	258.31
491.657	292.31
491.874	279.31
492.092	274.31
492.31	294.31
492.527	285.31
492.745	287.31
492.963	279.31
493.18	298.31
493.398	289.31
493.615	305.31
493.833	288.31
494.05	277.31
494.268	282.31
494.485	286.31
494.703	268.31
494.92	293.31
495.138	286.31
495.355	281.31
495.573	276.31
495.79	286.31
496.008	273.31
496.225	270.31
496.442	284.31
496.66	274.31
496.877	292.31
497.094	293.31
497.312	290.31
497.529	293.31
497.746	311.31
497.963	329.31
498.181	323.31
498.398	343.31
498.615	345.31
498.832	352.31
499.049	367.31
499.267	389.31
499.484	446.31
499.701	479.31
499.918	480.31
500.135	545.31
500.352	579.31
500.569	593.31
500.786	575.31
501.003	544.31
501.22	506.31
501.437	452.31
501.654	442.31
501.871	389.31
502.088	375.31
502.305	345.31
502.522	345.31
502.739	340.31
502.956	312.31
