Data from Fe(NO3)3@0.025M.TitratingCurve.Agarose3%dH2O.NegLispCup.LampEnergy10.LIBS07252019_HRD10591_16-56-34-336.txt Node
Date: Thu Jul 25 16:56:34 EDT 2019
User: cochatt
Spectrometer: HR+D1059
Trigger mode: 1
Integration Time (sec): 1.000000E-1
Scans to average: 1
Electric dark correction enabled: true
Nonlinearity correction enabled: false
Boxcar width: 0
XAxis mode: Wavelengths
Number of Pixels in Spectrum: 2048
>>>>>Begin Spectral Data<<<<<
223.165	-7.31
223.4	-7.31
223.635	-7.31
223.869	-34.31
224.104	4.69
224.338	-22.31
224.573	-20.31
224.808	-6.31
225.042	-5.31
225.277	4.69
225.511	-6.31
225.746	0.69
225.98	5.69
226.215	8.69
226.449	11.69
226.683	23.69
226.918	33.69
227.152	8.69
227.387	30.69
227.621	50.69
227.856	49.69
228.09	46.69
228.324	41.69
228.559	55.69
228.793	59.69
229.027	76.69
229.262	74.69
229.496	76.69
229.73	86.69
229.964	86.69
230.199	84.69
230.433	94.69
230.667	103.69
230.901	73.69
231.136	91.69
231.37	91.69
231.604	101.69
231.838	105.69
232.072	116.69
232.306	90.69
232.541	103.69
232.775	113.69
233.009	114.69
233.243	101.69
233.477	109.69
233.711	112.69
233.945	98.69
234.179	102.69
234.413	97.69
234.647	115.69
234.881	111.69
235.115	98.69
235.349	114.69
235.583	104.69
235.817	86.69
236.051	112.69
236.285	106.69
236.519	114.69
236.753	107.69
236.987	114.69
237.221	100.69
237.455	116.69
237.689	103.69
237.922	101.69
238.156	117.69
238.39	107.69
238.624	100.69
238.858	106.69
239.091	103.69
239.325	110.69
239.559	99.69
239.793	109.69
240.027	120.69
240.26	106.69
240.494	114.69
240.728	118.69
240.961	111.69
241.195	106.69
241.429	96.69
241.662	113.69
241.896	109.69
242.13	115.69
242.363	117.69
242.597	102.69
242.83	111.69
243.064	117.69
243.298	115.69
243.531	119.69
243.765	101.69
243.998	109.69
244.232	116.69
244.465	118.69
244.699	120.69
244.932	122.69
245.166	102.69
245.399	117.69
245.633	124.69
245.866	126.69
246.099	119.69
246.333	121.69
246.566	126.69
246.8	124.69
247.033	123.69
247.266	109.69
247.5	130.69
247.733	128.69
247.966	138.69
248.2	142.69
248.433	122.69
248.666	125.69
248.899	131.69
249.133	136.69
249.366	124.69
249.599	130.69
249.832	124.69
250.066	146.69
250.299	140.69
250.532	128.69
250.765	137.69
250.998	128.69
251.231	136.69
251.465	129.69
251.698	140.69
251.931	126.69
252.164	135.69
252.397	124.69
252.63	124.69
252.863	119.69
253.096	133.69
253.329	151.69
253.562	128.69
253.795	137.69
254.028	148.69
254.261	136.69
254.494	151.69
254.727	136.69
254.96	134.69
255.193	140.69
255.426	127.69
255.659	126.69
255.892	143.69
256.124	144.69
256.357	152.69
256.59	160.69
256.823	129.69
257.056	135.69
257.289	152.69
257.521	135.69
257.754	138.69
257.987	146.69
258.22	144.69
258.452	152.69
258.685	146.69
258.918	158.69
259.151	159.69
259.383	153.69
259.616	145.69
259.849	156.69
260.081	153.69
260.314	148.69
260.547	160.69
260.779	170.69
261.012	154.69
261.244	151.69
261.477	152.69
261.71	146.69
261.942	156.69
262.175	165.69
262.407	155.69
262.64	149.69
262.872	155.69
263.105	170.69
263.337	172.69
263.57	149.69
263.802	157.69
264.035	154.69
264.267	162.69
264.499	172.69
264.732	168.69
264.964	156.69
265.197	164.69
265.429	160.69
265.661	157.69
265.894	172.69
266.126	169.69
266.358	165.69
266.591	169.69
266.823	176.69
267.055	170.69
267.287	168.69
267.52	157.69
267.752	157.69
267.984	169.69
268.216	157.69
268.448	181.69
268.681	171.69
268.913	172.69
269.145	179.69
269.377	179.69
269.609	162.69
269.841	180.69
270.073	178.69
270.306	189.69
270.538	172.69
270.77	184.69
271.002	180.69
271.234	193.69
271.466	171.69
271.698	192.69
271.93	187.69
272.162	180.69
272.394	177.69
272.626	187.69
272.858	184.69
273.09	188.69
273.322	188.69
273.553	178.69
273.785	180.69
274.017	187.69
274.249	189.69
274.481	201.69
274.713	192.69
274.945	192.69
275.176	200.69
275.408	200.69
275.64	176.69
275.872	192.69
276.104	196.69
276.335	204.69
276.567	203.69
276.799	188.69
277.031	210.69
277.262	210.69
277.494	210.69
277.726	204.69
277.957	209.69
278.189	202.69
278.421	195.69
278.652	183.69
278.884	197.69
279.115	201.69
279.347	201.69
279.579	205.69
279.81	206.69
280.042	211.69
280.273	198.69
280.505	201.69
280.736	201.69
280.968	214.69
281.199	203.69
281.431	200.69
281.662	215.69
281.894	212.69
282.125	208.69
282.356	220.69
282.588	204.69
282.819	213.69
283.051	216.69
283.282	216.69
283.513	201.69
283.745	207.69
283.976	214.69
284.207	202.69
284.439	213.69
284.67	225.69
284.901	207.69
285.132	212.69
285.364	205.69
285.595	216.69
285.826	235.69
286.057	221.69
286.288	219.69
286.52	233.69
286.751	212.69
286.982	221.69
287.213	233.69
287.444	217.69
287.675	225.69
287.906	238.69
288.138	224.69
288.369	239.69
288.6	234.69
288.831	229.69
289.062	230.69
289.293	221.69
289.524	256.69
289.755	240.69
289.986	240.69
290.217	227.69
290.448	222.69
290.679	236.69
290.91	250.69
291.141	224.69
291.371	223.69
291.602	240.69
291.833	240.69
292.064	223.69
292.295	237.69
292.526	222.69
292.757	240.69
292.987	235.69
293.218	233.69
293.449	233.69
293.68	239.69
293.91	228.69
294.141	233.69
294.372	241.69
294.603	242.69
294.833	234.69
295.064	276.69
295.295	248.69
295.525	235.69
295.756	242.69
295.987	235.69
296.217	247.69
296.448	244.69
296.679	232.69
296.909	237.69
297.14	252.69
297.37	268.69
297.601	229.69
297.831	249.69
298.062	261.69
298.292	235.69
298.523	244.69
298.753	248.69
298.984	247.69
299.214	250.69
299.445	267.69
299.675	263.69
299.905	263.69
300.136	236.69
300.366	248.69
300.597	274.69
300.827	273.69
301.057	267.69
301.288	258.69
301.518	273.69
301.748	267.69
301.979	263.69
302.209	281.69
302.439	257.69
302.669	278.69
302.9	273.69
303.13	264.69
303.36	261.69
303.59	270.69
303.82	266.69
304.051	266.69
304.281	260.69
304.511	270.69
304.741	268.69
304.971	276.69
305.201	272.69
305.431	267.69
305.661	288.69
305.891	283.69
306.121	285.69
306.352	280.69
306.582	285.69
306.812	268.69
307.042	282.69
307.272	285.69
307.502	263.69
307.731	283.69
307.961	277.69
308.191	266.69
308.421	282.69
308.651	286.69
308.881	275.69
309.111	271.69
309.341	282.69
309.571	274.69
309.8	275.69
310.03	268.69
310.26	266.69
310.49	298.69
310.72	280.69
310.949	294.69
311.179	267.69
311.409	279.69
311.639	284.69
311.868	277.69
312.098	284.69
312.328	282.69
312.557	301.69
312.787	297.69
313.017	307.69
313.246	304.69
313.476	299.69
313.706	301.69
313.935	304.69
314.165	292.69
314.394	288.69
314.624	271.69
314.853	294.69
315.083	289.69
315.312	292.69
315.542	308.69
315.771	292.69
316.001	305.69
316.23	290.69
316.46	300.69
316.689	307.69
316.919	288.69
317.148	337.69
317.377	298.69
317.607	293.69
317.836	317.69
318.065	328.69
318.295	299.69
318.524	305.69
318.753	320.69
318.983	303.69
319.212	294.69
319.441	302.69
319.67	285.69
319.9	305.69
320.129	318.69
320.358	307.69
320.587	315.69
320.816	314.69
321.046	309.69
321.275	299.69
321.504	311.69
321.733	290.69
321.962	320.69
322.191	317.69
322.42	300.69
322.649	294.69
322.878	304.69
323.108	306.69
323.337	310.69
323.566	301.69
323.795	323.69
324.024	297.69
324.253	316.69
324.482	306.69
324.71	323.69
324.939	334.69
325.168	341.69
325.397	306.69
325.626	323.69
325.855	346.69
326.084	340.69
326.313	341.69
326.542	333.69
326.77	320.69
326.999	320.69
327.228	321.69
327.457	345.69
327.686	334.69
327.914	341.69
328.143	344.69
328.372	333.69
328.6	345.69
328.829	334.69
329.058	352.69
329.287	342.69
329.515	340.69
329.744	358.69
329.972	345.69
330.201	334.69
330.43	326.69
330.658	331.69
330.887	354.69
331.115	339.69
331.344	343.69
331.572	353.69
331.801	347.69
332.03	351.69
332.258	347.69
332.486	359.69
332.715	359.69
332.943	365.69
333.172	378.69
333.4	378.69
333.629	390.69
333.857	363.69
334.085	384.69
334.314	402.69
334.542	378.69
334.771	403.69
334.999	395.69
335.227	392.69
335.455	377.69
335.684	377.69
335.912	400.69
336.14	386.69
336.369	380.69
336.597	356.69
336.825	387.69
337.053	385.69
337.281	374.69
337.51	382.69
337.738	370.69
337.966	373.69
338.194	370.69
338.422	375.69
338.65	354.69
338.878	380.69
339.106	376.69
339.334	341.69
339.562	376.69
339.79	345.69
340.018	361.69
340.246	359.69
340.474	386.69
340.702	347.69
340.93	352.69
341.158	368.69
341.386	368.69
341.614	354.69
341.842	353.69
342.07	357.69
342.298	354.69
342.526	380.69
342.754	366.69
342.981	354.69
343.209	361.69
343.437	359.69
343.665	376.69
343.893	378.69
344.12	391.69
344.348	377.69
344.576	379.69
344.804	372.69
345.031	360.69
345.259	360.69
345.487	361.69
345.714	368.69
345.942	348.69
346.17	352.69
346.397	368.69
346.625	354.69
346.853	364.69
347.08	340.69
347.308	340.69
347.535	326.69
347.763	334.69
347.99	362.69
348.218	362.69
348.445	338.69
348.673	360.69
348.9	338.69
349.128	346.69
349.355	347.69
349.583	360.69
349.81	342.69
350.037	349.69
350.265	326.69
350.492	352.69
350.72	345.69
350.947	354.69
351.174	344.69
351.402	343.69
351.629	342.69
351.856	341.69
352.083	349.69
352.311	349.69
352.538	352.69
352.765	345.69
352.992	352.69
353.22	347.69
353.447	343.69
353.674	333.69
353.901	366.69
354.128	338.69
354.355	333.69
354.583	335.69
354.81	349.69
355.037	354.69
355.264	340.69
355.491	365.69
355.718	344.69
355.945	349.69
356.172	342.69
356.399	333.69
356.626	346.69
356.853	337.69
357.08	339.69
357.307	353.69
357.534	343.69
357.761	346.69
357.988	356.69
358.215	361.69
358.441	365.69
358.668	334.69
358.895	358.69
359.122	345.69
359.349	348.69
359.576	348.69
359.802	355.69
360.029	355.69
360.256	345.69
360.483	342.69
360.709	347.69
360.936	353.69
361.163	333.69
361.39	346.69
361.616	354.69
361.843	368.69
362.07	372.69
362.296	347.69
362.523	373.69
362.749	358.69
362.976	345.69
363.203	347.69
363.429	333.69
363.656	355.69
363.882	357.69
364.109	359.69
364.335	343.69
364.562	347.69
364.788	317.69
365.015	370.69
365.241	344.69
365.468	340.69
365.694	359.69
365.92	346.69
366.147	349.69
366.373	362.69
366.599	357.69
366.826	344.69
367.052	357.69
367.278	356.69
367.505	361.69
367.731	363.69
367.957	347.69
368.184	375.69
368.41	371.69
368.636	374.69
368.862	349.69
369.089	372.69
369.315	352.69
369.541	358.69
369.767	363.69
369.993	372.69
370.219	349.69
370.445	371.69
370.672	342.69
370.898	376.69
371.124	386.69
371.35	379.69
371.576	371.69
371.802	382.69
372.028	393.69
372.254	379.69
372.48	372.69
372.706	387.69
372.932	390.69
373.158	380.69
373.384	379.69
373.61	395.69
373.835	377.69
374.061	395.69
374.287	386.69
374.513	388.69
374.739	392.69
374.965	404.69
375.191	395.69
375.416	396.69
375.642	380.69
375.868	392.69
376.094	380.69
376.319	390.69
376.545	367.69
376.771	370.69
376.997	380.69
377.222	369.69
377.448	373.69
377.674	380.69
377.899	373.69
378.125	371.69
378.35	377.69
378.576	385.69
378.802	371.69
379.027	366.69
379.253	388.69
379.478	369.69
379.704	364.69
379.929	364.69
380.155	375.69
380.38	369.69
380.606	396.69
380.831	391.69
381.057	365.69
381.282	381.69
381.507	390.69
381.733	380.69
381.958	390.69
382.184	395.69
382.409	391.69
382.634	388.69
382.86	396.69
383.085	399.69
383.31	390.69
383.535	397.69
383.761	401.69
383.986	416.69
384.211	401.69
384.436	410.69
384.662	421.69
384.887	414.69
385.112	425.69
385.337	409.69
385.562	431.69
385.787	408.69
386.013	423.69
386.238	453.69
386.463	421.69
386.688	415.69
386.913	428.69
387.138	438.69
387.363	429.69
387.588	452.69
387.813	432.69
388.038	429.69
388.263	428.69
388.488	445.69
388.713	449.69
388.938	432.69
389.163	430.69
389.387	434.69
389.612	408.69
389.837	436.69
390.062	429.69
390.287	424.69
390.512	428.69
390.736	426.69
390.961	453.69
391.186	450.69
391.411	453.69
391.636	466.69
391.86	471.69
392.085	445.69
392.31	458.69
392.534	446.69
392.759	453.69
392.984	447.69
393.208	464.69
393.433	460.69
393.658	454.69
393.882	452.69
394.107	439.69
394.331	457.69
394.556	452.69
394.78	460.69
395.005	454.69
395.229	458.69
395.454	471.69
395.678	468.69
395.903	453.69
396.127	466.69
396.352	445.69
396.576	466.69
396.801	471.69
397.025	472.69
397.249	490.69
397.474	462.69
397.698	489.69
397.922	481.69
398.147	485.69
398.371	495.69
398.595	522.69
398.82	517.69
399.044	530.69
399.268	562.69
399.492	601.69
399.717	613.69
399.941	633.69
400.165	599.69
400.389	601.69
400.613	560.69
400.837	539.69
401.062	534.69
401.286	538.69
401.51	523.69
401.734	524.69
401.958	523.69
402.182	514.69
402.406	509.69
402.63	520.69
402.854	521.69
403.078	504.69
403.302	520.69
403.526	525.69
403.75	523.69
403.974	523.69
404.198	507.69
404.422	549.69
404.645	539.69
404.869	521.69
405.093	536.69
405.317	523.69
405.541	558.69
405.765	534.69
405.988	540.69
406.212	521.69
406.436	564.69
406.66	557.69
406.883	578.69
407.107	562.69
407.331	590.69
407.555	622.69
407.778	588.69
408.002	582.69
408.226	571.69
408.449	546.69
408.673	573.69
408.896	526.69
409.12	568.69
409.344	573.69
409.567	553.69
409.791	550.69
410.014	562.69
410.238	534.69
410.461	512.69
410.685	538.69
410.908	538.69
411.132	515.69
411.355	494.69
411.578	526.69
411.802	547.69
412.025	508.69
412.249	524.69
412.472	516.69
412.695	537.69
412.919	524.69
413.142	505.69
413.365	526.69
413.589	524.69
413.812	501.69
414.035	522.69
414.258	482.69
414.482	506.69
414.705	500.69
414.928	513.69
415.151	513.69
415.374	498.69
415.597	509.69
415.821	505.69
416.044	496.69
416.267	486.69
416.49	487.69
416.713	468.69
416.936	473.69
417.159	501.69
417.382	508.69
417.605	501.69
417.828	492.69
418.051	476.69
418.274	494.69
418.497	478.69
418.72	488.69
418.943	503.69
419.166	523.69
419.389	540.69
419.611	536.69
419.834	517.69
420.057	496.69
420.28	487.69
420.503	472.69
420.726	496.69
420.948	486.69
421.171	482.69
421.394	480.69
421.617	475.69
421.839	492.69
422.062	498.69
422.285	473.69
422.507	485.69
422.73	494.69
422.953	469.69
423.175	461.69
423.398	463.69
423.621	474.69
423.843	482.69
424.066	486.69
424.288	483.69
424.511	492.69
424.733	472.69
424.956	462.69
425.178	486.69
425.401	471.69
425.623	478.69
425.846	483.69
426.068	477.69
426.291	476.69
426.513	465.69
426.735	475.69
426.958	468.69
427.18	489.69
427.402	460.69
427.625	471.69
427.847	454.69
428.069	454.69
428.292	437.69
428.514	462.69
428.736	464.69
428.958	444.69
429.181	442.69
429.403	435.69
429.625	453.69
429.847	420.69
430.069	455.69
430.292	451.69
430.514	429.69
430.736	477.69
430.958	447.69
431.18	461.69
431.402	467.69
431.624	452.69
431.846	462.69
432.068	463.69
432.29	461.69
432.512	457.69
432.734	454.69
432.956	466.69
433.178	473.69
433.4	450.69
433.622	456.69
433.844	468.69
434.066	451.69
434.287	441.69
434.509	474.69
434.731	466.69
434.953	474.69
435.175	474.69
435.397	462.69
435.618	475.69
435.84	474.69
436.062	457.69
436.284	464.69
436.505	442.69
436.727	450.69
436.949	454.69
437.17	471.69
437.392	448.69
437.614	446.69
437.835	429.69
438.057	452.69
438.278	446.69
438.5	435.69
438.721	440.69
438.943	453.69
439.165	454.69
439.386	446.69
439.608	457.69
439.829	432.69
440.05	439.69
440.272	450.69
440.493	442.69
440.715	459.69
440.936	473.69
441.158	466.69
441.379	446.69
441.6	488.69
441.822	475.69
442.043	488.69
442.264	469.69
442.486	465.69
442.707	484.69
442.928	455.69
443.149	460.69
443.371	475.69
443.592	474.69
443.813	462.69
444.034	483.69
444.255	514.69
444.476	499.69
444.698	513.69
444.919	527.69
445.14	588.69
445.361	536.69
445.582	490.69
445.803	460.69
446.024	465.69
446.245	478.69
446.466	463.69
446.687	470.69
446.908	430.69
447.129	421.69
447.35	443.69
447.571	428.69
447.792	450.69
448.013	426.69
448.234	416.69
448.455	414.69
448.675	418.69
448.896	413.69
449.117	422.69
449.338	413.69
449.559	402.69
449.779	374.69
450	407.69
450.221	421.69
450.442	411.69
450.662	404.69
450.883	408.69
451.104	422.69
451.324	420.69
451.545	410.69
451.766	406.69
451.986	388.69
452.207	409.69
452.428	403.69
452.648	399.69
452.869	404.69
453.089	414.69
453.31	406.69
453.53	408.69
453.751	391.69
453.971	394.69
454.192	387.69
454.412	396.69
454.633	387.69
454.853	386.69
455.073	394.69
455.294	397.69
455.514	398.69
455.734	394.69
455.955	395.69
456.175	378.69
456.395	405.69
456.616	395.69
456.836	413.69
457.056	388.69
457.276	386.69
457.497	382.69
457.717	396.69
457.937	388.69
458.157	385.69
458.377	420.69
458.598	418.69
458.818	433.69
459.038	432.69
459.258	435.69
459.478	456.69
459.698	453.69
459.918	451.69
460.138	488.69
460.358	480.69
460.578	493.69
460.798	480.69
461.018	501.69
461.238	473.69
461.458	506.69
461.678	475.69
461.898	500.69
462.118	494.69
462.338	529.69
462.558	523.69
462.777	554.69
462.997	550.69
463.217	569.69
463.437	564.69
463.657	549.69
463.876	553.69
464.096	547.69
464.316	528.69
464.536	530.69
464.755	520.69
464.975	504.69
465.195	492.69
465.414	496.69
465.634	471.69
465.854	466.69
466.073	442.69
466.293	435.69
466.512	440.69
466.732	444.69
466.951	428.69
467.171	434.69
467.391	460.69
467.61	445.69
467.829	423.69
468.049	435.69
468.268	425.69
468.488	414.69
468.707	413.69
468.927	413.69
469.146	425.69
469.365	426.69
469.585	449.69
469.804	440.69
470.023	428.69
470.243	446.69
470.462	443.69
470.681	435.69
470.901	459.69
471.12	457.69
471.339	428.69
471.558	414.69
471.777	436.69
471.997	442.69
472.216	442.69
472.435	437.69
472.654	436.69
472.873	409.69
473.092	425.69
473.311	416.69
473.53	442.69
473.749	438.69
473.968	446.69
474.187	420.69
474.406	420.69
474.625	449.69
474.844	453.69
475.063	450.69
475.282	451.69
475.501	444.69
475.72	438.69
475.939	448.69
476.158	439.69
476.377	441.69
476.596	471.69
476.814	440.69
477.033	466.69
477.252	466.69
477.471	470.69
477.69	468.69
477.908	456.69
478.127	496.69
478.346	521.69
478.564	488.69
478.783	506.69
479.002	527.69
479.22	509.69
479.439	536.69
479.658	510.69
479.876	508.69
480.095	513.69
480.313	537.69
480.532	526.69
480.751	539.69
480.969	529.69
481.188	529.69
481.406	501.69
481.624	501.69
481.843	491.69
482.061	488.69
482.28	514.69
482.498	516.69
482.717	507.69
482.935	496.69
483.153	493.69
483.372	509.69
483.59	506.69
483.808	525.69
484.027	495.69
484.245	517.69
484.463	531.69
484.681	518.69
484.9	542.69
485.118	535.69
485.336	525.69
485.554	505.69
485.772	522.69
485.99	510.69
486.209	526.69
486.427	537.69
486.645	519.69
486.863	528.69
487.081	516.69
487.299	531.69
487.517	539.69
487.735	525.69
487.953	514.69
488.171	517.69
488.389	534.69
488.607	510.69
488.825	535.69
489.043	503.69
489.261	526.69
489.479	531.69
489.696	533.69
489.914	534.69
490.132	539.69
490.35	541.69
490.568	492.69
490.786	530.69
491.003	534.69
491.221	529.69
491.439	536.69
491.657	504.69
491.874	521.69
492.092	526.69
492.31	543.69
492.527	547.69
492.745	538.69
492.963	532.69
493.18	537.69
493.398	540.69
493.615	538.69
493.833	537.69
494.05	532.69
494.268	555.69
494.485	506.69
494.703	520.69
494.92	533.69
495.138	551.69
495.355	547.69
495.573	558.69
495.79	562.69
496.008	545.69
496.225	540.69
496.442	567.69
496.66	582.69
496.877	563.69
497.094	596.69
497.312	577.69
497.529	604.69
497.746	585.69
497.963	613.69
498.181	658.69
498.398	660.69
498.615	688.69
498.832	690.69
499.049	723.69
499.267	761.69
499.484	818.69
499.701	866.69
499.918	900.69
500.135	957.69
500.352	998.69
500.569	1028.69
500.786	1004.69
501.003	997.69
501.22	967.69
501.437	877.69
501.654	836.69
501.871	802.69
