Data from Fe(NO3)3@0.1M.TitratingCurve.Agarose3%dH2O.NegLispCup.LampEnergy10.LIBS07252019_HRD10591_16-42-05-333.txt Node
Date: Thu Jul 25 16:42:05 EDT 2019
User: cochatt
Spectrometer: HR+D1059
Trigger mode: 1
Integration Time (sec): 1.000000E-1
Scans to average: 1
Electric dark correction enabled: true
Nonlinearity correction enabled: false
Boxcar width: 0
XAxis mode: Wavelengths
Number of Pixels in Spectrum: 2048
>>>>>Begin Spectral Data<<<<<
223.165	-15.06
223.4	-15.06
223.635	-15.06
223.869	-20.06
224.104	-16.06
224.338	-16.06
224.573	-18.06
224.808	-21.06
225.042	-15.06
225.277	1.94
225.511	1.94
225.746	4.94
225.98	15.94
226.215	9.94
226.449	20.94
226.683	19.94
226.918	11.94
227.152	33.94
227.387	39.94
227.621	32.94
227.856	42.94
228.09	48.94
228.324	39.94
228.559	66.94
228.793	49.94
229.027	58.94
229.262	73.94
229.496	94.94
229.73	78.94
229.964	82.94
230.199	77.94
230.433	82.94
230.667	85.94
230.901	81.94
231.136	75.94
231.37	79.94
231.604	87.94
231.838	87.94
232.072	77.94
232.306	87.94
232.541	84.94
232.775	101.94
233.009	94.94
233.243	76.94
233.477	74.94
233.711	107.94
233.945	79.94
234.179	96.94
234.413	96.94
234.647	84.94
234.881	93.94
235.115	79.94
235.349	90.94
235.583	80.94
235.817	97.94
236.051	71.94
236.285	87.94
236.519	91.94
236.753	98.94
236.987	95.94
237.221	98.94
237.455	77.94
237.689	91.94
237.922	77.94
238.156	86.94
238.39	73.94
238.624	85.94
238.858	84.94
239.091	89.94
239.325	93.94
239.559	93.94
239.793	75.94
240.027	86.94
240.26	109.94
240.494	90.94
240.728	81.94
240.961	99.94
241.195	90.94
241.429	80.94
241.662	95.94
241.896	94.94
242.13	94.94
242.363	99.94
242.597	87.94
242.83	80.94
243.064	95.94
243.298	87.94
243.531	89.94
243.765	90.94
243.998	98.94
244.232	92.94
244.465	95.94
244.699	99.94
244.932	96.94
245.166	96.94
245.399	88.94
245.633	95.94
245.866	87.94
246.099	89.94
246.333	100.94
246.566	85.94
246.8	104.94
247.033	106.94
247.266	100.94
247.5	99.94
247.733	100.94
247.966	112.94
248.2	103.94
248.433	109.94
248.666	102.94
248.899	89.94
249.133	105.94
249.366	111.94
249.599	84.94
249.832	83.94
250.066	102.94
250.299	113.94
250.532	115.94
250.765	101.94
250.998	107.94
251.231	118.94
251.465	102.94
251.698	90.94
251.931	100.94
252.164	99.94
252.397	101.94
252.63	91.94
252.863	100.94
253.096	118.94
253.329	83.94
253.562	106.94
253.795	107.94
254.028	132.94
254.261	111.94
254.494	108.94
254.727	125.94
254.96	117.94
255.193	113.94
255.426	116.94
255.659	103.94
255.892	113.94
256.124	104.94
256.357	117.94
256.59	101.94
256.823	111.94
257.056	118.94
257.289	123.94
257.521	87.94
257.754	104.94
257.987	103.94
258.22	121.94
258.452	103.94
258.685	125.94
258.918	108.94
259.151	121.94
259.383	106.94
259.616	107.94
259.849	104.94
260.081	115.94
260.314	117.94
260.547	100.94
260.779	106.94
261.012	107.94
261.244	122.94
261.477	126.94
261.71	117.94
261.942	129.94
262.175	116.94
262.407	114.94
262.64	120.94
262.872	137.94
263.105	108.94
263.337	136.94
263.57	131.94
263.802	115.94
264.035	116.94
264.267	117.94
264.499	118.94
264.732	125.94
264.964	111.94
265.197	120.94
265.429	126.94
265.661	125.94
265.894	128.94
266.126	132.94
266.358	129.94
266.591	125.94
266.823	122.94
267.055	124.94
267.287	120.94
267.52	114.94
267.752	130.94
267.984	117.94
268.216	145.94
268.448	115.94
268.681	125.94
268.913	133.94
269.145	142.94
269.377	121.94
269.609	125.94
269.841	130.94
270.073	115.94
270.306	111.94
270.538	110.94
270.77	121.94
271.002	125.94
271.234	121.94
271.466	126.94
271.698	125.94
271.93	145.94
272.162	127.94
272.394	131.94
272.626	135.94
272.858	131.94
273.09	127.94
273.322	143.94
273.553	121.94
273.785	129.94
274.017	137.94
274.249	136.94
274.481	141.94
274.713	128.94
274.945	128.94
275.176	123.94
275.408	138.94
275.64	131.94
275.872	137.94
276.104	129.94
276.335	113.94
276.567	127.94
276.799	125.94
277.031	129.94
277.262	121.94
277.494	141.94
277.726	132.94
277.957	129.94
278.189	135.94
278.421	149.94
278.652	145.94
278.884	128.94
279.115	132.94
279.347	128.94
279.579	143.94
279.81	133.94
280.042	138.94
280.273	147.94
280.505	135.94
280.736	154.94
280.968	143.94
281.199	133.94
281.431	125.94
281.662	144.94
281.894	144.94
282.125	127.94
282.356	137.94
282.588	130.94
282.819	140.94
283.051	155.94
283.282	143.94
283.513	142.94
283.745	148.94
283.976	156.94
284.207	147.94
284.439	147.94
284.67	123.94
284.901	140.94
285.132	144.94
285.364	147.94
285.595	147.94
285.826	143.94
286.057	156.94
286.288	155.94
286.52	153.94
286.751	157.94
286.982	156.94
287.213	148.94
287.444	159.94
287.675	147.94
287.906	148.94
288.138	163.94
288.369	149.94
288.6	149.94
288.831	159.94
289.062	154.94
289.293	149.94
289.524	142.94
289.755	157.94
289.986	147.94
290.217	149.94
290.448	151.94
290.679	149.94
290.91	147.94
291.141	148.94
291.371	166.94
291.602	159.94
291.833	137.94
292.064	175.94
292.295	161.94
292.526	167.94
292.757	141.94
292.987	159.94
293.218	158.94
293.449	154.94
293.68	155.94
293.91	168.94
294.141	152.94
294.372	160.94
294.603	151.94
294.833	138.94
295.064	157.94
295.295	152.94
295.525	143.94
295.756	158.94
295.987	161.94
296.217	152.94
296.448	154.94
296.679	154.94
296.909	157.94
297.14	151.94
297.37	159.94
297.601	163.94
297.831	172.94
298.062	162.94
298.292	175.94
298.523	172.94
298.753	143.94
298.984	162.94
299.214	153.94
299.445	179.94
299.675	170.94
299.905	169.94
300.136	164.94
300.366	159.94
300.597	175.94
300.827	151.94
301.057	162.94
301.288	171.94
301.518	175.94
301.748	162.94
301.979	164.94
302.209	178.94
302.439	163.94
302.669	154.94
302.9	171.94
303.13	163.94
303.36	160.94
303.59	168.94
303.82	167.94
304.051	177.94
304.281	179.94
304.511	167.94
304.741	183.94
304.971	180.94
305.201	173.94
305.431	177.94
305.661	163.94
305.891	160.94
306.121	173.94
306.352	171.94
306.582	175.94
306.812	178.94
307.042	171.94
307.272	157.94
307.502	159.94
307.731	183.94
307.961	166.94
308.191	159.94
308.421	163.94
308.651	176.94
308.881	173.94
309.111	164.94
309.341	161.94
309.571	165.94
309.8	170.94
310.03	184.94
310.26	167.94
310.49	157.94
310.72	163.94
310.949	171.94
311.179	178.94
311.409	170.94
311.639	170.94
311.868	168.94
312.098	175.94
312.328	176.94
312.557	170.94
312.787	186.94
313.017	168.94
313.246	185.94
313.476	188.94
313.706	187.94
313.935	183.94
314.165	181.94
314.394	180.94
314.624	201.94
314.853	175.94
315.083	171.94
315.312	177.94
315.542	179.94
315.771	175.94
316.001	162.94
316.23	180.94
316.46	177.94
316.689	178.94
316.919	167.94
317.148	177.94
317.377	186.94
317.607	201.94
317.836	188.94
318.065	177.94
318.295	180.94
318.524	149.94
318.753	167.94
318.983	196.94
319.212	170.94
319.441	184.94
319.67	183.94
319.9	172.94
320.129	185.94
320.358	192.94
320.587	173.94
320.816	179.94
321.046	168.94
321.275	185.94
321.504	195.94
321.733	191.94
321.962	169.94
322.191	175.94
322.42	187.94
322.649	178.94
322.878	177.94
323.108	188.94
323.337	167.94
323.566	178.94
323.795	177.94
324.024	193.94
324.253	188.94
324.482	191.94
324.71	183.94
324.939	188.94
325.168	189.94
325.397	202.94
325.626	198.94
325.855	195.94
326.084	191.94
326.313	179.94
326.542	210.94
326.77	196.94
326.999	199.94
327.228	185.94
327.457	204.94
327.686	191.94
327.914	185.94
328.143	179.94
328.372	193.94
328.6	199.94
328.829	183.94
329.058	195.94
329.287	197.94
329.515	194.94
329.744	200.94
329.972	204.94
330.201	194.94
330.43	206.94
330.658	196.94
330.887	199.94
331.115	199.94
331.344	206.94
331.572	211.94
331.801	196.94
332.03	186.94
332.258	215.94
332.486	206.94
332.715	209.94
332.943	211.94
333.172	228.94
333.4	231.94
333.629	226.94
333.857	215.94
334.085	231.94
334.314	240.94
334.542	225.94
334.771	229.94
334.999	217.94
335.227	236.94
335.455	227.94
335.684	204.94
335.912	220.94
336.14	214.94
336.369	206.94
336.597	218.94
336.825	194.94
337.053	223.94
337.281	196.94
337.51	221.94
337.738	219.94
337.966	205.94
338.194	209.94
338.422	220.94
338.65	201.94
338.878	200.94
339.106	202.94
339.334	204.94
339.562	212.94
339.79	208.94
340.018	193.94
340.246	196.94
340.474	188.94
340.702	202.94
340.93	186.94
341.158	205.94
341.386	197.94
341.614	195.94
341.842	212.94
342.07	201.94
342.298	200.94
342.526	186.94
342.754	200.94
342.981	205.94
343.209	194.94
343.437	207.94
343.665	211.94
343.893	220.94
344.12	234.94
344.348	231.94
344.576	220.94
344.804	218.94
345.031	207.94
345.259	202.94
345.487	211.94
345.714	197.94
345.942	204.94
346.17	204.94
346.397	217.94
346.625	183.94
346.853	183.94
347.08	200.94
347.308	208.94
347.535	211.94
347.763	204.94
347.99	200.94
348.218	211.94
348.445	201.94
348.673	195.94
348.9	194.94
349.128	205.94
349.355	192.94
349.583	181.94
349.81	210.94
350.037	194.94
350.265	185.94
350.492	217.94
350.72	201.94
350.947	196.94
351.174	188.94
351.402	212.94
351.629	177.94
351.856	183.94
352.083	189.94
352.311	192.94
352.538	197.94
352.765	193.94
352.992	187.94
353.22	185.94
353.447	184.94
353.674	183.94
353.901	213.94
354.128	197.94
354.355	193.94
354.583	202.94
354.81	203.94
355.037	188.94
355.264	196.94
355.491	192.94
355.718	186.94
355.945	203.94
356.172	213.94
356.399	189.94
356.626	224.94
356.853	193.94
357.08	185.94
357.307	189.94
357.534	180.94
357.761	188.94
357.988	194.94
358.215	186.94
358.441	192.94
358.668	191.94
358.895	192.94
359.122	179.94
359.349	183.94
359.576	193.94
359.802	193.94
360.029	213.94
360.256	176.94
360.483	185.94
360.709	200.94
360.936	208.94
361.163	207.94
361.39	204.94
361.616	196.94
361.843	189.94
362.07	186.94
362.296	190.94
362.523	205.94
362.749	194.94
362.976	197.94
363.203	191.94
363.429	180.94
363.656	193.94
363.882	207.94
364.109	191.94
364.335	219.94
364.562	201.94
364.788	196.94
365.015	203.94
365.241	191.94
365.468	197.94
365.694	199.94
365.92	201.94
366.147	192.94
366.373	195.94
366.599	187.94
366.826	197.94
367.052	196.94
367.278	185.94
367.505	193.94
367.731	201.94
367.957	187.94
368.184	199.94
368.41	187.94
368.636	211.94
368.862	195.94
369.089	189.94
369.315	212.94
369.541	214.94
369.767	188.94
369.993	212.94
370.219	204.94
370.445	198.94
370.672	197.94
370.898	219.94
371.124	209.94
371.35	209.94
371.576	215.94
371.802	218.94
372.028	210.94
372.254	216.94
372.48	220.94
372.706	200.94
372.932	221.94
373.158	229.94
373.384	213.94
373.61	221.94
373.835	212.94
374.061	220.94
374.287	201.94
374.513	229.94
374.739	228.94
374.965	246.94
375.191	247.94
375.416	210.94
375.642	209.94
375.868	218.94
376.094	210.94
376.319	216.94
376.545	211.94
376.771	216.94
376.997	213.94
377.222	219.94
377.448	220.94
377.674	224.94
377.899	217.94
378.125	224.94
378.35	212.94
378.576	225.94
378.802	227.94
379.027	206.94
379.253	223.94
379.478	198.94
379.704	204.94
379.929	216.94
380.155	199.94
380.38	212.94
380.606	227.94
380.831	228.94
381.057	206.94
381.282	215.94
381.507	227.94
381.733	213.94
381.958	200.94
382.184	223.94
382.409	223.94
382.634	220.94
382.86	225.94
383.085	231.94
383.31	234.94
383.535	228.94
383.761	219.94
383.986	251.94
384.211	226.94
384.436	232.94
384.662	242.94
384.887	255.94
385.112	236.94
385.337	245.94
385.562	250.94
385.787	252.94
386.013	233.94
386.238	239.94
386.463	251.94
386.688	228.94
386.913	235.94
387.138	246.94
387.363	259.94
387.588	227.94
387.813	241.94
388.038	241.94
388.263	264.94
388.488	245.94
388.713	231.94
388.938	230.94
389.163	249.94
389.387	244.94
389.612	247.94
389.837	243.94
390.062	248.94
390.287	269.94
390.512	257.94
390.736	249.94
390.961	258.94
391.186	243.94
391.411	248.94
391.636	261.94
391.86	267.94
392.085	253.94
392.31	279.94
392.534	262.94
392.759	275.94
392.984	256.94
393.208	246.94
393.433	269.94
393.658	280.94
393.882	263.94
394.107	275.94
394.331	259.94
394.556	257.94
394.78	261.94
395.005	251.94
395.229	249.94
395.454	248.94
395.678	249.94
395.903	288.94
396.127	280.94
396.352	261.94
396.576	260.94
396.801	268.94
397.025	272.94
397.249	273.94
397.474	269.94
397.698	253.94
397.922	276.94
398.147	273.94
398.371	282.94
398.595	292.94
398.82	300.94
399.044	316.94
399.268	329.94
399.492	353.94
399.717	379.94
399.941	378.94
400.165	363.94
400.389	323.94
400.613	312.94
400.837	287.94
401.062	300.94
401.286	305.94
401.51	301.94
401.734	313.94
401.958	297.94
402.182	295.94
402.406	308.94
402.63	311.94
402.854	316.94
403.078	309.94
403.302	316.94
403.526	335.94
403.75	319.94
403.974	319.94
404.198	326.94
404.422	320.94
404.645	308.94
404.869	314.94
405.093	308.94
405.317	321.94
405.541	333.94
405.765	331.94
405.988	311.94
406.212	327.94
406.436	329.94
406.66	348.94
406.883	329.94
407.107	351.94
407.331	335.94
407.555	352.94
407.778	357.94
408.002	356.94
408.226	349.94
408.449	335.94
408.673	337.94
408.896	332.94
409.12	325.94
409.344	319.94
409.567	313.94
409.791	330.94
410.014	319.94
410.238	327.94
410.461	307.94
410.685	317.94
410.908	340.94
411.132	324.94
411.355	319.94
411.578	323.94
411.802	328.94
412.025	296.94
412.249	317.94
412.472	320.94
412.695	324.94
412.919	299.94
413.142	311.94
413.365	303.94
413.589	309.94
413.812	307.94
414.035	314.94
414.258	299.94
414.482	291.94
414.705	316.94
414.928	323.94
415.151	326.94
415.374	315.94
415.597	304.94
415.821	317.94
416.044	305.94
416.267	284.94
416.49	313.94
416.713	282.94
416.936	332.94
417.159	305.94
417.382	299.94
417.605	305.94
417.828	305.94
418.051	305.94
418.274	304.94
418.497	310.94
418.72	316.94
418.943	305.94
419.166	321.94
419.389	343.94
419.611	334.94
419.834	335.94
420.057	324.94
420.28	310.94
420.503	299.94
420.726	298.94
420.948	303.94
421.171	304.94
421.394	312.94
421.617	316.94
421.839	289.94
422.062	297.94
422.285	307.94
422.507	300.94
422.73	300.94
422.953	304.94
423.175	295.94
423.398	330.94
423.621	315.94
423.843	298.94
424.066	323.94
424.288	307.94
424.511	309.94
424.733	318.94
424.956	299.94
425.178	315.94
425.401	319.94
425.623	314.94
425.846	290.94
426.068	301.94
426.291	295.94
426.513	299.94
426.735	291.94
426.958	285.94
427.18	294.94
427.402	293.94
427.625	303.94
427.847	294.94
428.069	270.94
428.292	294.94
428.514	280.94
428.736	279.94
428.958	295.94
429.181	293.94
429.403	279.94
429.625	270.94
429.847	279.94
430.069	280.94
430.292	275.94
430.514	282.94
430.736	284.94
430.958	304.94
431.18	279.94
431.402	280.94
431.624	308.94
431.846	287.94
432.068	289.94
432.29	280.94
432.512	272.94
432.734	296.94
432.956	283.94
433.178	283.94
433.4	291.94
433.622	285.94
433.844	288.94
434.066	297.94
434.287	293.94
434.509	280.94
434.731	292.94
434.953	328.94
435.175	309.94
435.397	316.94
435.618	291.94
435.84	285.94
436.062	295.94
436.284	287.94
436.505	293.94
436.727	295.94
436.949	292.94
437.17	293.94
437.392	290.94
437.614	285.94
437.835	274.94
438.057	275.94
438.278	276.94
438.5	283.94
438.721	279.94
438.943	264.94
439.165	293.94
439.386	290.94
439.608	309.94
439.829	309.94
440.05	309.94
440.272	310.94
440.493	300.94
440.715	308.94
440.936	316.94
441.158	336.94
441.379	314.94
441.6	335.94
441.822	326.94
442.043	313.94
442.264	340.94
442.486	315.94
442.707	315.94
442.928	316.94
443.149	312.94
443.371	317.94
443.592	327.94
443.813	303.94
444.034	331.94
444.255	333.94
444.476	329.94
444.698	347.94
444.919	372.94
445.14	421.94
445.361	376.94
445.582	347.94
445.803	321.94
446.024	325.94
446.245	316.94
446.466	308.94
446.687	315.94
446.908	319.94
447.129	312.94
447.35	299.94
447.571	311.94
447.792	296.94
448.013	297.94
448.234	284.94
448.455	287.94
448.675	264.94
448.896	297.94
449.117	263.94
449.338	282.94
449.559	277.94
449.779	290.94
450	294.94
450.221	306.94
450.442	295.94
450.662	296.94
450.883	296.94
451.104	316.94
451.324	276.94
451.545	281.94
451.766	288.94
451.986	277.94
452.207	277.94
452.428	284.94
452.648	273.94
452.869	271.94
453.089	262.94
453.31	266.94
453.53	269.94
453.751	263.94
453.971	281.94
454.192	269.94
454.412	259.94
454.633	265.94
454.853	263.94
455.073	264.94
455.294	271.94
455.514	264.94
455.734	246.94
455.955	271.94
456.175	267.94
456.395	268.94
456.616	262.94
456.836	264.94
457.056	266.94
457.276	254.94
457.497	272.94
457.717	242.94
457.937	259.94
458.157	283.94
458.377	271.94
458.598	263.94
458.818	281.94
459.038	279.94
459.258	275.94
459.478	291.94
459.698	287.94
459.918	296.94
460.138	315.94
460.358	328.94
460.578	326.94
460.798	328.94
461.018	332.94
461.238	303.94
461.458	335.94
461.678	314.94
461.898	338.94
462.118	336.94
462.338	345.94
462.558	349.94
462.777	355.94
462.997	396.94
463.217	392.94
463.437	410.94
463.657	362.94
463.876	360.94
464.096	344.94
464.316	358.94
464.536	365.94
464.755	363.94
464.975	321.94
465.195	319.94
465.414	325.94
465.634	301.94
465.854	309.94
466.073	322.94
466.293	293.94
466.512	288.94
466.732	292.94
466.951	277.94
467.171	295.94
467.391	296.94
467.61	290.94
467.829	284.94
468.049	276.94
468.268	259.94
468.488	289.94
468.707	285.94
468.927	290.94
469.146	284.94
469.365	264.94
469.585	273.94
469.804	284.94
470.023	295.94
470.243	305.94
470.462	307.94
470.681	326.94
470.901	288.94
471.12	306.94
471.339	291.94
471.558	288.94
471.777	288.94
471.997	283.94
472.216	269.94
472.435	269.94
472.654	258.94
472.873	280.94
473.092	275.94
473.311	286.94
473.53	275.94
473.749	281.94
473.968	291.94
474.187	278.94
474.406	258.94
474.625	284.94
474.844	287.94
475.063	289.94
475.282	255.94
475.501	271.94
475.72	283.94
475.939	268.94
476.158	273.94
476.377	286.94
476.596	277.94
476.814	290.94
477.033	279.94
477.252	290.94
477.471	295.94
477.69	300.94
477.908	295.94
478.127	319.94
478.346	321.94
478.564	316.94
478.783	320.94
479.002	299.94
479.22	311.94
479.439	308.94
479.658	330.94
479.876	323.94
480.095	327.94
480.313	328.94
480.532	337.94
480.751	330.94
480.969	305.94
481.188	311.94
481.406	326.94
481.624	304.94
481.843	297.94
482.061	307.94
482.28	303.94
482.498	294.94
482.717	302.94
482.935	306.94
483.153	314.94
483.372	313.94
483.59	318.94
483.808	323.94
484.027	314.94
484.245	291.94
484.463	303.94
484.681	328.94
484.9	314.94
485.118	306.94
485.336	312.94
485.554	321.94
485.772	311.94
485.99	323.94
486.209	323.94
486.427	324.94
486.645	317.94
486.863	321.94
487.081	317.94
487.299	318.94
487.517	312.94
487.735	333.94
487.953	333.94
488.171	328.94
488.389	304.94
488.607	290.94
488.825	315.94
489.043	300.94
489.261	321.94
489.479	316.94
489.696	315.94
489.914	322.94
490.132	324.94
490.35	316.94
490.568	333.94
490.786	312.94
491.003	341.94
491.221	328.94
491.439	309.94
491.657	306.94
491.874	328.94
492.092	326.94
492.31	332.94
492.527	338.94
492.745	335.94
492.963	319.94
493.18	337.94
493.398	328.94
493.615	314.94
493.833	328.94
494.05	342.94
494.268	316.94
494.485	335.94
494.703	345.94
494.92	314.94
495.138	332.94
495.355	336.94
495.573	321.94
495.79	330.94
496.008	331.94
496.225	329.94
496.442	323.94
496.66	337.94
496.877	311.94
497.094	347.94
497.312	351.94
497.529	357.94
497.746	349.94
497.963	346.94
498.181	376.94
498.398	395.94
498.615	396.94
498.832	410.94
499.049	472.94
499.267	495.94
499.484	507.94
499.701	563.94
499.918	602.94
500.135	643.94
500.352	686.94
500.569	740.94
500.786	704.94
501.003	673.94
501.22	613.94
501.437	565.94
501.654	519.94
501.871	509.94
502.088	474.94
502.305	439.94
502.522	405.94
502.739	413.94
