Data from Fe(NO3)3@0.025M.TitratingCurve.Agarose3%dH2O.NegLispCup.LampEnergy10.LIBS07252019_HRD10591_16-54-13-335.txt Node
Date: Thu Jul 25 16:54:13 EDT 2019
User: cochatt
Spectrometer: HR+D1059
Trigger mode: 1
Integration Time (sec): 1.000000E-1
Scans to average: 1
Electric dark correction enabled: true
Nonlinearity correction enabled: false
Boxcar width: 0
XAxis mode: Wavelengths
Number of Pixels in Spectrum: 2048
>>>>>Begin Spectral Data<<<<<
223.165	-12.19
223.4	-12.19
223.635	-12.19
223.869	-22.19
224.104	-18.19
224.338	-3.19
224.573	-7.19
224.808	-9.19
225.042	-14.19
225.277	-13.19
225.511	-9.19
225.746	-3.19
225.98	1.81
226.215	10.81
226.449	18.81
226.683	16.81
226.918	27.81
227.152	35.81
227.387	33.81
227.621	40.81
227.856	39.81
228.09	43.81
228.324	36.81
228.559	53.81
228.793	50.81
229.027	89.81
229.262	82.81
229.496	99.81
229.73	97.81
229.964	94.81
230.199	95.81
230.433	86.81
230.667	100.81
230.901	99.81
231.136	104.81
231.37	127.81
231.604	109.81
231.838	110.81
232.072	108.81
232.306	106.81
232.541	98.81
232.775	112.81
233.009	110.81
233.243	120.81
233.477	114.81
233.711	116.81
233.945	114.81
234.179	103.81
234.413	116.81
234.647	122.81
234.881	130.81
235.115	133.81
235.349	123.81
235.583	120.81
235.817	112.81
236.051	106.81
236.285	116.81
236.519	127.81
236.753	98.81
236.987	117.81
237.221	115.81
237.455	125.81
237.689	103.81
237.922	134.81
238.156	126.81
238.39	121.81
238.624	136.81
238.858	133.81
239.091	117.81
239.325	118.81
239.559	141.81
239.793	124.81
240.027	141.81
240.26	132.81
240.494	135.81
240.728	126.81
240.961	138.81
241.195	132.81
241.429	139.81
241.662	145.81
241.896	131.81
242.13	141.81
242.363	130.81
242.597	134.81
242.83	122.81
243.064	137.81
243.298	137.81
243.531	150.81
243.765	138.81
243.998	145.81
244.232	144.81
244.465	151.81
244.699	151.81
244.932	163.81
245.166	132.81
245.399	162.81
245.633	139.81
245.866	158.81
246.099	146.81
246.333	141.81
246.566	160.81
246.8	149.81
247.033	154.81
247.266	156.81
247.5	166.81
247.733	150.81
247.966	175.81
248.2	150.81
248.433	156.81
248.666	178.81
248.899	180.81
249.133	181.81
249.366	177.81
249.599	179.81
249.832	179.81
250.066	177.81
250.299	166.81
250.532	160.81
250.765	162.81
250.998	159.81
251.231	178.81
251.465	170.81
251.698	177.81
251.931	183.81
252.164	172.81
252.397	168.81
252.63	180.81
252.863	197.81
253.096	188.81
253.329	189.81
253.562	163.81
253.795	192.81
254.028	208.81
254.261	198.81
254.494	196.81
254.727	202.81
254.96	172.81
255.193	180.81
255.426	194.81
255.659	179.81
255.892	194.81
256.124	227.81
256.357	192.81
256.59	179.81
256.823	204.81
257.056	189.81
257.289	179.81
257.521	190.81
257.754	192.81
257.987	193.81
258.22	203.81
258.452	187.81
258.685	180.81
258.918	188.81
259.151	200.81
259.383	208.81
259.616	210.81
259.849	217.81
260.081	239.81
260.314	260.81
260.547	230.81
260.779	225.81
261.012	233.81
261.244	216.81
261.477	216.81
261.71	240.81
261.942	219.81
262.175	226.81
262.407	229.81
262.64	229.81
262.872	232.81
263.105	220.81
263.337	253.81
263.57	239.81
263.802	217.81
264.035	215.81
264.267	209.81
264.499	221.81
264.732	211.81
264.964	197.81
265.197	195.81
265.429	203.81
265.661	204.81
265.894	226.81
266.126	215.81
266.358	220.81
266.591	211.81
266.823	232.81
267.055	220.81
267.287	228.81
267.52	238.81
267.752	234.81
267.984	219.81
268.216	219.81
268.448	234.81
268.681	234.81
268.913	246.81
269.145	242.81
269.377	232.81
269.609	214.81
269.841	230.81
270.073	234.81
270.306	244.81
270.538	234.81
270.77	230.81
271.002	240.81
271.234	241.81
271.466	219.81
271.698	236.81
271.93	228.81
272.162	246.81
272.394	245.81
272.626	254.81
272.858	236.81
273.09	259.81
273.322	258.81
273.553	255.81
273.785	258.81
274.017	263.81
274.249	282.81
274.481	290.81
274.713	290.81
274.945	307.81
275.176	315.81
275.408	291.81
275.64	276.81
275.872	313.81
276.104	281.81
276.335	269.81
276.567	280.81
276.799	268.81
277.031	266.81
277.262	257.81
277.494	278.81
277.726	262.81
277.957	272.81
278.189	284.81
278.421	268.81
278.652	264.81
278.884	266.81
279.115	267.81
279.347	276.81
279.579	265.81
279.81	267.81
280.042	289.81
280.273	267.81
280.505	294.81
280.736	292.81
280.968	268.81
281.199	281.81
281.431	265.81
281.662	283.81
281.894	286.81
282.125	282.81
282.356	264.81
282.588	268.81
282.819	280.81
283.051	293.81
283.282	290.81
283.513	296.81
283.745	292.81
283.976	309.81
284.207	285.81
284.439	294.81
284.67	294.81
284.901	291.81
285.132	290.81
285.364	285.81
285.595	282.81
285.826	282.81
286.057	292.81
286.288	294.81
286.52	306.81
286.751	313.81
286.982	309.81
287.213	309.81
287.444	295.81
287.675	297.81
287.906	308.81
288.138	295.81
288.369	315.81
288.6	311.81
288.831	298.81
289.062	306.81
289.293	289.81
289.524	302.81
289.755	320.81
289.986	307.81
290.217	290.81
290.448	307.81
290.679	328.81
290.91	321.81
291.141	302.81
291.371	320.81
291.602	295.81
291.833	316.81
292.064	307.81
292.295	296.81
292.526	327.81
292.757	320.81
292.987	308.81
293.218	325.81
293.449	299.81
293.68	312.81
293.91	290.81
294.141	316.81
294.372	323.81
294.603	311.81
294.833	330.81
295.064	311.81
295.295	314.81
295.525	315.81
295.756	324.81
295.987	302.81
296.217	312.81
296.448	327.81
296.679	339.81
296.909	309.81
297.14	310.81
297.37	320.81
297.601	322.81
297.831	337.81
298.062	325.81
298.292	328.81
298.523	346.81
298.753	334.81
298.984	332.81
299.214	326.81
299.445	327.81
299.675	341.81
299.905	320.81
300.136	322.81
300.366	342.81
300.597	345.81
300.827	342.81
301.057	339.81
301.288	340.81
301.518	352.81
301.748	354.81
301.979	345.81
302.209	332.81
302.439	373.81
302.669	346.81
302.9	352.81
303.13	352.81
303.36	364.81
303.59	351.81
303.82	367.81
304.051	338.81
304.281	351.81
304.511	341.81
304.741	354.81
304.971	363.81
305.201	347.81
305.431	353.81
305.661	364.81
305.891	351.81
306.121	354.81
306.352	340.81
306.582	345.81
306.812	341.81
307.042	359.81
307.272	344.81
307.502	359.81
307.731	342.81
307.961	363.81
308.191	344.81
308.421	342.81
308.651	369.81
308.881	354.81
309.111	349.81
309.341	347.81
309.571	361.81
309.8	353.81
310.03	351.81
310.26	350.81
310.49	354.81
310.72	364.81
310.949	370.81
311.179	366.81
311.409	355.81
311.639	358.81
311.868	368.81
312.098	364.81
312.328	378.81
312.557	357.81
312.787	347.81
313.017	348.81
313.246	383.81
313.476	356.81
313.706	374.81
313.935	375.81
314.165	370.81
314.394	370.81
314.624	386.81
314.853	379.81
315.083	366.81
315.312	390.81
315.542	375.81
315.771	382.81
316.001	383.81
316.23	397.81
316.46	378.81
316.689	390.81
316.919	379.81
317.148	385.81
317.377	388.81
317.607	390.81
317.836	389.81
318.065	393.81
318.295	377.81
318.524	392.81
318.753	385.81
318.983	402.81
319.212	397.81
319.441	393.81
319.67	388.81
319.9	378.81
320.129	391.81
320.358	400.81
320.587	400.81
320.816	368.81
321.046	378.81
321.275	400.81
321.504	420.81
321.733	395.81
321.962	405.81
322.191	394.81
322.42	406.81
322.649	389.81
322.878	382.81
323.108	401.81
323.337	393.81
323.566	407.81
323.795	386.81
324.024	396.81
324.253	405.81
324.482	407.81
324.71	394.81
324.939	405.81
325.168	414.81
325.397	419.81
325.626	414.81
325.855	400.81
326.084	419.81
326.313	406.81
326.542	437.81
326.77	402.81
326.999	403.81
327.228	398.81
327.457	424.81
327.686	421.81
327.914	430.81
328.143	442.81
328.372	410.81
328.6	408.81
328.829	409.81
329.058	437.81
329.287	431.81
329.515	440.81
329.744	429.81
329.972	412.81
330.201	430.81
330.43	440.81
330.658	418.81
330.887	426.81
331.115	426.81
331.344	439.81
331.572	451.81
331.801	433.81
332.03	442.81
332.258	438.81
332.486	450.81
332.715	445.81
332.943	457.81
333.172	459.81
333.4	471.81
333.629	478.81
333.857	501.81
334.085	495.81
334.314	493.81
334.542	481.81
334.771	451.81
334.999	487.81
335.227	484.81
335.455	481.81
335.684	488.81
335.912	491.81
336.14	473.81
336.369	478.81
336.597	482.81
336.825	462.81
337.053	489.81
337.281	471.81
337.51	468.81
337.738	449.81
337.966	476.81
338.194	461.81
338.422	456.81
338.65	453.81
338.878	470.81
339.106	448.81
339.334	446.81
339.562	456.81
339.79	470.81
340.018	436.81
340.246	459.81
340.474	434.81
340.702	432.81
340.93	474.81
341.158	450.81
341.386	446.81
341.614	470.81
341.842	455.81
342.07	435.81
342.298	470.81
342.526	464.81
342.754	449.81
342.981	452.81
343.209	460.81
343.437	453.81
343.665	468.81
343.893	471.81
344.12	487.81
344.348	483.81
344.576	474.81
344.804	472.81
345.031	489.81
345.259	454.81
345.487	461.81
345.714	437.81
345.942	445.81
346.17	450.81
346.397	444.81
346.625	435.81
346.853	452.81
347.08	435.81
347.308	440.81
347.535	422.81
347.763	422.81
347.99	430.81
348.218	456.81
348.445	432.81
348.673	427.81
348.9	420.81
349.128	414.81
349.355	432.81
349.583	445.81
349.81	429.81
350.037	433.81
350.265	420.81
350.492	415.81
350.72	422.81
350.947	415.81
351.174	427.81
351.402	412.81
351.629	419.81
351.856	432.81
352.083	427.81
352.311	425.81
352.538	413.81
352.765	411.81
352.992	429.81
353.22	440.81
353.447	435.81
353.674	433.81
353.901	438.81
354.128	430.81
354.355	426.81
354.583	400.81
354.81	414.81
355.037	437.81
355.264	449.81
355.491	420.81
355.718	415.81
355.945	435.81
356.172	428.81
356.399	424.81
356.626	434.81
356.853	436.81
357.08	430.81
357.307	451.81
357.534	426.81
357.761	452.81
357.988	424.81
358.215	442.81
358.441	432.81
358.668	433.81
358.895	426.81
359.122	417.81
359.349	434.81
359.576	422.81
359.802	432.81
360.029	410.81
360.256	438.81
360.483	424.81
360.709	417.81
360.936	432.81
361.163	425.81
361.39	448.81
361.616	425.81
361.843	451.81
362.07	436.81
362.296	436.81
362.523	423.81
362.749	425.81
362.976	433.81
363.203	441.81
363.429	436.81
363.656	441.81
363.882	454.81
364.109	444.81
364.335	436.81
364.562	448.81
364.788	432.81
365.015	430.81
365.241	446.81
365.468	438.81
365.694	443.81
365.92	438.81
366.147	451.81
366.373	431.81
366.599	448.81
366.826	430.81
367.052	400.81
367.278	444.81
367.505	436.81
367.731	442.81
367.957	424.81
368.184	462.81
368.41	446.81
368.636	460.81
368.862	461.81
369.089	431.81
369.315	447.81
369.541	440.81
369.767	445.81
369.993	466.81
370.219	459.81
370.445	452.81
370.672	465.81
370.898	467.81
371.124	463.81
371.35	473.81
371.576	463.81
371.802	468.81
372.028	473.81
372.254	500.81
372.48	489.81
372.706	494.81
372.932	499.81
373.158	476.81
373.384	489.81
373.61	480.81
373.835	485.81
374.061	478.81
374.287	474.81
374.513	480.81
374.739	508.81
374.965	501.81
375.191	498.81
375.416	514.81
375.642	492.81
375.868	492.81
376.094	468.81
376.319	470.81
376.545	496.81
376.771	480.81
376.997	488.81
377.222	467.81
377.448	478.81
377.674	481.81
377.899	463.81
378.125	491.81
378.35	481.81
378.576	448.81
378.802	457.81
379.027	470.81
379.253	452.81
379.478	461.81
379.704	468.81
379.929	472.81
380.155	476.81
380.38	483.81
380.606	480.81
380.831	457.81
381.057	471.81
381.282	480.81
381.507	462.81
381.733	480.81
381.958	460.81
382.184	513.81
382.409	500.81
382.634	509.81
382.86	499.81
383.085	491.81
383.31	479.81
383.535	498.81
383.761	504.81
383.986	512.81
384.211	499.81
384.436	527.81
384.662	499.81
384.887	515.81
385.112	529.81
385.337	522.81
385.562	527.81
385.787	546.81
386.013	543.81
386.238	552.81
386.463	572.81
386.688	548.81
386.913	553.81
387.138	530.81
387.363	534.81
387.588	552.81
387.813	545.81
388.038	552.81
388.263	540.81
388.488	565.81
388.713	551.81
388.938	547.81
389.163	536.81
389.387	549.81
389.612	540.81
389.837	558.81
390.062	534.81
390.287	520.81
390.512	556.81
390.736	540.81
390.961	536.81
391.186	552.81
391.411	569.81
391.636	584.81
391.86	564.81
392.085	587.81
392.31	564.81
392.534	570.81
392.759	594.81
392.984	573.81
393.208	556.81
393.433	582.81
393.658	579.81
393.882	560.81
394.107	566.81
394.331	577.81
394.556	566.81
394.78	579.81
395.005	583.81
395.229	581.81
395.454	600.81
395.678	587.81
395.903	599.81
396.127	614.81
396.352	580.81
396.576	583.81
396.801	585.81
397.025	594.81
397.249	582.81
397.474	608.81
397.698	595.81
397.922	603.81
398.147	619.81
398.371	635.81
398.595	613.81
398.82	624.81
399.044	650.81
399.268	698.81
399.492	731.81
399.717	746.81
399.941	745.81
400.165	736.81
400.389	694.81
400.613	689.81
400.837	674.81
401.062	681.81
401.286	662.81
401.51	633.81
401.734	640.81
401.958	658.81
402.182	654.81
402.406	658.81
402.63	640.81
402.854	646.81
403.078	651.81
403.302	657.81
403.526	656.81
403.75	640.81
403.974	659.81
404.198	671.81
404.422	656.81
404.645	651.81
404.869	659.81
405.093	658.81
405.317	656.81
405.541	665.81
405.765	674.81
405.988	647.81
406.212	674.81
406.436	698.81
406.66	700.81
406.883	684.81
407.107	701.81
407.331	727.81
407.555	717.81
407.778	730.81
408.002	727.81
408.226	728.81
408.449	726.81
408.673	700.81
408.896	688.81
409.12	670.81
409.344	720.81
409.567	706.81
409.791	695.81
410.014	668.81
410.238	681.81
410.461	672.81
410.685	662.81
410.908	675.81
411.132	662.81
411.355	658.81
411.578	645.81
411.802	673.81
412.025	653.81
412.249	660.81
412.472	670.81
412.695	669.81
412.919	643.81
413.142	652.81
413.365	635.81
413.589	647.81
413.812	649.81
414.035	635.81
414.258	660.81
414.482	606.81
414.705	623.81
414.928	642.81
415.151	626.81
415.374	647.81
415.597	643.81
415.821	612.81
416.044	615.81
416.267	604.81
416.49	616.81
416.713	594.81
416.936	611.81
417.159	609.81
417.382	591.81
417.605	602.81
417.828	617.81
418.051	627.81
418.274	622.81
418.497	614.81
418.72	635.81
418.943	605.81
419.166	652.81
419.389	663.81
419.611	660.81
419.834	674.81
420.057	629.81
420.28	617.81
420.503	606.81
420.726	597.81
420.948	598.81
421.171	622.81
421.394	588.81
421.617	577.81
421.839	612.81
422.062	599.81
422.285	597.81
422.507	618.81
422.73	593.81
422.953	603.81
423.175	611.81
423.398	594.81
423.621	630.81
423.843	609.81
424.066	607.81
424.288	609.81
424.511	610.81
424.733	631.81
424.956	622.81
425.178	636.81
425.401	599.81
425.623	581.81
425.846	595.81
426.068	597.81
426.291	596.81
426.513	599.81
426.735	569.81
426.958	583.81
427.18	583.81
427.402	594.81
427.625	598.81
427.847	560.81
428.069	562.81
428.292	585.81
428.514	594.81
428.736	576.81
428.958	584.81
429.181	566.81
429.403	559.81
429.625	576.81
429.847	564.81
430.069	560.81
430.292	556.81
430.514	575.81
430.736	584.81
430.958	582.81
431.18	556.81
431.402	586.81
431.624	585.81
431.846	586.81
432.068	577.81
432.29	582.81
432.512	584.81
432.734	579.81
432.956	564.81
433.178	582.81
433.4	578.81
433.622	583.81
433.844	595.81
434.066	591.81
434.287	562.81
434.509	615.81
434.731	607.81
434.953	604.81
435.175	622.81
435.397	594.81
435.618	601.81
435.84	598.81
436.062	580.81
436.284	560.81
436.505	575.81
436.727	568.81
436.949	579.81
437.17	573.81
437.392	550.81
437.614	563.81
437.835	540.81
438.057	562.81
438.278	557.81
438.5	558.81
438.721	542.81
438.943	549.81
439.165	531.81
439.386	563.81
439.608	559.81
439.829	539.81
440.05	572.81
440.272	552.81
440.493	566.81
440.715	553.81
440.936	582.81
441.158	577.81
441.379	565.81
441.6	606.81
441.822	563.81
442.043	590.81
442.264	597.81
442.486	595.81
442.707	570.81
442.928	592.81
443.149	581.81
443.371	582.81
443.592	577.81
443.813	591.81
444.034	611.81
444.255	603.81
444.476	603.81
444.698	630.81
444.919	628.81
445.14	743.81
445.361	653.81
445.582	619.81
445.803	601.81
446.024	566.81
446.245	572.81
446.466	571.81
446.687	560.81
446.908	579.81
447.129	553.81
447.35	568.81
447.571	532.81
447.792	533.81
448.013	552.81
448.234	528.81
448.455	534.81
448.675	512.81
448.896	522.81
449.117	504.81
449.338	543.81
449.559	519.81
449.779	525.81
450	502.81
450.221	525.81
450.442	510.81
450.662	520.81
450.883	527.81
451.104	546.81
451.324	510.81
451.545	513.81
451.766	515.81
451.986	499.81
452.207	509.81
452.428	530.81
452.648	516.81
452.869	524.81
453.089	495.81
453.31	517.81
453.53	498.81
453.751	501.81
453.971	504.81
454.192	494.81
454.412	494.81
454.633	509.81
454.853	495.81
455.073	494.81
455.294	500.81
455.514	491.81
455.734	477.81
455.955	520.81
456.175	514.81
456.395	510.81
456.616	489.81
456.836	502.81
457.056	499.81
457.276	519.81
457.497	495.81
457.717	517.81
457.937	498.81
458.157	515.81
458.377	509.81
458.598	519.81
458.818	504.81
459.038	562.81
459.258	547.81
459.478	579.81
459.698	553.81
459.918	567.81
460.138	577.81
460.358	615.81
460.578	607.81
460.798	604.81
461.018	596.81
461.238	624.81
461.458	615.81
461.678	590.81
461.898	622.81
462.118	650.81
462.338	644.81
462.558	649.81
462.777	675.81
462.997	686.81
463.217	698.81
463.437	729.81
463.657	698.81
463.876	649.81
464.096	653.81
464.316	671.81
464.536	664.81
464.755	676.81
464.975	659.81
465.195	633.81
465.414	636.81
465.634	592.81
465.854	589.81
466.073	585.81
466.293	548.81
466.512	578.81
466.732	566.81
466.951	587.81
467.171	553.81
467.391	551.81
467.61	539.81
467.829	567.81
468.049	532.81
468.268	544.81
468.488	534.81
468.707	542.81
468.927	541.81
469.146	541.81
469.365	565.81
469.585	553.81
469.804	536.81
470.023	564.81
470.243	546.81
470.462	540.81
470.681	559.81
470.901	539.81
471.12	551.81
471.339	576.81
471.558	542.81
471.777	546.81
471.997	569.81
472.216	565.81
472.435	553.81
472.654	537.81
472.873	549.81
473.092	532.81
473.311	528.81
473.53	532.81
473.749	546.81
473.968	552.81
474.187	545.81
474.406	544.81
474.625	549.81
474.844	539.81
475.063	572.81
475.282	545.81
475.501	571.81
475.72	546.81
475.939	571.81
476.158	574.81
476.377	583.81
476.596	610.81
476.814	618.81
477.033	599.81
477.252	599.81
477.471	610.81
477.69	603.81
477.908	593.81
478.127	636.81
478.346	613.81
478.564	624.81
478.783	630.81
479.002	644.81
479.22	640.81
479.439	661.81
479.658	633.81
479.876	651.81
480.095	663.81
480.313	696.81
480.532	653.81
480.751	675.81
480.969	664.81
481.188	645.81
481.406	646.81
481.624	664.81
481.843	656.81
482.061	651.81
482.28	632.81
482.498	687.81
482.717	644.81
482.935	650.81
483.153	658.81
483.372	649.81
483.59	661.81
483.808	652.81
484.027	653.81
484.245	683.81
484.463	668.81
484.681	665.81
484.9	661.81
485.118	647.81
485.336	651.81
485.554	649.81
485.772	663.81
485.99	672.81
486.209	684.81
486.427	641.81
486.645	656.81
486.863	668.81
487.081	688.81
487.299	635.81
487.517	663.81
487.735	645.81
487.953	705.81
488.171	668.81
488.389	656.81
488.607	681.81
488.825	679.81
489.043	656.81
489.261	662.81
489.479	690.81
489.696	657.81
489.914	675.81
490.132	657.81
490.35	663.81
490.568	665.81
490.786	647.81
491.003	673.81
491.221	677.81
491.439	672.81
491.657	677.81
491.874	652.81
492.092	666.81
492.31	661.81
492.527	682.81
492.745	674.81
492.963	675.81
493.18	685.81
493.398	691.81
493.615	674.81
493.833	688.81
494.05	698.81
494.268	678.81
494.485	688.81
494.703	671.81
494.92	700.81
495.138	680.81
495.355	688.81
495.573	709.81
495.79	698.81
496.008	706.81
496.225	720.81
496.442	742.81
496.66	727.81
496.877	736.81
497.094	744.81
497.312	756.81
497.529	775.81
497.746	760.81
497.963	798.81
498.181	814.81
498.398	843.81
498.615	852.81
498.832	896.81
499.049	931.81
499.267	966.81
499.484	987.81
499.701	1074.81
499.918	1118.81
500.135	1172.81
500.352	1232.81
500.569	1227.81
500.786	1239.81
501.003	1225.81
501.22	1150.81
501.437	1103.81
501.654	1037.81
