Data from Fe(NO3)3@0.025M.TitratingCurve.Agarose3%dH2O.NegLispCup.LampEnergy10.LIBS07252019_HRD10591_16-56-13-335.txt Node
Date: Thu Jul 25 16:56:13 EDT 2019
User: cochatt
Spectrometer: HR+D1059
Trigger mode: 1
Integration Time (sec): 1.000000E-1
Scans to average: 1
Electric dark correction enabled: true
Nonlinearity correction enabled: false
Boxcar width: 0
XAxis mode: Wavelengths
Number of Pixels in Spectrum: 2048
>>>>>Begin Spectral Data<<<<<
223.165	-22.88
223.4	-22.88
223.635	-22.88
223.869	-8.88
224.104	-18.88
224.338	-25.88
224.573	-17.88
224.808	-12.88
225.042	-5.88
225.277	-11.88
225.511	-3.88
225.746	-1.88
225.98	9.12
226.215	22.12
226.449	12.12
226.683	18.12
226.918	37.12
227.152	32.12
227.387	40.12
227.621	28.12
227.856	50.12
228.09	43.12
228.324	46.12
228.559	66.12
228.793	55.12
229.027	62.12
229.262	68.12
229.496	66.12
229.73	86.12
229.964	74.12
230.199	79.12
230.433	91.12
230.667	94.12
230.901	94.12
231.136	87.12
231.37	88.12
231.604	95.12
231.838	89.12
232.072	76.12
232.306	85.12
232.541	94.12
232.775	81.12
233.009	91.12
233.243	87.12
233.477	98.12
233.711	103.12
233.945	90.12
234.179	94.12
234.413	94.12
234.647	99.12
234.881	94.12
235.115	92.12
235.349	91.12
235.583	86.12
235.817	89.12
236.051	114.12
236.285	86.12
236.519	90.12
236.753	105.12
236.987	97.12
237.221	88.12
237.455	104.12
237.689	101.12
237.922	86.12
238.156	104.12
238.39	87.12
238.624	96.12
238.858	107.12
239.091	94.12
239.325	97.12
239.559	89.12
239.793	94.12
240.027	90.12
240.26	90.12
240.494	86.12
240.728	98.12
240.961	89.12
241.195	98.12
241.429	102.12
241.662	90.12
241.896	101.12
242.13	107.12
242.363	105.12
242.597	102.12
242.83	113.12
243.064	110.12
243.298	110.12
243.531	104.12
243.765	111.12
243.998	86.12
244.232	100.12
244.465	115.12
244.699	108.12
244.932	108.12
245.166	93.12
245.399	105.12
245.633	103.12
245.866	96.12
246.099	98.12
246.333	119.12
246.566	120.12
246.8	106.12
247.033	110.12
247.266	101.12
247.5	112.12
247.733	118.12
247.966	112.12
248.2	105.12
248.433	116.12
248.666	114.12
248.899	128.12
249.133	118.12
249.366	116.12
249.599	101.12
249.832	121.12
250.066	130.12
250.299	111.12
250.532	119.12
250.765	118.12
250.998	115.12
251.231	106.12
251.465	115.12
251.698	114.12
251.931	119.12
252.164	106.12
252.397	124.12
252.63	127.12
252.863	120.12
253.096	119.12
253.329	104.12
253.562	122.12
253.795	112.12
254.028	128.12
254.261	113.12
254.494	132.12
254.727	129.12
254.96	124.12
255.193	118.12
255.426	116.12
255.659	134.12
255.892	128.12
256.124	120.12
256.357	130.12
256.59	130.12
256.823	124.12
257.056	128.12
257.289	120.12
257.521	121.12
257.754	127.12
257.987	132.12
258.22	127.12
258.452	120.12
258.685	119.12
258.918	128.12
259.151	122.12
259.383	114.12
259.616	124.12
259.849	123.12
260.081	134.12
260.314	113.12
260.547	133.12
260.779	153.12
261.012	128.12
261.244	132.12
261.477	146.12
261.71	146.12
261.942	140.12
262.175	121.12
262.407	126.12
262.64	140.12
262.872	125.12
263.105	128.12
263.337	143.12
263.57	139.12
263.802	139.12
264.035	154.12
264.267	144.12
264.499	147.12
264.732	138.12
264.964	124.12
265.197	144.12
265.429	144.12
265.661	142.12
265.894	128.12
266.126	151.12
266.358	137.12
266.591	145.12
266.823	144.12
267.055	134.12
267.287	147.12
267.52	147.12
267.752	133.12
267.984	136.12
268.216	137.12
268.448	141.12
268.681	151.12
268.913	156.12
269.145	151.12
269.377	148.12
269.609	144.12
269.841	150.12
270.073	157.12
270.306	148.12
270.538	136.12
270.77	147.12
271.002	155.12
271.234	154.12
271.466	147.12
271.698	150.12
271.93	155.12
272.162	136.12
272.394	155.12
272.626	151.12
272.858	145.12
273.09	150.12
273.322	159.12
273.553	161.12
273.785	158.12
274.017	158.12
274.249	155.12
274.481	150.12
274.713	158.12
274.945	163.12
275.176	167.12
275.408	159.12
275.64	175.12
275.872	164.12
276.104	157.12
276.335	142.12
276.567	172.12
276.799	164.12
277.031	147.12
277.262	167.12
277.494	168.12
277.726	171.12
277.957	168.12
278.189	154.12
278.421	148.12
278.652	175.12
278.884	155.12
279.115	174.12
279.347	176.12
279.579	169.12
279.81	176.12
280.042	179.12
280.273	163.12
280.505	179.12
280.736	171.12
280.968	174.12
281.199	162.12
281.431	180.12
281.662	169.12
281.894	178.12
282.125	172.12
282.356	184.12
282.588	178.12
282.819	189.12
283.051	180.12
283.282	184.12
283.513	192.12
283.745	174.12
283.976	167.12
284.207	166.12
284.439	176.12
284.67	178.12
284.901	179.12
285.132	182.12
285.364	178.12
285.595	187.12
285.826	200.12
286.057	191.12
286.288	184.12
286.52	175.12
286.751	187.12
286.982	182.12
287.213	183.12
287.444	188.12
287.675	192.12
287.906	192.12
288.138	188.12
288.369	196.12
288.6	189.12
288.831	186.12
289.062	199.12
289.293	186.12
289.524	194.12
289.755	201.12
289.986	191.12
290.217	193.12
290.448	198.12
290.679	203.12
290.91	195.12
291.141	187.12
291.371	197.12
291.602	196.12
291.833	202.12
292.064	193.12
292.295	195.12
292.526	198.12
292.757	203.12
292.987	190.12
293.218	192.12
293.449	180.12
293.68	195.12
293.91	191.12
294.141	206.12
294.372	202.12
294.603	195.12
294.833	196.12
295.064	195.12
295.295	186.12
295.525	201.12
295.756	205.12
295.987	198.12
296.217	216.12
296.448	197.12
296.679	184.12
296.909	204.12
297.14	199.12
297.37	212.12
297.601	211.12
297.831	204.12
298.062	210.12
298.292	193.12
298.523	215.12
298.753	207.12
298.984	208.12
299.214	212.12
299.445	205.12
299.675	208.12
299.905	225.12
300.136	217.12
300.366	212.12
300.597	220.12
300.827	203.12
301.057	216.12
301.288	214.12
301.518	227.12
301.748	234.12
301.979	216.12
302.209	228.12
302.439	210.12
302.669	226.12
302.9	216.12
303.13	227.12
303.36	211.12
303.59	227.12
303.82	234.12
304.051	236.12
304.281	222.12
304.511	232.12
304.741	225.12
304.971	211.12
305.201	222.12
305.431	203.12
305.661	232.12
305.891	210.12
306.121	205.12
306.352	239.12
306.582	218.12
306.812	219.12
307.042	192.12
307.272	204.12
307.502	222.12
307.731	215.12
307.961	216.12
308.191	218.12
308.421	228.12
308.651	222.12
308.881	217.12
309.111	215.12
309.341	199.12
309.571	226.12
309.8	231.12
310.03	231.12
310.26	238.12
310.49	233.12
310.72	218.12
310.949	223.12
311.179	226.12
311.409	224.12
311.639	236.12
311.868	231.12
312.098	223.12
312.328	232.12
312.557	228.12
312.787	244.12
313.017	228.12
313.246	230.12
313.476	231.12
313.706	240.12
313.935	234.12
314.165	246.12
314.394	238.12
314.624	242.12
314.853	246.12
315.083	228.12
315.312	251.12
315.542	244.12
315.771	246.12
316.001	230.12
316.23	257.12
316.46	236.12
316.689	260.12
316.919	243.12
317.148	238.12
317.377	249.12
317.607	238.12
317.836	228.12
318.065	226.12
318.295	241.12
318.524	239.12
318.753	226.12
318.983	246.12
319.212	246.12
319.441	224.12
319.67	242.12
319.9	230.12
320.129	250.12
320.358	254.12
320.587	248.12
320.816	219.12
321.046	256.12
321.275	239.12
321.504	229.12
321.733	230.12
321.962	244.12
322.191	246.12
322.42	263.12
322.649	229.12
322.878	256.12
323.108	240.12
323.337	258.12
323.566	242.12
323.795	242.12
324.024	243.12
324.253	246.12
324.482	261.12
324.71	250.12
324.939	256.12
325.168	252.12
325.397	272.12
325.626	243.12
325.855	243.12
326.084	276.12
326.313	263.12
326.542	258.12
326.77	257.12
326.999	263.12
327.228	262.12
327.457	252.12
327.686	265.12
327.914	264.12
328.143	267.12
328.372	266.12
328.6	275.12
328.829	265.12
329.058	246.12
329.287	262.12
329.515	283.12
329.744	258.12
329.972	256.12
330.201	290.12
330.43	256.12
330.658	267.12
330.887	263.12
331.115	283.12
331.344	265.12
331.572	287.12
331.801	280.12
332.03	293.12
332.258	277.12
332.486	284.12
332.715	288.12
332.943	289.12
333.172	317.12
333.4	309.12
333.629	304.12
333.857	306.12
334.085	323.12
334.314	314.12
334.542	323.12
334.771	325.12
334.999	310.12
335.227	307.12
335.455	300.12
335.684	320.12
335.912	318.12
336.14	304.12
336.369	294.12
336.597	308.12
336.825	280.12
337.053	318.12
337.281	284.12
337.51	293.12
337.738	304.12
337.966	299.12
338.194	295.12
338.422	295.12
338.65	289.12
338.878	297.12
339.106	294.12
339.334	274.12
339.562	302.12
339.79	281.12
340.018	284.12
340.246	289.12
340.474	274.12
340.702	290.12
340.93	275.12
341.158	296.12
341.386	281.12
341.614	259.12
341.842	285.12
342.07	280.12
342.298	283.12
342.526	283.12
342.754	285.12
342.981	291.12
343.209	276.12
343.437	291.12
343.665	321.12
343.893	330.12
344.12	299.12
344.348	307.12
344.576	299.12
344.804	290.12
345.031	290.12
345.259	302.12
345.487	293.12
345.714	281.12
345.942	291.12
346.17	259.12
346.397	298.12
346.625	268.12
346.853	279.12
347.08	267.12
347.308	274.12
347.535	292.12
347.763	266.12
347.99	267.12
348.218	260.12
348.445	271.12
348.673	266.12
348.9	243.12
349.128	273.12
349.355	273.12
349.583	262.12
349.81	282.12
350.037	267.12
350.265	271.12
350.492	277.12
350.72	258.12
350.947	252.12
351.174	249.12
351.402	257.12
351.629	259.12
351.856	258.12
352.083	259.12
352.311	284.12
352.538	275.12
352.765	264.12
352.992	263.12
353.22	280.12
353.447	259.12
353.674	287.12
353.901	252.12
354.128	255.12
354.355	251.12
354.583	274.12
354.81	274.12
355.037	271.12
355.264	279.12
355.491	262.12
355.718	269.12
355.945	282.12
356.172	280.12
356.399	266.12
356.626	272.12
356.853	284.12
357.08	284.12
357.307	272.12
357.534	269.12
357.761	272.12
357.988	272.12
358.215	263.12
358.441	288.12
358.668	264.12
358.895	269.12
359.122	278.12
359.349	264.12
359.576	246.12
359.802	275.12
360.029	278.12
360.256	276.12
360.483	275.12
360.709	275.12
360.936	287.12
361.163	273.12
361.39	267.12
361.616	272.12
361.843	293.12
362.07	271.12
362.296	293.12
362.523	276.12
362.749	279.12
362.976	277.12
363.203	272.12
363.429	282.12
363.656	274.12
363.882	264.12
364.109	273.12
364.335	284.12
364.562	288.12
364.788	296.12
365.015	273.12
365.241	289.12
365.468	275.12
365.694	293.12
365.92	274.12
366.147	275.12
366.373	264.12
366.599	282.12
366.826	269.12
367.052	292.12
367.278	271.12
367.505	276.12
367.731	282.12
367.957	280.12
368.184	273.12
368.41	292.12
368.636	268.12
368.862	289.12
369.089	288.12
369.315	278.12
369.541	275.12
369.767	277.12
369.993	283.12
370.219	278.12
370.445	288.12
370.672	288.12
370.898	284.12
371.124	286.12
371.35	298.12
371.576	311.12
371.802	302.12
372.028	306.12
372.254	300.12
372.48	307.12
372.706	302.12
372.932	301.12
373.158	293.12
373.384	306.12
373.61	299.12
373.835	298.12
374.061	290.12
374.287	315.12
374.513	297.12
374.739	299.12
374.965	308.12
375.191	318.12
375.416	296.12
375.642	299.12
375.868	298.12
376.094	309.12
376.319	310.12
376.545	299.12
376.771	283.12
376.997	294.12
377.222	315.12
377.448	294.12
377.674	283.12
377.899	278.12
378.125	306.12
378.35	312.12
378.576	285.12
378.802	278.12
379.027	293.12
379.253	297.12
379.478	304.12
379.704	294.12
379.929	283.12
380.155	282.12
380.38	300.12
380.606	287.12
380.831	305.12
381.057	318.12
381.282	286.12
381.507	297.12
381.733	305.12
381.958	303.12
382.184	281.12
382.409	317.12
382.634	330.12
382.86	305.12
383.085	307.12
383.31	304.12
383.535	316.12
383.761	334.12
383.986	311.12
384.211	325.12
384.436	324.12
384.662	328.12
384.887	330.12
385.112	343.12
385.337	351.12
385.562	343.12
385.787	331.12
386.013	358.12
386.238	355.12
386.463	343.12
386.688	344.12
386.913	336.12
387.138	340.12
387.363	336.12
387.588	337.12
387.813	343.12
388.038	337.12
388.263	349.12
388.488	347.12
388.713	359.12
388.938	350.12
389.163	327.12
389.387	339.12
389.612	330.12
389.837	347.12
390.062	335.12
390.287	343.12
390.512	341.12
390.736	366.12
390.961	352.12
391.186	347.12
391.411	349.12
391.636	380.12
391.86	362.12
392.085	377.12
392.31	385.12
392.534	373.12
392.759	349.12
392.984	353.12
393.208	357.12
393.433	365.12
393.658	360.12
393.882	350.12
394.107	351.12
394.331	371.12
394.556	384.12
394.78	387.12
395.005	372.12
395.229	369.12
395.454	378.12
395.678	377.12
395.903	378.12
396.127	372.12
396.352	344.12
396.576	350.12
396.801	373.12
397.025	353.12
397.249	352.12
397.474	391.12
397.698	396.12
397.922	370.12
398.147	380.12
398.371	393.12
398.595	425.12
398.82	420.12
399.044	448.12
399.268	453.12
399.492	524.12
399.717	525.12
399.941	548.12
400.165	513.12
400.389	454.12
400.613	441.12
400.837	437.12
401.062	419.12
401.286	430.12
401.51	432.12
401.734	439.12
401.958	423.12
402.182	433.12
402.406	412.12
402.63	438.12
402.854	415.12
403.078	416.12
403.302	430.12
403.526	424.12
403.75	441.12
403.974	451.12
404.198	453.12
404.422	440.12
404.645	448.12
404.869	435.12
405.093	449.12
405.317	437.12
405.541	458.12
405.765	448.12
405.988	434.12
406.212	455.12
406.436	429.12
406.66	447.12
406.883	446.12
407.107	441.12
407.331	475.12
407.555	489.12
407.778	478.12
408.002	479.12
408.226	488.12
408.449	465.12
408.673	452.12
408.896	449.12
409.12	447.12
409.344	465.12
409.567	448.12
409.791	444.12
410.014	436.12
410.238	449.12
410.461	443.12
410.685	429.12
410.908	440.12
411.132	424.12
411.355	414.12
411.578	417.12
411.802	410.12
412.025	417.12
412.249	412.12
412.472	411.12
412.695	436.12
412.919	431.12
413.142	416.12
413.365	390.12
413.589	403.12
413.812	394.12
414.035	424.12
414.258	396.12
414.482	403.12
414.705	410.12
414.928	430.12
415.151	421.12
415.374	384.12
415.597	414.12
415.821	402.12
416.044	383.12
416.267	400.12
416.49	401.12
416.713	400.12
416.936	410.12
417.159	400.12
417.382	403.12
417.605	403.12
417.828	397.12
418.051	412.12
418.274	424.12
418.497	414.12
418.72	424.12
418.943	393.12
419.166	426.12
419.389	434.12
419.611	427.12
419.834	409.12
420.057	405.12
420.28	426.12
420.503	400.12
420.726	410.12
420.948	398.12
421.171	414.12
421.394	394.12
421.617	409.12
421.839	394.12
422.062	422.12
422.285	395.12
422.507	401.12
422.73	399.12
422.953	408.12
423.175	414.12
423.398	411.12
423.621	388.12
423.843	406.12
424.066	411.12
424.288	411.12
424.511	409.12
424.733	401.12
424.956	396.12
425.178	412.12
425.401	385.12
425.623	380.12
425.846	384.12
426.068	396.12
426.291	377.12
426.513	384.12
426.735	408.12
426.958	368.12
427.18	380.12
427.402	380.12
427.625	372.12
427.847	387.12
428.069	395.12
428.292	368.12
428.514	369.12
428.736	365.12
428.958	355.12
429.181	356.12
429.403	376.12
429.625	355.12
429.847	360.12
430.069	372.12
430.292	365.12
430.514	350.12
430.736	367.12
430.958	350.12
431.18	353.12
431.402	362.12
431.624	368.12
431.846	357.12
432.068	357.12
432.29	371.12
432.512	372.12
432.734	368.12
432.956	352.12
433.178	370.12
433.4	374.12
433.622	375.12
433.844	397.12
434.066	386.12
434.287	356.12
434.509	364.12
434.731	394.12
434.953	376.12
435.175	379.12
435.397	394.12
435.618	362.12
435.84	387.12
436.062	385.12
436.284	375.12
436.505	378.12
436.727	367.12
436.949	373.12
437.17	362.12
437.392	351.12
437.614	348.12
437.835	335.12
438.057	347.12
438.278	356.12
438.5	367.12
438.721	370.12
438.943	363.12
439.165	339.12
439.386	328.12
439.608	354.12
439.829	371.12
440.05	359.12
440.272	358.12
440.493	371.12
440.715	375.12
440.936	355.12
441.158	391.12
441.379	377.12
441.6	395.12
441.822	392.12
442.043	399.12
442.264	378.12
442.486	386.12
442.707	383.12
442.928	392.12
443.149	382.12
443.371	380.12
443.592	396.12
443.813	392.12
444.034	395.12
444.255	414.12
444.476	436.12
444.698	427.12
444.919	445.12
445.14	500.12
445.361	464.12
445.582	419.12
445.803	380.12
446.024	368.12
446.245	391.12
446.466	380.12
446.687	351.12
446.908	366.12
447.129	374.12
447.35	366.12
447.571	370.12
447.792	345.12
448.013	345.12
448.234	339.12
448.455	327.12
448.675	354.12
448.896	342.12
449.117	354.12
449.338	344.12
449.559	344.12
449.779	345.12
450	346.12
450.221	343.12
450.442	330.12
450.662	330.12
450.883	338.12
451.104	356.12
451.324	340.12
451.545	345.12
451.766	329.12
451.986	347.12
452.207	326.12
452.428	327.12
452.648	319.12
452.869	326.12
453.089	328.12
453.31	336.12
453.53	336.12
453.751	339.12
453.971	304.12
454.192	323.12
454.412	315.12
454.633	329.12
454.853	319.12
455.073	312.12
455.294	328.12
455.514	316.12
455.734	331.12
455.955	328.12
456.175	332.12
456.395	315.12
456.616	318.12
456.836	321.12
457.056	323.12
457.276	317.12
457.497	331.12
457.717	310.12
457.937	341.12
458.157	338.12
458.377	341.12
458.598	334.12
458.818	356.12
459.038	360.12
459.258	347.12
459.478	379.12
459.698	374.12
459.918	373.12
460.138	371.12
460.358	396.12
460.578	396.12
460.798	427.12
461.018	400.12
461.238	415.12
461.458	423.12
461.678	396.12
461.898	407.12
462.118	432.12
462.338	450.12
462.558	428.12
462.777	439.12
462.997	485.12
463.217	462.12
463.437	483.12
463.657	470.12
463.876	483.12
464.096	476.12
464.316	450.12
464.536	458.12
464.755	438.12
464.975	417.12
465.195	418.12
465.414	404.12
465.634	372.12
465.854	374.12
466.073	378.12
466.293	381.12
466.512	347.12
466.732	354.12
466.951	370.12
467.171	343.12
467.391	363.12
467.61	372.12
467.829	344.12
468.049	343.12
468.268	339.12
468.488	337.12
468.707	341.12
468.927	345.12
469.146	320.12
469.365	343.12
469.585	344.12
469.804	344.12
470.023	357.12
470.243	355.12
470.462	364.12
470.681	356.12
470.901	352.12
471.12	358.12
471.339	366.12
471.558	334.12
471.777	360.12
471.997	342.12
472.216	328.12
472.435	338.12
472.654	338.12
472.873	338.12
473.092	344.12
473.311	339.12
473.53	320.12
473.749	339.12
473.968	339.12
474.187	346.12
474.406	342.12
474.625	347.12
474.844	348.12
475.063	342.12
475.282	348.12
475.501	350.12
475.72	352.12
475.939	368.12
476.158	351.12
476.377	363.12
476.596	354.12
476.814	346.12
477.033	360.12
477.252	373.12
477.471	362.12
477.69	396.12
477.908	374.12
478.127	391.12
478.346	385.12
478.564	400.12
478.783	380.12
479.002	407.12
479.22	418.12
479.439	401.12
479.658	394.12
479.876	400.12
480.095	400.12
480.313	427.12
480.532	417.12
480.751	423.12
480.969	412.12
481.188	403.12
481.406	400.12
481.624	406.12
481.843	386.12
482.061	376.12
482.28	385.12
482.498	390.12
482.717	352.12
482.935	372.12
483.153	376.12
483.372	396.12
483.59	387.12
483.808	374.12
484.027	390.12
484.245	381.12
484.463	403.12
484.681	405.12
484.9	410.12
485.118	384.12
485.336	394.12
485.554	398.12
485.772	405.12
485.99	400.12
486.209	409.12
486.427	388.12
486.645	382.12
486.863	397.12
487.081	389.12
487.299	382.12
487.517	402.12
487.735	410.12
487.953	390.12
488.171	424.12
488.389	408.12
488.607	398.12
488.825	405.12
489.043	387.12
489.261	395.12
489.479	392.12
489.696	394.12
489.914	389.12
490.132	397.12
490.35	393.12
490.568	386.12
490.786	402.12
491.003	390.12
491.221	392.12
491.439	400.12
491.657	406.12
491.874	425.12
492.092	410.12
492.31	398.12
492.527	395.12
492.745	412.12
492.963	403.12
493.18	400.12
493.398	420.12
493.615	435.12
493.833	401.12
494.05	424.12
494.268	424.12
494.485	404.12
494.703	428.12
494.92	421.12
495.138	420.12
495.355	434.12
495.573	423.12
495.79	441.12
496.008	430.12
496.225	443.12
496.442	441.12
496.66	461.12
496.877	427.12
497.094	459.12
497.312	443.12
497.529	458.12
497.746	481.12
497.963	491.12
498.181	492.12
498.398	524.12
498.615	540.12
498.832	564.12
499.049	611.12
499.267	643.12
499.484	707.12
499.701	729.12
499.918	803.12
500.135	880.12
500.352	914.12
500.569	930.12
500.786	918.12
501.003	887.12
501.22	825.12
501.437	764.12
501.654	692.12
501.871	641.12
502.088	630.12
502.305	594.12
