Data from Fe(NO3)3@0.05M.TitratingCurve.Agarose3%dH2O.NegLispCup.LampEnergy10.LIBS07252019_HRD10591_16-46-59-334.txt Node
Date: Thu Jul 25 16:46:59 EDT 2019
User: cochatt
Spectrometer: HR+D1059
Trigger mode: 1
Integration Time (sec): 1.000000E-1
Scans to average: 1
Electric dark correction enabled: true
Nonlinearity correction enabled: false
Boxcar width: 0
XAxis mode: Wavelengths
Number of Pixels in Spectrum: 2048
>>>>>Begin Spectral Data<<<<<
223.165	-22
223.4	-22
223.635	-22
223.869	-23
224.104	-22
224.338	-16
224.573	-12
224.808	-15
225.042	-9
225.277	-4
225.511	4
225.746	6
225.98	10
226.215	13
226.449	16
226.683	21
226.918	27
227.152	26
227.387	39
227.621	43
227.856	46
228.09	56
228.324	52
228.559	58
228.793	58
229.027	113
229.262	102
229.496	107
229.73	122
229.964	122
230.199	144
230.433	135
230.667	128
230.901	120
231.136	120
231.37	110
231.604	139
231.838	138
232.072	146
232.306	151
232.541	162
232.775	148
233.009	119
233.243	155
233.477	162
233.711	147
233.945	140
234.179	148
234.413	153
234.647	160
234.881	146
235.115	166
235.349	158
235.583	152
235.817	158
236.051	162
236.285	142
236.519	169
236.753	164
236.987	157
237.221	180
237.455	170
237.689	162
237.922	166
238.156	182
238.39	192
238.624	204
238.858	199
239.091	188
239.325	184
239.559	191
239.793	184
240.027	201
240.26	204
240.494	190
240.728	203
240.961	211
241.195	201
241.429	205
241.662	192
241.896	191
242.13	200
242.363	186
242.597	191
242.83	203
243.064	219
243.298	207
243.531	198
243.765	210
243.998	206
244.232	222
244.465	212
244.699	208
244.932	218
245.166	226
245.399	231
245.633	227
245.866	227
246.099	218
246.333	230
246.566	227
246.8	243
247.033	232
247.266	229
247.5	223
247.733	232
247.966	220
248.2	223
248.433	266
248.666	262
248.899	259
249.133	254
249.366	257
249.599	264
249.832	251
250.066	264
250.299	269
250.532	249
250.765	264
250.998	261
251.231	264
251.465	290
251.698	264
251.931	254
252.164	274
252.397	286
252.63	285
252.863	299
253.096	297
253.329	298
253.562	290
253.795	268
254.028	311
254.261	308
254.494	310
254.727	313
254.96	291
255.193	288
255.426	307
255.659	293
255.892	303
256.124	290
256.357	306
256.59	318
256.823	294
257.056	312
257.289	319
257.521	315
257.754	324
257.987	306
258.22	331
258.452	288
258.685	328
258.918	333
259.151	321
259.383	315
259.616	337
259.849	345
260.081	378
260.314	386
260.547	366
260.779	348
261.012	342
261.244	345
261.477	389
261.71	378
261.942	358
262.175	355
262.407	331
262.64	363
262.872	352
263.105	378
263.337	396
263.57	384
263.802	347
264.035	342
264.267	356
264.499	336
264.732	355
264.964	331
265.197	354
265.429	368
265.661	340
265.894	353
266.126	360
266.358	340
266.591	358
266.823	394
267.055	355
267.287	362
267.52	375
267.752	371
267.984	374
268.216	376
268.448	396
268.681	367
268.913	382
269.145	392
269.377	386
269.609	390
269.841	392
270.073	381
270.306	383
270.538	401
270.77	398
271.002	384
271.234	408
271.466	407
271.698	415
271.93	415
272.162	404
272.394	417
272.626	417
272.858	388
273.09	407
273.322	410
273.553	412
273.785	436
274.017	458
274.249	475
274.481	487
274.713	483
274.945	518
275.176	518
275.408	497
275.64	486
275.872	491
276.104	473
276.335	428
276.567	443
276.799	439
277.031	468
277.262	439
277.494	426
277.726	437
277.957	451
278.189	459
278.421	455
278.652	454
278.884	453
279.115	435
279.347	458
279.579	445
279.81	442
280.042	459
280.273	461
280.505	460
280.736	479
280.968	455
281.199	453
281.431	472
281.662	474
281.894	458
282.125	475
282.356	489
282.588	469
282.819	483
283.051	499
283.282	478
283.513	510
283.745	483
283.976	514
284.207	492
284.439	492
284.67	484
284.901	497
285.132	513
285.364	487
285.595	496
285.826	474
286.057	504
286.288	517
286.52	499
286.751	528
286.982	515
287.213	499
287.444	489
287.675	495
287.906	525
288.138	524
288.369	530
288.6	502
288.831	528
289.062	510
289.293	518
289.524	518
289.755	522
289.986	516
290.217	513
290.448	518
290.679	543
290.91	532
291.141	528
291.371	539
291.602	533
291.833	520
292.064	550
292.295	535
292.526	529
292.757	518
292.987	524
293.218	520
293.449	531
293.68	535
293.91	544
294.141	548
294.372	531
294.603	548
294.833	536
295.064	559
295.295	548
295.525	547
295.756	553
295.987	549
296.217	540
296.448	553
296.679	580
296.909	546
297.14	568
297.37	572
297.601	562
297.831	558
298.062	570
298.292	597
298.523	560
298.753	595
298.984	584
299.214	564
299.445	550
299.675	572
299.905	585
300.136	588
300.366	567
300.597	562
300.827	597
301.057	598
301.288	611
301.518	603
301.748	595
301.979	611
302.209	600
302.439	627
302.669	620
302.9	595
303.13	607
303.36	627
303.59	622
303.82	602
304.051	619
304.281	617
304.511	596
304.741	618
304.971	614
305.201	611
305.431	594
305.661	627
305.891	602
306.121	627
306.352	635
306.582	610
306.812	610
307.042	619
307.272	606
307.502	596
307.731	604
307.961	619
308.191	608
308.421	613
308.651	591
308.881	624
309.111	608
309.341	616
309.571	628
309.8	617
310.03	634
310.26	599
310.49	613
310.72	600
310.949	629
311.179	615
311.409	654
311.639	609
311.868	628
312.098	653
312.328	646
312.557	640
312.787	634
313.017	658
313.246	656
313.476	658
313.706	651
313.935	643
314.165	655
314.394	650
314.624	640
314.853	658
315.083	678
315.312	680
315.542	659
315.771	662
316.001	675
316.23	683
316.46	676
316.689	682
316.919	692
317.148	666
317.377	654
317.607	665
317.836	683
318.065	678
318.295	672
318.524	684
318.753	674
318.983	696
319.212	640
319.441	673
319.67	694
319.9	651
320.129	665
320.358	652
320.587	652
320.816	663
321.046	653
321.275	703
321.504	667
321.733	678
321.962	702
322.191	667
322.42	675
322.649	694
322.878	699
323.108	684
323.337	684
323.566	696
323.795	684
324.024	716
324.253	712
324.482	689
324.71	686
324.939	715
325.168	723
325.397	702
325.626	697
325.855	702
326.084	702
326.313	711
326.542	696
326.77	738
326.999	713
327.228	722
327.457	711
327.686	704
327.914	744
328.143	705
328.372	742
328.6	725
328.829	740
329.058	714
329.287	739
329.515	747
329.744	722
329.972	733
330.201	755
330.43	744
330.658	722
330.887	726
331.115	771
331.344	773
331.572	768
331.801	766
332.03	773
332.258	780
332.486	815
332.715	791
332.943	816
333.172	825
333.4	864
333.629	863
333.857	882
334.085	879
334.314	875
334.542	873
334.771	866
334.999	896
335.227	884
335.455	901
335.684	885
335.912	871
336.14	860
336.369	873
336.597	832
336.825	863
337.053	873
337.281	869
337.51	832
337.738	844
337.966	826
338.194	822
338.422	836
338.65	802
338.878	788
339.106	792
339.334	795
339.562	805
339.79	792
340.018	807
340.246	784
340.474	758
340.702	784
340.93	808
341.158	778
341.386	776
341.614	788
341.842	775
342.07	749
342.298	787
342.526	774
342.754	798
342.981	796
343.209	783
343.437	804
343.665	819
343.893	852
344.12	898
344.348	871
344.576	854
344.804	835
345.031	837
345.259	826
345.487	823
345.714	785
345.942	794
346.17	794
346.397	786
346.625	767
346.853	766
347.08	764
347.308	751
347.535	757
347.763	746
347.99	761
348.218	762
348.445	767
348.673	736
348.9	758
349.128	735
349.355	722
349.583	775
349.81	742
350.037	723
350.265	753
350.492	730
350.72	751
350.947	759
351.174	739
351.402	762
351.629	737
351.856	747
352.083	729
352.311	763
352.538	709
352.765	712
352.992	742
353.22	719
353.447	736
353.674	739
353.901	747
354.128	729
354.355	744
354.583	729
354.81	737
355.037	747
355.264	753
355.491	739
355.718	740
355.945	774
356.172	754
356.399	773
356.626	738
356.853	764
357.08	740
357.307	757
357.534	772
357.761	774
357.988	748
358.215	764
358.441	796
358.668	769
358.895	758
359.122	732
359.349	746
359.576	764
359.802	780
360.029	743
360.256	772
360.483	772
360.709	750
360.936	778
361.163	746
361.39	732
361.616	747
361.843	763
362.07	764
362.296	762
362.523	755
362.749	771
362.976	754
363.203	766
363.429	722
363.656	793
363.882	764
364.109	738
364.335	747
364.562	745
364.788	757
365.015	789
365.241	752
365.468	766
365.694	755
365.92	748
366.147	753
366.373	756
366.599	758
366.826	760
367.052	763
367.278	783
367.505	744
367.731	788
367.957	770
368.184	791
368.41	770
368.636	798
368.862	793
369.089	817
369.315	784
369.541	792
369.767	779
369.993	820
370.219	796
370.445	826
370.672	820
370.898	816
371.124	814
371.35	828
371.576	821
371.802	849
372.028	855
372.254	862
372.48	840
372.706	847
372.932	834
373.158	847
373.384	884
373.61	850
373.835	907
374.061	857
374.287	839
374.513	857
374.739	892
374.965	900
375.191	879
375.416	898
375.642	858
375.868	858
376.094	900
376.319	890
376.545	866
376.771	839
376.997	841
377.222	810
377.448	828
377.674	818
377.899	824
378.125	839
378.35	826
378.576	801
378.802	815
379.027	834
379.253	831
379.478	836
379.704	827
379.929	841
380.155	830
380.38	832
380.606	845
380.831	861
381.057	862
381.282	834
381.507	856
381.733	848
381.958	872
382.184	930
382.409	904
382.634	904
382.86	894
383.085	917
383.31	901
383.535	891
383.761	907
383.986	917
384.211	939
384.436	928
384.662	935
384.887	945
385.112	932
385.337	950
385.562	990
385.787	1002
386.013	967
386.238	988
386.463	959
386.688	980
386.913	988
387.138	975
387.363	1000
387.588	997
387.813	999
388.038	1010
388.263	1016
388.488	1006
388.713	975
388.938	980
389.163	1007
389.387	990
389.612	971
389.837	976
390.062	994
390.287	1011
390.512	978
390.736	999
390.961	995
391.186	1000
391.411	1010
391.636	1038
391.86	1063
392.085	1049
392.31	1070
392.534	1054
392.759	1046
392.984	1045
393.208	1034
393.433	1064
393.658	1023
393.882	1044
394.107	1046
394.331	1046
394.556	1035
394.78	1051
395.005	1049
395.229	1072
395.454	1123
395.678	1066
395.903	1064
396.127	1100
396.352	1050
396.576	1074
396.801	1085
397.025	1092
397.249	1109
397.474	1137
397.698	1104
397.922	1134
398.147	1135
398.371	1144
398.595	1159
398.82	1202
399.044	1237
399.268	1312
399.492	1399
399.717	1434
399.941	1481
400.165	1466
400.389	1388
400.613	1337
400.837	1254
401.062	1262
401.286	1245
401.51	1202
401.734	1219
401.958	1230
402.182	1241
402.406	1192
402.63	1208
402.854	1255
403.078	1233
403.302	1283
403.526	1271
403.75	1248
403.974	1268
404.198	1238
404.422	1264
404.645	1240
404.869	1273
405.093	1292
405.317	1240
405.541	1278
405.765	1300
405.988	1268
406.212	1296
406.436	1340
406.66	1330
406.883	1317
407.107	1339
407.331	1408
407.555	1428
407.778	1406
408.002	1397
408.226	1391
408.449	1377
408.673	1361
408.896	1348
409.12	1327
409.344	1320
409.567	1296
409.791	1337
410.014	1304
410.238	1253
410.461	1333
410.685	1244
410.908	1294
411.132	1272
411.355	1277
411.578	1255
411.802	1247
412.025	1257
412.249	1262
412.472	1251
412.695	1261
412.919	1231
413.142	1232
413.365	1227
413.589	1229
413.812	1222
414.035	1222
414.258	1187
414.482	1195
414.705	1233
414.928	1205
415.151	1226
415.374	1203
415.597	1193
415.821	1184
416.044	1204
416.267	1168
416.49	1154
416.713	1212
416.936	1193
417.159	1170
417.382	1171
417.605	1188
417.828	1162
418.051	1199
418.274	1151
418.497	1159
418.72	1198
418.943	1171
419.166	1254
419.389	1309
419.611	1303
419.834	1235
420.057	1243
420.28	1185
420.503	1162
420.726	1125
420.948	1139
421.171	1147
421.394	1179
421.617	1174
421.839	1141
422.062	1176
422.285	1164
422.507	1156
422.73	1141
422.953	1157
423.175	1162
423.398	1168
423.621	1169
423.843	1196
424.066	1174
424.288	1171
424.511	1188
424.733	1151
424.956	1173
425.178	1178
425.401	1173
425.623	1196
425.846	1158
426.068	1126
426.291	1135
426.513	1127
426.735	1132
426.958	1157
427.18	1150
427.402	1141
427.625	1101
427.847	1110
428.069	1080
428.292	1109
428.514	1096
428.736	1090
428.958	1124
429.181	1109
429.403	1083
429.625	1085
429.847	1078
430.069	1083
430.292	1078
430.514	1089
430.736	1117
430.958	1123
431.18	1081
431.402	1085
431.624	1072
431.846	1095
432.068	1083
432.29	1108
432.512	1091
432.734	1128
432.956	1091
433.178	1108
433.4	1106
433.622	1124
433.844	1133
434.066	1127
434.287	1101
434.509	1163
434.731	1155
434.953	1155
435.175	1167
435.397	1142
435.618	1139
435.84	1124
436.062	1119
436.284	1097
436.505	1106
436.727	1122
436.949	1099
437.17	1081
437.392	1091
437.614	1084
437.835	1058
438.057	1093
438.278	1067
438.5	1074
438.721	1094
438.943	1076
439.165	1046
439.386	1076
439.608	1072
439.829	1052
440.05	1094
440.272	1088
440.493	1119
440.715	1107
440.936	1090
441.158	1126
441.379	1153
441.6	1187
441.822	1192
442.043	1152
442.264	1145
442.486	1147
442.707	1169
442.928	1164
443.149	1139
443.371	1156
443.592	1148
443.813	1143
444.034	1184
444.255	1172
444.476	1224
444.698	1225
444.919	1262
445.14	1304
445.361	1253
445.582	1205
445.803	1148
446.024	1129
446.245	1129
446.466	1103
446.687	1110
446.908	1113
447.129	1072
447.35	1083
447.571	1054
447.792	1058
448.013	1041
448.234	1042
448.455	1044
448.675	1023
448.896	1020
449.117	1028
449.338	1012
449.559	1041
449.779	1042
450	1010
450.221	1007
450.442	1035
450.662	972
450.883	992
451.104	997
451.324	1001
451.545	1006
451.766	1009
451.986	976
452.207	997
452.428	969
452.648	991
452.869	976
453.089	962
453.31	994
453.53	965
453.751	983
453.971	965
454.192	958
454.412	967
454.633	936
454.853	947
455.073	1018
455.294	970
455.514	960
455.734	931
455.955	932
456.175	942
456.395	946
456.616	950
456.836	959
457.056	960
457.276	983
457.497	983
457.717	984
457.937	978
458.157	972
458.377	1007
458.598	1042
458.818	1029
459.038	1028
459.258	1043
459.478	1072
459.698	1103
459.918	1095
460.138	1137
460.358	1173
460.578	1179
460.798	1193
461.018	1219
461.238	1218
461.458	1217
461.678	1214
461.898	1254
462.118	1253
462.338	1300
462.558	1292
462.777	1331
462.997	1361
463.217	1392
463.437	1406
463.657	1369
463.876	1348
464.096	1370
464.316	1371
464.536	1298
464.755	1289
464.975	1271
465.195	1218
465.414	1195
465.634	1201
465.854	1142
466.073	1140
466.293	1108
466.512	1081
466.732	1083
466.951	1134
467.171	1118
467.391	1074
467.61	1028
467.829	1041
468.049	1061
468.268	1041
468.488	1027
468.707	1056
468.927	1057
469.146	1077
469.365	1062
469.585	1048
469.804	1058
470.023	1071
470.243	1064
470.462	1106
470.681	1090
470.901	1083
471.12	1075
471.339	1077
471.558	1058
471.777	1098
471.997	1090
472.216	1079
472.435	1074
472.654	1033
472.873	1057
473.092	1062
473.311	1035
473.53	1033
473.749	1052
473.968	1049
474.187	1023
474.406	1081
474.625	1066
474.844	1057
475.063	1078
475.282	1052
475.501	1056
475.72	1062
475.939	1092
476.158	1097
476.377	1089
476.596	1131
476.814	1151
477.033	1089
477.252	1134
477.471	1160
477.69	1168
477.908	1192
478.127	1202
478.346	1192
478.564	1237
478.783	1234
479.002	1250
479.22	1249
479.439	1271
479.658	1263
479.876	1271
480.095	1265
480.313	1294
480.532	1253
480.751	1285
480.969	1279
481.188	1265
481.406	1247
481.624	1278
481.843	1234
482.061	1201
482.28	1204
482.498	1198
482.717	1225
482.935	1238
483.153	1205
483.372	1212
483.59	1226
483.808	1238
484.027	1226
484.245	1240
484.463	1238
484.681	1238
484.9	1242
485.118	1263
485.336	1255
485.554	1262
485.772	1274
485.99	1233
486.209	1241
486.427	1209
486.645	1252
486.863	1265
487.081	1236
487.299	1243
487.517	1217
487.735	1253
487.953	1244
488.171	1243
488.389	1270
488.607	1243
488.825	1259
489.043	1233
489.261	1254
489.479	1264
489.696	1246
489.914	1272
490.132	1241
490.35	1234
490.568	1253
490.786	1266
491.003	1296
491.221	1247
491.439	1285
491.657	1256
491.874	1283
492.092	1297
492.31	1307
492.527	1305
492.745	1295
492.963	1320
493.18	1313
493.398	1314
493.615	1323
493.833	1336
494.05	1330
494.268	1328
494.485	1343
494.703	1313
494.92	1303
495.138	1359
495.355	1354
495.573	1355
495.79	1359
496.008	1394
496.225	1368
496.442	1395
496.66	1390
496.877	1438
497.094	1437
497.312	1468
497.529	1482
497.746	1466
497.963	1510
498.181	1611
498.398	1653
498.615	1695
498.832	1738
499.049	1857
499.267	1945
499.484	2011
499.701	2129
499.918	2260
500.135	2341
500.352	2498
500.569	2538
500.786	2498
501.003	2516
501.22	2337
501.437	2203
501.654	2070
501.871	2010
502.088	1924
502.305	1829
502.522	1779
502.739	1721
502.956	1638
503.172	1607
503.389	1547
503.606	1479
503.823	1509
504.04	1510
504.256	1471
504.473	1435
504.69	1454
504.907	1457
505.123	1375
505.34	1353
505.557	1352
505.773	1281
505.99	1292
506.207	1250
506.423	1251
506.64	1215
506.856	1190
507.073	1211
507.289	1202
507.506	1194
507.722	1182
507.939	1162
508.155	1143
508.372	1159
508.588	1118
508.805	1150
509.021	1110
509.238	1120
509.454	1113
509.67	1099
509.887	1081
510.103	1116
510.319	1073
510.536	1114
510.752	1078
510.968	1078
511.184	1083
511.401	1105
511.617	1050
511.833	1063
512.049	1066
512.265	1040
512.481	1083
512.698	1062
512.914	1063
513.13	1062
513.346	1063
513.562	1092
513.778	1075
513.994	1076
514.21	1068
514.426	1094
514.642	1078
514.858	1088
515.074	1086
515.29	1087
515.506	1118
515.721	1089
515.937	1120
516.153	1122
516.369	1137
516.585	1158
516.801	1165
517.016	1152
517.232	1213
517.448	1247
517.664	1267
517.879	1231
518.095	1247
518.311	1254
518.527	1228
518.742	1248
518.958	1202
519.173	1160
519.389	1148
519.605	1146
519.82	1113
520.036	1127
520.251	1115
520.467	1098
520.682	1080
520.898	1036
521.113	1057
521.329	1054
521.544	1060
521.76	1026
521.975	1028
522.19	1024
522.406	1026
522.621	1027
522.836	995
523.052	1021
523.267	964
523.482	969
523.698	972
523.913	976
524.128	975
524.343	989
524.559	971
524.774	963
524.989	971
525.204	967
525.419	987
525.634	970
525.849	979
526.064	966
526.28	964
526.495	981
526.71	965
526.925	917
527.14	924
527.355	942
527.57	951
527.785	943
527.999	977
528.214	954
528.429	928
528.644	942
528.859	966
529.074	935
529.289	932
529.503	934
529.718	950
529.933	935
530.148	952
530.363	939
530.577	933
530.792	931
531.007	890
531.221	935
531.436	924
531.651	929
531.865	936
532.08	918
532.295	924
532.509	945
532.724	942
532.938	915
533.153	927
533.367	920
533.582	880
533.796	874
534.011	936
534.225	902
534.44	906
534.654	915
534.868	900
535.083	909
535.297	908
535.511	898
535.726	890
535.94	893
536.154	890
536.369	896
536.583	859
536.797	884
537.011	894
537.225	871
537.44	856
537.654	882
537.868	850
538.082	874
538.296	839
538.51	850
538.724	869
538.938	875
539.153	843
539.367	880
539.581	848
539.795	836
540.009	849
540.222	826
540.436	852
540.65	836
540.864	863
541.078	816
541.292	825
541.506	827
541.72	819
541.934	855
542.147	857
542.361	851
542.575	807
542.789	842
543.002	825
543.216	849
543.43	820
543.644	839
543.857	820
544.071	862
544.285	824
544.498	807
544.712	825
544.925	838
545.139	838
545.352	841
545.566	838
545.779	854
545.993	854
546.206	851
546.42	837
546.633	850
546.847	852
547.06	858
547.274	860
547.487	826
547.7	873
547.914	844
548.127	842
548.34	862
548.554	835
548.767	857
548.98	866
549.193	845
549.407	854
549.62	866
549.833	871
550.046	838
550.259	861
550.473	836
550.686	868
550.899	866
551.112	831
551.325	857
551.538	856
551.751	832
551.964	827
552.177	840
552.39	832
552.603	869
552.816	868
553.029	845
553.242	862
553.455	857
553.667	872
