Data from Fe(NO3)3@0.05M.TitratingCurve.Agarose3%dH2O.NegLispCup.LampEnergy10.LIBS07252019_HRD10591_16-46-15-334.txt Node
Date: Thu Jul 25 16:46:15 EDT 2019
User: cochatt
Spectrometer: HR+D1059
Trigger mode: 1
Integration Time (sec): 1.000000E-1
Scans to average: 1
Electric dark correction enabled: true
Nonlinearity correction enabled: false
Boxcar width: 0
XAxis mode: Wavelengths
Number of Pixels in Spectrum: 2048
>>>>>Begin Spectral Data<<<<<
223.165	-13.19
223.4	-13.19
223.635	-13.19
223.869	-26.19
224.104	-27.19
224.338	-19.19
224.573	-21.19
224.808	-18.19
225.042	-18.19
225.277	-2.19
225.511	-6.19
225.746	6.81
225.98	17.81
226.215	22.81
226.449	24.81
226.683	18.81
226.918	11.81
227.152	48.81
227.387	40.81
227.621	48.81
227.856	43.81
228.09	43.81
228.324	49.81
228.559	58.81
228.793	65.81
229.027	120.81
229.262	132.81
229.496	115.81
229.73	124.81
229.964	139.81
230.199	146.81
230.433	152.81
230.667	150.81
230.901	158.81
231.136	140.81
231.37	153.81
231.604	159.81
231.838	153.81
232.072	150.81
232.306	161.81
232.541	148.81
232.775	154.81
233.009	158.81
233.243	169.81
233.477	177.81
233.711	166.81
233.945	166.81
234.179	191.81
234.413	181.81
234.647	188.81
234.881	212.81
235.115	206.81
235.349	170.81
235.583	194.81
235.817	175.81
236.051	186.81
236.285	180.81
236.519	195.81
236.753	197.81
236.987	195.81
237.221	202.81
237.455	192.81
237.689	205.81
237.922	210.81
238.156	209.81
238.39	218.81
238.624	245.81
238.858	221.81
239.091	201.81
239.325	225.81
239.559	218.81
239.793	217.81
240.027	260.81
240.26	244.81
240.494	239.81
240.728	228.81
240.961	253.81
241.195	257.81
241.429	246.81
241.662	261.81
241.896	221.81
242.13	213.81
242.363	248.81
242.597	238.81
242.83	242.81
243.064	224.81
243.298	247.81
243.531	231.81
243.765	249.81
243.998	260.81
244.232	230.81
244.465	247.81
244.699	257.81
244.932	262.81
245.166	265.81
245.399	268.81
245.633	252.81
245.866	255.81
246.099	282.81
246.333	273.81
246.566	286.81
246.8	282.81
247.033	289.81
247.266	278.81
247.5	275.81
247.733	303.81
247.966	283.81
248.2	290.81
248.433	304.81
248.666	289.81
248.899	308.81
249.133	319.81
249.366	339.81
249.599	356.81
249.832	328.81
250.066	323.81
250.299	324.81
250.532	333.81
250.765	332.81
250.998	315.81
251.231	337.81
251.465	319.81
251.698	325.81
251.931	329.81
252.164	345.81
252.397	351.81
252.63	361.81
252.863	373.81
253.096	365.81
253.329	361.81
253.562	362.81
253.795	350.81
254.028	391.81
254.261	399.81
254.494	378.81
254.727	363.81
254.96	370.81
255.193	378.81
255.426	364.81
255.659	373.81
255.892	348.81
256.124	351.81
256.357	385.81
256.59	397.81
256.823	385.81
257.056	366.81
257.289	357.81
257.521	366.81
257.754	371.81
257.987	382.81
258.22	385.81
258.452	382.81
258.685	396.81
258.918	415.81
259.151	413.81
259.383	398.81
259.616	396.81
259.849	435.81
260.081	492.81
260.314	501.81
260.547	459.81
260.779	414.81
261.012	431.81
261.244	470.81
261.477	463.81
261.71	450.81
261.942	408.81
262.175	419.81
262.407	426.81
262.64	432.81
262.872	443.81
263.105	470.81
263.337	460.81
263.57	456.81
263.802	405.81
264.035	415.81
264.267	410.81
264.499	417.81
264.732	427.81
264.964	424.81
265.197	437.81
265.429	411.81
265.661	422.81
265.894	418.81
266.126	437.81
266.358	432.81
266.591	444.81
266.823	438.81
267.055	453.81
267.287	448.81
267.52	427.81
267.752	431.81
267.984	445.81
268.216	452.81
268.448	444.81
268.681	445.81
268.913	477.81
269.145	466.81
269.377	467.81
269.609	465.81
269.841	465.81
270.073	448.81
270.306	481.81
270.538	481.81
270.77	495.81
271.002	455.81
271.234	482.81
271.466	475.81
271.698	502.81
271.93	496.81
272.162	473.81
272.394	497.81
272.626	512.81
272.858	511.81
273.09	509.81
273.322	514.81
273.553	526.81
273.785	529.81
274.017	565.81
274.249	584.81
274.481	592.81
274.713	591.81
274.945	640.81
275.176	671.81
275.408	652.81
275.64	610.81
275.872	636.81
276.104	578.81
276.335	567.81
276.567	541.81
276.799	545.81
277.031	546.81
277.262	559.81
277.494	544.81
277.726	538.81
277.957	556.81
278.189	536.81
278.421	544.81
278.652	543.81
278.884	535.81
279.115	559.81
279.347	548.81
279.579	549.81
279.81	539.81
280.042	534.81
280.273	549.81
280.505	559.81
280.736	551.81
280.968	570.81
281.199	545.81
281.431	565.81
281.662	570.81
281.894	569.81
282.125	577.81
282.356	589.81
282.588	572.81
282.819	582.81
283.051	557.81
283.282	594.81
283.513	595.81
283.745	605.81
283.976	607.81
284.207	599.81
284.439	583.81
284.67	597.81
284.901	594.81
285.132	599.81
285.364	571.81
285.595	568.81
285.826	581.81
286.057	587.81
286.288	590.81
286.52	604.81
286.751	624.81
286.982	628.81
287.213	616.81
287.444	610.81
287.675	607.81
287.906	598.81
288.138	613.81
288.369	604.81
288.6	620.81
288.831	615.81
289.062	641.81
289.293	617.81
289.524	643.81
289.755	620.81
289.986	624.81
290.217	623.81
290.448	617.81
290.679	634.81
290.91	615.81
291.141	645.81
291.371	638.81
291.602	630.81
291.833	636.81
292.064	635.81
292.295	644.81
292.526	634.81
292.757	623.81
292.987	648.81
293.218	642.81
293.449	615.81
293.68	636.81
293.91	639.81
294.141	635.81
294.372	627.81
294.603	655.81
294.833	628.81
295.064	659.81
295.295	655.81
295.525	636.81
295.756	665.81
295.987	629.81
296.217	634.81
296.448	636.81
296.679	673.81
296.909	652.81
297.14	663.81
297.37	667.81
297.601	658.81
297.831	664.81
298.062	667.81
298.292	663.81
298.523	714.81
298.753	686.81
298.984	685.81
299.214	681.81
299.445	671.81
299.675	679.81
299.905	676.81
300.136	681.81
300.366	680.81
300.597	714.81
300.827	689.81
301.057	689.81
301.288	705.81
301.518	678.81
301.748	710.81
301.979	718.81
302.209	721.81
302.439	728.81
302.669	717.81
302.9	693.81
303.13	708.81
303.36	719.81
303.59	717.81
303.82	710.81
304.051	717.81
304.281	708.81
304.511	708.81
304.741	732.81
304.971	740.81
305.201	709.81
305.431	739.81
305.661	714.81
305.891	729.81
306.121	729.81
306.352	735.81
306.582	752.81
306.812	714.81
307.042	729.81
307.272	727.81
307.502	727.81
307.731	752.81
307.961	723.81
308.191	725.81
308.421	708.81
308.651	713.81
308.881	721.81
309.111	720.81
309.341	709.81
309.571	696.81
309.8	701.81
310.03	729.81
310.26	751.81
310.49	751.81
310.72	737.81
310.949	759.81
311.179	718.81
311.409	727.81
311.639	745.81
311.868	758.81
312.098	754.81
312.328	759.81
312.557	779.81
312.787	770.81
313.017	770.81
313.246	772.81
313.476	759.81
313.706	760.81
313.935	789.81
314.165	757.81
314.394	772.81
314.624	771.81
314.853	777.81
315.083	777.81
315.312	790.81
315.542	802.81
315.771	780.81
316.001	793.81
316.23	804.81
316.46	797.81
316.689	796.81
316.919	795.81
317.148	786.81
317.377	769.81
317.607	793.81
317.836	776.81
318.065	821.81
318.295	796.81
318.524	823.81
318.753	800.81
318.983	795.81
319.212	812.81
319.441	795.81
319.67	785.81
319.9	812.81
320.129	810.81
320.358	790.81
320.587	837.81
320.816	804.81
321.046	819.81
321.275	800.81
321.504	817.81
321.733	797.81
321.962	807.81
322.191	835.81
322.42	813.81
322.649	849.81
322.878	823.81
323.108	826.81
323.337	803.81
323.566	845.81
323.795	848.81
324.024	843.81
324.253	820.81
324.482	827.81
324.71	834.81
324.939	840.81
325.168	826.81
325.397	839.81
325.626	828.81
325.855	844.81
326.084	872.81
326.313	863.81
326.542	843.81
326.77	873.81
326.999	876.81
327.228	819.81
327.457	863.81
327.686	850.81
327.914	871.81
328.143	849.81
328.372	849.81
328.6	842.81
328.829	853.81
329.058	859.81
329.287	868.81
329.515	891.81
329.744	861.81
329.972	888.81
330.201	896.81
330.43	902.81
330.658	893.81
330.887	895.81
331.115	865.81
331.344	891.81
331.572	931.81
331.801	922.81
332.03	933.81
332.258	917.81
332.486	932.81
332.715	920.81
332.943	930.81
333.172	946.81
333.4	955.81
333.629	988.81
333.857	983.81
334.085	974.81
334.314	1011.81
334.542	1000.81
334.771	992.81
334.999	1008.81
335.227	1007.81
335.455	1012.81
335.684	973.81
335.912	984.81
336.14	1002.81
336.369	996.81
336.597	969.81
336.825	1011.81
337.053	984.81
337.281	987.81
337.51	974.81
337.738	961.81
337.966	1000.81
338.194	979.81
338.422	972.81
338.65	931.81
338.878	949.81
339.106	964.81
339.334	940.81
339.562	951.81
339.79	946.81
340.018	961.81
340.246	953.81
340.474	944.81
340.702	935.81
340.93	917.81
341.158	946.81
341.386	925.81
341.614	936.81
341.842	924.81
342.07	935.81
342.298	905.81
342.526	951.81
342.754	945.81
342.981	945.81
343.209	946.81
343.437	921.81
343.665	959.81
343.893	980.81
344.12	1004.81
344.348	995.81
344.576	985.81
344.804	980.81
345.031	941.81
345.259	951.81
345.487	941.81
345.714	933.81
345.942	916.81
346.17	915.81
346.397	886.81
346.625	893.81
346.853	914.81
347.08	869.81
347.308	891.81
347.535	892.81
347.763	897.81
347.99	901.81
348.218	881.81
348.445	890.81
348.673	892.81
348.9	923.81
349.128	900.81
349.355	892.81
349.583	907.81
349.81	904.81
350.037	886.81
350.265	912.81
350.492	877.81
350.72	889.81
350.947	895.81
351.174	887.81
351.402	876.81
351.629	883.81
351.856	889.81
352.083	886.81
352.311	873.81
352.538	881.81
352.765	869.81
352.992	881.81
353.22	892.81
353.447	858.81
353.674	903.81
353.901	885.81
354.128	880.81
354.355	905.81
354.583	861.81
354.81	867.81
355.037	879.81
355.264	893.81
355.491	900.81
355.718	885.81
355.945	884.81
356.172	884.81
356.399	900.81
356.626	877.81
356.853	893.81
357.08	908.81
357.307	904.81
357.534	890.81
357.761	891.81
357.988	875.81
358.215	914.81
358.441	933.81
358.668	882.81
358.895	895.81
359.122	880.81
359.349	884.81
359.576	891.81
359.802	885.81
360.029	889.81
360.256	921.81
360.483	898.81
360.709	904.81
360.936	902.81
361.163	928.81
361.39	895.81
361.616	906.81
361.843	905.81
362.07	905.81
362.296	926.81
362.523	895.81
362.749	905.81
362.976	892.81
363.203	897.81
363.429	918.81
363.656	915.81
363.882	896.81
364.109	944.81
364.335	888.81
364.562	918.81
364.788	920.81
365.015	929.81
365.241	944.81
365.468	903.81
365.694	903.81
365.92	905.81
366.147	900.81
366.373	909.81
366.599	909.81
366.826	920.81
367.052	926.81
367.278	921.81
367.505	947.81
367.731	925.81
367.957	918.81
368.184	894.81
368.41	942.81
368.636	931.81
368.862	951.81
369.089	946.81
369.315	936.81
369.541	936.81
369.767	933.81
369.993	941.81
370.219	949.81
370.445	955.81
370.672	938.81
370.898	968.81
371.124	950.81
371.35	977.81
371.576	973.81
371.802	971.81
372.028	997.81
372.254	1019.81
372.48	999.81
372.706	1014.81
372.932	1033.81
373.158	1024.81
373.384	1026.81
373.61	1031.81
373.835	1011.81
374.061	997.81
374.287	976.81
374.513	1022.81
374.739	1028.81
374.965	1028.81
375.191	1045.81
375.416	1053.81
375.642	989.81
375.868	1024.81
376.094	1020.81
376.319	1004.81
376.545	1009.81
376.771	1005.81
376.997	984.81
377.222	1002.81
377.448	954.81
377.674	997.81
377.899	976.81
378.125	978.81
378.35	970.81
378.576	1003.81
378.802	991.81
379.027	1002.81
379.253	973.81
379.478	1002.81
379.704	970.81
379.929	973.81
380.155	999.81
380.38	977.81
380.606	992.81
380.831	985.81
381.057	966.81
381.282	999.81
381.507	1005.81
381.733	1024.81
381.958	1036.81
382.184	1053.81
382.409	1050.81
382.634	983.81
382.86	1044.81
383.085	1057.81
383.31	1027.81
383.535	1029.81
383.761	1047.81
383.986	1068.81
384.211	1100.81
384.436	1081.81
384.662	1073.81
384.887	1088.81
385.112	1080.81
385.337	1120.81
385.562	1111.81
385.787	1112.81
386.013	1115.81
386.238	1131.81
386.463	1123.81
386.688	1135.81
386.913	1141.81
387.138	1136.81
387.363	1151.81
387.588	1146.81
387.813	1133.81
388.038	1117.81
388.263	1130.81
388.488	1139.81
388.713	1155.81
388.938	1150.81
389.163	1143.81
389.387	1164.81
389.612	1137.81
389.837	1161.81
390.062	1155.81
390.287	1156.81
390.512	1138.81
390.736	1165.81
390.961	1152.81
391.186	1169.81
391.411	1181.81
391.636	1204.81
391.86	1199.81
392.085	1222.81
392.31	1215.81
392.534	1191.81
392.759	1212.81
392.984	1213.81
393.208	1209.81
393.433	1205.81
393.658	1197.81
393.882	1172.81
394.107	1203.81
394.331	1208.81
394.556	1178.81
394.78	1189.81
395.005	1223.81
395.229	1204.81
395.454	1235.81
395.678	1203.81
395.903	1233.81
396.127	1251.81
396.352	1222.81
396.576	1232.81
396.801	1249.81
397.025	1295.81
397.249	1253.81
397.474	1245.81
397.698	1271.81
397.922	1311.81
398.147	1314.81
398.371	1330.81
398.595	1347.81
398.82	1358.81
399.044	1397.81
399.268	1455.81
399.492	1464.81
399.717	1508.81
399.941	1591.81
400.165	1547.81
400.389	1496.81
400.613	1474.81
400.837	1443.81
401.062	1445.81
401.286	1419.81
401.51	1403.81
401.734	1372.81
401.958	1394.81
402.182	1365.81
402.406	1362.81
402.63	1354.81
402.854	1381.81
403.078	1356.81
403.302	1395.81
403.526	1391.81
403.75	1399.81
403.974	1393.81
404.198	1392.81
404.422	1422.81
404.645	1387.81
404.869	1387.81
405.093	1426.81
405.317	1413.81
405.541	1405.81
405.765	1424.81
405.988	1399.81
406.212	1473.81
406.436	1451.81
406.66	1516.81
406.883	1478.81
407.107	1536.81
407.331	1565.81
407.555	1559.81
407.778	1575.81
408.002	1583.81
408.226	1543.81
408.449	1543.81
408.673	1501.81
408.896	1515.81
409.12	1475.81
409.344	1509.81
409.567	1490.81
409.791	1452.81
410.014	1477.81
410.238	1468.81
410.461	1445.81
410.685	1440.81
410.908	1460.81
411.132	1424.81
411.355	1403.81
411.578	1419.81
411.802	1430.81
412.025	1431.81
412.249	1454.81
412.472	1435.81
412.695	1394.81
412.919	1398.81
413.142	1401.81
413.365	1415.81
413.589	1420.81
413.812	1360.81
414.035	1376.81
414.258	1385.81
414.482	1365.81
414.705	1364.81
414.928	1368.81
415.151	1347.81
415.374	1401.81
415.597	1370.81
415.821	1362.81
416.044	1321.81
416.267	1361.81
416.49	1338.81
416.713	1335.81
416.936	1355.81
417.159	1344.81
417.382	1312.81
417.605	1329.81
417.828	1326.81
418.051	1318.81
418.274	1340.81
418.497	1277.81
418.72	1303.81
418.943	1341.81
419.166	1407.81
419.389	1461.81
419.611	1475.81
419.834	1396.81
420.057	1357.81
420.28	1329.81
420.503	1316.81
420.726	1301.81
420.948	1291.81
421.171	1291.81
421.394	1323.81
421.617	1296.81
421.839	1314.81
422.062	1305.81
422.285	1260.81
422.507	1319.81
422.73	1309.81
422.953	1279.81
423.175	1330.81
423.398	1282.81
423.621	1307.81
423.843	1322.81
424.066	1321.81
424.288	1302.81
424.511	1331.81
424.733	1311.81
424.956	1299.81
425.178	1286.81
425.401	1303.81
425.623	1319.81
425.846	1322.81
426.068	1304.81
426.291	1317.81
426.513	1286.81
426.735	1266.81
426.958	1303.81
427.18	1288.81
427.402	1299.81
427.625	1268.81
427.847	1234.81
428.069	1271.81
428.292	1283.81
428.514	1293.81
428.736	1254.81
428.958	1307.81
429.181	1257.81
429.403	1272.81
429.625	1241.81
429.847	1241.81
430.069	1213.81
430.292	1253.81
430.514	1251.81
430.736	1283.81
430.958	1303.81
431.18	1256.81
431.402	1279.81
431.624	1237.81
431.846	1237.81
432.068	1253.81
432.29	1273.81
432.512	1257.81
432.734	1283.81
432.956	1266.81
433.178	1267.81
433.4	1249.81
433.622	1273.81
433.844	1282.81
434.066	1302.81
434.287	1292.81
434.509	1313.81
434.731	1312.81
434.953	1343.81
435.175	1331.81
435.397	1336.81
435.618	1272.81
435.84	1277.81
436.062	1234.81
436.284	1263.81
436.505	1247.81
436.727	1272.81
436.949	1218.81
437.17	1233.81
437.392	1223.81
437.614	1234.81
437.835	1227.81
438.057	1256.81
438.278	1246.81
438.5	1257.81
438.721	1242.81
438.943	1244.81
439.165	1211.81
439.386	1201.81
439.608	1249.81
439.829	1230.81
440.05	1237.81
440.272	1255.81
440.493	1239.81
440.715	1297.81
440.936	1319.81
441.158	1305.81
441.379	1274.81
441.6	1314.81
441.822	1263.81
442.043	1310.81
442.264	1306.81
442.486	1307.81
442.707	1293.81
442.928	1293.81
443.149	1292.81
443.371	1277.81
443.592	1282.81
443.813	1296.81
444.034	1309.81
444.255	1319.81
444.476	1323.81
444.698	1396.81
444.919	1363.81
445.14	1471.81
445.361	1400.81
445.582	1332.81
445.803	1271.81
446.024	1256.81
446.245	1256.81
446.466	1256.81
446.687	1239.81
446.908	1250.81
447.129	1213.81
447.35	1203.81
447.571	1217.81
447.792	1219.81
448.013	1204.81
448.234	1204.81
448.455	1185.81
448.675	1173.81
448.896	1164.81
449.117	1153.81
449.338	1148.81
449.559	1157.81
449.779	1149.81
450	1125.81
450.221	1149.81
450.442	1147.81
450.662	1170.81
450.883	1130.81
451.104	1139.81
451.324	1109.81
451.545	1141.81
451.766	1134.81
451.986	1101.81
452.207	1133.81
452.428	1133.81
452.648	1124.81
452.869	1112.81
453.089	1088.81
453.31	1110.81
453.53	1090.81
453.751	1104.81
453.971	1109.81
454.192	1098.81
454.412	1094.81
454.633	1087.81
454.853	1127.81
455.073	1097.81
455.294	1121.81
455.514	1097.81
455.734	1106.81
455.955	1069.81
456.175	1077.81
456.395	1105.81
456.616	1092.81
456.836	1111.81
457.056	1086.81
457.276	1094.81
457.497	1119.81
457.717	1111.81
457.937	1140.81
458.157	1128.81
458.377	1121.81
458.598	1160.81
458.818	1187.81
459.038	1170.81
459.258	1195.81
459.478	1224.81
459.698	1230.81
459.918	1235.81
460.138	1296.81
460.358	1292.81
460.578	1316.81
460.798	1321.81
461.018	1323.81
461.238	1314.81
461.458	1345.81
461.678	1341.81
461.898	1371.81
462.118	1371.81
462.338	1379.81
462.558	1413.81
462.777	1459.81
462.997	1453.81
463.217	1513.81
463.437	1501.81
463.657	1466.81
463.876	1459.81
464.096	1475.81
464.316	1427.81
464.536	1460.81
464.755	1402.81
464.975	1388.81
465.195	1380.81
465.414	1360.81
465.634	1334.81
465.854	1302.81
466.073	1261.81
466.293	1247.81
466.512	1253.81
466.732	1233.81
466.951	1236.81
467.171	1210.81
467.391	1239.81
467.61	1230.81
467.829	1224.81
468.049	1203.81
468.268	1219.81
468.488	1223.81
468.707	1249.81
468.927	1208.81
469.146	1222.81
469.365	1209.81
469.585	1177.81
469.804	1240.81
470.023	1232.81
470.243	1225.81
470.462	1225.81
470.681	1251.81
470.901	1190.81
471.12	1190.81
471.339	1237.81
471.558	1213.81
471.777	1247.81
471.997	1233.81
472.216	1227.81
472.435	1212.81
472.654	1201.81
472.873	1186.81
473.092	1228.81
473.311	1233.81
473.53	1223.81
473.749	1219.81
473.968	1243.81
474.187	1229.81
474.406	1195.81
474.625	1236.81
474.844	1235.81
475.063	1239.81
475.282	1260.81
475.501	1267.81
475.72	1223.81
475.939	1266.81
476.158	1283.81
476.377	1321.81
476.596	1354.81
476.814	1382.81
477.033	1288.81
477.252	1332.81
477.471	1351.81
477.69	1315.81
477.908	1393.81
478.127	1383.81
478.346	1385.81
478.564	1410.81
478.783	1421.81
479.002	1440.81
479.22	1479.81
479.439	1482.81
479.658	1456.81
479.876	1478.81
480.095	1452.81
480.313	1504.81
480.532	1506.81
480.751	1475.81
480.969	1509.81
481.188	1535.81
481.406	1512.81
481.624	1484.81
481.843	1460.81
482.061	1465.81
482.28	1465.81
482.498	1453.81
482.717	1480.81
482.935	1484.81
483.153	1509.81
483.372	1453.81
483.59	1484.81
483.808	1473.81
484.027	1478.81
484.245	1457.81
484.463	1505.81
484.681	1511.81
484.9	1489.81
485.118	1523.81
485.336	1507.81
485.554	1485.81
485.772	1530.81
485.99	1523.81
486.209	1499.81
486.427	1483.81
486.645	1495.81
486.863	1528.81
487.081	1531.81
487.299	1545.81
487.517	1533.81
487.735	1555.81
487.953	1547.81
488.171	1534.81
488.389	1553.81
488.607	1483.81
488.825	1517.81
489.043	1508.81
489.261	1536.81
489.479	1519.81
489.696	1523.81
489.914	1515.81
490.132	1526.81
490.35	1542.81
490.568	1565.81
490.786	1523.81
491.003	1531.81
491.221	1507.81
491.439	1544.81
491.657	1541.81
491.874	1561.81
492.092	1574.81
492.31	1567.81
492.527	1572.81
492.745	1568.81
492.963	1561.81
493.18	1591.81
493.398	1559.81
493.615	1591.81
493.833	1563.81
494.05	1547.81
494.268	1570.81
