Data from Fe(NO3)3@0.05M.TitratingCurve.Agarose3%dH2O.NegLispCup.LampEnergy10.LIBS07252019_HRD10591_16-46-08-334.txt Node
Date: Thu Jul 25 16:46:08 EDT 2019
User: cochatt
Spectrometer: HR+D1059
Trigger mode: 1
Integration Time (sec): 1.000000E-1
Scans to average: 1
Electric dark correction enabled: true
Nonlinearity correction enabled: false
Boxcar width: 0
XAxis mode: Wavelengths
Number of Pixels in Spectrum: 2048
>>>>>Begin Spectral Data<<<<<
223.165	-18.5
223.4	-18.5
223.635	-18.5
223.869	-25.5
224.104	-2.5
224.338	-34.5
224.573	-20.5
224.808	-11.5
225.042	-13.5
225.277	-4.5
225.511	0.5
225.746	4.5
225.98	-0.5
226.215	18.5
226.449	20.5
226.683	17.5
226.918	28.5
227.152	41.5
227.387	36.5
227.621	23.5
227.856	50.5
228.09	51.5
228.324	50.5
228.559	56.5
228.793	79.5
229.027	135.5
229.262	144.5
229.496	154.5
229.73	153.5
229.964	159.5
230.199	158.5
230.433	151.5
230.667	184.5
230.901	169.5
231.136	151.5
231.37	180.5
231.604	170.5
231.838	182.5
232.072	185.5
232.306	178.5
232.541	174.5
232.775	196.5
233.009	210.5
233.243	196.5
233.477	215.5
233.711	207.5
233.945	212.5
234.179	223.5
234.413	224.5
234.647	219.5
234.881	241.5
235.115	229.5
235.349	239.5
235.583	223.5
235.817	223.5
236.051	227.5
236.285	234.5
236.519	245.5
236.753	249.5
236.987	227.5
237.221	236.5
237.455	239.5
237.689	264.5
237.922	269.5
238.156	254.5
238.39	277.5
238.624	305.5
238.858	284.5
239.091	273.5
239.325	272.5
239.559	271.5
239.793	278.5
240.027	301.5
240.26	296.5
240.494	282.5
240.728	297.5
240.961	340.5
241.195	309.5
241.429	317.5
241.662	312.5
241.896	297.5
242.13	289.5
242.363	285.5
242.597	285.5
242.83	298.5
243.064	309.5
243.298	306.5
243.531	334.5
243.765	331.5
243.998	323.5
244.232	320.5
244.465	330.5
244.699	325.5
244.932	349.5
245.166	334.5
245.399	319.5
245.633	339.5
245.866	320.5
246.099	323.5
246.333	358.5
246.566	355.5
246.8	333.5
247.033	365.5
247.266	329.5
247.5	356.5
247.733	352.5
247.966	363.5
248.2	354.5
248.433	386.5
248.666	397.5
248.899	401.5
249.133	423.5
249.366	422.5
249.599	450.5
249.832	437.5
250.066	392.5
250.299	397.5
250.532	401.5
250.765	377.5
250.998	397.5
251.231	410.5
251.465	400.5
251.698	417.5
251.931	408.5
252.164	422.5
252.397	422.5
252.63	446.5
252.863	459.5
253.096	462.5
253.329	456.5
253.562	477.5
253.795	464.5
254.028	489.5
254.261	488.5
254.494	484.5
254.727	474.5
254.96	479.5
255.193	478.5
255.426	461.5
255.659	452.5
255.892	448.5
256.124	461.5
256.357	484.5
256.59	492.5
256.823	493.5
257.056	477.5
257.289	466.5
257.521	504.5
257.754	480.5
257.987	466.5
258.22	458.5
258.452	505.5
258.685	496.5
258.918	526.5
259.151	514.5
259.383	516.5
259.616	517.5
259.849	554.5
260.081	637.5
260.314	684.5
260.547	555.5
260.779	526.5
261.012	595.5
261.244	592.5
261.477	599.5
261.71	593.5
261.942	530.5
262.175	525.5
262.407	551.5
262.64	561.5
262.872	583.5
263.105	619.5
263.337	636.5
263.57	610.5
263.802	560.5
264.035	531.5
264.267	514.5
264.499	530.5
264.732	523.5
264.964	530.5
265.197	537.5
265.429	548.5
265.661	502.5
265.894	518.5
266.126	565.5
266.358	555.5
266.591	560.5
266.823	583.5
267.055	589.5
267.287	564.5
267.52	575.5
267.752	574.5
267.984	574.5
268.216	582.5
268.448	574.5
268.681	568.5
268.913	595.5
269.145	593.5
269.377	587.5
269.609	617.5
269.841	594.5
270.073	598.5
270.306	584.5
270.538	606.5
270.77	619.5
271.002	607.5
271.234	604.5
271.466	623.5
271.698	624.5
271.93	636.5
272.162	655.5
272.394	654.5
272.626	640.5
272.858	676.5
273.09	662.5
273.322	658.5
273.553	667.5
273.785	702.5
274.017	712.5
274.249	807.5
274.481	786.5
274.713	820.5
274.945	862.5
275.176	901.5
275.408	843.5
275.64	807.5
275.872	817.5
276.104	760.5
276.335	699.5
276.567	714.5
276.799	720.5
277.031	718.5
277.262	706.5
277.494	730.5
277.726	678.5
277.957	708.5
278.189	699.5
278.421	677.5
278.652	697.5
278.884	711.5
279.115	692.5
279.347	710.5
279.579	718.5
279.81	702.5
280.042	701.5
280.273	718.5
280.505	698.5
280.736	725.5
280.968	730.5
281.199	727.5
281.431	743.5
281.662	724.5
281.894	736.5
282.125	736.5
282.356	732.5
282.588	717.5
282.819	734.5
283.051	737.5
283.282	738.5
283.513	745.5
283.745	761.5
283.976	777.5
284.207	761.5
284.439	782.5
284.67	765.5
284.901	764.5
285.132	776.5
285.364	774.5
285.595	764.5
285.826	784.5
286.057	794.5
286.288	802.5
286.52	779.5
286.751	766.5
286.982	767.5
287.213	771.5
287.444	808.5
287.675	775.5
287.906	786.5
288.138	801.5
288.369	826.5
288.6	818.5
288.831	807.5
289.062	793.5
289.293	792.5
289.524	790.5
289.755	795.5
289.986	804.5
290.217	834.5
290.448	811.5
290.679	802.5
290.91	778.5
291.141	790.5
291.371	787.5
291.602	823.5
291.833	809.5
292.064	798.5
292.295	820.5
292.526	802.5
292.757	784.5
292.987	810.5
293.218	801.5
293.449	830.5
293.68	802.5
293.91	816.5
294.141	811.5
294.372	834.5
294.603	820.5
294.833	858.5
295.064	834.5
295.295	844.5
295.525	823.5
295.756	866.5
295.987	841.5
296.217	841.5
296.448	839.5
296.679	857.5
296.909	828.5
297.14	861.5
297.37	879.5
297.601	882.5
297.831	878.5
298.062	850.5
298.292	865.5
298.523	895.5
298.753	904.5
298.984	904.5
299.214	894.5
299.445	893.5
299.675	887.5
299.905	917.5
300.136	886.5
300.366	883.5
300.597	872.5
300.827	916.5
301.057	911.5
301.288	912.5
301.518	892.5
301.748	922.5
301.979	932.5
302.209	952.5
302.439	956.5
302.669	947.5
302.9	918.5
303.13	932.5
303.36	921.5
303.59	940.5
303.82	967.5
304.051	951.5
304.281	958.5
304.511	929.5
304.741	893.5
304.971	947.5
305.201	953.5
305.431	939.5
305.661	942.5
305.891	943.5
306.121	935.5
306.352	940.5
306.582	954.5
306.812	898.5
307.042	913.5
307.272	921.5
307.502	930.5
307.731	939.5
307.961	963.5
308.191	945.5
308.421	956.5
308.651	930.5
308.881	946.5
309.111	951.5
309.341	942.5
309.571	950.5
309.8	954.5
310.03	954.5
310.26	928.5
310.49	978.5
310.72	972.5
310.949	931.5
311.179	985.5
311.409	981.5
311.639	971.5
311.868	956.5
312.098	957.5
312.328	972.5
312.557	994.5
312.787	1026.5
313.017	1016.5
313.246	998.5
313.476	989.5
313.706	1015.5
313.935	1046.5
314.165	1014.5
314.394	1010.5
314.624	1013.5
314.853	992.5
315.083	1042.5
315.312	1026.5
315.542	1036.5
315.771	1012.5
316.001	1040.5
316.23	1008.5
316.46	1037.5
316.689	1061.5
316.919	1033.5
317.148	1019.5
317.377	1057.5
317.607	1061.5
317.836	1030.5
318.065	1050.5
318.295	1016.5
318.524	1033.5
318.753	1039.5
318.983	1032.5
319.212	1040.5
319.441	1029.5
319.67	1054.5
319.9	1048.5
320.129	1032.5
320.358	1057.5
320.587	1028.5
320.816	1034.5
321.046	1024.5
321.275	1063.5
321.504	1066.5
321.733	1072.5
321.962	1085.5
322.191	1047.5
322.42	1060.5
322.649	1061.5
322.878	1090.5
323.108	1066.5
323.337	1079.5
323.566	1077.5
323.795	1076.5
324.024	1098.5
324.253	1082.5
324.482	1084.5
324.71	1090.5
324.939	1088.5
325.168	1090.5
325.397	1057.5
325.626	1097.5
325.855	1092.5
326.084	1132.5
326.313	1106.5
326.542	1116.5
326.77	1165.5
326.999	1114.5
327.228	1086.5
327.457	1145.5
327.686	1136.5
327.914	1114.5
328.143	1137.5
328.372	1137.5
328.6	1112.5
328.829	1167.5
329.058	1116.5
329.287	1130.5
329.515	1132.5
329.744	1121.5
329.972	1165.5
330.201	1170.5
330.43	1160.5
330.658	1149.5
330.887	1156.5
331.115	1121.5
331.344	1186.5
331.572	1151.5
331.801	1172.5
332.03	1195.5
332.258	1197.5
332.486	1201.5
332.715	1217.5
332.943	1244.5
333.172	1196.5
333.4	1220.5
333.629	1241.5
333.857	1285.5
334.085	1302.5
334.314	1281.5
334.542	1304.5
334.771	1295.5
334.999	1290.5
335.227	1307.5
335.455	1258.5
335.684	1334.5
335.912	1318.5
336.14	1330.5
336.369	1277.5
336.597	1270.5
336.825	1290.5
337.053	1315.5
337.281	1278.5
337.51	1310.5
337.738	1293.5
337.966	1242.5
338.194	1274.5
338.422	1266.5
338.65	1242.5
338.878	1233.5
339.106	1256.5
339.334	1268.5
339.562	1236.5
339.79	1216.5
340.018	1213.5
340.246	1225.5
340.474	1222.5
340.702	1196.5
340.93	1222.5
341.158	1224.5
341.386	1236.5
341.614	1217.5
341.842	1229.5
342.07	1228.5
342.298	1210.5
342.526	1211.5
342.754	1187.5
342.981	1202.5
343.209	1217.5
343.437	1250.5
343.665	1264.5
343.893	1293.5
344.12	1306.5
344.348	1317.5
344.576	1261.5
344.804	1268.5
345.031	1258.5
345.259	1229.5
345.487	1232.5
345.714	1237.5
345.942	1198.5
346.17	1176.5
346.397	1213.5
346.625	1194.5
346.853	1180.5
347.08	1182.5
347.308	1157.5
347.535	1181.5
347.763	1167.5
347.99	1160.5
348.218	1191.5
348.445	1179.5
348.673	1169.5
348.9	1160.5
349.128	1178.5
349.355	1143.5
349.583	1166.5
349.81	1182.5
350.037	1152.5
350.265	1132.5
350.492	1138.5
350.72	1152.5
350.947	1163.5
351.174	1178.5
351.402	1156.5
351.629	1130.5
351.856	1146.5
352.083	1116.5
352.311	1127.5
352.538	1146.5
352.765	1150.5
352.992	1153.5
353.22	1149.5
353.447	1154.5
353.674	1134.5
353.901	1154.5
354.128	1158.5
354.355	1137.5
354.583	1131.5
354.81	1114.5
355.037	1156.5
355.264	1141.5
355.491	1175.5
355.718	1136.5
355.945	1147.5
356.172	1157.5
356.399	1152.5
356.626	1170.5
356.853	1209.5
357.08	1189.5
357.307	1172.5
357.534	1142.5
357.761	1178.5
357.988	1162.5
358.215	1197.5
358.441	1208.5
358.668	1176.5
358.895	1164.5
359.122	1158.5
359.349	1147.5
359.576	1156.5
359.802	1187.5
360.029	1187.5
360.256	1153.5
360.483	1193.5
360.709	1147.5
360.936	1200.5
361.163	1210.5
361.39	1186.5
361.616	1163.5
361.843	1178.5
362.07	1184.5
362.296	1208.5
362.523	1187.5
362.749	1180.5
362.976	1179.5
363.203	1208.5
363.429	1220.5
363.656	1176.5
363.882	1185.5
364.109	1164.5
364.335	1176.5
364.562	1195.5
364.788	1191.5
365.015	1217.5
365.241	1208.5
365.468	1212.5
365.694	1207.5
365.92	1212.5
366.147	1181.5
366.373	1190.5
366.599	1214.5
366.826	1184.5
367.052	1200.5
367.278	1200.5
367.505	1202.5
367.731	1229.5
367.957	1198.5
368.184	1211.5
368.41	1225.5
368.636	1219.5
368.862	1248.5
369.089	1248.5
369.315	1230.5
369.541	1215.5
369.767	1242.5
369.993	1246.5
370.219	1234.5
370.445	1247.5
370.672	1272.5
370.898	1262.5
371.124	1265.5
371.35	1279.5
371.576	1310.5
371.802	1288.5
372.028	1296.5
372.254	1349.5
372.48	1319.5
372.706	1280.5
372.932	1319.5
373.158	1355.5
373.384	1333.5
373.61	1354.5
373.835	1356.5
374.061	1304.5
374.287	1338.5
374.513	1359.5
374.739	1392.5
374.965	1399.5
375.191	1406.5
375.416	1374.5
375.642	1328.5
375.868	1370.5
376.094	1311.5
376.319	1329.5
376.545	1285.5
376.771	1322.5
376.997	1308.5
377.222	1269.5
377.448	1286.5
377.674	1296.5
377.899	1268.5
378.125	1266.5
378.35	1264.5
378.576	1297.5
378.802	1308.5
379.027	1303.5
379.253	1286.5
379.478	1276.5
379.704	1273.5
379.929	1290.5
380.155	1298.5
380.38	1344.5
380.606	1303.5
380.831	1279.5
381.057	1294.5
381.282	1274.5
381.507	1333.5
381.733	1393.5
381.958	1360.5
382.184	1384.5
382.409	1388.5
382.634	1355.5
382.86	1389.5
383.085	1380.5
383.31	1359.5
383.535	1347.5
383.761	1354.5
383.986	1398.5
384.211	1448.5
384.436	1423.5
384.662	1414.5
384.887	1432.5
385.112	1421.5
385.337	1425.5
385.562	1445.5
385.787	1436.5
386.013	1462.5
386.238	1461.5
386.463	1447.5
386.688	1506.5
386.913	1505.5
387.138	1521.5
387.363	1491.5
387.588	1481.5
387.813	1498.5
388.038	1514.5
388.263	1516.5
388.488	1483.5
388.713	1523.5
388.938	1543.5
389.163	1514.5
389.387	1521.5
389.612	1511.5
389.837	1572.5
390.062	1533.5
390.287	1551.5
390.512	1538.5
390.736	1496.5
390.961	1519.5
391.186	1516.5
391.411	1557.5
391.636	1595.5
391.86	1611.5
392.085	1576.5
392.31	1560.5
392.534	1572.5
392.759	1584.5
392.984	1588.5
393.208	1607.5
393.433	1595.5
393.658	1598.5
393.882	1546.5
394.107	1522.5
394.331	1597.5
394.556	1578.5
394.78	1568.5
395.005	1611.5
395.229	1563.5
395.454	1607.5
395.678	1612.5
395.903	1642.5
396.127	1645.5
396.352	1612.5
396.576	1584.5
396.801	1624.5
397.025	1665.5
397.249	1677.5
397.474	1681.5
397.698	1682.5
397.922	1678.5
398.147	1705.5
398.371	1717.5
398.595	1732.5
398.82	1752.5
399.044	1814.5
399.268	1896.5
399.492	1944.5
399.717	1997.5
399.941	2070.5
400.165	2028.5
400.389	2031.5
400.613	2006.5
400.837	1900.5
401.062	1887.5
401.286	1856.5
401.51	1816.5
401.734	1808.5
401.958	1803.5
402.182	1801.5
402.406	1766.5
402.63	1769.5
402.854	1812.5
403.078	1801.5
403.302	1790.5
403.526	1815.5
403.75	1810.5
403.974	1830.5
404.198	1813.5
404.422	1834.5
404.645	1869.5
404.869	1818.5
405.093	1861.5
405.317	1833.5
405.541	1883.5
405.765	1879.5
405.988	1877.5
406.212	1916.5
406.436	1929.5
406.66	1937.5
406.883	1882.5
407.107	2007.5
407.331	1996.5
407.555	2078.5
407.778	2048.5
408.002	2074.5
408.226	2083.5
408.449	2064.5
408.673	1989.5
408.896	1957.5
409.12	1944.5
409.344	2012.5
409.567	1901.5
409.791	1964.5
410.014	1955.5
410.238	1915.5
410.461	1932.5
410.685	1926.5
410.908	1902.5
411.132	1930.5
411.355	1849.5
411.578	1882.5
411.802	1885.5
412.025	1850.5
412.249	1852.5
412.472	1923.5
412.695	1854.5
412.919	1829.5
413.142	1809.5
413.365	1874.5
413.589	1860.5
413.812	1858.5
414.035	1818.5
414.258	1853.5
414.482	1838.5
414.705	1853.5
414.928	1844.5
415.151	1792.5
415.374	1794.5
415.597	1812.5
415.821	1756.5
416.044	1736.5
416.267	1761.5
416.49	1765.5
416.713	1781.5
416.936	1744.5
417.159	1761.5
417.382	1756.5
417.605	1743.5
417.828	1745.5
418.051	1739.5
418.274	1780.5
418.497	1740.5
418.72	1736.5
418.943	1746.5
419.166	1799.5
419.389	1942.5
419.611	1890.5
419.834	1814.5
420.057	1812.5
420.28	1758.5
420.503	1690.5
420.726	1675.5
420.948	1686.5
421.171	1716.5
421.394	1720.5
421.617	1733.5
421.839	1699.5
422.062	1707.5
422.285	1709.5
422.507	1728.5
422.73	1699.5
422.953	1729.5
423.175	1705.5
423.398	1720.5
423.621	1729.5
423.843	1757.5
424.066	1713.5
424.288	1734.5
424.511	1746.5
424.733	1721.5
424.956	1699.5
425.178	1725.5
425.401	1732.5
425.623	1693.5
425.846	1653.5
426.068	1709.5
426.291	1720.5
426.513	1715.5
426.735	1707.5
426.958	1690.5
427.18	1663.5
427.402	1694.5
427.625	1678.5
427.847	1647.5
428.069	1656.5
428.292	1676.5
428.514	1648.5
428.736	1696.5
428.958	1693.5
429.181	1627.5
429.403	1634.5
429.625	1648.5
429.847	1633.5
430.069	1706.5
430.292	1672.5
430.514	1667.5
430.736	1697.5
430.958	1727.5
431.18	1648.5
431.402	1642.5
431.624	1639.5
431.846	1620.5
432.068	1675.5
432.29	1672.5
432.512	1650.5
432.734	1685.5
432.956	1698.5
433.178	1701.5
433.4	1698.5
433.622	1669.5
433.844	1687.5
434.066	1692.5
434.287	1667.5
434.509	1690.5
434.731	1701.5
434.953	1728.5
435.175	1718.5
435.397	1747.5
435.618	1753.5
435.84	1708.5
436.062	1662.5
436.284	1648.5
436.505	1654.5
436.727	1643.5
436.949	1667.5
437.17	1632.5
437.392	1621.5
437.614	1644.5
437.835	1593.5
438.057	1656.5
438.278	1600.5
438.5	1641.5
438.721	1674.5
438.943	1609.5
439.165	1622.5
439.386	1609.5
439.608	1661.5
439.829	1661.5
440.05	1648.5
440.272	1622.5
440.493	1623.5
440.715	1668.5
440.936	1684.5
441.158	1657.5
441.379	1634.5
441.6	1705.5
441.822	1696.5
442.043	1690.5
442.264	1700.5
442.486	1706.5
442.707	1738.5
442.928	1687.5
443.149	1717.5
443.371	1678.5
443.592	1712.5
443.813	1715.5
444.034	1691.5
444.255	1753.5
444.476	1749.5
444.698	1745.5
444.919	1810.5
445.14	1897.5
445.361	1801.5
445.582	1736.5
445.803	1705.5
446.024	1700.5
446.245	1724.5
446.466	1682.5
446.687	1666.5
446.908	1670.5
447.129	1642.5
447.35	1588.5
447.571	1630.5
447.792	1536.5
448.013	1543.5
448.234	1536.5
448.455	1542.5
448.675	1531.5
448.896	1572.5
449.117	1511.5
449.338	1524.5
449.559	1510.5
449.779	1513.5
450	1514.5
450.221	1507.5
450.442	1540.5
450.662	1506.5
450.883	1503.5
451.104	1491.5
451.324	1475.5
451.545	1515.5
451.766	1501.5
451.986	1527.5
452.207	1484.5
452.428	1510.5
452.648	1478.5
452.869	1454.5
453.089	1460.5
453.31	1464.5
453.53	1432.5
453.751	1445.5
453.971	1468.5
454.192	1445.5
454.412	1453.5
454.633	1448.5
454.853	1449.5
455.073	1441.5
455.294	1467.5
455.514	1497.5
455.734	1436.5
455.955	1423.5
456.175	1450.5
456.395	1468.5
456.616	1461.5
456.836	1439.5
457.056	1482.5
457.276	1468.5
457.497	1477.5
457.717	1505.5
457.937	1470.5
458.157	1532.5
458.377	1525.5
458.598	1530.5
458.818	1572.5
459.038	1530.5
459.258	1606.5
459.478	1648.5
459.698	1641.5
459.918	1693.5
460.138	1676.5
460.358	1708.5
460.578	1696.5
460.798	1746.5
461.018	1769.5
461.238	1765.5
461.458	1742.5
461.678	1750.5
461.898	1774.5
462.118	1802.5
462.338	1828.5
462.558	1875.5
462.777	1899.5
462.997	1898.5
463.217	1911.5
463.437	1968.5
463.657	1911.5
463.876	1949.5
464.096	1977.5
464.316	1899.5
464.536	1891.5
464.755	1864.5
464.975	1830.5
465.195	1781.5
465.414	1773.5
465.634	1737.5
465.854	1742.5
466.073	1726.5
466.293	1671.5
466.512	1623.5
466.732	1639.5
466.951	1665.5
467.171	1621.5
467.391	1618.5
467.61	1586.5
467.829	1580.5
468.049	1619.5
468.268	1605.5
468.488	1597.5
468.707	1569.5
468.927	1648.5
469.146	1651.5
469.365	1625.5
469.585	1592.5
469.804	1596.5
470.023	1658.5
470.243	1601.5
470.462	1594.5
470.681	1626.5
470.901	1615.5
471.12	1578.5
471.339	1614.5
471.558	1670.5
471.777	1610.5
471.997	1568.5
472.216	1636.5
472.435	1650.5
472.654	1590.5
472.873	1618.5
473.092	1627.5
473.311	1643.5
473.53	1601.5
473.749	1593.5
473.968	1607.5
474.187	1594.5
474.406	1600.5
474.625	1622.5
474.844	1625.5
475.063	1672.5
475.282	1660.5
475.501	1650.5
475.72	1673.5
475.939	1661.5
476.158	1727.5
476.377	1712.5
476.596	1804.5
476.814	1828.5
477.033	1723.5
477.252	1733.5
477.471	1795.5
477.69	1772.5
477.908	1829.5
478.127	1811.5
478.346	1833.5
478.564	1875.5
478.783	1909.5
479.002	1861.5
479.22	1956.5
479.439	2013.5
479.658	1949.5
479.876	1918.5
480.095	1953.5
480.313	1972.5
480.532	1914.5
480.751	1935.5
480.969	1959.5
481.188	1975.5
481.406	1974.5
481.624	1964.5
481.843	1971.5
482.061	1922.5
482.28	1944.5
482.498	1918.5
482.717	1907.5
482.935	1913.5
483.153	1949.5
483.372	1944.5
483.59	1909.5
483.808	1915.5
484.027	1934.5
484.245	1976.5
484.463	1967.5
484.681	1973.5
484.9	1969.5
485.118	2001.5
485.336	1954.5
485.554	1958.5
485.772	2002.5
485.99	1998.5
486.209	2001.5
486.427	1966.5
486.645	1962.5
486.863	2018.5
487.081	2002.5
487.299	2063.5
487.517	2028.5
487.735	2012.5
487.953	2023.5
488.171	2013.5
488.389	2010.5
488.607	1987.5
488.825	1997.5
489.043	1961.5
489.261	1944.5
489.479	1952.5
489.696	1975.5
489.914	1970.5
490.132	1992.5
490.35	2008.5
490.568	1968.5
490.786	1982.5
491.003	2024.5
491.221	1986.5
491.439	2037.5
491.657	2016.5
491.874	2072.5
492.092	2054.5
492.31	2050.5
492.527	2052.5
492.745	2022.5
492.963	2054.5
493.18	2034.5
493.398	2049.5
493.615	2070.5
493.833	2079.5
494.05	2079.5
494.268	2109.5
494.485	2068.5
494.703	2080.5
494.92	2086.5
495.138	2102.5
495.355	2064.5
495.573	2099.5
495.79	2118.5
496.008	2140.5
496.225	2164.5
496.442	2158.5
496.66	2169.5
496.877	2190.5
497.094	2245.5
497.312	2234.5
497.529	2269.5
497.746	2291.5
497.963	2359.5
498.181	2431.5
498.398	2519.5
498.615	2566.5
498.832	2634.5
499.049	2696.5
499.267	2730.5
499.484	2848.5
499.701	2955.5
499.918	3069.5
500.135	3173.5
500.352	3261.5
500.569	3341.5
500.786	3301.5
501.003	3300.5
501.22	3204.5
501.437	3090.5
501.654	2953.5
501.871	2857.5
502.088	2774.5
502.305	2650.5
502.522	2575.5
502.739	2586.5
502.956	2464.5
503.172	2394.5
503.389	2392.5
503.606	2277.5
503.823	2272.5
504.04	2231.5
504.256	2213.5
504.473	2210.5
504.69	2155.5
504.907	2124.5
505.123	2115.5
505.34	2112.5
505.557	2037.5
505.773	2003.5
505.99	1963.5
506.207	1954.5
506.423	1906.5
506.64	1917.5
506.856	1873.5
