Data from Fe(NO3)3@0.05M.TitratingCurve.Agarose3%dH2O.NegLispCup.LampEnergy10.LIBS07252019_HRD10591_16-46-51-334.txt Node
Date: Thu Jul 25 16:46:51 EDT 2019
User: cochatt
Spectrometer: HR+D1059
Trigger mode: 1
Integration Time (sec): 1.000000E-1
Scans to average: 1
Electric dark correction enabled: true
Nonlinearity correction enabled: false
Boxcar width: 0
XAxis mode: Wavelengths
Number of Pixels in Spectrum: 2048
>>>>>Begin Spectral Data<<<<<
223.165	-18.06
223.4	-18.06
223.635	-18.06
223.869	-17.06
224.104	-13.06
224.338	-14.06
224.573	-19.06
224.808	-20.06
225.042	-5.06
225.277	-4.06
225.511	-18.06
225.746	13.94
225.98	22.94
226.215	11.94
226.449	12.94
226.683	17.94
226.918	18.94
227.152	29.94
227.387	40.94
227.621	33.94
227.856	33.94
228.09	57.94
228.324	46.94
228.559	59.94
228.793	68.94
229.027	105.94
229.262	101.94
229.496	121.94
229.73	140.94
229.964	127.94
230.199	145.94
230.433	142.94
230.667	159.94
230.901	141.94
231.136	158.94
231.37	147.94
231.604	154.94
231.838	150.94
232.072	160.94
232.306	169.94
232.541	166.94
232.775	162.94
233.009	164.94
233.243	168.94
233.477	178.94
233.711	163.94
233.945	166.94
234.179	172.94
234.413	169.94
234.647	171.94
234.881	191.94
235.115	199.94
235.349	180.94
235.583	178.94
235.817	191.94
236.051	188.94
236.285	183.94
236.519	197.94
236.753	200.94
236.987	178.94
237.221	193.94
237.455	186.94
237.689	188.94
237.922	197.94
238.156	206.94
238.39	215.94
238.624	232.94
238.858	240.94
239.091	213.94
239.325	214.94
239.559	225.94
239.793	212.94
240.027	243.94
240.26	212.94
240.494	248.94
240.728	238.94
240.961	257.94
241.195	251.94
241.429	235.94
241.662	259.94
241.896	240.94
242.13	225.94
242.363	223.94
242.597	239.94
242.83	257.94
243.064	261.94
243.298	258.94
243.531	255.94
243.765	271.94
243.998	265.94
244.232	257.94
244.465	253.94
244.699	254.94
244.932	267.94
245.166	267.94
245.399	259.94
245.633	253.94
245.866	270.94
246.099	271.94
246.333	276.94
246.566	299.94
246.8	275.94
247.033	285.94
247.266	274.94
247.5	276.94
247.733	291.94
247.966	309.94
248.2	292.94
248.433	296.94
248.666	299.94
248.899	301.94
249.133	312.94
249.366	325.94
249.599	339.94
249.832	312.94
250.066	310.94
250.299	308.94
250.532	319.94
250.765	322.94
250.998	312.94
251.231	317.94
251.465	312.94
251.698	313.94
251.931	348.94
252.164	326.94
252.397	343.94
252.63	345.94
252.863	347.94
253.096	350.94
253.329	359.94
253.562	367.94
253.795	355.94
254.028	373.94
254.261	375.94
254.494	382.94
254.727	374.94
254.96	366.94
255.193	369.94
255.426	387.94
255.659	358.94
255.892	359.94
256.124	354.94
256.357	392.94
256.59	389.94
256.823	374.94
257.056	381.94
257.289	363.94
257.521	358.94
257.754	373.94
257.987	389.94
258.22	367.94
258.452	400.94
258.685	404.94
258.918	397.94
259.151	399.94
259.383	416.94
259.616	413.94
259.849	423.94
260.081	496.94
260.314	530.94
260.547	436.94
260.779	428.94
261.012	410.94
261.244	447.94
261.477	453.94
261.71	436.94
261.942	429.94
262.175	440.94
262.407	421.94
262.64	431.94
262.872	443.94
263.105	469.94
263.337	451.94
263.57	480.94
263.802	421.94
264.035	417.94
264.267	437.94
264.499	403.94
264.732	432.94
264.964	413.94
265.197	412.94
265.429	431.94
265.661	423.94
265.894	441.94
266.126	436.94
266.358	419.94
266.591	453.94
266.823	460.94
267.055	448.94
267.287	450.94
267.52	449.94
267.752	443.94
267.984	447.94
268.216	447.94
268.448	474.94
268.681	468.94
268.913	465.94
269.145	473.94
269.377	505.94
269.609	455.94
269.841	460.94
270.073	466.94
270.306	478.94
270.538	482.94
270.77	499.94
271.002	468.94
271.234	480.94
271.466	520.94
271.698	508.94
271.93	492.94
272.162	507.94
272.394	517.94
272.626	505.94
272.858	492.94
273.09	527.94
273.322	540.94
273.553	517.94
273.785	503.94
274.017	569.94
274.249	586.94
274.481	597.94
274.713	624.94
274.945	673.94
275.176	664.94
275.408	627.94
275.64	614.94
275.872	611.94
276.104	588.94
276.335	550.94
276.567	537.94
276.799	560.94
277.031	584.94
277.262	557.94
277.494	545.94
277.726	549.94
277.957	578.94
278.189	561.94
278.421	559.94
278.652	554.94
278.884	571.94
279.115	571.94
279.347	576.94
279.579	571.94
279.81	573.94
280.042	551.94
280.273	584.94
280.505	571.94
280.736	565.94
280.968	572.94
281.199	568.94
281.431	562.94
281.662	582.94
281.894	578.94
282.125	576.94
282.356	583.94
282.588	596.94
282.819	595.94
283.051	596.94
283.282	605.94
283.513	615.94
283.745	572.94
283.976	593.94
284.207	605.94
284.439	638.94
284.67	604.94
284.901	621.94
285.132	633.94
285.364	610.94
285.595	613.94
285.826	614.94
286.057	614.94
286.288	629.94
286.52	619.94
286.751	639.94
286.982	621.94
287.213	656.94
287.444	644.94
287.675	631.94
287.906	623.94
288.138	649.94
288.369	650.94
288.6	633.94
288.831	616.94
289.062	658.94
289.293	628.94
289.524	640.94
289.755	640.94
289.986	664.94
290.217	651.94
290.448	660.94
290.679	667.94
290.91	656.94
291.141	631.94
291.371	649.94
291.602	631.94
291.833	656.94
292.064	649.94
292.295	653.94
292.526	687.94
292.757	643.94
292.987	646.94
293.218	655.94
293.449	657.94
293.68	660.94
293.91	645.94
294.141	668.94
294.372	666.94
294.603	670.94
294.833	648.94
295.064	675.94
295.295	672.94
295.525	663.94
295.756	669.94
295.987	662.94
296.217	685.94
296.448	678.94
296.679	675.94
296.909	667.94
297.14	694.94
297.37	710.94
297.601	689.94
297.831	693.94
298.062	699.94
298.292	682.94
298.523	733.94
298.753	724.94
298.984	706.94
299.214	695.94
299.445	716.94
299.675	716.94
299.905	719.94
300.136	714.94
300.366	726.94
300.597	718.94
300.827	719.94
301.057	727.94
301.288	743.94
301.518	731.94
301.748	756.94
301.979	747.94
302.209	750.94
302.439	739.94
302.669	768.94
302.9	761.94
303.13	724.94
303.36	743.94
303.59	731.94
303.82	756.94
304.051	780.94
304.281	761.94
304.511	720.94
304.741	766.94
304.971	780.94
305.201	742.94
305.431	737.94
305.661	755.94
305.891	737.94
306.121	751.94
306.352	777.94
306.582	769.94
306.812	768.94
307.042	767.94
307.272	760.94
307.502	740.94
307.731	746.94
307.961	767.94
308.191	728.94
308.421	758.94
308.651	771.94
308.881	767.94
309.111	775.94
309.341	736.94
309.571	765.94
309.8	780.94
310.03	764.94
310.26	780.94
310.49	751.94
310.72	764.94
310.949	770.94
311.179	747.94
311.409	757.94
311.639	764.94
311.868	783.94
312.098	797.94
312.328	786.94
312.557	783.94
312.787	783.94
313.017	791.94
313.246	833.94
313.476	795.94
313.706	792.94
313.935	800.94
314.165	819.94
314.394	813.94
314.624	820.94
314.853	831.94
315.083	819.94
315.312	852.94
315.542	840.94
315.771	832.94
316.001	806.94
316.23	834.94
316.46	799.94
316.689	820.94
316.919	818.94
317.148	845.94
317.377	820.94
317.607	824.94
317.836	835.94
318.065	841.94
318.295	817.94
318.524	829.94
318.753	824.94
318.983	831.94
319.212	835.94
319.441	845.94
319.67	852.94
319.9	835.94
320.129	825.94
320.358	819.94
320.587	836.94
320.816	831.94
321.046	841.94
321.275	861.94
321.504	823.94
321.733	848.94
321.962	850.94
322.191	856.94
322.42	852.94
322.649	859.94
322.878	847.94
323.108	844.94
323.337	857.94
323.566	884.94
323.795	881.94
324.024	863.94
324.253	881.94
324.482	881.94
324.71	892.94
324.939	887.94
325.168	896.94
325.397	891.94
325.626	872.94
325.855	881.94
326.084	902.94
326.313	901.94
326.542	880.94
326.77	912.94
326.999	866.94
327.228	915.94
327.457	885.94
327.686	885.94
327.914	921.94
328.143	876.94
328.372	902.94
328.6	901.94
328.829	902.94
329.058	903.94
329.287	899.94
329.515	923.94
329.744	893.94
329.972	909.94
330.201	897.94
330.43	918.94
330.658	928.94
330.887	954.94
331.115	947.94
331.344	945.94
331.572	949.94
331.801	942.94
332.03	971.94
332.258	976.94
332.486	961.94
332.715	980.94
332.943	978.94
333.172	1044.94
333.4	1038.94
333.629	1024.94
333.857	1045.94
334.085	1056.94
334.314	1048.94
334.542	1036.94
334.771	1090.94
334.999	1052.94
335.227	1043.94
335.455	1056.94
335.684	1063.94
335.912	1051.94
336.14	1059.94
336.369	1034.94
336.597	1057.94
336.825	1054.94
337.053	1046.94
337.281	1038.94
337.51	1028.94
337.738	1033.94
337.966	1007.94
338.194	1004.94
338.422	1015.94
338.65	1014.94
338.878	1029.94
339.106	1007.94
339.334	1035.94
339.562	975.94
339.79	981.94
340.018	969.94
340.246	980.94
340.474	988.94
340.702	953.94
340.93	948.94
341.158	979.94
341.386	948.94
341.614	959.94
341.842	988.94
342.07	987.94
342.298	944.94
342.526	977.94
342.754	976.94
342.981	977.94
343.209	977.94
343.437	1006.94
343.665	1001.94
343.893	1045.94
344.12	1036.94
344.348	1065.94
344.576	1059.94
344.804	1024.94
345.031	976.94
345.259	995.94
345.487	1006.94
345.714	975.94
345.942	990.94
346.17	933.94
346.397	969.94
346.625	963.94
346.853	956.94
347.08	944.94
347.308	905.94
347.535	923.94
347.763	959.94
347.99	924.94
348.218	906.94
348.445	943.94
348.673	927.94
348.9	935.94
349.128	948.94
349.355	917.94
349.583	928.94
349.81	935.94
350.037	902.94
350.265	919.94
350.492	904.94
350.72	927.94
350.947	923.94
351.174	902.94
351.402	953.94
351.629	905.94
351.856	939.94
352.083	909.94
352.311	941.94
352.538	921.94
352.765	897.94
352.992	903.94
353.22	884.94
353.447	916.94
353.674	885.94
353.901	899.94
354.128	924.94
354.355	909.94
354.583	874.94
354.81	917.94
355.037	913.94
355.264	909.94
355.491	918.94
355.718	936.94
355.945	937.94
356.172	944.94
356.399	946.94
356.626	961.94
356.853	955.94
357.08	946.94
357.307	951.94
357.534	928.94
357.761	924.94
357.988	924.94
358.215	939.94
358.441	951.94
358.668	918.94
358.895	936.94
359.122	918.94
359.349	930.94
359.576	945.94
359.802	950.94
360.029	919.94
360.256	944.94
360.483	938.94
360.709	933.94
360.936	965.94
361.163	959.94
361.39	920.94
361.616	925.94
361.843	940.94
362.07	981.94
362.296	943.94
362.523	928.94
362.749	925.94
362.976	947.94
363.203	915.94
363.429	975.94
363.656	952.94
363.882	937.94
364.109	927.94
364.335	958.94
364.562	939.94
364.788	961.94
365.015	949.94
365.241	952.94
365.468	950.94
365.694	944.94
365.92	940.94
366.147	953.94
366.373	978.94
366.599	964.94
366.826	952.94
367.052	953.94
367.278	966.94
367.505	961.94
367.731	962.94
367.957	951.94
368.184	970.94
368.41	971.94
368.636	933.94
368.862	974.94
369.089	978.94
369.315	967.94
369.541	1021.94
369.767	995.94
369.993	1014.94
370.219	981.94
370.445	1023.94
370.672	1009.94
370.898	1003.94
371.124	1012.94
371.35	1015.94
371.576	1022.94
371.802	1021.94
372.028	1060.94
372.254	1016.94
372.48	1042.94
372.706	1031.94
372.932	1005.94
373.158	1079.94
373.384	1062.94
373.61	1077.94
373.835	1079.94
374.061	1080.94
374.287	1019.94
374.513	1071.94
374.739	1072.94
374.965	1106.94
375.191	1120.94
375.416	1085.94
375.642	1064.94
375.868	1057.94
376.094	1072.94
376.319	1075.94
376.545	1061.94
376.771	1066.94
376.997	1053.94
377.222	1023.94
377.448	1031.94
377.674	1031.94
377.899	1057.94
378.125	1000.94
378.35	1039.94
378.576	1048.94
378.802	1011.94
379.027	1029.94
379.253	1028.94
379.478	1026.94
379.704	1043.94
379.929	1047.94
380.155	1061.94
380.38	1036.94
380.606	1030.94
380.831	1043.94
381.057	1051.94
381.282	1062.94
381.507	1051.94
381.733	1092.94
381.958	1089.94
382.184	1138.94
382.409	1101.94
382.634	1085.94
382.86	1123.94
383.085	1101.94
383.31	1105.94
383.535	1108.94
383.761	1104.94
383.986	1133.94
384.211	1117.94
384.436	1131.94
384.662	1124.94
384.887	1135.94
385.112	1117.94
385.337	1159.94
385.562	1145.94
385.787	1189.94
386.013	1209.94
386.238	1183.94
386.463	1208.94
386.688	1218.94
386.913	1179.94
387.138	1180.94
387.363	1195.94
387.588	1184.94
387.813	1236.94
388.038	1228.94
388.263	1239.94
388.488	1247.94
388.713	1208.94
388.938	1249.94
389.163	1194.94
389.387	1224.94
389.612	1225.94
389.837	1229.94
390.062	1205.94
390.287	1204.94
390.512	1224.94
390.736	1259.94
390.961	1243.94
391.186	1232.94
391.411	1275.94
391.636	1277.94
391.86	1299.94
392.085	1287.94
392.31	1297.94
392.534	1298.94
392.759	1310.94
392.984	1311.94
393.208	1237.94
393.433	1307.94
393.658	1278.94
393.882	1267.94
394.107	1263.94
394.331	1250.94
394.556	1283.94
394.78	1272.94
395.005	1271.94
395.229	1317.94
395.454	1344.94
395.678	1335.94
395.903	1315.94
396.127	1346.94
396.352	1346.94
396.576	1324.94
396.801	1306.94
397.025	1345.94
397.249	1391.94
397.474	1370.94
397.698	1371.94
397.922	1395.94
398.147	1409.94
398.371	1416.94
398.595	1447.94
398.82	1456.94
399.044	1509.94
399.268	1563.94
399.492	1661.94
399.717	1699.94
399.941	1734.94
400.165	1701.94
400.389	1656.94
400.613	1613.94
400.837	1566.94
401.062	1499.94
401.286	1495.94
401.51	1497.94
401.734	1487.94
401.958	1472.94
402.182	1496.94
402.406	1453.94
402.63	1490.94
402.854	1471.94
403.078	1476.94
403.302	1485.94
403.526	1486.94
403.75	1513.94
403.974	1488.94
404.198	1493.94
404.422	1488.94
404.645	1521.94
404.869	1514.94
405.093	1526.94
405.317	1508.94
405.541	1521.94
405.765	1548.94
405.988	1540.94
406.212	1588.94
406.436	1539.94
406.66	1611.94
406.883	1605.94
407.107	1655.94
407.331	1710.94
407.555	1710.94
407.778	1680.94
408.002	1661.94
408.226	1650.94
408.449	1705.94
408.673	1647.94
408.896	1625.94
409.12	1607.94
409.344	1608.94
409.567	1570.94
409.791	1571.94
410.014	1550.94
410.238	1543.94
410.461	1573.94
410.685	1537.94
410.908	1523.94
411.132	1539.94
411.355	1492.94
411.578	1503.94
411.802	1512.94
412.025	1525.94
412.249	1542.94
412.472	1516.94
412.695	1514.94
412.919	1477.94
413.142	1472.94
413.365	1511.94
413.589	1505.94
413.812	1510.94
414.035	1474.94
414.258	1463.94
414.482	1491.94
414.705	1483.94
414.928	1476.94
415.151	1471.94
415.374	1477.94
415.597	1459.94
415.821	1427.94
416.044	1411.94
416.267	1426.94
416.49	1455.94
416.713	1415.94
416.936	1434.94
417.159	1447.94
417.382	1407.94
417.605	1427.94
417.828	1419.94
418.051	1415.94
418.274	1419.94
418.497	1415.94
418.72	1441.94
418.943	1383.94
419.166	1445.94
419.389	1541.94
419.611	1595.94
419.834	1487.94
420.057	1451.94
420.28	1473.94
420.503	1394.94
420.726	1391.94
420.948	1393.94
421.171	1403.94
421.394	1384.94
421.617	1397.94
421.839	1381.94
422.062	1379.94
422.285	1381.94
422.507	1398.94
422.73	1397.94
422.953	1396.94
423.175	1385.94
423.398	1425.94
423.621	1399.94
423.843	1437.94
424.066	1433.94
424.288	1419.94
424.511	1396.94
424.733	1364.94
424.956	1381.94
425.178	1388.94
425.401	1381.94
425.623	1408.94
425.846	1387.94
426.068	1371.94
426.291	1387.94
426.513	1394.94
426.735	1359.94
426.958	1337.94
427.18	1324.94
427.402	1396.94
427.625	1359.94
427.847	1337.94
428.069	1329.94
428.292	1397.94
428.514	1339.94
428.736	1340.94
428.958	1359.94
429.181	1318.94
429.403	1303.94
429.625	1339.94
429.847	1329.94
430.069	1336.94
430.292	1350.94
430.514	1337.94
430.736	1357.94
430.958	1339.94
431.18	1343.94
431.402	1346.94
431.624	1299.94
431.846	1311.94
432.068	1331.94
432.29	1369.94
432.512	1309.94
432.734	1380.94
432.956	1324.94
433.178	1324.94
433.4	1325.94
433.622	1356.94
433.844	1356.94
434.066	1380.94
434.287	1339.94
434.509	1394.94
434.731	1379.94
434.953	1371.94
435.175	1373.94
435.397	1408.94
435.618	1393.94
435.84	1397.94
436.062	1347.94
436.284	1331.94
436.505	1341.94
436.727	1349.94
436.949	1326.94
437.17	1315.94
437.392	1288.94
437.614	1323.94
437.835	1288.94
438.057	1281.94
438.278	1285.94
438.5	1307.94
438.721	1298.94
438.943	1327.94
439.165	1273.94
439.386	1259.94
439.608	1287.94
439.829	1287.94
440.05	1315.94
440.272	1305.94
440.493	1298.94
440.715	1349.94
440.936	1345.94
441.158	1377.94
441.379	1362.94
441.6	1383.94
441.822	1344.94
442.043	1383.94
442.264	1357.94
442.486	1358.94
442.707	1354.94
442.928	1357.94
443.149	1355.94
443.371	1347.94
443.592	1407.94
443.813	1382.94
444.034	1380.94
444.255	1417.94
444.476	1436.94
444.698	1463.94
444.919	1486.94
445.14	1516.94
445.361	1451.94
445.582	1411.94
445.803	1369.94
446.024	1367.94
446.245	1360.94
446.466	1337.94
446.687	1315.94
446.908	1325.94
447.129	1279.94
447.35	1303.94
447.571	1271.94
447.792	1232.94
448.013	1250.94
448.234	1239.94
448.455	1247.94
448.675	1223.94
448.896	1236.94
449.117	1185.94
449.338	1228.94
449.559	1236.94
449.779	1229.94
450	1175.94
450.221	1214.94
450.442	1216.94
450.662	1227.94
450.883	1149.94
451.104	1197.94
451.324	1209.94
451.545	1221.94
451.766	1179.94
451.986	1184.94
452.207	1158.94
452.428	1181.94
452.648	1155.94
452.869	1156.94
453.089	1182.94
453.31	1187.94
453.53	1099.94
453.751	1156.94
453.971	1183.94
454.192	1139.94
454.412	1127.94
454.633	1151.94
454.853	1167.94
455.073	1147.94
455.294	1161.94
455.514	1129.94
455.734	1161.94
455.955	1137.94
456.175	1147.94
456.395	1149.94
456.616	1125.94
456.836	1149.94
457.056	1179.94
457.276	1141.94
457.497	1152.94
457.717	1162.94
457.937	1156.94
458.157	1228.94
458.377	1201.94
458.598	1236.94
458.818	1259.94
459.038	1245.94
459.258	1259.94
459.478	1299.94
459.698	1342.94
459.918	1327.94
460.138	1352.94
460.358	1373.94
460.578	1377.94
460.798	1405.94
461.018	1441.94
461.238	1412.94
461.458	1427.94
461.678	1427.94
461.898	1475.94
462.118	1477.94
462.338	1500.94
462.558	1519.94
462.777	1541.94
462.997	1581.94
463.217	1597.94
463.437	1643.94
463.657	1629.94
463.876	1628.94
464.096	1591.94
464.316	1527.94
464.536	1557.94
464.755	1544.94
464.975	1509.94
465.195	1504.94
465.414	1412.94
465.634	1366.94
465.854	1379.94
466.073	1363.94
466.293	1339.94
466.512	1302.94
466.732	1344.94
466.951	1345.94
467.171	1285.94
467.391	1283.94
467.61	1284.94
467.829	1279.94
468.049	1288.94
468.268	1261.94
468.488	1232.94
468.707	1254.94
468.927	1285.94
469.146	1267.94
469.365	1292.94
469.585	1242.94
469.804	1299.94
470.023	1314.94
470.243	1262.94
470.462	1300.94
470.681	1315.94
470.901	1317.94
471.12	1280.94
471.339	1316.94
471.558	1279.94
471.777	1308.94
471.997	1272.94
472.216	1246.94
472.435	1305.94
472.654	1261.94
472.873	1272.94
473.092	1303.94
473.311	1302.94
473.53	1281.94
473.749	1283.94
473.968	1307.94
474.187	1260.94
474.406	1285.94
474.625	1313.94
474.844	1262.94
475.063	1280.94
475.282	1304.94
475.501	1288.94
475.72	1312.94
475.939	1324.94
476.158	1321.94
476.377	1379.94
476.596	1394.94
476.814	1395.94
477.033	1376.94
477.252	1384.94
477.471	1390.94
477.69	1435.94
477.908	1471.94
478.127	1485.94
478.346	1431.94
478.564	1486.94
478.783	1503.94
479.002	1524.94
479.22	1528.94
479.439	1577.94
479.658	1563.94
479.876	1558.94
480.095	1563.94
480.313	1590.94
480.532	1604.94
480.751	1573.94
480.969	1571.94
481.188	1582.94
481.406	1577.94
481.624	1547.94
481.843	1541.94
482.061	1559.94
482.28	1535.94
482.498	1564.94
482.717	1559.94
482.935	1541.94
483.153	1524.94
483.372	1544.94
483.59	1504.94
483.808	1555.94
484.027	1544.94
484.245	1569.94
484.463	1560.94
484.681	1608.94
484.9	1576.94
485.118	1567.94
485.336	1537.94
485.554	1592.94
485.772	1577.94
485.99	1575.94
486.209	1586.94
486.427	1591.94
486.645	1582.94
486.863	1591.94
487.081	1549.94
487.299	1559.94
487.517	1534.94
487.735	1580.94
487.953	1567.94
488.171	1571.94
488.389	1566.94
488.607	1598.94
488.825	1583.94
489.043	1601.94
489.261	1588.94
489.479	1593.94
489.696	1556.94
489.914	1565.94
490.132	1598.94
490.35	1596.94
490.568	1582.94
490.786	1598.94
491.003	1587.94
491.221	1587.94
491.439	1571.94
491.657	1590.94
491.874	1583.94
492.092	1591.94
492.31	1645.94
492.527	1650.94
492.745	1615.94
492.963	1631.94
493.18	1590.94
493.398	1614.94
