Data from Fe(NO3)3@0.025M.TitratingCurve.Agarose3%dH2O.NegLispCup.LampEnergy10.LIBS07252019_HRD10591_16-55-42-336.txt Node
Date: Thu Jul 25 16:55:42 EDT 2019
User: cochatt
Spectrometer: HR+D1059
Trigger mode: 1
Integration Time (sec): 1.000000E-1
Scans to average: 1
Electric dark correction enabled: true
Nonlinearity correction enabled: false
Boxcar width: 0
XAxis mode: Wavelengths
Number of Pixels in Spectrum: 2048
>>>>>Begin Spectral Data<<<<<
223.165	-12
223.4	-12
223.635	-12
223.869	-23
224.104	-27
224.338	-17
224.573	-17
224.808	-7
225.042	1
225.277	-9
225.511	1
225.746	1
225.98	9
226.215	11
226.449	22
226.683	5
226.918	27
227.152	35
227.387	27
227.621	40
227.856	47
228.09	43
228.324	63
228.559	61
228.793	50
229.027	66
229.262	70
229.496	66
229.73	74
229.964	84
230.199	94
230.433	92
230.667	85
230.901	92
231.136	100
231.37	93
231.604	89
231.838	99
232.072	102
232.306	106
232.541	92
232.775	85
233.009	103
233.243	102
233.477	104
233.711	109
233.945	88
234.179	86
234.413	99
234.647	89
234.881	84
235.115	90
235.349	103
235.583	104
235.817	106
236.051	78
236.285	86
236.519	101
236.753	83
236.987	102
237.221	91
237.455	91
237.689	98
237.922	94
238.156	103
238.39	99
238.624	93
238.858	90
239.091	103
239.325	93
239.559	93
239.793	95
240.027	102
240.26	102
240.494	90
240.728	86
240.961	101
241.195	103
241.429	96
241.662	95
241.896	101
242.13	95
242.363	84
242.597	106
242.83	100
243.064	95
243.298	107
243.531	107
243.765	108
243.998	107
244.232	122
244.465	104
244.699	117
244.932	100
245.166	109
245.399	117
245.633	103
245.866	103
246.099	88
246.333	114
246.566	91
246.8	110
247.033	106
247.266	119
247.5	98
247.733	123
247.966	103
248.2	105
248.433	113
248.666	114
248.899	107
249.133	125
249.366	122
249.599	102
249.832	116
250.066	111
250.299	106
250.532	110
250.765	118
250.998	125
251.231	114
251.465	113
251.698	119
251.931	122
252.164	113
252.397	109
252.63	119
252.863	117
253.096	114
253.329	126
253.562	116
253.795	110
254.028	125
254.261	107
254.494	119
254.727	125
254.96	117
255.193	123
255.426	108
255.659	121
255.892	130
256.124	107
256.357	116
256.59	117
256.823	121
257.056	125
257.289	125
257.521	122
257.754	122
257.987	114
258.22	123
258.452	125
258.685	121
258.918	127
259.151	144
259.383	113
259.616	117
259.849	121
260.081	134
260.314	121
260.547	139
260.779	129
261.012	121
261.244	119
261.477	139
261.71	143
261.942	149
262.175	129
262.407	119
262.64	129
262.872	131
263.105	147
263.337	125
263.57	128
263.802	133
264.035	133
264.267	120
264.499	153
264.732	136
264.964	133
265.197	136
265.429	140
265.661	138
265.894	149
266.126	141
266.358	130
266.591	120
266.823	146
267.055	134
267.287	146
267.52	135
267.752	147
267.984	163
268.216	143
268.448	143
268.681	150
268.913	145
269.145	134
269.377	147
269.609	130
269.841	148
270.073	140
270.306	141
270.538	148
270.77	142
271.002	139
271.234	135
271.466	156
271.698	150
271.93	139
272.162	137
272.394	159
272.626	153
272.858	155
273.09	150
273.322	137
273.553	154
273.785	159
274.017	150
274.249	168
274.481	150
274.713	157
274.945	166
275.176	157
275.408	162
275.64	162
275.872	165
276.104	147
276.335	162
276.567	151
276.799	155
277.031	152
277.262	149
277.494	149
277.726	153
277.957	163
278.189	166
278.421	175
278.652	182
278.884	149
279.115	143
279.347	158
279.579	157
279.81	163
280.042	162
280.273	150
280.505	162
280.736	172
280.968	177
281.199	171
281.431	166
281.662	167
281.894	165
282.125	168
282.356	174
282.588	164
282.819	159
283.051	170
283.282	149
283.513	169
283.745	164
283.976	168
284.207	172
284.439	199
284.67	167
284.901	174
285.132	181
285.364	175
285.595	171
285.826	179
286.057	187
286.288	171
286.52	160
286.751	185
286.982	186
287.213	189
287.444	175
287.675	173
287.906	186
288.138	189
288.369	189
288.6	178
288.831	171
289.062	189
289.293	189
289.524	194
289.755	174
289.986	183
290.217	183
290.448	185
290.679	182
290.91	175
291.141	198
291.371	178
291.602	172
291.833	180
292.064	181
292.295	195
292.526	193
292.757	190
292.987	179
293.218	171
293.449	193
293.68	181
293.91	177
294.141	184
294.372	190
294.603	179
294.833	186
295.064	177
295.295	190
295.525	197
295.756	186
295.987	188
296.217	202
296.448	190
296.679	171
296.909	193
297.14	190
297.37	199
297.601	197
297.831	194
298.062	181
298.292	205
298.523	202
298.753	209
298.984	202
299.214	196
299.445	196
299.675	210
299.905	196
300.136	203
300.366	200
300.597	208
300.827	209
301.057	192
301.288	194
301.518	190
301.748	188
301.979	208
302.209	212
302.439	226
302.669	212
302.9	210
303.13	212
303.36	214
303.59	200
303.82	210
304.051	213
304.281	220
304.511	217
304.741	207
304.971	222
305.201	218
305.431	215
305.661	203
305.891	220
306.121	205
306.352	215
306.582	228
306.812	210
307.042	211
307.272	211
307.502	201
307.731	231
307.961	215
308.191	223
308.421	204
308.651	205
308.881	223
309.111	235
309.341	217
309.571	218
309.8	214
310.03	220
310.26	216
310.49	210
310.72	208
310.949	225
311.179	226
311.409	226
311.639	222
311.868	225
312.098	219
312.328	234
312.557	210
312.787	241
313.017	242
313.246	225
313.476	227
313.706	229
313.935	214
314.165	239
314.394	228
314.624	215
314.853	219
315.083	221
315.312	232
315.542	235
315.771	238
316.001	234
316.23	230
316.46	238
316.689	235
316.919	235
317.148	242
317.377	242
317.607	223
317.836	234
318.065	234
318.295	227
318.524	234
318.753	231
318.983	237
319.212	250
319.441	253
319.67	238
319.9	233
320.129	240
320.358	237
320.587	246
320.816	241
321.046	248
321.275	244
321.504	253
321.733	247
321.962	239
322.191	249
322.42	241
322.649	240
322.878	235
323.108	242
323.337	239
323.566	241
323.795	234
324.024	234
324.253	244
324.482	238
324.71	253
324.939	251
325.168	241
325.397	251
325.626	252
325.855	262
326.084	269
326.313	244
326.542	238
326.77	270
326.999	262
327.228	246
327.457	249
327.686	257
327.914	254
328.143	250
328.372	268
328.6	243
328.829	245
329.058	267
329.287	265
329.515	242
329.744	242
329.972	267
330.201	270
330.43	271
330.658	266
330.887	252
331.115	250
331.344	262
331.572	268
331.801	268
332.03	267
332.258	291
332.486	296
332.715	282
332.943	296
333.172	271
333.4	273
333.629	271
333.857	295
334.085	283
334.314	297
334.542	301
334.771	291
334.999	315
335.227	321
335.455	314
335.684	307
335.912	298
336.14	289
336.369	285
336.597	289
336.825	296
337.053	299
337.281	287
337.51	293
337.738	284
337.966	300
338.194	285
338.422	278
338.65	286
338.878	300
339.106	293
339.334	301
339.562	295
339.79	283
340.018	280
340.246	276
340.474	280
340.702	301
340.93	293
341.158	262
341.386	267
341.614	270
341.842	276
342.07	276
342.298	273
342.526	292
342.754	286
342.981	289
343.209	306
343.437	289
343.665	286
343.893	299
344.12	305
344.348	298
344.576	271
344.804	301
345.031	298
345.259	298
345.487	282
345.714	283
345.942	266
346.17	287
346.397	270
346.625	266
346.853	278
347.08	251
347.308	265
347.535	268
347.763	261
347.99	279
348.218	273
348.445	261
348.673	273
348.9	273
349.128	261
349.355	265
349.583	258
349.81	277
350.037	268
350.265	283
350.492	269
350.72	276
350.947	279
351.174	272
351.402	261
351.629	274
351.856	278
352.083	286
352.311	283
352.538	261
352.765	267
352.992	267
353.22	270
353.447	288
353.674	269
353.901	273
354.128	267
354.355	285
354.583	278
354.81	279
355.037	249
355.264	266
355.491	256
355.718	292
355.945	265
356.172	265
356.399	279
356.626	274
356.853	248
357.08	282
357.307	289
357.534	268
357.761	274
357.988	281
358.215	261
358.441	278
358.668	267
358.895	271
359.122	293
359.349	264
359.576	282
359.802	283
360.029	263
360.256	292
360.483	273
360.709	284
360.936	277
361.163	288
361.39	260
361.616	272
361.843	291
362.07	276
362.296	277
362.523	276
362.749	272
362.976	263
363.203	265
363.429	283
363.656	269
363.882	271
364.109	274
364.335	294
364.562	282
364.788	291
365.015	285
365.241	288
365.468	287
365.694	282
365.92	267
366.147	290
366.373	265
366.599	276
366.826	296
367.052	270
367.278	271
367.505	274
367.731	282
367.957	289
368.184	293
368.41	270
368.636	287
368.862	292
369.089	281
369.315	278
369.541	287
369.767	293
369.993	299
370.219	290
370.445	292
370.672	301
370.898	314
371.124	295
371.35	302
371.576	292
371.802	303
372.028	314
372.254	285
372.48	305
372.706	309
372.932	302
373.158	299
373.384	301
373.61	316
373.835	293
374.061	297
374.287	315
374.513	293
374.739	299
374.965	311
375.191	335
375.416	311
375.642	299
375.868	312
376.094	290
376.319	298
376.545	298
376.771	295
376.997	299
377.222	292
377.448	301
377.674	288
377.899	294
378.125	294
378.35	305
378.576	296
378.802	293
379.027	299
379.253	305
379.478	284
379.704	299
379.929	287
380.155	299
380.38	308
380.606	298
380.831	299
381.057	306
381.282	318
381.507	316
381.733	293
381.958	300
382.184	296
382.409	321
382.634	312
382.86	301
383.085	300
383.31	319
383.535	330
383.761	318
383.986	306
384.211	326
384.436	345
384.662	317
384.887	329
385.112	324
385.337	325
385.562	335
385.787	338
386.013	332
386.238	333
386.463	343
386.688	328
386.913	348
387.138	358
387.363	351
387.588	344
387.813	343
388.038	356
388.263	356
388.488	358
388.713	339
388.938	342
389.163	343
389.387	355
389.612	339
389.837	352
390.062	347
390.287	352
390.512	345
390.736	358
390.961	367
391.186	377
391.411	362
391.636	359
391.86	364
392.085	373
392.31	361
392.534	376
392.759	359
392.984	356
393.208	340
393.433	340
393.658	352
393.882	372
394.107	361
394.331	366
394.556	360
394.78	355
395.005	366
395.229	355
395.454	382
395.678	382
395.903	379
396.127	380
396.352	375
396.576	362
396.801	381
397.025	375
397.249	377
397.474	365
397.698	377
397.922	401
398.147	388
398.371	378
398.595	414
398.82	424
399.044	428
399.268	467
399.492	455
399.717	477
399.941	492
400.165	476
400.389	458
400.613	446
400.837	439
401.062	437
401.286	438
401.51	405
401.734	412
401.958	427
402.182	416
402.406	394
402.63	409
402.854	402
403.078	413
403.302	410
403.526	398
403.75	415
403.974	417
404.198	413
404.422	422
404.645	400
404.869	416
405.093	433
405.317	423
405.541	419
405.765	422
405.988	423
406.212	419
406.436	419
406.66	444
406.883	452
407.107	457
407.331	460
407.555	462
407.778	468
408.002	477
408.226	463
408.449	429
408.673	458
408.896	449
409.12	433
409.344	447
409.567	432
409.791	445
410.014	418
410.238	428
410.461	425
410.685	436
410.908	423
411.132	430
411.355	400
411.578	397
411.802	425
412.025	436
412.249	423
412.472	420
412.695	414
412.919	410
413.142	417
413.365	404
413.589	425
413.812	400
414.035	417
414.258	399
414.482	396
414.705	403
414.928	407
415.151	398
415.374	399
415.597	405
415.821	413
416.044	395
416.267	389
416.49	406
416.713	387
416.936	388
417.159	393
417.382	390
417.605	379
417.828	385
418.051	400
418.274	383
418.497	390
418.72	381
418.943	390
419.166	422
419.389	424
419.611	419
419.834	388
420.057	402
420.28	397
420.503	389
420.726	381
420.948	375
421.171	402
421.394	387
421.617	374
421.839	380
422.062	370
422.285	372
422.507	378
422.73	390
422.953	412
423.175	403
423.398	379
423.621	375
423.843	392
424.066	373
424.288	393
424.511	372
424.733	372
424.956	375
425.178	390
425.401	388
425.623	398
425.846	373
426.068	381
426.291	387
426.513	376
426.735	381
426.958	379
427.18	376
427.402	377
427.625	358
427.847	371
428.069	369
428.292	378
428.514	366
428.736	378
428.958	353
429.181	364
429.403	369
429.625	348
429.847	342
430.069	353
430.292	343
430.514	344
430.736	357
430.958	377
431.18	356
431.402	367
431.624	374
431.846	371
432.068	355
432.29	371
432.512	372
432.734	380
432.956	346
433.178	358
433.4	375
433.622	372
433.844	376
434.066	382
434.287	372
434.509	375
434.731	379
434.953	383
435.175	393
435.397	387
435.618	382
435.84	363
436.062	351
436.284	358
436.505	360
436.727	366
436.949	370
437.17	355
437.392	349
437.614	354
437.835	339
438.057	343
438.278	353
438.5	346
438.721	360
438.943	357
439.165	375
439.386	344
439.608	369
439.829	369
440.05	350
440.272	371
440.493	356
440.715	377
440.936	369
441.158	374
441.379	366
441.6	385
441.822	369
442.043	390
442.264	364
442.486	371
442.707	371
442.928	364
443.149	393
443.371	379
443.592	384
443.813	355
444.034	396
444.255	387
444.476	391
444.698	396
444.919	416
445.14	467
445.361	425
445.582	386
445.803	381
446.024	372
446.245	383
446.466	392
446.687	376
446.908	351
447.129	354
447.35	367
447.571	354
447.792	344
448.013	346
448.234	345
448.455	353
448.675	347
448.896	342
449.117	329
449.338	331
449.559	334
449.779	337
450	337
450.221	345
450.442	345
450.662	324
450.883	327
451.104	331
451.324	319
451.545	317
451.766	335
451.986	311
452.207	305
452.428	329
452.648	337
452.869	327
453.089	319
453.31	316
453.53	318
453.751	328
453.971	329
454.192	321
454.412	314
454.633	318
454.853	331
455.073	316
455.294	319
455.514	314
455.734	327
455.955	305
456.175	314
456.395	315
456.616	332
456.836	325
457.056	311
457.276	318
457.497	319
457.717	321
457.937	328
458.157	345
458.377	324
458.598	352
458.818	351
459.038	355
459.258	366
459.478	375
459.698	377
459.918	389
460.138	371
460.358	389
460.578	394
460.798	418
461.018	410
461.238	398
461.458	406
461.678	409
461.898	417
462.118	411
462.338	417
462.558	437
462.777	437
462.997	475
463.217	438
463.437	449
463.657	439
463.876	430
464.096	449
464.316	435
464.536	422
464.755	418
464.975	417
465.195	425
465.414	388
465.634	389
465.854	374
466.073	374
466.293	378
466.512	362
466.732	355
466.951	361
467.171	363
467.391	372
467.61	362
467.829	350
468.049	365
468.268	341
468.488	357
468.707	361
468.927	345
469.146	346
469.365	347
469.585	335
469.804	350
470.023	360
470.243	351
470.462	351
470.681	373
470.901	375
471.12	345
471.339	365
471.558	358
471.777	342
471.997	351
472.216	354
472.435	361
472.654	350
472.873	359
473.092	349
473.311	343
473.53	360
473.749	349
473.968	361
474.187	334
474.406	339
474.625	361
474.844	347
475.063	345
475.282	358
475.501	336
475.72	366
475.939	353
476.158	374
476.377	357
476.596	364
476.814	386
477.033	379
477.252	375
477.471	405
477.69	382
477.908	386
478.127	394
478.346	402
478.564	405
478.783	400
479.002	429
479.22	409
479.439	399
479.658	404
479.876	414
480.095	422
480.313	420
480.532	435
480.751	449
480.969	431
481.188	412
481.406	412
481.624	427
481.843	387
482.061	410
482.28	385
482.498	403
482.717	416
482.935	404
483.153	422
483.372	406
483.59	424
483.808	385
484.027	420
484.245	408
484.463	402
484.681	437
484.9	420
485.118	421
485.336	428
485.554	404
485.772	405
485.99	405
486.209	400
486.427	414
486.645	414
486.863	423
487.081	413
487.299	418
487.517	426
487.735	424
487.953	435
488.171	421
488.389	407
488.607	420
488.825	403
489.043	410
489.261	420
489.479	427
489.696	422
489.914	427
490.132	420
490.35	412
490.568	418
490.786	396
491.003	420
491.221	434
491.439	435
491.657	395
491.874	422
492.092	430
492.31	433
492.527	423
492.745	435
492.963	449
493.18	439
493.398	411
493.615	426
493.833	446
494.05	454
494.268	446
494.485	435
494.703	445
494.92	459
495.138	437
495.355	460
495.573	442
495.79	462
496.008	447
496.225	485
496.442	460
496.66	471
496.877	503
497.094	497
497.312	494
497.529	501
497.746	519
497.963	535
498.181	539
498.398	555
498.615	571
498.832	589
499.049	596
499.267	642
499.484	668
499.701	702
499.918	707
500.135	756
500.352	759
500.569	793
500.786	776
501.003	780
501.22	752
501.437	699
501.654	692
501.871	653
502.088	617
502.305	612
502.522	577
502.739	561
502.956	540
503.172	536
503.389	514
503.606	512
503.823	479
504.04	495
504.256	480
504.473	487
504.69	463
504.907	465
505.123	482
505.34	439
505.557	442
505.773	448
505.99	425
506.207	396
506.423	420
506.64	395
506.856	422
507.073	439
507.289	396
507.506	400
507.722	394
507.939	396
508.155	390
508.372	387
508.588	408
508.805	396
509.021	381
509.238	383
509.454	385
509.67	366
509.887	389
510.103	361
510.319	383
510.536	381
510.752	359
510.968	373
511.184	355
511.401	358
511.617	360
511.833	360
512.049	378
512.265	368
512.481	366
512.698	390
512.914	366
513.13	370
513.346	379
513.562	403
513.778	383
513.994	369
514.21	377
514.426	374
514.642	345
514.858	394
515.074	395
515.29	391
515.506	381
515.721	405
515.937	408
516.153	399
516.369	415
516.585	411
516.801	427
517.016	413
517.232	431
517.448	424
517.664	445
517.879	425
518.095	426
518.311	437
518.527	401
518.742	411
518.958	391
519.173	404
519.389	402
519.605	405
519.82	379
520.036	382
520.251	375
520.467	362
520.682	369
520.898	380
521.113	363
521.329	367
521.544	357
521.76	358
521.975	346
522.19	363
522.406	348
522.621	379
522.836	351
523.052	362
523.267	353
523.482	352
523.698	342
523.913	359
524.128	346
524.343	351
524.559	369
524.774	345
524.989	345
525.204	360
525.419	342
525.634	347
525.849	361
526.064	337
526.28	331
526.495	346
526.71	343
526.925	349
527.14	338
527.355	364
527.57	349
527.785	342
527.999	339
528.214	316
528.429	346
528.644	339
528.859	346
529.074	345
529.289	348
529.503	344
529.718	333
529.933	355
530.148	333
530.363	342
530.577	336
530.792	342
531.007	311
531.221	343
531.436	348
531.651	325
531.865	348
532.08	330
532.295	361
532.509	344
532.724	340
532.938	343
533.153	333
533.367	326
533.582	342
533.796	360
534.011	350
534.225	318
534.44	333
534.654	340
534.868	310
535.083	328
535.297	326
535.511	353
535.726	315
535.94	315
536.154	301
536.369	340
536.583	336
536.797	331
537.011	317
537.225	322
537.44	329
537.654	303
537.868	308
538.082	323
538.296	325
538.51	310
538.724	331
538.938	326
539.153	320
539.367	310
539.581	307
539.795	320
540.009	314
540.222	297
540.436	311
540.65	314
540.864	298
541.078	314
541.292	325
541.506	319
541.72	316
541.934	329
542.147	307
542.361	300
542.575	300
542.789	323
543.002	309
543.216	339
543.43	324
543.644	300
543.857	313
544.071	303
544.285	315
544.498	305
544.712	318
544.925	315
545.139	326
545.352	310
545.566	311
545.779	328
545.993	331
546.206	322
546.42	322
546.633	330
546.847	335
547.06	337
547.274	318
547.487	313
547.7	321
547.914	335
548.127	326
548.34	329
548.554	329
548.767	315
548.98	342
549.193	311
549.407	320
549.62	313
549.833	323
550.046	338
550.259	317
550.473	321
550.686	323
550.899	330
551.112	325
551.325	318
551.538	323
551.751	308
551.964	321
552.177	319
552.39	336
552.603	327
552.816	332
553.029	332
553.242	323
553.455	332
553.667	359
553.88	319
554.093	325
554.306	331
554.519	330
554.732	316
554.944	325
555.157	311
555.37	298
555.583	317
555.795	309
556.008	303
556.221	301
556.433	301
556.646	312
556.859	300
557.071	299
557.284	298
557.496	302
557.709	294
557.921	299
558.134	293
558.346	275
558.559	288
558.771	289
558.984	293
559.196	287
559.409	290
559.621	314
559.833	273
560.046	285
560.258	283
560.47	286
560.683	302
560.895	282
561.107	305
561.32	290
561.532	294
561.744	290
561.956	281
562.168	275
562.381	274
562.593	294
562.805	293
563.017	308
563.229	298
563.441	287
563.653	290
563.865	285
