Data from Fe(NO3)3@0.05M.TitratingCurve.Agarose3%dH2O.NegLispCup.LampEnergy10.LIBS07252019_HRD10591_16-48-15-334.txt Node
Date: Thu Jul 25 16:48:15 EDT 2019
User: cochatt
Spectrometer: HR+D1059
Trigger mode: 1
Integration Time (sec): 1.000000E-1
Scans to average: 1
Electric dark correction enabled: true
Nonlinearity correction enabled: false
Boxcar width: 0
XAxis mode: Wavelengths
Number of Pixels in Spectrum: 2048
>>>>>Begin Spectral Data<<<<<
223.165	-34.62
223.4	-34.62
223.635	-34.62
223.869	-26.62
224.104	-18.62
224.338	-7.62
224.573	-9.62
224.808	-13.62
225.042	-12.62
225.277	-12.62
225.511	-4.62
225.746	2.38
225.98	17.38
226.215	11.38
226.449	19.38
226.683	24.38
226.918	27.38
227.152	38.38
227.387	38.38
227.621	46.38
227.856	55.38
228.09	52.38
228.324	50.38
228.559	56.38
228.793	63.38
229.027	72.38
229.262	66.38
229.496	68.38
229.73	79.38
229.964	70.38
230.199	96.38
230.433	93.38
230.667	84.38
230.901	106.38
231.136	79.38
231.37	106.38
231.604	93.38
231.838	101.38
232.072	99.38
232.306	95.38
232.541	104.38
232.775	94.38
233.009	101.38
233.243	95.38
233.477	98.38
233.711	104.38
233.945	109.38
234.179	102.38
234.413	100.38
234.647	115.38
234.881	98.38
235.115	106.38
235.349	99.38
235.583	98.38
235.817	107.38
236.051	95.38
236.285	96.38
236.519	110.38
236.753	112.38
236.987	96.38
237.221	98.38
237.455	94.38
237.689	105.38
237.922	99.38
238.156	102.38
238.39	90.38
238.624	119.38
238.858	108.38
239.091	102.38
239.325	99.38
239.559	97.38
239.793	108.38
240.027	110.38
240.26	101.38
240.494	110.38
240.728	106.38
240.961	110.38
241.195	111.38
241.429	113.38
241.662	112.38
241.896	123.38
242.13	114.38
242.363	102.38
242.597	121.38
242.83	101.38
243.064	105.38
243.298	106.38
243.531	125.38
243.765	106.38
243.998	128.38
244.232	111.38
244.465	116.38
244.699	112.38
244.932	128.38
245.166	118.38
245.399	130.38
245.633	114.38
245.866	134.38
246.099	119.38
246.333	123.38
246.566	112.38
246.8	111.38
247.033	113.38
247.266	126.38
247.5	108.38
247.733	122.38
247.966	126.38
248.2	126.38
248.433	120.38
248.666	130.38
248.899	120.38
249.133	126.38
249.366	119.38
249.599	142.38
249.832	140.38
250.066	120.38
250.299	111.38
250.532	124.38
250.765	122.38
250.998	116.38
251.231	130.38
251.465	123.38
251.698	106.38
251.931	121.38
252.164	117.38
252.397	122.38
252.63	135.38
252.863	127.38
253.096	135.38
253.329	143.38
253.562	136.38
253.795	134.38
254.028	131.38
254.261	138.38
254.494	141.38
254.727	135.38
254.96	145.38
255.193	114.38
255.426	131.38
255.659	124.38
255.892	121.38
256.124	144.38
256.357	124.38
256.59	127.38
256.823	151.38
257.056	137.38
257.289	128.38
257.521	130.38
257.754	126.38
257.987	135.38
258.22	132.38
258.452	130.38
258.685	126.38
258.918	140.38
259.151	148.38
259.383	152.38
259.616	135.38
259.849	140.38
260.081	165.38
260.314	152.38
260.547	148.38
260.779	146.38
261.012	157.38
261.244	151.38
261.477	150.38
261.71	153.38
261.942	144.38
262.175	143.38
262.407	138.38
262.64	141.38
262.872	139.38
263.105	145.38
263.337	161.38
263.57	157.38
263.802	157.38
264.035	147.38
264.267	140.38
264.499	141.38
264.732	140.38
264.964	153.38
265.197	154.38
265.429	142.38
265.661	152.38
265.894	142.38
266.126	154.38
266.358	155.38
266.591	142.38
266.823	168.38
267.055	146.38
267.287	148.38
267.52	139.38
267.752	161.38
267.984	162.38
268.216	155.38
268.448	147.38
268.681	163.38
268.913	153.38
269.145	148.38
269.377	161.38
269.609	146.38
269.841	142.38
270.073	153.38
270.306	148.38
270.538	164.38
270.77	132.38
271.002	155.38
271.234	156.38
271.466	162.38
271.698	148.38
271.93	164.38
272.162	148.38
272.394	149.38
272.626	163.38
272.858	159.38
273.09	159.38
273.322	161.38
273.553	154.38
273.785	162.38
274.017	184.38
274.249	180.38
274.481	193.38
274.713	202.38
274.945	191.38
275.176	186.38
275.408	198.38
275.64	192.38
275.872	189.38
276.104	184.38
276.335	175.38
276.567	180.38
276.799	179.38
277.031	157.38
277.262	164.38
277.494	178.38
277.726	178.38
277.957	159.38
278.189	179.38
278.421	167.38
278.652	172.38
278.884	170.38
279.115	176.38
279.347	173.38
279.579	158.38
279.81	175.38
280.042	184.38
280.273	179.38
280.505	168.38
280.736	178.38
280.968	164.38
281.199	187.38
281.431	180.38
281.662	158.38
281.894	166.38
282.125	177.38
282.356	169.38
282.588	190.38
282.819	169.38
283.051	168.38
283.282	180.38
283.513	170.38
283.745	173.38
283.976	192.38
284.207	165.38
284.439	181.38
284.67	178.38
284.901	193.38
285.132	167.38
285.364	178.38
285.595	188.38
285.826	175.38
286.057	186.38
286.288	189.38
286.52	182.38
286.751	189.38
286.982	189.38
287.213	187.38
287.444	189.38
287.675	192.38
287.906	169.38
288.138	186.38
288.369	199.38
288.6	208.38
288.831	178.38
289.062	201.38
289.293	200.38
289.524	206.38
289.755	178.38
289.986	188.38
290.217	188.38
290.448	190.38
290.679	198.38
290.91	194.38
291.141	184.38
291.371	204.38
291.602	195.38
291.833	187.38
292.064	202.38
292.295	191.38
292.526	204.38
292.757	196.38
292.987	189.38
293.218	180.38
293.449	181.38
293.68	201.38
293.91	177.38
294.141	198.38
294.372	174.38
294.603	184.38
294.833	214.38
295.064	197.38
295.295	183.38
295.525	194.38
295.756	180.38
295.987	188.38
296.217	194.38
296.448	205.38
296.679	198.38
296.909	195.38
297.14	209.38
297.37	216.38
297.601	190.38
297.831	205.38
298.062	184.38
298.292	218.38
298.523	201.38
298.753	207.38
298.984	200.38
299.214	204.38
299.445	196.38
299.675	190.38
299.905	212.38
300.136	197.38
300.366	214.38
300.597	207.38
300.827	214.38
301.057	212.38
301.288	190.38
301.518	223.38
301.748	204.38
301.979	204.38
302.209	207.38
302.439	210.38
302.669	217.38
302.9	208.38
303.13	198.38
303.36	199.38
303.59	204.38
303.82	213.38
304.051	216.38
304.281	212.38
304.511	203.38
304.741	210.38
304.971	216.38
305.201	225.38
305.431	202.38
305.661	216.38
305.891	217.38
306.121	212.38
306.352	203.38
306.582	224.38
306.812	227.38
307.042	219.38
307.272	207.38
307.502	215.38
307.731	220.38
307.961	226.38
308.191	214.38
308.421	213.38
308.651	214.38
308.881	228.38
309.111	212.38
309.341	207.38
309.571	212.38
309.8	210.38
310.03	214.38
310.26	218.38
310.49	226.38
310.72	219.38
310.949	222.38
311.179	215.38
311.409	225.38
311.639	235.38
311.868	222.38
312.098	210.38
312.328	218.38
312.557	223.38
312.787	233.38
313.017	222.38
313.246	223.38
313.476	232.38
313.706	224.38
313.935	220.38
314.165	219.38
314.394	221.38
314.624	218.38
314.853	234.38
315.083	221.38
315.312	238.38
315.542	215.38
315.771	224.38
316.001	231.38
316.23	221.38
316.46	218.38
316.689	206.38
316.919	210.38
317.148	226.38
317.377	244.38
317.607	217.38
317.836	229.38
318.065	242.38
318.295	246.38
318.524	234.38
318.753	235.38
318.983	224.38
319.212	235.38
319.441	227.38
319.67	229.38
319.9	212.38
320.129	223.38
320.358	204.38
320.587	228.38
320.816	224.38
321.046	218.38
321.275	246.38
321.504	219.38
321.733	234.38
321.962	231.38
322.191	229.38
322.42	229.38
322.649	238.38
322.878	246.38
323.108	219.38
323.337	233.38
323.566	207.38
323.795	223.38
324.024	217.38
324.253	243.38
324.482	235.38
324.71	244.38
324.939	233.38
325.168	232.38
325.397	264.38
325.626	236.38
325.855	245.38
326.084	248.38
326.313	240.38
326.542	250.38
326.77	250.38
326.999	239.38
327.228	246.38
327.457	246.38
327.686	240.38
327.914	238.38
328.143	258.38
328.372	247.38
328.6	252.38
328.829	255.38
329.058	244.38
329.287	259.38
329.515	244.38
329.744	239.38
329.972	248.38
330.201	246.38
330.43	239.38
330.658	260.38
330.887	255.38
331.115	229.38
331.344	260.38
331.572	270.38
331.801	260.38
332.03	244.38
332.258	274.38
332.486	245.38
332.715	257.38
332.943	271.38
333.172	281.38
333.4	273.38
333.629	285.38
333.857	280.38
334.085	271.38
334.314	282.38
334.542	260.38
334.771	288.38
334.999	280.38
335.227	271.38
335.455	272.38
335.684	268.38
335.912	277.38
336.14	272.38
336.369	292.38
336.597	266.38
336.825	282.38
337.053	309.38
337.281	285.38
337.51	255.38
337.738	268.38
337.966	262.38
338.194	251.38
338.422	265.38
338.65	265.38
338.878	268.38
339.106	253.38
339.334	269.38
339.562	267.38
339.79	255.38
340.018	279.38
340.246	239.38
340.474	265.38
340.702	260.38
340.93	279.38
341.158	252.38
341.386	267.38
341.614	255.38
341.842	260.38
342.07	258.38
342.298	248.38
342.526	243.38
342.754	258.38
342.981	263.38
343.209	266.38
343.437	261.38
343.665	278.38
343.893	274.38
344.12	303.38
344.348	287.38
344.576	272.38
344.804	269.38
345.031	263.38
345.259	268.38
345.487	259.38
345.714	247.38
345.942	253.38
346.17	234.38
346.397	246.38
346.625	235.38
346.853	263.38
347.08	234.38
347.308	255.38
347.535	260.38
347.763	250.38
347.99	272.38
348.218	256.38
348.445	246.38
348.673	229.38
348.9	259.38
349.128	264.38
349.355	260.38
349.583	251.38
349.81	231.38
350.037	233.38
350.265	250.38
350.492	242.38
350.72	246.38
350.947	258.38
351.174	260.38
351.402	251.38
351.629	246.38
351.856	244.38
352.083	236.38
352.311	251.38
352.538	227.38
352.765	239.38
352.992	259.38
353.22	236.38
353.447	236.38
353.674	253.38
353.901	237.38
354.128	227.38
354.355	244.38
354.583	248.38
354.81	249.38
355.037	258.38
355.264	256.38
355.491	254.38
355.718	248.38
355.945	265.38
356.172	248.38
356.399	250.38
356.626	253.38
356.853	259.38
357.08	253.38
357.307	256.38
357.534	255.38
357.761	254.38
357.988	259.38
358.215	275.38
358.441	267.38
358.668	242.38
358.895	249.38
359.122	243.38
359.349	238.38
359.576	246.38
359.802	256.38
360.029	252.38
360.256	252.38
360.483	261.38
360.709	264.38
360.936	270.38
361.163	261.38
361.39	247.38
361.616	260.38
361.843	248.38
362.07	265.38
362.296	268.38
362.523	258.38
362.749	255.38
362.976	276.38
363.203	266.38
363.429	262.38
363.656	258.38
363.882	261.38
364.109	267.38
364.335	258.38
364.562	247.38
364.788	259.38
365.015	268.38
365.241	258.38
365.468	245.38
365.694	270.38
365.92	241.38
366.147	260.38
366.373	253.38
366.599	266.38
366.826	262.38
367.052	256.38
367.278	269.38
367.505	244.38
367.731	256.38
367.957	259.38
368.184	260.38
368.41	282.38
368.636	270.38
368.862	254.38
369.089	264.38
369.315	262.38
369.541	252.38
369.767	279.38
369.993	270.38
370.219	272.38
370.445	265.38
370.672	274.38
370.898	276.38
371.124	251.38
371.35	280.38
371.576	284.38
371.802	272.38
372.028	276.38
372.254	279.38
372.48	266.38
372.706	290.38
372.932	269.38
373.158	276.38
373.384	300.38
373.61	297.38
373.835	282.38
374.061	287.38
374.287	280.38
374.513	303.38
374.739	302.38
374.965	299.38
375.191	299.38
375.416	289.38
375.642	293.38
375.868	269.38
376.094	287.38
376.319	290.38
376.545	286.38
376.771	297.38
376.997	282.38
377.222	277.38
377.448	286.38
377.674	282.38
377.899	278.38
378.125	282.38
378.35	279.38
378.576	291.38
378.802	275.38
379.027	277.38
379.253	291.38
379.478	253.38
379.704	288.38
379.929	282.38
380.155	288.38
380.38	306.38
380.606	294.38
380.831	306.38
381.057	291.38
381.282	295.38
381.507	304.38
381.733	314.38
381.958	288.38
382.184	299.38
382.409	313.38
382.634	317.38
382.86	297.38
383.085	282.38
383.31	294.38
383.535	319.38
383.761	302.38
383.986	288.38
384.211	295.38
384.436	318.38
384.662	330.38
384.887	330.38
385.112	317.38
385.337	324.38
385.562	330.38
385.787	316.38
386.013	341.38
386.238	324.38
386.463	341.38
386.688	336.38
386.913	335.38
387.138	317.38
387.363	319.38
387.588	336.38
387.813	331.38
388.038	331.38
388.263	338.38
388.488	354.38
388.713	342.38
388.938	325.38
389.163	341.38
389.387	336.38
389.612	324.38
389.837	340.38
390.062	322.38
390.287	320.38
390.512	332.38
390.736	329.38
390.961	342.38
391.186	338.38
391.411	323.38
391.636	367.38
391.86	352.38
392.085	349.38
392.31	364.38
392.534	340.38
392.759	345.38
392.984	343.38
393.208	344.38
393.433	370.38
393.658	362.38
393.882	353.38
394.107	338.38
394.331	360.38
394.556	345.38
394.78	362.38
395.005	371.38
395.229	351.38
395.454	346.38
395.678	370.38
395.903	358.38
396.127	360.38
396.352	364.38
396.576	368.38
396.801	351.38
397.025	371.38
397.249	375.38
397.474	371.38
397.698	383.38
397.922	378.38
398.147	383.38
398.371	379.38
398.595	395.38
398.82	374.38
399.044	406.38
399.268	425.38
399.492	464.38
399.717	506.38
399.941	495.38
400.165	459.38
400.389	451.38
400.613	404.38
400.837	418.38
401.062	408.38
401.286	391.38
401.51	387.38
401.734	410.38
401.958	409.38
402.182	394.38
402.406	389.38
402.63	396.38
402.854	412.38
403.078	410.38
403.302	403.38
403.526	411.38
403.75	429.38
403.974	411.38
404.198	413.38
404.422	420.38
404.645	420.38
404.869	404.38
405.093	410.38
405.317	416.38
405.541	413.38
405.765	418.38
405.988	408.38
406.212	408.38
406.436	436.38
406.66	425.38
406.883	434.38
407.107	454.38
407.331	458.38
407.555	458.38
407.778	456.38
408.002	462.38
408.226	465.38
408.449	446.38
408.673	429.38
408.896	427.38
409.12	414.38
409.344	454.38
409.567	422.38
409.791	430.38
410.014	447.38
410.238	422.38
410.461	440.38
410.685	433.38
410.908	420.38
411.132	410.38
411.355	423.38
411.578	419.38
411.802	407.38
412.025	404.38
412.249	412.38
412.472	384.38
412.695	414.38
412.919	416.38
413.142	425.38
413.365	406.38
413.589	400.38
413.812	411.38
414.035	412.38
414.258	399.38
414.482	417.38
414.705	410.38
414.928	411.38
415.151	413.38
415.374	408.38
415.597	402.38
415.821	402.38
416.044	381.38
416.267	382.38
416.49	395.38
416.713	427.38
416.936	393.38
417.159	382.38
417.382	410.38
417.605	396.38
417.828	394.38
418.051	401.38
418.274	389.38
418.497	372.38
418.72	379.38
418.943	381.38
419.166	403.38
419.389	423.38
419.611	437.38
419.834	412.38
420.057	410.38
420.28	412.38
420.503	380.38
420.726	388.38
420.948	412.38
421.171	393.38
421.394	407.38
421.617	387.38
421.839	416.38
422.062	398.38
422.285	424.38
422.507	408.38
422.73	419.38
422.953	417.38
423.175	394.38
423.398	418.38
423.621	398.38
423.843	407.38
424.066	419.38
424.288	419.38
424.511	431.38
424.733	411.38
424.956	415.38
425.178	418.38
425.401	397.38
425.623	417.38
425.846	376.38
426.068	382.38
426.291	400.38
426.513	374.38
426.735	393.38
426.958	386.38
427.18	395.38
427.402	404.38
427.625	392.38
427.847	380.38
428.069	386.38
428.292	386.38
428.514	376.38
428.736	346.38
428.958	375.38
429.181	378.38
429.403	371.38
429.625	345.38
429.847	370.38
430.069	390.38
430.292	372.38
430.514	376.38
430.736	392.38
430.958	396.38
431.18	390.38
431.402	386.38
431.624	370.38
431.846	365.38
432.068	364.38
432.29	372.38
432.512	378.38
432.734	406.38
432.956	390.38
433.178	399.38
433.4	380.38
433.622	380.38
433.844	403.38
434.066	387.38
434.287	406.38
434.509	377.38
434.731	392.38
434.953	400.38
435.175	410.38
435.397	402.38
435.618	373.38
435.84	383.38
436.062	392.38
436.284	403.38
436.505	393.38
436.727	391.38
436.949	391.38
437.17	377.38
437.392	374.38
437.614	380.38
437.835	386.38
438.057	370.38
438.278	375.38
438.5	381.38
438.721	366.38
438.943	388.38
439.165	364.38
439.386	382.38
439.608	394.38
439.829	374.38
440.05	396.38
440.272	389.38
440.493	388.38
440.715	394.38
440.936	386.38
441.158	403.38
441.379	410.38
441.6	418.38
441.822	429.38
442.043	425.38
442.264	411.38
442.486	394.38
442.707	397.38
442.928	408.38
443.149	404.38
443.371	417.38
443.592	415.38
443.813	429.38
444.034	422.38
444.255	421.38
444.476	431.38
444.698	450.38
444.919	456.38
445.14	573.38
445.361	485.38
445.582	435.38
445.803	420.38
446.024	399.38
446.245	425.38
446.466	408.38
446.687	385.38
446.908	384.38
447.129	402.38
447.35	392.38
447.571	414.38
447.792	365.38
448.013	390.38
448.234	370.38
448.455	376.38
448.675	389.38
448.896	390.38
449.117	392.38
449.338	373.38
449.559	371.38
449.779	362.38
450	366.38
450.221	349.38
450.442	353.38
450.662	376.38
450.883	376.38
451.104	381.38
451.324	355.38
451.545	378.38
451.766	364.38
451.986	376.38
452.207	371.38
452.428	364.38
452.648	357.38
452.869	352.38
453.089	371.38
453.31	358.38
453.53	346.38
453.751	351.38
453.971	371.38
454.192	344.38
454.412	339.38
454.633	351.38
454.853	355.38
455.073	358.38
455.294	352.38
455.514	341.38
455.734	342.38
455.955	338.38
456.175	355.38
456.395	334.38
456.616	345.38
456.836	336.38
457.056	355.38
457.276	331.38
457.497	335.38
457.717	349.38
457.937	349.38
458.157	355.38
458.377	359.38
458.598	352.38
458.818	359.38
459.038	374.38
459.258	362.38
459.478	387.38
459.698	380.38
459.918	383.38
460.138	418.38
460.358	422.38
460.578	433.38
460.798	442.38
461.018	413.38
461.238	430.38
461.458	429.38
461.678	425.38
461.898	426.38
462.118	442.38
462.338	454.38
462.558	446.38
462.777	460.38
462.997	476.38
463.217	513.38
463.437	495.38
463.657	490.38
463.876	476.38
464.096	484.38
464.316	484.38
464.536	470.38
464.755	465.38
464.975	459.38
465.195	431.38
465.414	422.38
465.634	418.38
465.854	422.38
466.073	402.38
466.293	413.38
466.512	384.38
466.732	400.38
466.951	398.38
467.171	395.38
467.391	400.38
467.61	387.38
467.829	379.38
468.049	396.38
468.268	384.38
468.488	381.38
468.707	381.38
468.927	394.38
469.146	376.38
469.365	390.38
469.585	383.38
469.804	387.38
470.023	382.38
470.243	390.38
470.462	385.38
470.681	392.38
470.901	394.38
471.12	404.38
471.339	396.38
471.558	396.38
471.777	374.38
471.997	370.38
472.216	378.38
472.435	376.38
472.654	367.38
472.873	366.38
473.092	370.38
473.311	380.38
473.53	394.38
473.749	361.38
473.968	383.38
474.187	374.38
474.406	354.38
474.625	364.38
474.844	361.38
475.063	370.38
475.282	377.38
475.501	390.38
475.72	385.38
475.939	414.38
476.158	395.38
476.377	402.38
476.596	394.38
476.814	410.38
477.033	390.38
477.252	387.38
477.471	408.38
477.69	419.38
477.908	424.38
478.127	440.38
478.346	435.38
478.564	414.38
478.783	433.38
479.002	440.38
479.22	448.38
479.439	462.38
479.658	454.38
479.876	442.38
480.095	453.38
480.313	463.38
480.532	451.38
480.751	441.38
480.969	425.38
481.188	440.38
481.406	432.38
481.624	442.38
481.843	440.38
482.061	437.38
482.28	414.38
482.498	426.38
482.717	419.38
482.935	408.38
483.153	438.38
483.372	440.38
483.59	435.38
483.808	432.38
484.027	432.38
484.245	401.38
484.463	414.38
484.681	435.38
484.9	436.38
485.118	443.38
485.336	419.38
485.554	430.38
485.772	430.38
485.99	443.38
486.209	428.38
486.427	420.38
486.645	408.38
486.863	418.38
487.081	442.38
487.299	452.38
487.517	438.38
487.735	446.38
487.953	434.38
488.171	442.38
488.389	428.38
488.607	448.38
488.825	436.38
489.043	433.38
489.261	438.38
489.479	448.38
489.696	456.38
489.914	442.38
490.132	439.38
490.35	457.38
490.568	447.38
490.786	441.38
491.003	446.38
491.221	447.38
491.439	468.38
491.657	450.38
491.874	462.38
492.092	472.38
492.31	474.38
492.527	493.38
492.745	482.38
492.963	467.38
493.18	445.38
493.398	466.38
493.615	464.38
493.833	472.38
494.05	473.38
494.268	462.38
494.485	467.38
494.703	479.38
494.92	512.38
495.138	483.38
495.355	464.38
495.573	489.38
495.79	471.38
496.008	498.38
496.225	480.38
496.442	473.38
496.66	482.38
496.877	509.38
497.094	499.38
497.312	492.38
497.529	509.38
497.746	498.38
497.963	514.38
498.181	531.38
498.398	565.38
498.615	566.38
498.832	571.38
499.049	607.38
499.267	653.38
499.484	678.38
499.701	717.38
499.918	761.38
500.135	828.38
500.352	864.38
500.569	898.38
500.786	882.38
501.003	853.38
501.22	817.38
501.437	760.38
501.654	700.38
501.871	655.38
