Data from Fe(NO3)3@0.0125M.TitratingCurve.Agarose3%dH2O.NegLispCup.LampEnergy10.LIBS07252019_HRD10591_17-01-09-336.txt Node
Date: Thu Jul 25 17:01:09 EDT 2019
User: cochatt
Spectrometer: HR+D1059
Trigger mode: 1
Integration Time (sec): 1.000000E-1
Scans to average: 1
Electric dark correction enabled: true
Nonlinearity correction enabled: false
Boxcar width: 0
XAxis mode: Wavelengths
Number of Pixels in Spectrum: 2048
>>>>>Begin Spectral Data<<<<<
223.165	-0.06
223.4	-0.06
223.635	-0.06
223.869	-30.06
224.104	-19.06
224.338	-26.06
224.573	-10.06
224.808	-12.06
225.042	-8.06
225.277	13.94
225.511	-1.06
225.746	5.94
225.98	3.94
226.215	-0.06
226.449	10.94
226.683	21.94
226.918	16.94
227.152	32.94
227.387	39.94
227.621	33.94
227.856	40.94
228.09	52.94
228.324	51.94
228.559	68.94
228.793	49.94
229.027	61.94
229.262	61.94
229.496	70.94
229.73	74.94
229.964	74.94
230.199	92.94
230.433	112.94
230.667	86.94
230.901	87.94
231.136	97.94
231.37	91.94
231.604	92.94
231.838	93.94
232.072	102.94
232.306	109.94
232.541	101.94
232.775	101.94
233.009	91.94
233.243	98.94
233.477	94.94
233.711	104.94
233.945	111.94
234.179	113.94
234.413	113.94
234.647	96.94
234.881	110.94
235.115	96.94
235.349	99.94
235.583	99.94
235.817	94.94
236.051	94.94
236.285	119.94
236.519	113.94
236.753	113.94
236.987	102.94
237.221	94.94
237.455	90.94
237.689	99.94
237.922	117.94
238.156	112.94
238.39	114.94
238.624	113.94
238.858	110.94
239.091	111.94
239.325	112.94
239.559	93.94
239.793	99.94
240.027	140.94
240.26	110.94
240.494	111.94
240.728	116.94
240.961	105.94
241.195	118.94
241.429	113.94
241.662	113.94
241.896	122.94
242.13	105.94
242.363	105.94
242.597	116.94
242.83	102.94
243.064	116.94
243.298	121.94
243.531	122.94
243.765	126.94
243.998	124.94
244.232	125.94
244.465	122.94
244.699	111.94
244.932	127.94
245.166	129.94
245.399	128.94
245.633	129.94
245.866	123.94
246.099	141.94
246.333	138.94
246.566	125.94
246.8	139.94
247.033	122.94
247.266	128.94
247.5	117.94
247.733	120.94
247.966	148.94
248.2	139.94
248.433	129.94
248.666	130.94
248.899	138.94
249.133	143.94
249.366	124.94
249.599	140.94
249.832	141.94
250.066	149.94
250.299	156.94
250.532	136.94
250.765	139.94
250.998	144.94
251.231	131.94
251.465	137.94
251.698	130.94
251.931	151.94
252.164	142.94
252.397	128.94
252.63	130.94
252.863	146.94
253.096	148.94
253.329	154.94
253.562	151.94
253.795	151.94
254.028	156.94
254.261	163.94
254.494	161.94
254.727	149.94
254.96	154.94
255.193	146.94
255.426	142.94
255.659	148.94
255.892	129.94
256.124	130.94
256.357	159.94
256.59	171.94
256.823	158.94
257.056	154.94
257.289	154.94
257.521	145.94
257.754	167.94
257.987	157.94
258.22	176.94
258.452	165.94
258.685	150.94
258.918	160.94
259.151	146.94
259.383	156.94
259.616	155.94
259.849	153.94
260.081	167.94
260.314	173.94
260.547	166.94
260.779	169.94
261.012	162.94
261.244	168.94
261.477	172.94
261.71	157.94
261.942	172.94
262.175	166.94
262.407	167.94
262.64	158.94
262.872	176.94
263.105	176.94
263.337	174.94
263.57	184.94
263.802	182.94
264.035	161.94
264.267	175.94
264.499	162.94
264.732	170.94
264.964	165.94
265.197	167.94
265.429	170.94
265.661	166.94
265.894	170.94
266.126	162.94
266.358	170.94
266.591	179.94
266.823	198.94
267.055	175.94
267.287	183.94
267.52	161.94
267.752	189.94
267.984	151.94
268.216	176.94
268.448	176.94
268.681	162.94
268.913	188.94
269.145	182.94
269.377	192.94
269.609	198.94
269.841	196.94
270.073	172.94
270.306	206.94
270.538	198.94
270.77	188.94
271.002	190.94
271.234	196.94
271.466	185.94
271.698	181.94
271.93	191.94
272.162	184.94
272.394	215.94
272.626	192.94
272.858	196.94
273.09	192.94
273.322	186.94
273.553	194.94
273.785	207.94
274.017	194.94
274.249	210.94
274.481	226.94
274.713	208.94
274.945	220.94
275.176	214.94
275.408	214.94
275.64	227.94
275.872	213.94
276.104	209.94
276.335	210.94
276.567	207.94
276.799	216.94
277.031	209.94
277.262	225.94
277.494	233.94
277.726	213.94
277.957	213.94
278.189	219.94
278.421	201.94
278.652	205.94
278.884	212.94
279.115	196.94
279.347	206.94
279.579	221.94
279.81	222.94
280.042	232.94
280.273	219.94
280.505	233.94
280.736	217.94
280.968	221.94
281.199	226.94
281.431	245.94
281.662	230.94
281.894	222.94
282.125	212.94
282.356	221.94
282.588	227.94
282.819	232.94
283.051	228.94
283.282	246.94
283.513	240.94
283.745	247.94
283.976	234.94
284.207	242.94
284.439	224.94
284.67	229.94
284.901	236.94
285.132	218.94
285.364	232.94
285.595	234.94
285.826	255.94
286.057	252.94
286.288	249.94
286.52	225.94
286.751	230.94
286.982	238.94
287.213	256.94
287.444	253.94
287.675	236.94
287.906	240.94
288.138	256.94
288.369	233.94
288.6	240.94
288.831	230.94
289.062	252.94
289.293	243.94
289.524	265.94
289.755	265.94
289.986	247.94
290.217	246.94
290.448	233.94
290.679	254.94
290.91	262.94
291.141	241.94
291.371	248.94
291.602	252.94
291.833	246.94
292.064	247.94
292.295	236.94
292.526	247.94
292.757	252.94
292.987	254.94
293.218	261.94
293.449	261.94
293.68	279.94
293.91	267.94
294.141	258.94
294.372	252.94
294.603	257.94
294.833	242.94
295.064	272.94
295.295	273.94
295.525	267.94
295.756	263.94
295.987	262.94
296.217	264.94
296.448	276.94
296.679	257.94
296.909	272.94
297.14	254.94
297.37	262.94
297.601	297.94
297.831	279.94
298.062	284.94
298.292	260.94
298.523	276.94
298.753	274.94
298.984	274.94
299.214	269.94
299.445	275.94
299.675	272.94
299.905	270.94
300.136	282.94
300.366	265.94
300.597	271.94
300.827	277.94
301.057	282.94
301.288	286.94
301.518	284.94
301.748	279.94
301.979	279.94
302.209	294.94
302.439	269.94
302.669	289.94
302.9	297.94
303.13	301.94
303.36	292.94
303.59	308.94
303.82	309.94
304.051	287.94
304.281	295.94
304.511	302.94
304.741	296.94
304.971	298.94
305.201	281.94
305.431	282.94
305.661	296.94
305.891	305.94
306.121	285.94
306.352	277.94
306.582	293.94
306.812	290.94
307.042	294.94
307.272	292.94
307.502	295.94
307.731	288.94
307.961	315.94
308.191	308.94
308.421	294.94
308.651	290.94
308.881	309.94
309.111	291.94
309.341	300.94
309.571	310.94
309.8	299.94
310.03	291.94
310.26	310.94
310.49	307.94
310.72	308.94
310.949	296.94
311.179	307.94
311.409	319.94
311.639	318.94
311.868	303.94
312.098	295.94
312.328	324.94
312.557	320.94
312.787	329.94
313.017	317.94
313.246	325.94
313.476	301.94
313.706	327.94
313.935	318.94
314.165	291.94
314.394	320.94
314.624	339.94
314.853	320.94
315.083	336.94
315.312	317.94
315.542	315.94
315.771	324.94
316.001	311.94
316.23	321.94
316.46	315.94
316.689	338.94
316.919	318.94
317.148	328.94
317.377	318.94
317.607	321.94
317.836	336.94
318.065	330.94
318.295	322.94
318.524	353.94
318.753	338.94
318.983	344.94
319.212	330.94
319.441	343.94
319.67	329.94
319.9	331.94
320.129	334.94
320.358	341.94
320.587	345.94
320.816	319.94
321.046	320.94
321.275	352.94
321.504	328.94
321.733	349.94
321.962	335.94
322.191	336.94
322.42	325.94
322.649	337.94
322.878	352.94
323.108	327.94
323.337	352.94
323.566	336.94
323.795	335.94
324.024	342.94
324.253	352.94
324.482	340.94
324.71	358.94
324.939	345.94
325.168	341.94
325.397	350.94
325.626	351.94
325.855	359.94
326.084	366.94
326.313	375.94
326.542	352.94
326.77	352.94
326.999	346.94
327.228	343.94
327.457	357.94
327.686	369.94
327.914	356.94
328.143	351.94
328.372	355.94
328.6	371.94
328.829	354.94
329.058	364.94
329.287	350.94
329.515	360.94
329.744	375.94
329.972	377.94
330.201	367.94
330.43	356.94
330.658	380.94
330.887	370.94
331.115	388.94
331.344	368.94
331.572	399.94
331.801	373.94
332.03	372.94
332.258	376.94
332.486	360.94
332.715	388.94
332.943	401.94
333.172	381.94
333.4	407.94
333.629	409.94
333.857	413.94
334.085	410.94
334.314	408.94
334.542	407.94
334.771	400.94
334.999	423.94
335.227	406.94
335.455	420.94
335.684	405.94
335.912	387.94
336.14	414.94
336.369	416.94
336.597	421.94
336.825	396.94
337.053	397.94
337.281	419.94
337.51	399.94
337.738	417.94
337.966	400.94
338.194	394.94
338.422	387.94
338.65	404.94
338.878	402.94
339.106	390.94
339.334	390.94
339.562	396.94
339.79	384.94
340.018	405.94
340.246	384.94
340.474	384.94
340.702	394.94
340.93	405.94
341.158	384.94
341.386	377.94
341.614	371.94
341.842	388.94
342.07	390.94
342.298	409.94
342.526	386.94
342.754	382.94
342.981	379.94
343.209	375.94
343.437	386.94
343.665	390.94
343.893	419.94
344.12	400.94
344.348	401.94
344.576	423.94
344.804	401.94
345.031	389.94
345.259	397.94
345.487	397.94
345.714	402.94
345.942	399.94
346.17	392.94
346.397	388.94
346.625	400.94
346.853	386.94
347.08	381.94
347.308	364.94
347.535	396.94
347.763	401.94
347.99	408.94
348.218	375.94
348.445	384.94
348.673	374.94
348.9	377.94
349.128	406.94
349.355	378.94
349.583	371.94
349.81	387.94
350.037	381.94
350.265	401.94
350.492	389.94
350.72	393.94
350.947	385.94
351.174	379.94
351.402	365.94
351.629	365.94
351.856	371.94
352.083	383.94
352.311	360.94
352.538	370.94
352.765	387.94
352.992	358.94
353.22	386.94
353.447	374.94
353.674	378.94
353.901	409.94
354.128	385.94
354.355	366.94
354.583	394.94
354.81	383.94
355.037	374.94
355.264	373.94
355.491	376.94
355.718	372.94
355.945	378.94
356.172	381.94
356.399	378.94
356.626	380.94
356.853	390.94
357.08	402.94
357.307	392.94
357.534	383.94
357.761	373.94
357.988	368.94
358.215	390.94
358.441	382.94
358.668	368.94
358.895	387.94
359.122	366.94
359.349	373.94
359.576	406.94
359.802	400.94
360.029	379.94
360.256	388.94
360.483	391.94
360.709	397.94
360.936	367.94
361.163	377.94
361.39	391.94
361.616	393.94
361.843	373.94
362.07	385.94
362.296	368.94
362.523	382.94
362.749	402.94
362.976	380.94
363.203	393.94
363.429	388.94
363.656	373.94
363.882	377.94
364.109	385.94
364.335	387.94
364.562	397.94
364.788	394.94
365.015	390.94
365.241	385.94
365.468	393.94
365.694	403.94
365.92	385.94
366.147	389.94
366.373	388.94
366.599	390.94
366.826	395.94
367.052	388.94
367.278	397.94
367.505	398.94
367.731	413.94
367.957	402.94
368.184	421.94
368.41	415.94
368.636	408.94
368.862	393.94
369.089	396.94
369.315	416.94
369.541	420.94
369.767	406.94
369.993	415.94
370.219	430.94
370.445	401.94
370.672	388.94
370.898	399.94
371.124	394.94
371.35	411.94
371.576	423.94
371.802	415.94
372.028	437.94
372.254	433.94
372.48	435.94
372.706	414.94
372.932	417.94
373.158	407.94
373.384	408.94
373.61	436.94
373.835	421.94
374.061	416.94
374.287	420.94
374.513	442.94
374.739	438.94
374.965	426.94
375.191	417.94
375.416	438.94
375.642	406.94
375.868	436.94
376.094	446.94
376.319	416.94
376.545	435.94
376.771	416.94
376.997	408.94
377.222	407.94
377.448	429.94
377.674	408.94
377.899	424.94
378.125	419.94
378.35	444.94
378.576	433.94
378.802	421.94
379.027	412.94
379.253	416.94
379.478	419.94
379.704	406.94
379.929	413.94
380.155	429.94
380.38	419.94
380.606	424.94
380.831	415.94
381.057	413.94
381.282	410.94
381.507	425.94
381.733	423.94
381.958	456.94
382.184	428.94
382.409	432.94
382.634	431.94
382.86	439.94
383.085	417.94
383.31	436.94
383.535	444.94
383.761	433.94
383.986	440.94
384.211	442.94
384.436	446.94
384.662	452.94
384.887	462.94
385.112	465.94
385.337	436.94
385.562	444.94
385.787	456.94
386.013	469.94
386.238	495.94
386.463	469.94
386.688	448.94
386.913	440.94
387.138	462.94
387.363	480.94
387.588	454.94
387.813	453.94
388.038	452.94
388.263	500.94
388.488	468.94
388.713	487.94
388.938	478.94
389.163	468.94
389.387	467.94
389.612	453.94
389.837	473.94
390.062	484.94
390.287	477.94
390.512	467.94
390.736	480.94
390.961	489.94
391.186	478.94
391.411	488.94
391.636	487.94
391.86	490.94
392.085	494.94
392.31	496.94
392.534	513.94
392.759	478.94
392.984	481.94
393.208	477.94
393.433	504.94
393.658	502.94
393.882	481.94
394.107	510.94
394.331	527.94
394.556	494.94
394.78	490.94
395.005	526.94
395.229	508.94
395.454	498.94
395.678	506.94
395.903	515.94
396.127	513.94
396.352	511.94
396.576	521.94
396.801	501.94
397.025	504.94
397.249	532.94
397.474	530.94
397.698	520.94
397.922	538.94
398.147	532.94
398.371	520.94
398.595	520.94
398.82	564.94
399.044	566.94
399.268	576.94
399.492	591.94
399.717	611.94
399.941	635.94
400.165	607.94
400.389	600.94
400.613	572.94
400.837	560.94
401.062	578.94
401.286	565.94
401.51	571.94
401.734	564.94
401.958	553.94
402.182	553.94
402.406	527.94
402.63	518.94
402.854	569.94
403.078	568.94
403.302	557.94
403.526	548.94
403.75	532.94
403.974	548.94
404.198	562.94
404.422	551.94
404.645	548.94
404.869	540.94
405.093	566.94
405.317	573.94
405.541	573.94
405.765	583.94
405.988	565.94
406.212	593.94
406.436	576.94
406.66	586.94
406.883	585.94
407.107	608.94
407.331	630.94
407.555	594.94
407.778	626.94
408.002	621.94
408.226	598.94
408.449	636.94
408.673	614.94
408.896	599.94
409.12	597.94
409.344	590.94
409.567	592.94
409.791	595.94
410.014	577.94
410.238	601.94
410.461	610.94
410.685	581.94
410.908	563.94
411.132	606.94
411.355	567.94
411.578	564.94
411.802	556.94
412.025	582.94
412.249	559.94
412.472	562.94
412.695	567.94
412.919	535.94
413.142	568.94
413.365	561.94
413.589	579.94
413.812	560.94
414.035	553.94
414.258	537.94
414.482	561.94
414.705	561.94
414.928	552.94
415.151	553.94
415.374	564.94
415.597	570.94
415.821	561.94
416.044	556.94
416.267	554.94
416.49	532.94
416.713	550.94
416.936	537.94
417.159	526.94
417.382	510.94
417.605	536.94
417.828	520.94
418.051	542.94
418.274	553.94
418.497	537.94
418.72	562.94
418.943	502.94
419.166	529.94
419.389	577.94
419.611	566.94
419.834	568.94
420.057	546.94
420.28	547.94
420.503	532.94
420.726	528.94
420.948	527.94
421.171	532.94
421.394	535.94
421.617	535.94
421.839	513.94
422.062	520.94
422.285	539.94
422.507	508.94
422.73	495.94
422.953	534.94
423.175	528.94
423.398	533.94
423.621	510.94
423.843	540.94
424.066	528.94
424.288	542.94
424.511	544.94
424.733	542.94
424.956	507.94
425.178	510.94
425.401	514.94
425.623	518.94
425.846	522.94
426.068	525.94
426.291	510.94
426.513	489.94
426.735	526.94
426.958	519.94
427.18	504.94
427.402	514.94
427.625	521.94
427.847	512.94
428.069	519.94
428.292	505.94
428.514	524.94
428.736	516.94
428.958	507.94
429.181	501.94
429.403	487.94
429.625	510.94
429.847	506.94
430.069	502.94
430.292	514.94
430.514	488.94
430.736	508.94
430.958	501.94
431.18	507.94
431.402	512.94
431.624	499.94
431.846	520.94
432.068	510.94
432.29	525.94
432.512	534.94
432.734	516.94
432.956	494.94
433.178	533.94
433.4	516.94
433.622	514.94
433.844	512.94
434.066	511.94
434.287	534.94
434.509	513.94
434.731	521.94
434.953	522.94
435.175	545.94
435.397	509.94
435.618	528.94
435.84	521.94
436.062	537.94
436.284	518.94
436.505	509.94
436.727	521.94
436.949	485.94
437.17	514.94
437.392	471.94
437.614	498.94
437.835	474.94
438.057	513.94
438.278	479.94
438.5	482.94
438.721	485.94
438.943	481.94
439.165	481.94
439.386	503.94
439.608	502.94
439.829	488.94
440.05	473.94
440.272	507.94
440.493	504.94
440.715	524.94
440.936	526.94
441.158	489.94
441.379	506.94
441.6	526.94
441.822	497.94
442.043	524.94
442.264	541.94
442.486	515.94
442.707	514.94
442.928	530.94
443.149	528.94
443.371	510.94
443.592	536.94
443.813	518.94
444.034	519.94
444.255	513.94
444.476	541.94
444.698	526.94
444.919	563.94
445.14	625.94
445.361	575.94
445.582	551.94
445.803	520.94
446.024	501.94
446.245	525.94
446.466	508.94
446.687	513.94
446.908	486.94
447.129	514.94
447.35	497.94
447.571	483.94
447.792	487.94
448.013	487.94
448.234	480.94
448.455	495.94
448.675	480.94
448.896	473.94
449.117	468.94
449.338	458.94
449.559	473.94
449.779	466.94
450	462.94
450.221	473.94
450.442	457.94
450.662	469.94
450.883	441.94
451.104	447.94
451.324	449.94
451.545	468.94
451.766	464.94
451.986	464.94
452.207	442.94
452.428	442.94
452.648	443.94
452.869	450.94
453.089	441.94
453.31	451.94
453.53	441.94
453.751	460.94
453.971	462.94
454.192	444.94
454.412	449.94
454.633	454.94
454.853	447.94
455.073	433.94
455.294	456.94
455.514	453.94
455.734	433.94
455.955	442.94
456.175	452.94
456.395	448.94
456.616	455.94
456.836	430.94
457.056	455.94
457.276	436.94
457.497	462.94
457.717	422.94
457.937	447.94
458.157	481.94
458.377	455.94
458.598	473.94
458.818	474.94
459.038	473.94
459.258	469.94
459.478	483.94
459.698	520.94
459.918	504.94
460.138	510.94
460.358	517.94
460.578	514.94
460.798	522.94
461.018	556.94
461.238	528.94
461.458	567.94
461.678	548.94
461.898	536.94
462.118	542.94
462.338	546.94
462.558	569.94
462.777	571.94
462.997	572.94
463.217	567.94
463.437	628.94
463.657	594.94
463.876	574.94
464.096	590.94
464.316	572.94
464.536	568.94
464.755	553.94
464.975	539.94
465.195	548.94
465.414	535.94
465.634	511.94
465.854	523.94
466.073	509.94
466.293	495.94
466.512	492.94
466.732	503.94
466.951	496.94
467.171	489.94
467.391	482.94
467.61	502.94
467.829	498.94
468.049	480.94
468.268	471.94
468.488	493.94
468.707	492.94
468.927	475.94
469.146	501.94
469.365	518.94
469.585	479.94
469.804	501.94
470.023	489.94
470.243	500.94
470.462	495.94
470.681	517.94
470.901	506.94
471.12	495.94
471.339	507.94
471.558	521.94
471.777	493.94
471.997	492.94
472.216	495.94
472.435	507.94
472.654	506.94
472.873	471.94
473.092	498.94
473.311	483.94
473.53	487.94
473.749	489.94
473.968	499.94
474.187	502.94
474.406	481.94
474.625	464.94
474.844	496.94
475.063	505.94
475.282	487.94
475.501	492.94
475.72	502.94
475.939	512.94
476.158	524.94
476.377	530.94
476.596	522.94
476.814	537.94
477.033	532.94
477.252	530.94
477.471	536.94
477.69	552.94
477.908	556.94
478.127	524.94
478.346	549.94
478.564	553.94
478.783	562.94
479.002	588.94
479.22	573.94
479.439	608.94
479.658	596.94
479.876	586.94
480.095	591.94
480.313	588.94
480.532	599.94
480.751	562.94
480.969	597.94
481.188	591.94
481.406	610.94
481.624	594.94
481.843	564.94
482.061	580.94
482.28	592.94
482.498	592.94
482.717	592.94
482.935	570.94
483.153	594.94
483.372	576.94
483.59	594.94
483.808	600.94
484.027	604.94
484.245	595.94
484.463	607.94
484.681	623.94
484.9	596.94
485.118	613.94
485.336	604.94
485.554	600.94
485.772	605.94
485.99	622.94
486.209	608.94
486.427	614.94
486.645	602.94
486.863	615.94
487.081	622.94
487.299	648.94
487.517	599.94
487.735	612.94
487.953	601.94
488.171	610.94
488.389	612.94
488.607	598.94
488.825	614.94
489.043	597.94
489.261	574.94
489.479	617.94
489.696	604.94
489.914	603.94
490.132	602.94
490.35	616.94
490.568	610.94
490.786	603.94
491.003	620.94
491.221	624.94
491.439	630.94
491.657	604.94
491.874	612.94
492.092	618.94
492.31	625.94
492.527	621.94
492.745	608.94
492.963	604.94
493.18	624.94
493.398	620.94
493.615	625.94
493.833	609.94
494.05	629.94
494.268	630.94
494.485	648.94
494.703	623.94
494.92	640.94
495.138	647.94
495.355	655.94
495.573	640.94
495.79	652.94
496.008	685.94
496.225	666.94
496.442	657.94
496.66	672.94
496.877	678.94
497.094	680.94
497.312	685.94
497.529	690.94
497.746	708.94
497.963	710.94
498.181	732.94
498.398	736.94
498.615	764.94
498.832	798.94
499.049	830.94
499.267	833.94
499.484	859.94
499.701	885.94
499.918	920.94
500.135	971.94
500.352	981.94
500.569	966.94
500.786	958.94
501.003	960.94
501.22	947.94
501.437	910.94
501.654	889.94
501.871	862.94
