Data from Fe(NO3)3@0.1M.TitratingCurve.Agarose3%dH2O.NegLispCup.LampEnergy10.LIBS07252019_HRD10591_16-40-53-333.txt Node
Date: Thu Jul 25 16:40:53 EDT 2019
User: cochatt
Spectrometer: HR+D1059
Trigger mode: 1
Integration Time (sec): 1.000000E-1
Scans to average: 1
Electric dark correction enabled: true
Nonlinearity correction enabled: false
Boxcar width: 0
XAxis mode: Wavelengths
Number of Pixels in Spectrum: 2048
>>>>>Begin Spectral Data<<<<<
223.165	-15.5
223.4	-15.5
223.635	-15.5
223.869	-26.5
224.104	-17.5
224.338	-1.5
224.573	-16.5
224.808	-13.5
225.042	-11.5
225.277	-8.5
225.511	-12.5
225.746	4.5
225.98	11.5
226.215	3.5
226.449	23.5
226.683	13.5
226.918	15.5
227.152	51.5
227.387	41.5
227.621	28.5
227.856	53.5
228.09	52.5
228.324	58.5
228.559	63.5
228.793	50.5
229.027	73.5
229.262	94.5
229.496	90.5
229.73	78.5
229.964	102.5
230.199	99.5
230.433	87.5
230.667	94.5
230.901	104.5
231.136	88.5
231.37	113.5
231.604	99.5
231.838	106.5
232.072	100.5
232.306	97.5
232.541	98.5
232.775	115.5
233.009	96.5
233.243	107.5
233.477	112.5
233.711	108.5
233.945	104.5
234.179	98.5
234.413	112.5
234.647	109.5
234.881	108.5
235.115	104.5
235.349	100.5
235.583	109.5
235.817	109.5
236.051	100.5
236.285	110.5
236.519	115.5
236.753	110.5
236.987	110.5
237.221	97.5
237.455	106.5
237.689	107.5
237.922	104.5
238.156	102.5
238.39	104.5
238.624	108.5
238.858	100.5
239.091	102.5
239.325	105.5
239.559	110.5
239.793	98.5
240.027	104.5
240.26	99.5
240.494	109.5
240.728	97.5
240.961	120.5
241.195	113.5
241.429	104.5
241.662	117.5
241.896	119.5
242.13	123.5
242.363	117.5
242.597	116.5
242.83	115.5
243.064	113.5
243.298	111.5
243.531	120.5
243.765	109.5
243.998	123.5
244.232	122.5
244.465	111.5
244.699	124.5
244.932	107.5
245.166	121.5
245.399	119.5
245.633	121.5
245.866	115.5
246.099	121.5
246.333	121.5
246.566	134.5
246.8	112.5
247.033	114.5
247.266	116.5
247.5	115.5
247.733	112.5
247.966	143.5
248.2	134.5
248.433	121.5
248.666	137.5
248.899	142.5
249.133	137.5
249.366	125.5
249.599	131.5
249.832	128.5
250.066	135.5
250.299	131.5
250.532	137.5
250.765	128.5
250.998	128.5
251.231	141.5
251.465	131.5
251.698	128.5
251.931	141.5
252.164	145.5
252.397	136.5
252.63	143.5
252.863	137.5
253.096	133.5
253.329	145.5
253.562	134.5
253.795	135.5
254.028	134.5
254.261	136.5
254.494	148.5
254.727	133.5
254.96	146.5
255.193	139.5
255.426	143.5
255.659	142.5
255.892	160.5
256.124	144.5
256.357	141.5
256.59	137.5
256.823	133.5
257.056	144.5
257.289	146.5
257.521	138.5
257.754	163.5
257.987	145.5
258.22	151.5
258.452	152.5
258.685	155.5
258.918	155.5
259.151	145.5
259.383	158.5
259.616	147.5
259.849	155.5
260.081	165.5
260.314	162.5
260.547	155.5
260.779	149.5
261.012	148.5
261.244	164.5
261.477	167.5
261.71	161.5
261.942	150.5
262.175	152.5
262.407	145.5
262.64	161.5
262.872	161.5
263.105	172.5
263.337	150.5
263.57	157.5
263.802	158.5
264.035	166.5
264.267	168.5
264.499	161.5
264.732	175.5
264.964	173.5
265.197	151.5
265.429	152.5
265.661	170.5
265.894	172.5
266.126	171.5
266.358	169.5
266.591	166.5
266.823	151.5
267.055	172.5
267.287	165.5
267.52	174.5
267.752	174.5
267.984	160.5
268.216	176.5
268.448	174.5
268.681	160.5
268.913	175.5
269.145	179.5
269.377	173.5
269.609	160.5
269.841	172.5
270.073	176.5
270.306	177.5
270.538	188.5
270.77	173.5
271.002	169.5
271.234	167.5
271.466	188.5
271.698	183.5
271.93	172.5
272.162	177.5
272.394	189.5
272.626	181.5
272.858	190.5
273.09	174.5
273.322	185.5
273.553	171.5
273.785	179.5
274.017	175.5
274.249	155.5
274.481	188.5
274.713	190.5
274.945	193.5
275.176	195.5
275.408	195.5
275.64	182.5
275.872	185.5
276.104	178.5
276.335	174.5
276.567	206.5
276.799	173.5
277.031	189.5
277.262	199.5
277.494	173.5
277.726	185.5
277.957	187.5
278.189	188.5
278.421	195.5
278.652	190.5
278.884	196.5
279.115	184.5
279.347	193.5
279.579	205.5
279.81	203.5
280.042	183.5
280.273	175.5
280.505	200.5
280.736	197.5
280.968	207.5
281.199	210.5
281.431	200.5
281.662	209.5
281.894	209.5
282.125	198.5
282.356	221.5
282.588	209.5
282.819	206.5
283.051	209.5
283.282	188.5
283.513	221.5
283.745	202.5
283.976	192.5
284.207	211.5
284.439	191.5
284.67	208.5
284.901	221.5
285.132	219.5
285.364	218.5
285.595	223.5
285.826	207.5
286.057	215.5
286.288	192.5
286.52	208.5
286.751	216.5
286.982	202.5
287.213	220.5
287.444	209.5
287.675	202.5
287.906	233.5
288.138	211.5
288.369	219.5
288.6	212.5
288.831	203.5
289.062	221.5
289.293	228.5
289.524	220.5
289.755	218.5
289.986	225.5
290.217	217.5
290.448	193.5
290.679	220.5
290.91	220.5
291.141	210.5
291.371	215.5
291.602	205.5
291.833	202.5
292.064	219.5
292.295	214.5
292.526	214.5
292.757	227.5
292.987	219.5
293.218	211.5
293.449	226.5
293.68	228.5
293.91	232.5
294.141	227.5
294.372	224.5
294.603	221.5
294.833	222.5
295.064	227.5
295.295	227.5
295.525	225.5
295.756	224.5
295.987	221.5
296.217	218.5
296.448	234.5
296.679	235.5
296.909	219.5
297.14	222.5
297.37	230.5
297.601	231.5
297.831	235.5
298.062	238.5
298.292	243.5
298.523	247.5
298.753	240.5
298.984	239.5
299.214	233.5
299.445	229.5
299.675	236.5
299.905	228.5
300.136	241.5
300.366	258.5
300.597	247.5
300.827	236.5
301.057	254.5
301.288	244.5
301.518	256.5
301.748	250.5
301.979	252.5
302.209	269.5
302.439	234.5
302.669	243.5
302.9	225.5
303.13	219.5
303.36	248.5
303.59	237.5
303.82	225.5
304.051	234.5
304.281	228.5
304.511	247.5
304.741	223.5
304.971	252.5
305.201	247.5
305.431	257.5
305.661	239.5
305.891	261.5
306.121	248.5
306.352	253.5
306.582	236.5
306.812	252.5
307.042	242.5
307.272	249.5
307.502	252.5
307.731	244.5
307.961	240.5
308.191	253.5
308.421	251.5
308.651	254.5
308.881	249.5
309.111	246.5
309.341	237.5
309.571	255.5
309.8	242.5
310.03	252.5
310.26	250.5
310.49	236.5
310.72	243.5
310.949	228.5
311.179	251.5
311.409	240.5
311.639	258.5
311.868	241.5
312.098	255.5
312.328	271.5
312.557	270.5
312.787	250.5
313.017	247.5
313.246	260.5
313.476	238.5
313.706	278.5
313.935	255.5
314.165	259.5
314.394	259.5
314.624	277.5
314.853	279.5
315.083	281.5
315.312	245.5
315.542	256.5
315.771	255.5
316.001	273.5
316.23	245.5
316.46	240.5
316.689	261.5
316.919	250.5
317.148	263.5
317.377	267.5
317.607	256.5
317.836	259.5
318.065	245.5
318.295	263.5
318.524	244.5
318.753	250.5
318.983	245.5
319.212	266.5
319.441	255.5
319.67	263.5
319.9	264.5
320.129	247.5
320.358	261.5
320.587	272.5
320.816	264.5
321.046	273.5
321.275	281.5
321.504	271.5
321.733	258.5
321.962	280.5
322.191	281.5
322.42	252.5
322.649	263.5
322.878	268.5
323.108	261.5
323.337	273.5
323.566	264.5
323.795	281.5
324.024	271.5
324.253	274.5
324.482	281.5
324.71	277.5
324.939	265.5
325.168	267.5
325.397	269.5
325.626	288.5
325.855	299.5
326.084	283.5
326.313	299.5
326.542	299.5
326.77	273.5
326.999	281.5
327.228	289.5
327.457	281.5
327.686	294.5
327.914	279.5
328.143	270.5
328.372	261.5
328.6	292.5
328.829	279.5
329.058	291.5
329.287	272.5
329.515	269.5
329.744	301.5
329.972	293.5
330.201	286.5
330.43	283.5
330.658	298.5
330.887	292.5
331.115	307.5
331.344	292.5
331.572	302.5
331.801	279.5
332.03	297.5
332.258	298.5
332.486	305.5
332.715	324.5
332.943	336.5
333.172	351.5
333.4	359.5
333.629	370.5
333.857	365.5
334.085	361.5
334.314	347.5
334.542	356.5
334.771	354.5
334.999	337.5
335.227	350.5
335.455	350.5
335.684	333.5
335.912	331.5
336.14	335.5
336.369	321.5
336.597	327.5
336.825	332.5
337.053	327.5
337.281	351.5
337.51	323.5
337.738	318.5
337.966	309.5
338.194	327.5
338.422	317.5
338.65	323.5
338.878	325.5
339.106	304.5
339.334	310.5
339.562	299.5
339.79	290.5
340.018	304.5
340.246	309.5
340.474	296.5
340.702	296.5
340.93	302.5
341.158	294.5
341.386	285.5
341.614	291.5
341.842	307.5
342.07	287.5
342.298	316.5
342.526	303.5
342.754	291.5
342.981	296.5
343.209	317.5
343.437	320.5
343.665	337.5
343.893	345.5
344.12	349.5
344.348	342.5
344.576	319.5
344.804	330.5
345.031	291.5
345.259	288.5
345.487	301.5
345.714	291.5
345.942	300.5
346.17	292.5
346.397	291.5
346.625	272.5
346.853	293.5
347.08	290.5
347.308	289.5
347.535	284.5
347.763	299.5
347.99	307.5
348.218	300.5
348.445	279.5
348.673	301.5
348.9	278.5
349.128	312.5
349.355	272.5
349.583	284.5
349.81	279.5
350.037	287.5
350.265	277.5
350.492	297.5
350.72	270.5
350.947	286.5
351.174	292.5
351.402	292.5
351.629	276.5
351.856	282.5
352.083	295.5
352.311	272.5
352.538	274.5
352.765	277.5
352.992	277.5
353.22	281.5
353.447	279.5
353.674	283.5
353.901	273.5
354.128	288.5
354.355	288.5
354.583	261.5
354.81	269.5
355.037	284.5
355.264	283.5
355.491	286.5
355.718	282.5
355.945	290.5
356.172	297.5
356.399	296.5
356.626	300.5
356.853	286.5
357.08	274.5
357.307	294.5
357.534	278.5
357.761	289.5
357.988	296.5
358.215	299.5
358.441	294.5
358.668	287.5
358.895	286.5
359.122	277.5
359.349	279.5
359.576	288.5
359.802	293.5
360.029	293.5
360.256	280.5
360.483	274.5
360.709	292.5
360.936	283.5
361.163	278.5
361.39	278.5
361.616	299.5
361.843	293.5
362.07	300.5
362.296	276.5
362.523	260.5
362.749	283.5
362.976	288.5
363.203	283.5
363.429	277.5
363.656	287.5
363.882	300.5
364.109	285.5
364.335	282.5
364.562	287.5
364.788	277.5
365.015	285.5
365.241	283.5
365.468	293.5
365.694	287.5
365.92	301.5
366.147	263.5
366.373	273.5
366.599	295.5
366.826	273.5
367.052	277.5
367.278	288.5
367.505	292.5
367.731	296.5
367.957	295.5
368.184	299.5
368.41	297.5
368.636	296.5
368.862	284.5
369.089	286.5
369.315	305.5
369.541	302.5
369.767	295.5
369.993	317.5
370.219	302.5
370.445	304.5
370.672	314.5
370.898	326.5
371.124	302.5
371.35	303.5
371.576	301.5
371.802	315.5
372.028	306.5
372.254	337.5
372.48	295.5
372.706	319.5
372.932	330.5
373.158	317.5
373.384	320.5
373.61	314.5
373.835	314.5
374.061	307.5
374.287	317.5
374.513	322.5
374.739	337.5
374.965	349.5
375.191	352.5
375.416	327.5
375.642	325.5
375.868	340.5
376.094	343.5
376.319	288.5
376.545	326.5
376.771	311.5
376.997	326.5
377.222	315.5
377.448	290.5
377.674	318.5
377.899	323.5
378.125	327.5
378.35	295.5
378.576	305.5
378.802	303.5
379.027	309.5
379.253	317.5
379.478	307.5
379.704	301.5
379.929	303.5
380.155	315.5
380.38	319.5
380.606	296.5
380.831	304.5
381.057	317.5
381.282	329.5
381.507	316.5
381.733	310.5
381.958	323.5
382.184	333.5
382.409	327.5
382.634	312.5
382.86	323.5
383.085	334.5
383.31	323.5
383.535	333.5
383.761	338.5
383.986	360.5
384.211	335.5
384.436	364.5
384.662	333.5
384.887	353.5
385.112	358.5
385.337	378.5
385.562	351.5
385.787	369.5
386.013	361.5
386.238	371.5
386.463	372.5
386.688	375.5
386.913	360.5
387.138	345.5
387.363	364.5
387.588	359.5
387.813	379.5
388.038	364.5
388.263	360.5
388.488	360.5
388.713	376.5
388.938	335.5
389.163	367.5
389.387	380.5
389.612	363.5
389.837	349.5
390.062	356.5
390.287	339.5
390.512	361.5
390.736	364.5
390.961	357.5
391.186	384.5
391.411	379.5
391.636	358.5
391.86	395.5
392.085	391.5
392.31	400.5
392.534	395.5
392.759	410.5
392.984	390.5
393.208	376.5
393.433	380.5
393.658	395.5
393.882	396.5
394.107	383.5
394.331	396.5
394.556	382.5
394.78	368.5
395.005	386.5
395.229	411.5
395.454	399.5
395.678	412.5
395.903	403.5
396.127	409.5
396.352	405.5
396.576	381.5
396.801	378.5
397.025	383.5
397.249	398.5
397.474	428.5
397.698	407.5
397.922	427.5
398.147	408.5
398.371	391.5
398.595	415.5
398.82	442.5
399.044	455.5
399.268	517.5
399.492	585.5
399.717	620.5
399.941	623.5
400.165	564.5
400.389	509.5
400.613	490.5
400.837	463.5
401.062	448.5
401.286	462.5
401.51	422.5
401.734	445.5
401.958	449.5
402.182	463.5
402.406	438.5
402.63	472.5
402.854	462.5
403.078	446.5
403.302	461.5
403.526	502.5
403.75	496.5
403.974	523.5
404.198	501.5
404.422	494.5
404.645	488.5
404.869	505.5
405.093	495.5
405.317	500.5
405.541	495.5
405.765	468.5
405.988	480.5
406.212	492.5
406.436	498.5
406.66	499.5
406.883	509.5
407.107	532.5
407.331	530.5
407.555	564.5
407.778	549.5
408.002	534.5
408.226	533.5
408.449	515.5
408.673	515.5
408.896	524.5
409.12	503.5
409.344	507.5
409.567	495.5
409.791	512.5
410.014	491.5
410.238	519.5
410.461	490.5
410.685	510.5
410.908	481.5
411.132	465.5
411.355	483.5
411.578	483.5
411.802	463.5
412.025	482.5
412.249	470.5
412.472	472.5
412.695	440.5
412.919	434.5
413.142	446.5
413.365	453.5
413.589	458.5
413.812	445.5
414.035	468.5
414.258	445.5
414.482	460.5
414.705	462.5
414.928	450.5
415.151	451.5
415.374	453.5
415.597	474.5
415.821	445.5
416.044	452.5
416.267	439.5
416.49	451.5
416.713	454.5
416.936	456.5
417.159	422.5
417.382	455.5
417.605	451.5
417.828	452.5
418.051	448.5
418.274	458.5
418.497	431.5
418.72	477.5
418.943	454.5
419.166	480.5
419.389	504.5
419.611	483.5
419.834	477.5
420.057	471.5
420.28	452.5
420.503	437.5
420.726	447.5
420.948	448.5
421.171	442.5
421.394	437.5
421.617	451.5
421.839	449.5
422.062	433.5
422.285	447.5
422.507	464.5
422.73	457.5
422.953	469.5
423.175	469.5
423.398	475.5
423.621	487.5
423.843	491.5
424.066	467.5
424.288	476.5
424.511	480.5
424.733	453.5
424.956	463.5
425.178	468.5
425.401	461.5
425.623	446.5
425.846	449.5
426.068	414.5
426.291	430.5
426.513	421.5
426.735	440.5
426.958	443.5
427.18	412.5
427.402	417.5
427.625	412.5
427.847	417.5
428.069	418.5
428.292	409.5
428.514	398.5
428.736	404.5
428.958	415.5
429.181	421.5
429.403	400.5
429.625	395.5
429.847	400.5
430.069	406.5
430.292	407.5
430.514	413.5
430.736	406.5
430.958	400.5
431.18	420.5
431.402	416.5
431.624	408.5
431.846	422.5
432.068	426.5
432.29	422.5
432.512	416.5
432.734	422.5
432.956	409.5
433.178	419.5
433.4	412.5
433.622	427.5
433.844	431.5
434.066	432.5
434.287	411.5
434.509	435.5
434.731	437.5
434.953	445.5
435.175	449.5
435.397	440.5
435.618	429.5
435.84	432.5
436.062	423.5
436.284	419.5
436.505	429.5
436.727	424.5
436.949	426.5
437.17	435.5
437.392	419.5
437.614	403.5
437.835	406.5
438.057	404.5
438.278	377.5
438.5	400.5
438.721	419.5
438.943	419.5
439.165	416.5
439.386	426.5
439.608	427.5
439.829	419.5
440.05	422.5
440.272	427.5
440.493	434.5
440.715	429.5
440.936	444.5
441.158	449.5
441.379	447.5
441.6	484.5
441.822	467.5
442.043	474.5
442.264	444.5
442.486	437.5
442.707	459.5
442.928	463.5
443.149	457.5
443.371	454.5
443.592	466.5
443.813	464.5
444.034	491.5
444.255	489.5
444.476	484.5
444.698	496.5
444.919	544.5
445.14	584.5
445.361	540.5
445.582	460.5
445.803	441.5
446.024	455.5
446.245	462.5
446.466	421.5
446.687	432.5
446.908	430.5
447.129	415.5
447.35	416.5
447.571	406.5
447.792	419.5
448.013	427.5
448.234	404.5
448.455	393.5
448.675	397.5
448.896	388.5
449.117	413.5
449.338	409.5
449.559	401.5
449.779	389.5
450	399.5
450.221	412.5
450.442	408.5
450.662	391.5
450.883	385.5
451.104	424.5
451.324	416.5
451.545	384.5
451.766	401.5
451.986	412.5
452.207	399.5
452.428	367.5
452.648	383.5
452.869	391.5
453.089	362.5
453.31	387.5
453.53	363.5
453.751	361.5
453.971	368.5
454.192	337.5
454.412	357.5
454.633	393.5
454.853	368.5
455.073	367.5
455.294	375.5
455.514	385.5
455.734	363.5
455.955	368.5
456.175	359.5
456.395	388.5
456.616	331.5
456.836	358.5
457.056	352.5
457.276	360.5
457.497	354.5
457.717	369.5
457.937	368.5
458.157	395.5
458.377	375.5
458.598	375.5
458.818	399.5
459.038	373.5
459.258	408.5
459.478	416.5
459.698	416.5
459.918	431.5
460.138	455.5
460.358	491.5
460.578	465.5
460.798	488.5
461.018	460.5
461.238	461.5
461.458	468.5
461.678	475.5
461.898	479.5
462.118	489.5
462.338	519.5
462.558	504.5
462.777	519.5
462.997	576.5
463.217	608.5
463.437	604.5
463.657	551.5
463.876	554.5
464.096	546.5
464.316	549.5
464.536	551.5
464.755	521.5
464.975	519.5
465.195	474.5
465.414	503.5
465.634	437.5
465.854	415.5
466.073	416.5
466.293	419.5
466.512	419.5
466.732	402.5
466.951	414.5
467.171	419.5
467.391	414.5
467.61	413.5
467.829	406.5
468.049	413.5
468.268	400.5
468.488	374.5
468.707	374.5
468.927	378.5
469.146	386.5
469.365	407.5
469.585	398.5
469.804	399.5
470.023	423.5
470.243	422.5
470.462	413.5
470.681	400.5
470.901	411.5
471.12	407.5
471.339	409.5
471.558	388.5
471.777	395.5
471.997	399.5
472.216	394.5
472.435	374.5
472.654	360.5
472.873	387.5
473.092	377.5
473.311	369.5
473.53	379.5
473.749	367.5
473.968	389.5
474.187	389.5
474.406	380.5
474.625	377.5
474.844	381.5
475.063	369.5
475.282	387.5
475.501	359.5
475.72	384.5
475.939	382.5
476.158	376.5
476.377	402.5
476.596	396.5
476.814	377.5
477.033	412.5
477.252	385.5
477.471	414.5
477.69	414.5
477.908	419.5
478.127	433.5
478.346	429.5
478.564	438.5
478.783	428.5
479.002	457.5
479.22	451.5
479.439	435.5
479.658	442.5
479.876	445.5
480.095	449.5
480.313	465.5
480.532	482.5
480.751	484.5
480.969	457.5
481.188	430.5
481.406	421.5
481.624	407.5
481.843	388.5
482.061	405.5
482.28	413.5
482.498	412.5
482.717	413.5
482.935	393.5
483.153	412.5
483.372	424.5
483.59	411.5
483.808	411.5
484.027	431.5
484.245	415.5
484.463	417.5
484.681	439.5
484.9	426.5
485.118	422.5
485.336	401.5
485.554	418.5
485.772	419.5
485.99	443.5
486.209	423.5
486.427	406.5
486.645	430.5
486.863	451.5
487.081	443.5
487.299	437.5
487.517	418.5
487.735	443.5
487.953	426.5
488.171	437.5
488.389	429.5
488.607	425.5
488.825	446.5
489.043	420.5
489.261	403.5
489.479	421.5
489.696	421.5
489.914	423.5
490.132	425.5
490.35	429.5
490.568	416.5
490.786	427.5
491.003	430.5
491.221	435.5
491.439	453.5
491.657	420.5
491.874	439.5
492.092	457.5
492.31	461.5
492.527	464.5
492.745	460.5
492.963	455.5
493.18	460.5
493.398	463.5
493.615	461.5
493.833	434.5
494.05	430.5
494.268	454.5
494.485	446.5
494.703	457.5
494.92	470.5
495.138	473.5
495.355	449.5
495.573	469.5
495.79	451.5
496.008	471.5
496.225	459.5
496.442	469.5
496.66	482.5
496.877	502.5
497.094	492.5
497.312	525.5
497.529	517.5
497.746	520.5
497.963	508.5
498.181	537.5
498.398	544.5
498.615	575.5
498.832	630.5
499.049	648.5
499.267	678.5
499.484	758.5
499.701	840.5
499.918	887.5
500.135	1007.5
500.352	1129.5
500.569	1180.5
500.786	1169.5
501.003	1070.5
501.22	955.5
501.437	893.5
501.654	770.5
501.871	714.5
502.088	667.5
502.305	658.5
502.522	613.5
502.739	603.5
502.956	573.5
503.172	568.5
503.389	502.5
503.606	481.5
503.823	511.5
504.04	494.5
504.256	499.5
504.473	493.5
504.69	503.5
504.907	520.5
505.123	466.5
505.34	459.5
505.557	437.5
505.773	447.5
505.99	439.5
506.207	438.5
506.423	422.5
506.64	406.5
506.856	393.5
507.073	411.5
507.289	408.5
507.506	395.5
507.722	411.5
507.939	420.5
508.155	404.5
508.372	385.5
508.588	382.5
508.805	393.5
509.021	379.5
509.238	387.5
509.454	380.5
509.67	381.5
509.887	383.5
510.103	371.5
510.319	380.5
510.536	380.5
510.752	386.5
510.968	377.5
511.184	373.5
511.401	364.5
511.617	360.5
511.833	368.5
512.049	350.5
512.265	367.5
512.481	351.5
512.698	351.5
512.914	358.5
513.13	357.5
513.346	365.5
513.562	360.5
513.778	356.5
513.994	382.5
514.21	381.5
514.426	366.5
514.642	360.5
514.858	368.5
515.074	383.5
515.29	379.5
515.506	364.5
515.721	395.5
515.937	405.5
516.153	407.5
516.369	400.5
516.585	397.5
516.801	412.5
517.016	435.5
517.232	457.5
517.448	476.5
517.664	496.5
517.879	474.5
518.095	475.5
518.311	487.5
518.527	463.5
518.742	429.5
518.958	419.5
519.173	409.5
519.389	402.5
519.605	389.5
