Data from Fe(NO3)3@0.05M.TitratingCurve.Agarose3%dH2O.NegLispCup.LampEnergy10.LIBS07252019_HRD10591_16-47-55-334.txt Node
Date: Thu Jul 25 16:47:55 EDT 2019
User: cochatt
Spectrometer: HR+D1059
Trigger mode: 1
Integration Time (sec): 1.000000E-1
Scans to average: 1
Electric dark correction enabled: true
Nonlinearity correction enabled: false
Boxcar width: 0
XAxis mode: Wavelengths
Number of Pixels in Spectrum: 2048
>>>>>Begin Spectral Data<<<<<
223.165	-12.44
223.4	-12.44
223.635	-12.44
223.869	-8.44
224.104	-8.44
224.338	-14.44
224.573	-9.44
224.808	-26.44
225.042	-14.44
225.277	-0.44
225.511	-2.44
225.746	-1.44
225.98	13.56
226.215	22.56
226.449	4.56
226.683	14.56
226.918	7.56
227.152	35.56
227.387	25.56
227.621	38.56
227.856	44.56
228.09	29.56
228.324	51.56
228.559	60.56
228.793	68.56
229.027	70.56
229.262	64.56
229.496	78.56
229.73	77.56
229.964	83.56
230.199	105.56
230.433	71.56
230.667	88.56
230.901	73.56
231.136	87.56
231.37	67.56
231.604	85.56
231.838	90.56
232.072	87.56
232.306	89.56
232.541	95.56
232.775	82.56
233.009	78.56
233.243	85.56
233.477	88.56
233.711	86.56
233.945	77.56
234.179	90.56
234.413	85.56
234.647	83.56
234.881	90.56
235.115	98.56
235.349	92.56
235.583	105.56
235.817	87.56
236.051	95.56
236.285	89.56
236.519	105.56
236.753	98.56
236.987	88.56
237.221	94.56
237.455	89.56
237.689	100.56
237.922	83.56
238.156	98.56
238.39	92.56
238.624	100.56
238.858	102.56
239.091	90.56
239.325	85.56
239.559	93.56
239.793	86.56
240.027	109.56
240.26	103.56
240.494	98.56
240.728	91.56
240.961	88.56
241.195	92.56
241.429	81.56
241.662	99.56
241.896	83.56
242.13	92.56
242.363	98.56
242.597	75.56
242.83	93.56
243.064	95.56
243.298	95.56
243.531	99.56
243.765	97.56
243.998	87.56
244.232	79.56
244.465	98.56
244.699	110.56
244.932	79.56
245.166	87.56
245.399	91.56
245.633	95.56
245.866	102.56
246.099	83.56
246.333	103.56
246.566	107.56
246.8	99.56
247.033	92.56
247.266	101.56
247.5	106.56
247.733	116.56
247.966	99.56
248.2	101.56
248.433	112.56
248.666	100.56
248.899	114.56
249.133	92.56
249.366	102.56
249.599	101.56
249.832	108.56
250.066	103.56
250.299	99.56
250.532	111.56
250.765	119.56
250.998	91.56
251.231	107.56
251.465	106.56
251.698	99.56
251.931	94.56
252.164	115.56
252.397	107.56
252.63	102.56
252.863	116.56
253.096	115.56
253.329	92.56
253.562	96.56
253.795	111.56
254.028	105.56
254.261	111.56
254.494	101.56
254.727	108.56
254.96	112.56
255.193	102.56
255.426	101.56
255.659	109.56
255.892	100.56
256.124	120.56
256.357	117.56
256.59	116.56
256.823	108.56
257.056	111.56
257.289	91.56
257.521	109.56
257.754	107.56
257.987	119.56
258.22	93.56
258.452	114.56
258.685	104.56
258.918	113.56
259.151	114.56
259.383	109.56
259.616	117.56
259.849	113.56
260.081	125.56
260.314	122.56
260.547	117.56
260.779	119.56
261.012	117.56
261.244	116.56
261.477	128.56
261.71	114.56
261.942	111.56
262.175	112.56
262.407	111.56
262.64	106.56
262.872	123.56
263.105	125.56
263.337	116.56
263.57	124.56
263.802	116.56
264.035	126.56
264.267	125.56
264.499	114.56
264.732	112.56
264.964	109.56
265.197	132.56
265.429	123.56
265.661	111.56
265.894	108.56
266.126	119.56
266.358	117.56
266.591	115.56
266.823	112.56
267.055	113.56
267.287	127.56
267.52	100.56
267.752	108.56
267.984	117.56
268.216	115.56
268.448	107.56
268.681	122.56
268.913	122.56
269.145	116.56
269.377	120.56
269.609	116.56
269.841	134.56
270.073	130.56
270.306	100.56
270.538	131.56
270.77	111.56
271.002	132.56
271.234	123.56
271.466	131.56
271.698	122.56
271.93	136.56
272.162	130.56
272.394	132.56
272.626	137.56
272.858	123.56
273.09	123.56
273.322	119.56
273.553	124.56
273.785	121.56
274.017	138.56
274.249	135.56
274.481	137.56
274.713	135.56
274.945	135.56
275.176	138.56
275.408	139.56
275.64	145.56
275.872	137.56
276.104	155.56
276.335	125.56
276.567	117.56
276.799	128.56
277.031	131.56
277.262	125.56
277.494	132.56
277.726	140.56
277.957	124.56
278.189	145.56
278.421	131.56
278.652	126.56
278.884	130.56
279.115	132.56
279.347	123.56
279.579	122.56
279.81	121.56
280.042	133.56
280.273	141.56
280.505	108.56
280.736	120.56
280.968	129.56
281.199	129.56
281.431	127.56
281.662	139.56
281.894	134.56
282.125	140.56
282.356	123.56
282.588	111.56
282.819	138.56
283.051	131.56
283.282	140.56
283.513	135.56
283.745	124.56
283.976	141.56
284.207	141.56
284.439	135.56
284.67	137.56
284.901	135.56
285.132	152.56
285.364	140.56
285.595	131.56
285.826	145.56
286.057	127.56
286.288	140.56
286.52	139.56
286.751	140.56
286.982	143.56
287.213	141.56
287.444	131.56
287.675	133.56
287.906	145.56
288.138	129.56
288.369	140.56
288.6	131.56
288.831	131.56
289.062	120.56
289.293	127.56
289.524	131.56
289.755	132.56
289.986	135.56
290.217	135.56
290.448	140.56
290.679	123.56
290.91	139.56
291.141	146.56
291.371	130.56
291.602	123.56
291.833	144.56
292.064	137.56
292.295	133.56
292.526	150.56
292.757	146.56
292.987	155.56
293.218	135.56
293.449	134.56
293.68	135.56
293.91	133.56
294.141	160.56
294.372	150.56
294.603	130.56
294.833	142.56
295.064	140.56
295.295	147.56
295.525	127.56
295.756	145.56
295.987	141.56
296.217	156.56
296.448	151.56
296.679	125.56
296.909	135.56
297.14	132.56
297.37	160.56
297.601	147.56
297.831	132.56
298.062	120.56
298.292	138.56
298.523	159.56
298.753	139.56
298.984	150.56
299.214	140.56
299.445	125.56
299.675	148.56
299.905	147.56
300.136	141.56
300.366	141.56
300.597	139.56
300.827	136.56
301.057	161.56
301.288	153.56
301.518	132.56
301.748	139.56
301.979	157.56
302.209	159.56
302.439	150.56
302.669	159.56
302.9	139.56
303.13	156.56
303.36	139.56
303.59	124.56
303.82	137.56
304.051	148.56
304.281	147.56
304.511	144.56
304.741	153.56
304.971	140.56
305.201	142.56
305.431	153.56
305.661	155.56
305.891	149.56
306.121	139.56
306.352	149.56
306.582	146.56
306.812	125.56
307.042	154.56
307.272	148.56
307.502	143.56
307.731	154.56
307.961	156.56
308.191	143.56
308.421	138.56
308.651	164.56
308.881	140.56
309.111	152.56
309.341	156.56
309.571	148.56
309.8	147.56
310.03	157.56
310.26	157.56
310.49	171.56
310.72	152.56
310.949	174.56
311.179	164.56
311.409	149.56
311.639	159.56
311.868	126.56
312.098	152.56
312.328	139.56
312.557	151.56
312.787	127.56
313.017	149.56
313.246	154.56
313.476	161.56
313.706	152.56
313.935	162.56
314.165	158.56
314.394	156.56
314.624	160.56
314.853	151.56
315.083	163.56
315.312	155.56
315.542	150.56
315.771	169.56
316.001	163.56
316.23	159.56
316.46	165.56
316.689	144.56
316.919	165.56
317.148	157.56
317.377	148.56
317.607	162.56
317.836	136.56
318.065	161.56
318.295	164.56
318.524	148.56
318.753	170.56
318.983	172.56
319.212	152.56
319.441	160.56
319.67	156.56
319.9	160.56
320.129	162.56
320.358	177.56
320.587	161.56
320.816	168.56
321.046	169.56
321.275	186.56
321.504	165.56
321.733	157.56
321.962	161.56
322.191	147.56
322.42	162.56
322.649	160.56
322.878	170.56
323.108	179.56
323.337	165.56
323.566	162.56
323.795	164.56
324.024	178.56
324.253	179.56
324.482	145.56
324.71	168.56
324.939	171.56
325.168	157.56
325.397	164.56
325.626	168.56
325.855	155.56
326.084	159.56
326.313	164.56
326.542	162.56
326.77	170.56
326.999	180.56
327.228	165.56
327.457	157.56
327.686	173.56
327.914	172.56
328.143	176.56
328.372	168.56
328.6	175.56
328.829	157.56
329.058	160.56
329.287	164.56
329.515	172.56
329.744	166.56
329.972	157.56
330.201	168.56
330.43	165.56
330.658	180.56
330.887	185.56
331.115	172.56
331.344	189.56
331.572	159.56
331.801	168.56
332.03	160.56
332.258	184.56
332.486	185.56
332.715	181.56
332.943	179.56
333.172	189.56
333.4	187.56
333.629	200.56
333.857	202.56
334.085	200.56
334.314	197.56
334.542	197.56
334.771	201.56
334.999	193.56
335.227	195.56
335.455	180.56
335.684	181.56
335.912	179.56
336.14	162.56
336.369	180.56
336.597	169.56
336.825	170.56
337.053	184.56
337.281	170.56
337.51	180.56
337.738	189.56
337.966	168.56
338.194	191.56
338.422	172.56
338.65	191.56
338.878	187.56
339.106	170.56
339.334	184.56
339.562	170.56
339.79	187.56
340.018	170.56
340.246	157.56
340.474	185.56
340.702	181.56
340.93	182.56
341.158	188.56
341.386	170.56
341.614	168.56
341.842	187.56
342.07	176.56
342.298	183.56
342.526	168.56
342.754	180.56
342.981	187.56
343.209	179.56
343.437	196.56
343.665	177.56
343.893	171.56
344.12	184.56
344.348	198.56
344.576	208.56
344.804	165.56
345.031	187.56
345.259	172.56
345.487	182.56
345.714	183.56
345.942	172.56
346.17	175.56
346.397	177.56
346.625	200.56
346.853	175.56
347.08	184.56
347.308	179.56
347.535	176.56
347.763	169.56
347.99	168.56
348.218	170.56
348.445	172.56
348.673	171.56
348.9	182.56
349.128	175.56
349.355	181.56
349.583	192.56
349.81	185.56
350.037	196.56
350.265	169.56
350.492	181.56
350.72	156.56
350.947	176.56
351.174	179.56
351.402	185.56
351.629	179.56
351.856	173.56
352.083	167.56
352.311	180.56
352.538	162.56
352.765	183.56
352.992	184.56
353.22	157.56
353.447	172.56
353.674	165.56
353.901	175.56
354.128	182.56
354.355	188.56
354.583	172.56
354.81	183.56
355.037	177.56
355.264	175.56
355.491	187.56
355.718	191.56
355.945	175.56
356.172	180.56
356.399	190.56
356.626	173.56
356.853	169.56
357.08	188.56
357.307	172.56
357.534	196.56
357.761	183.56
357.988	185.56
358.215	196.56
358.441	196.56
358.668	176.56
358.895	188.56
359.122	191.56
359.349	187.56
359.576	165.56
359.802	177.56
360.029	176.56
360.256	175.56
360.483	177.56
360.709	180.56
360.936	183.56
361.163	198.56
361.39	171.56
361.616	189.56
361.843	185.56
362.07	188.56
362.296	172.56
362.523	171.56
362.749	199.56
362.976	186.56
363.203	196.56
363.429	182.56
363.656	187.56
363.882	194.56
364.109	191.56
364.335	184.56
364.562	175.56
364.788	186.56
365.015	173.56
365.241	201.56
365.468	178.56
365.694	189.56
365.92	200.56
366.147	187.56
366.373	171.56
366.599	209.56
366.826	187.56
367.052	187.56
367.278	188.56
367.505	183.56
367.731	195.56
367.957	181.56
368.184	185.56
368.41	189.56
368.636	183.56
368.862	205.56
369.089	189.56
369.315	187.56
369.541	179.56
369.767	198.56
369.993	195.56
370.219	198.56
370.445	177.56
370.672	193.56
370.898	201.56
371.124	188.56
371.35	203.56
371.576	199.56
371.802	199.56
372.028	201.56
372.254	215.56
372.48	203.56
372.706	205.56
372.932	221.56
373.158	200.56
373.384	200.56
373.61	229.56
373.835	214.56
374.061	182.56
374.287	220.56
374.513	190.56
374.739	207.56
374.965	224.56
375.191	229.56
375.416	205.56
375.642	205.56
375.868	217.56
376.094	228.56
376.319	218.56
376.545	225.56
376.771	219.56
376.997	205.56
377.222	207.56
377.448	199.56
377.674	232.56
377.899	199.56
378.125	207.56
378.35	213.56
378.576	204.56
378.802	188.56
379.027	216.56
379.253	222.56
379.478	216.56
379.704	213.56
379.929	210.56
380.155	215.56
380.38	199.56
380.606	211.56
380.831	215.56
381.057	223.56
381.282	208.56
381.507	220.56
381.733	211.56
381.958	226.56
382.184	237.56
382.409	213.56
382.634	251.56
382.86	243.56
383.085	227.56
383.31	239.56
383.535	222.56
383.761	240.56
383.986	223.56
384.211	238.56
384.436	229.56
384.662	225.56
384.887	227.56
385.112	241.56
385.337	226.56
385.562	249.56
385.787	263.56
386.013	268.56
386.238	235.56
386.463	242.56
386.688	246.56
386.913	241.56
387.138	244.56
387.363	272.56
387.588	241.56
387.813	256.56
388.038	238.56
388.263	236.56
388.488	255.56
388.713	235.56
388.938	262.56
389.163	244.56
389.387	241.56
389.612	242.56
389.837	244.56
390.062	250.56
390.287	271.56
390.512	248.56
390.736	266.56
390.961	257.56
391.186	248.56
391.411	263.56
391.636	247.56
391.86	270.56
392.085	257.56
392.31	261.56
392.534	260.56
392.759	271.56
392.984	259.56
393.208	267.56
393.433	273.56
393.658	277.56
393.882	266.56
394.107	257.56
394.331	273.56
394.556	259.56
394.78	269.56
395.005	278.56
395.229	276.56
395.454	271.56
395.678	263.56
395.903	281.56
396.127	284.56
396.352	270.56
396.576	269.56
396.801	273.56
397.025	269.56
397.249	285.56
397.474	275.56
397.698	280.56
397.922	305.56
398.147	282.56
398.371	283.56
398.595	288.56
398.82	299.56
399.044	317.56
399.268	341.56
399.492	338.56
399.717	352.56
399.941	351.56
400.165	341.56
400.389	324.56
400.613	354.56
400.837	313.56
401.062	312.56
401.286	308.56
401.51	307.56
401.734	306.56
401.958	305.56
402.182	308.56
402.406	288.56
402.63	307.56
402.854	319.56
403.078	324.56
403.302	288.56
403.526	295.56
403.75	297.56
403.974	319.56
404.198	301.56
404.422	314.56
404.645	328.56
404.869	324.56
405.093	315.56
405.317	320.56
405.541	319.56
405.765	309.56
405.988	329.56
406.212	326.56
406.436	331.56
406.66	315.56
406.883	328.56
407.107	338.56
407.331	344.56
407.555	335.56
407.778	350.56
408.002	340.56
408.226	365.56
408.449	340.56
408.673	335.56
408.896	316.56
409.12	333.56
409.344	328.56
409.567	312.56
409.791	321.56
410.014	317.56
410.238	348.56
410.461	332.56
410.685	343.56
410.908	339.56
411.132	325.56
411.355	316.56
411.578	322.56
411.802	299.56
412.025	322.56
412.249	323.56
412.472	332.56
412.695	303.56
412.919	324.56
413.142	327.56
413.365	321.56
413.589	337.56
413.812	311.56
414.035	306.56
414.258	323.56
414.482	298.56
414.705	316.56
414.928	317.56
415.151	338.56
415.374	317.56
415.597	325.56
415.821	322.56
416.044	316.56
416.267	314.56
416.49	290.56
416.713	303.56
416.936	316.56
417.159	321.56
417.382	317.56
417.605	320.56
417.828	313.56
418.051	315.56
418.274	295.56
418.497	321.56
418.72	323.56
418.943	297.56
419.166	330.56
419.389	317.56
419.611	355.56
419.834	325.56
420.057	332.56
420.28	325.56
420.503	298.56
420.726	317.56
420.948	316.56
421.171	326.56
421.394	317.56
421.617	323.56
421.839	293.56
422.062	323.56
422.285	300.56
422.507	316.56
422.73	329.56
422.953	319.56
423.175	328.56
423.398	303.56
423.621	325.56
423.843	338.56
424.066	328.56
424.288	328.56
424.511	320.56
424.733	323.56
424.956	319.56
425.178	321.56
425.401	335.56
425.623	327.56
425.846	324.56
426.068	305.56
426.291	311.56
426.513	319.56
426.735	311.56
426.958	313.56
427.18	296.56
427.402	313.56
427.625	328.56
427.847	330.56
428.069	304.56
428.292	309.56
428.514	316.56
428.736	300.56
428.958	328.56
429.181	306.56
429.403	311.56
429.625	320.56
429.847	316.56
430.069	296.56
430.292	308.56
430.514	313.56
430.736	302.56
430.958	332.56
431.18	311.56
431.402	319.56
431.624	314.56
431.846	292.56
432.068	296.56
432.29	311.56
432.512	324.56
432.734	308.56
432.956	320.56
433.178	322.56
433.4	323.56
433.622	337.56
433.844	372.56
434.066	309.56
434.287	309.56
434.509	327.56
434.731	320.56
434.953	328.56
435.175	335.56
435.397	325.56
435.618	321.56
435.84	333.56
436.062	320.56
436.284	340.56
436.505	315.56
436.727	325.56
436.949	317.56
437.17	338.56
437.392	333.56
437.614	317.56
437.835	303.56
438.057	301.56
438.278	333.56
438.5	309.56
438.721	318.56
438.943	325.56
439.165	302.56
439.386	333.56
439.608	345.56
439.829	331.56
440.05	333.56
440.272	328.56
440.493	317.56
440.715	320.56
440.936	328.56
441.158	344.56
441.379	339.56
441.6	347.56
441.822	328.56
442.043	348.56
442.264	339.56
442.486	357.56
442.707	360.56
442.928	339.56
443.149	350.56
443.371	339.56
443.592	346.56
443.813	358.56
444.034	347.56
444.255	347.56
444.476	361.56
444.698	360.56
444.919	381.56
445.14	509.56
445.361	402.56
445.582	344.56
445.803	343.56
446.024	334.56
446.245	322.56
446.466	335.56
446.687	339.56
446.908	342.56
447.129	328.56
447.35	339.56
447.571	355.56
447.792	337.56
448.013	326.56
448.234	327.56
448.455	329.56
448.675	324.56
448.896	303.56
449.117	314.56
449.338	311.56
449.559	320.56
449.779	312.56
450	309.56
450.221	318.56
450.442	313.56
450.662	309.56
450.883	317.56
451.104	341.56
451.324	304.56
451.545	324.56
451.766	321.56
451.986	300.56
452.207	298.56
452.428	303.56
452.648	309.56
452.869	296.56
453.089	315.56
453.31	307.56
453.53	316.56
453.751	305.56
453.971	302.56
454.192	294.56
454.412	301.56
454.633	303.56
454.853	293.56
455.073	306.56
455.294	312.56
455.514	287.56
455.734	308.56
455.955	303.56
456.175	290.56
456.395	311.56
456.616	300.56
456.836	291.56
457.056	307.56
457.276	308.56
457.497	296.56
457.717	302.56
457.937	300.56
458.157	289.56
458.377	308.56
458.598	309.56
458.818	320.56
459.038	291.56
459.258	313.56
459.478	311.56
459.698	322.56
459.918	345.56
460.138	333.56
460.358	352.56
460.578	349.56
460.798	347.56
461.018	357.56
461.238	343.56
461.458	374.56
461.678	349.56
461.898	385.56
462.118	345.56
462.338	376.56
462.558	367.56
462.777	394.56
462.997	410.56
463.217	416.56
463.437	391.56
463.657	399.56
463.876	403.56
464.096	389.56
464.316	393.56
464.536	381.56
464.755	396.56
464.975	380.56
465.195	352.56
465.414	363.56
465.634	368.56
465.854	367.56
466.073	351.56
466.293	347.56
466.512	346.56
466.732	342.56
466.951	360.56
467.171	317.56
467.391	346.56
467.61	351.56
467.829	342.56
468.049	340.56
468.268	327.56
468.488	343.56
468.707	314.56
468.927	328.56
469.146	354.56
469.365	328.56
469.585	340.56
469.804	331.56
470.023	336.56
470.243	347.56
470.462	336.56
470.681	344.56
470.901	354.56
471.12	341.56
471.339	339.56
471.558	339.56
471.777	338.56
471.997	327.56
472.216	321.56
472.435	323.56
472.654	327.56
472.873	325.56
473.092	339.56
473.311	329.56
473.53	356.56
473.749	322.56
473.968	356.56
474.187	337.56
474.406	339.56
474.625	339.56
474.844	343.56
475.063	346.56
475.282	323.56
475.501	335.56
475.72	345.56
475.939	366.56
476.158	361.56
476.377	363.56
476.596	374.56
476.814	379.56
477.033	342.56
477.252	353.56
477.471	355.56
477.69	375.56
477.908	362.56
478.127	387.56
478.346	389.56
478.564	368.56
478.783	378.56
479.002	390.56
479.22	387.56
479.439	401.56
479.658	410.56
479.876	386.56
480.095	385.56
480.313	425.56
480.532	404.56
480.751	424.56
480.969	416.56
481.188	407.56
481.406	394.56
481.624	378.56
481.843	374.56
482.061	385.56
482.28	409.56
482.498	385.56
482.717	383.56
482.935	415.56
483.153	393.56
483.372	391.56
483.59	396.56
483.808	395.56
484.027	389.56
484.245	408.56
484.463	401.56
484.681	398.56
484.9	400.56
485.118	409.56
485.336	416.56
485.554	395.56
485.772	393.56
485.99	386.56
486.209	417.56
486.427	407.56
486.645	376.56
486.863	396.56
487.081	394.56
487.299	383.56
487.517	421.56
487.735	397.56
487.953	408.56
488.171	409.56
488.389	424.56
488.607	388.56
488.825	409.56
489.043	405.56
489.261	393.56
489.479	397.56
489.696	405.56
489.914	390.56
490.132	393.56
490.35	412.56
490.568	420.56
490.786	417.56
491.003	415.56
491.221	411.56
491.439	417.56
491.657	419.56
491.874	416.56
492.092	427.56
492.31	435.56
492.527	427.56
492.745	412.56
492.963	403.56
493.18	434.56
493.398	436.56
493.615	424.56
493.833	413.56
494.05	421.56
494.268	414.56
494.485	404.56
494.703	433.56
494.92	439.56
495.138	453.56
495.355	427.56
495.573	423.56
495.79	425.56
496.008	439.56
496.225	463.56
496.442	423.56
496.66	427.56
496.877	443.56
497.094	439.56
497.312	436.56
497.529	445.56
497.746	459.56
497.963	467.56
498.181	490.56
498.398	462.56
498.615	496.56
498.832	497.56
499.049	511.56
499.267	534.56
499.484	554.56
499.701	597.56
499.918	611.56
500.135	635.56
500.352	644.56
500.569	700.56
500.786	654.56
501.003	652.56
501.22	649.56
501.437	604.56
501.654	566.56
501.871	561.56
502.088	521.56
502.305	503.56
502.522	490.56
