Data from Fe(NO3)3@0.0125M.TitratingCurve.Agarose3%dH2O.NegLispCup.LampEnergy10.LIBS07252019_HRD10591_17-01-34-337.txt Node
Date: Thu Jul 25 17:01:34 EDT 2019
User: cochatt
Spectrometer: HR+D1059
Trigger mode: 1
Integration Time (sec): 1.000000E-1
Scans to average: 1
Electric dark correction enabled: true
Nonlinearity correction enabled: false
Boxcar width: 0
XAxis mode: Wavelengths
Number of Pixels in Spectrum: 2048
>>>>>Begin Spectral Data<<<<<
223.165	-22.88
223.4	-22.88
223.635	-22.88
223.869	5.12
224.104	-25.88
224.338	-17.88
224.573	-10.88
224.808	-14.88
225.042	-16.88
225.277	-6.88
225.511	-1.88
225.746	13.12
225.98	12.12
226.215	4.12
226.449	20.12
226.683	11.12
226.918	30.12
227.152	22.12
227.387	38.12
227.621	33.12
227.856	47.12
228.09	53.12
228.324	50.12
228.559	62.12
228.793	56.12
229.027	70.12
229.262	88.12
229.496	90.12
229.73	90.12
229.964	80.12
230.199	84.12
230.433	100.12
230.667	90.12
230.901	95.12
231.136	102.12
231.37	99.12
231.604	93.12
231.838	107.12
232.072	107.12
232.306	92.12
232.541	111.12
232.775	96.12
233.009	114.12
233.243	114.12
233.477	101.12
233.711	103.12
233.945	103.12
234.179	98.12
234.413	114.12
234.647	111.12
234.881	122.12
235.115	110.12
235.349	126.12
235.583	113.12
235.817	106.12
236.051	107.12
236.285	122.12
236.519	107.12
236.753	113.12
236.987	107.12
237.221	116.12
237.455	120.12
237.689	126.12
237.922	114.12
238.156	103.12
238.39	115.12
238.624	115.12
238.858	111.12
239.091	108.12
239.325	118.12
239.559	120.12
239.793	127.12
240.027	118.12
240.26	127.12
240.494	125.12
240.728	108.12
240.961	105.12
241.195	114.12
241.429	134.12
241.662	109.12
241.896	130.12
242.13	120.12
242.363	136.12
242.597	131.12
242.83	122.12
243.064	118.12
243.298	119.12
243.531	122.12
243.765	132.12
243.998	134.12
244.232	115.12
244.465	118.12
244.699	116.12
244.932	124.12
245.166	118.12
245.399	128.12
245.633	124.12
245.866	127.12
246.099	130.12
246.333	150.12
246.566	134.12
246.8	148.12
247.033	137.12
247.266	132.12
247.5	132.12
247.733	127.12
247.966	150.12
248.2	152.12
248.433	134.12
248.666	140.12
248.899	139.12
249.133	140.12
249.366	143.12
249.599	143.12
249.832	145.12
250.066	160.12
250.299	153.12
250.532	140.12
250.765	143.12
250.998	132.12
251.231	152.12
251.465	146.12
251.698	138.12
251.931	150.12
252.164	132.12
252.397	144.12
252.63	161.12
252.863	170.12
253.096	154.12
253.329	165.12
253.562	154.12
253.795	152.12
254.028	162.12
254.261	158.12
254.494	154.12
254.727	139.12
254.96	154.12
255.193	158.12
255.426	148.12
255.659	155.12
255.892	170.12
256.124	163.12
256.357	158.12
256.59	164.12
256.823	155.12
257.056	171.12
257.289	154.12
257.521	174.12
257.754	183.12
257.987	162.12
258.22	169.12
258.452	170.12
258.685	166.12
258.918	150.12
259.151	166.12
259.383	160.12
259.616	162.12
259.849	171.12
260.081	190.12
260.314	179.12
260.547	183.12
260.779	170.12
261.012	175.12
261.244	184.12
261.477	173.12
261.71	170.12
261.942	171.12
262.175	179.12
262.407	185.12
262.64	184.12
262.872	191.12
263.105	183.12
263.337	191.12
263.57	182.12
263.802	182.12
264.035	179.12
264.267	176.12
264.499	194.12
264.732	189.12
264.964	182.12
265.197	188.12
265.429	183.12
265.661	199.12
265.894	164.12
266.126	183.12
266.358	185.12
266.591	203.12
266.823	183.12
267.055	182.12
267.287	192.12
267.52	175.12
267.752	171.12
267.984	194.12
268.216	187.12
268.448	186.12
268.681	197.12
268.913	194.12
269.145	188.12
269.377	199.12
269.609	203.12
269.841	224.12
270.073	181.12
270.306	202.12
270.538	195.12
270.77	189.12
271.002	206.12
271.234	206.12
271.466	203.12
271.698	216.12
271.93	214.12
272.162	209.12
272.394	202.12
272.626	209.12
272.858	205.12
273.09	221.12
273.322	208.12
273.553	204.12
273.785	225.12
274.017	223.12
274.249	214.12
274.481	214.12
274.713	233.12
274.945	234.12
275.176	239.12
275.408	233.12
275.64	230.12
275.872	225.12
276.104	230.12
276.335	227.12
276.567	220.12
276.799	236.12
277.031	223.12
277.262	226.12
277.494	220.12
277.726	229.12
277.957	216.12
278.189	236.12
278.421	231.12
278.652	235.12
278.884	235.12
279.115	229.12
279.347	215.12
279.579	214.12
279.81	231.12
280.042	221.12
280.273	238.12
280.505	229.12
280.736	248.12
280.968	232.12
281.199	231.12
281.431	245.12
281.662	242.12
281.894	236.12
282.125	238.12
282.356	242.12
282.588	228.12
282.819	234.12
283.051	237.12
283.282	234.12
283.513	219.12
283.745	246.12
283.976	244.12
284.207	263.12
284.439	240.12
284.67	248.12
284.901	262.12
285.132	249.12
285.364	249.12
285.595	218.12
285.826	252.12
286.057	244.12
286.288	259.12
286.52	244.12
286.751	250.12
286.982	240.12
287.213	242.12
287.444	247.12
287.675	248.12
287.906	247.12
288.138	263.12
288.369	246.12
288.6	252.12
288.831	245.12
289.062	260.12
289.293	248.12
289.524	246.12
289.755	268.12
289.986	262.12
290.217	266.12
290.448	264.12
290.679	242.12
290.91	261.12
291.141	258.12
291.371	268.12
291.602	260.12
291.833	264.12
292.064	270.12
292.295	263.12
292.526	275.12
292.757	267.12
292.987	261.12
293.218	268.12
293.449	269.12
293.68	261.12
293.91	260.12
294.141	248.12
294.372	258.12
294.603	267.12
294.833	282.12
295.064	276.12
295.295	282.12
295.525	271.12
295.756	275.12
295.987	272.12
296.217	291.12
296.448	279.12
296.679	286.12
296.909	269.12
297.14	292.12
297.37	277.12
297.601	282.12
297.831	280.12
298.062	283.12
298.292	293.12
298.523	286.12
298.753	275.12
298.984	295.12
299.214	291.12
299.445	302.12
299.675	272.12
299.905	300.12
300.136	291.12
300.366	280.12
300.597	273.12
300.827	288.12
301.057	291.12
301.288	286.12
301.518	290.12
301.748	299.12
301.979	298.12
302.209	308.12
302.439	308.12
302.669	297.12
302.9	318.12
303.13	322.12
303.36	315.12
303.59	309.12
303.82	312.12
304.051	324.12
304.281	306.12
304.511	311.12
304.741	315.12
304.971	303.12
305.201	316.12
305.431	331.12
305.661	329.12
305.891	310.12
306.121	313.12
306.352	306.12
306.582	310.12
306.812	314.12
307.042	308.12
307.272	322.12
307.502	315.12
307.731	311.12
307.961	301.12
308.191	292.12
308.421	298.12
308.651	291.12
308.881	297.12
309.111	319.12
309.341	318.12
309.571	322.12
309.8	331.12
310.03	312.12
310.26	318.12
310.49	313.12
310.72	312.12
310.949	318.12
311.179	324.12
311.409	320.12
311.639	331.12
311.868	329.12
312.098	327.12
312.328	314.12
312.557	322.12
312.787	329.12
313.017	320.12
313.246	327.12
313.476	310.12
313.706	340.12
313.935	329.12
314.165	344.12
314.394	347.12
314.624	344.12
314.853	338.12
315.083	347.12
315.312	357.12
315.542	326.12
315.771	342.12
316.001	341.12
316.23	339.12
316.46	343.12
316.689	351.12
316.919	356.12
317.148	359.12
317.377	346.12
317.607	334.12
317.836	324.12
318.065	339.12
318.295	339.12
318.524	348.12
318.753	363.12
318.983	342.12
319.212	330.12
319.441	357.12
319.67	367.12
319.9	354.12
320.129	344.12
320.358	341.12
320.587	363.12
320.816	366.12
321.046	365.12
321.275	352.12
321.504	333.12
321.733	348.12
321.962	359.12
322.191	367.12
322.42	348.12
322.649	346.12
322.878	350.12
323.108	352.12
323.337	376.12
323.566	372.12
323.795	385.12
324.024	370.12
324.253	381.12
324.482	368.12
324.71	366.12
324.939	374.12
325.168	370.12
325.397	364.12
325.626	374.12
325.855	355.12
326.084	366.12
326.313	371.12
326.542	382.12
326.77	364.12
326.999	377.12
327.228	376.12
327.457	373.12
327.686	382.12
327.914	386.12
328.143	362.12
328.372	404.12
328.6	367.12
328.829	380.12
329.058	392.12
329.287	390.12
329.515	386.12
329.744	392.12
329.972	382.12
330.201	350.12
330.43	385.12
330.658	390.12
330.887	386.12
331.115	404.12
331.344	386.12
331.572	389.12
331.801	411.12
332.03	406.12
332.258	409.12
332.486	402.12
332.715	409.12
332.943	400.12
333.172	431.12
333.4	414.12
333.629	420.12
333.857	420.12
334.085	435.12
334.314	416.12
334.542	423.12
334.771	425.12
334.999	415.12
335.227	438.12
335.455	418.12
335.684	414.12
335.912	446.12
336.14	438.12
336.369	425.12
336.597	434.12
336.825	441.12
337.053	420.12
337.281	414.12
337.51	424.12
337.738	428.12
337.966	420.12
338.194	421.12
338.422	414.12
338.65	416.12
338.878	431.12
339.106	430.12
339.334	424.12
339.562	422.12
339.79	418.12
340.018	427.12
340.246	407.12
340.474	392.12
340.702	408.12
340.93	395.12
341.158	397.12
341.386	407.12
341.614	394.12
341.842	408.12
342.07	435.12
342.298	430.12
342.526	412.12
342.754	406.12
342.981	411.12
343.209	415.12
343.437	408.12
343.665	440.12
343.893	430.12
344.12	438.12
344.348	414.12
344.576	426.12
344.804	425.12
345.031	417.12
345.259	408.12
345.487	413.12
345.714	424.12
345.942	386.12
346.17	410.12
346.397	406.12
346.625	392.12
346.853	408.12
347.08	387.12
347.308	412.12
347.535	406.12
347.763	401.12
347.99	388.12
348.218	381.12
348.445	383.12
348.673	401.12
348.9	402.12
349.128	399.12
349.355	394.12
349.583	408.12
349.81	389.12
350.037	386.12
350.265	401.12
350.492	401.12
350.72	394.12
350.947	411.12
351.174	397.12
351.402	386.12
351.629	384.12
351.856	394.12
352.083	407.12
352.311	371.12
352.538	375.12
352.765	391.12
352.992	391.12
353.22	379.12
353.447	394.12
353.674	381.12
353.901	409.12
354.128	406.12
354.355	373.12
354.583	386.12
354.81	403.12
355.037	405.12
355.264	372.12
355.491	400.12
355.718	389.12
355.945	393.12
356.172	401.12
356.399	383.12
356.626	401.12
356.853	402.12
357.08	391.12
357.307	380.12
357.534	404.12
357.761	390.12
357.988	398.12
358.215	400.12
358.441	400.12
358.668	420.12
358.895	380.12
359.122	390.12
359.349	406.12
359.576	387.12
359.802	394.12
360.029	423.12
360.256	394.12
360.483	396.12
360.709	407.12
360.936	394.12
361.163	414.12
361.39	382.12
361.616	407.12
361.843	423.12
362.07	413.12
362.296	423.12
362.523	419.12
362.749	424.12
362.976	401.12
363.203	404.12
363.429	403.12
363.656	390.12
363.882	393.12
364.109	400.12
364.335	387.12
364.562	412.12
364.788	390.12
365.015	397.12
365.241	418.12
365.468	395.12
365.694	418.12
365.92	407.12
366.147	380.12
366.373	384.12
366.599	412.12
366.826	415.12
367.052	417.12
367.278	422.12
367.505	414.12
367.731	425.12
367.957	408.12
368.184	427.12
368.41	436.12
368.636	434.12
368.862	428.12
369.089	415.12
369.315	426.12
369.541	412.12
369.767	419.12
369.993	424.12
370.219	409.12
370.445	444.12
370.672	440.12
370.898	416.12
371.124	425.12
371.35	432.12
371.576	434.12
371.802	436.12
372.028	461.12
372.254	448.12
372.48	447.12
372.706	436.12
372.932	439.12
373.158	427.12
373.384	446.12
373.61	464.12
373.835	453.12
374.061	452.12
374.287	430.12
374.513	420.12
374.739	459.12
374.965	473.12
375.191	442.12
375.416	433.12
375.642	436.12
375.868	454.12
376.094	433.12
376.319	436.12
376.545	451.12
376.771	450.12
376.997	450.12
377.222	444.12
377.448	423.12
377.674	428.12
377.899	430.12
378.125	431.12
378.35	410.12
378.576	446.12
378.802	423.12
379.027	450.12
379.253	439.12
379.478	442.12
379.704	422.12
379.929	424.12
380.155	448.12
380.38	425.12
380.606	440.12
380.831	443.12
381.057	429.12
381.282	453.12
381.507	441.12
381.733	453.12
381.958	438.12
382.184	480.12
382.409	457.12
382.634	471.12
382.86	447.12
383.085	437.12
383.31	454.12
383.535	473.12
383.761	458.12
383.986	453.12
384.211	463.12
384.436	467.12
384.662	468.12
384.887	469.12
385.112	456.12
385.337	487.12
385.562	503.12
385.787	494.12
386.013	507.12
386.238	502.12
386.463	496.12
386.688	489.12
386.913	499.12
387.138	489.12
387.363	506.12
387.588	495.12
387.813	484.12
388.038	482.12
388.263	482.12
388.488	471.12
388.713	483.12
388.938	523.12
389.163	504.12
389.387	520.12
389.612	503.12
389.837	495.12
390.062	510.12
390.287	520.12
390.512	500.12
390.736	486.12
390.961	485.12
391.186	516.12
391.411	534.12
391.636	510.12
391.86	519.12
392.085	532.12
392.31	514.12
392.534	517.12
392.759	508.12
392.984	510.12
393.208	516.12
393.433	551.12
393.658	524.12
393.882	508.12
394.107	503.12
394.331	512.12
394.556	533.12
394.78	514.12
395.005	516.12
395.229	515.12
395.454	539.12
395.678	548.12
395.903	512.12
396.127	544.12
396.352	523.12
396.576	523.12
396.801	534.12
397.025	542.12
397.249	546.12
397.474	539.12
397.698	551.12
397.922	560.12
398.147	564.12
398.371	582.12
398.595	585.12
398.82	598.12
399.044	612.12
399.268	636.12
399.492	634.12
399.717	657.12
399.941	669.12
400.165	660.12
400.389	638.12
400.613	618.12
400.837	598.12
401.062	606.12
401.286	596.12
401.51	602.12
401.734	604.12
401.958	580.12
402.182	611.12
402.406	573.12
402.63	578.12
402.854	570.12
403.078	602.12
403.302	598.12
403.526	587.12
403.75	578.12
403.974	594.12
404.198	592.12
404.422	595.12
404.645	588.12
404.869	570.12
405.093	588.12
405.317	603.12
405.541	592.12
405.765	603.12
405.988	591.12
406.212	601.12
406.436	601.12
406.66	611.12
406.883	616.12
407.107	642.12
407.331	628.12
407.555	655.12
407.778	655.12
408.002	640.12
408.226	636.12
408.449	629.12
408.673	646.12
408.896	612.12
409.12	618.12
409.344	621.12
409.567	628.12
409.791	626.12
410.014	593.12
410.238	606.12
410.461	622.12
410.685	620.12
410.908	610.12
411.132	602.12
411.355	572.12
411.578	596.12
411.802	589.12
412.025	588.12
412.249	603.12
412.472	584.12
412.695	592.12
412.919	596.12
413.142	573.12
413.365	610.12
413.589	589.12
413.812	590.12
414.035	580.12
414.258	564.12
414.482	553.12
414.705	596.12
414.928	594.12
415.151	610.12
415.374	587.12
415.597	583.12
415.821	562.12
416.044	546.12
416.267	571.12
416.49	572.12
416.713	561.12
416.936	571.12
417.159	553.12
417.382	573.12
417.605	548.12
417.828	550.12
418.051	559.12
418.274	549.12
418.497	542.12
418.72	562.12
418.943	544.12
419.166	557.12
419.389	590.12
419.611	575.12
419.834	593.12
420.057	554.12
420.28	563.12
420.503	550.12
420.726	530.12
420.948	549.12
421.171	555.12
421.394	535.12
421.617	552.12
421.839	530.12
422.062	546.12
422.285	549.12
422.507	558.12
422.73	568.12
422.953	559.12
423.175	556.12
423.398	569.12
423.621	538.12
423.843	559.12
424.066	556.12
424.288	548.12
424.511	552.12
424.733	556.12
424.956	544.12
425.178	547.12
425.401	534.12
425.623	545.12
425.846	535.12
426.068	533.12
426.291	545.12
426.513	552.12
426.735	525.12
426.958	535.12
427.18	529.12
427.402	529.12
427.625	522.12
427.847	528.12
428.069	520.12
428.292	546.12
428.514	535.12
428.736	512.12
428.958	555.12
429.181	547.12
429.403	522.12
429.625	524.12
429.847	503.12
430.069	514.12
430.292	516.12
430.514	530.12
430.736	511.12
430.958	534.12
431.18	527.12
431.402	527.12
431.624	535.12
431.846	534.12
432.068	526.12
432.29	531.12
432.512	543.12
432.734	514.12
432.956	532.12
433.178	535.12
433.4	511.12
433.622	523.12
433.844	516.12
434.066	540.12
434.287	541.12
434.509	542.12
434.731	532.12
434.953	543.12
435.175	539.12
435.397	549.12
435.618	542.12
435.84	528.12
436.062	526.12
436.284	529.12
436.505	514.12
436.727	523.12
436.949	518.12
437.17	500.12
437.392	512.12
437.614	492.12
437.835	476.12
438.057	518.12
438.278	523.12
438.5	539.12
438.721	537.12
438.943	514.12
439.165	496.12
439.386	518.12
439.608	526.12
439.829	506.12
440.05	499.12
440.272	510.12
440.493	500.12
440.715	531.12
440.936	503.12
441.158	517.12
441.379	506.12
441.6	543.12
441.822	535.12
442.043	516.12
442.264	535.12
442.486	518.12
442.707	532.12
442.928	550.12
443.149	534.12
443.371	520.12
443.592	539.12
443.813	527.12
444.034	550.12
444.255	542.12
444.476	540.12
444.698	561.12
444.919	560.12
445.14	638.12
445.361	588.12
445.582	540.12
445.803	532.12
446.024	537.12
446.245	550.12
446.466	525.12
446.687	523.12
446.908	503.12
447.129	484.12
447.35	493.12
447.571	519.12
447.792	525.12
448.013	499.12
448.234	489.12
448.455	495.12
448.675	463.12
448.896	468.12
449.117	492.12
449.338	474.12
449.559	503.12
449.779	460.12
450	458.12
450.221	476.12
450.442	483.12
450.662	462.12
450.883	478.12
451.104	469.12
451.324	484.12
451.545	474.12
451.766	462.12
451.986	468.12
452.207	479.12
452.428	463.12
452.648	471.12
452.869	475.12
453.089	475.12
453.31	476.12
453.53	448.12
453.751	463.12
453.971	478.12
454.192	483.12
454.412	452.12
454.633	459.12
454.853	457.12
455.073	447.12
455.294	455.12
455.514	467.12
455.734	463.12
455.955	443.12
456.175	461.12
456.395	467.12
456.616	455.12
456.836	467.12
457.056	470.12
457.276	454.12
457.497	490.12
457.717	469.12
457.937	490.12
458.157	493.12
458.377	476.12
458.598	487.12
458.818	487.12
459.038	507.12
459.258	506.12
459.478	514.12
459.698	520.12
459.918	540.12
460.138	515.12
460.358	540.12
460.578	550.12
460.798	557.12
461.018	556.12
461.238	574.12
461.458	583.12
461.678	559.12
461.898	554.12
462.118	579.12
462.338	577.12
462.558	604.12
462.777	609.12
462.997	628.12
463.217	628.12
463.437	623.12
463.657	590.12
463.876	613.12
464.096	609.12
464.316	613.12
464.536	612.12
464.755	588.12
464.975	583.12
465.195	572.12
465.414	572.12
465.634	525.12
465.854	542.12
466.073	519.12
466.293	544.12
466.512	517.12
466.732	499.12
466.951	516.12
467.171	502.12
467.391	524.12
467.61	522.12
467.829	499.12
468.049	512.12
468.268	506.12
468.488	498.12
468.707	518.12
468.927	500.12
469.146	485.12
469.365	514.12
469.585	516.12
469.804	524.12
470.023	506.12
470.243	522.12
470.462	505.12
470.681	545.12
470.901	511.12
471.12	522.12
471.339	509.12
471.558	507.12
471.777	538.12
471.997	498.12
472.216	523.12
472.435	530.12
472.654	516.12
472.873	496.12
473.092	518.12
473.311	499.12
473.53	512.12
473.749	516.12
473.968	498.12
474.187	514.12
474.406	512.12
474.625	500.12
474.844	496.12
475.063	524.12
475.282	522.12
475.501	503.12
475.72	536.12
475.939	536.12
476.158	521.12
476.377	541.12
476.596	527.12
476.814	555.12
477.033	557.12
477.252	551.12
477.471	563.12
477.69	575.12
477.908	561.12
478.127	571.12
478.346	568.12
478.564	587.12
478.783	581.12
479.002	587.12
479.22	608.12
479.439	604.12
479.658	621.12
479.876	613.12
480.095	597.12
480.313	615.12
480.532	617.12
480.751	613.12
480.969	624.12
481.188	624.12
481.406	611.12
481.624	606.12
481.843	598.12
482.061	622.12
482.28	636.12
482.498	608.12
482.717	605.12
482.935	618.12
483.153	602.12
483.372	613.12
483.59	611.12
483.808	613.12
484.027	636.12
484.245	644.12
484.463	621.12
484.681	638.12
484.9	634.12
485.118	646.12
485.336	629.12
485.554	657.12
485.772	639.12
485.99	631.12
486.209	628.12
486.427	627.12
486.645	644.12
486.863	663.12
487.081	647.12
487.299	644.12
487.517	660.12
487.735	631.12
487.953	636.12
488.171	631.12
488.389	623.12
488.607	629.12
488.825	638.12
489.043	660.12
489.261	666.12
489.479	652.12
489.696	634.12
489.914	609.12
490.132	601.12
490.35	636.12
490.568	636.12
490.786	663.12
491.003	628.12
491.221	638.12
491.439	629.12
491.657	642.12
491.874	635.12
492.092	660.12
492.31	657.12
492.527	655.12
492.745	642.12
492.963	655.12
493.18	648.12
493.398	644.12
493.615	648.12
493.833	640.12
494.05	646.12
494.268	651.12
494.485	644.12
494.703	654.12
494.92	675.12
495.138	644.12
495.355	666.12
495.573	678.12
495.79	669.12
496.008	655.12
496.225	674.12
496.442	668.12
496.66	696.12
496.877	707.12
497.094	706.12
497.312	708.12
497.529	712.12
497.746	727.12
497.963	748.12
498.181	776.12
498.398	794.12
498.615	840.12
498.832	836.12
499.049	822.12
499.267	886.12
499.484	916.12
499.701	949.12
499.918	972.12
500.135	1031.12
500.352	1055.12
500.569	1081.12
500.786	1055.12
501.003	1048.12
501.22	998.12
501.437	996.12
501.654	950.12
