Data from Fe(NO3)3@0.1M.TitratingCurve.Agarose3%dH2O.NegLispCup.LampEnergy10.LIBS07252019_HRD10591_16-41-27-333.txt Node
Date: Thu Jul 25 16:41:27 EDT 2019
User: cochatt
Spectrometer: HR+D1059
Trigger mode: 1
Integration Time (sec): 1.000000E-1
Scans to average: 1
Electric dark correction enabled: true
Nonlinearity correction enabled: false
Boxcar width: 0
XAxis mode: Wavelengths
Number of Pixels in Spectrum: 2048
>>>>>Begin Spectral Data<<<<<
223.165	-32.81
223.4	-32.81
223.635	-32.81
223.869	-11.81
224.104	-30.81
224.338	-12.81
224.573	-10.81
224.808	-2.81
225.042	-6.81
225.277	-12.81
225.511	-16.81
225.746	10.19
225.98	6.19
226.215	-0.81
226.449	28.19
226.683	25.19
226.918	30.19
227.152	39.19
227.387	27.19
227.621	34.19
227.856	34.19
228.09	35.19
228.324	65.19
228.559	53.19
228.793	60.19
229.027	77.19
229.262	75.19
229.496	66.19
229.73	73.19
229.964	67.19
230.199	84.19
230.433	76.19
230.667	74.19
230.901	98.19
231.136	88.19
231.37	81.19
231.604	77.19
231.838	92.19
232.072	103.19
232.306	90.19
232.541	113.19
232.775	99.19
233.009	105.19
233.243	100.19
233.477	99.19
233.711	105.19
233.945	93.19
234.179	102.19
234.413	86.19
234.647	82.19
234.881	83.19
235.115	98.19
235.349	93.19
235.583	89.19
235.817	92.19
236.051	91.19
236.285	98.19
236.519	94.19
236.753	103.19
236.987	98.19
237.221	99.19
237.455	83.19
237.689	94.19
237.922	95.19
238.156	103.19
238.39	88.19
238.624	104.19
238.858	100.19
239.091	95.19
239.325	101.19
239.559	107.19
239.793	84.19
240.027	93.19
240.26	100.19
240.494	97.19
240.728	106.19
240.961	96.19
241.195	95.19
241.429	92.19
241.662	103.19
241.896	106.19
242.13	107.19
242.363	106.19
242.597	116.19
242.83	108.19
243.064	99.19
243.298	108.19
243.531	92.19
243.765	99.19
243.998	106.19
244.232	88.19
244.465	100.19
244.699	93.19
244.932	113.19
245.166	105.19
245.399	92.19
245.633	105.19
245.866	104.19
246.099	99.19
246.333	103.19
246.566	99.19
246.8	106.19
247.033	102.19
247.266	96.19
247.5	103.19
247.733	107.19
247.966	108.19
248.2	119.19
248.433	104.19
248.666	110.19
248.899	119.19
249.133	107.19
249.366	97.19
249.599	107.19
249.832	111.19
250.066	93.19
250.299	109.19
250.532	106.19
250.765	108.19
250.998	115.19
251.231	123.19
251.465	110.19
251.698	127.19
251.931	127.19
252.164	105.19
252.397	129.19
252.63	124.19
252.863	102.19
253.096	123.19
253.329	110.19
253.562	122.19
253.795	106.19
254.028	117.19
254.261	113.19
254.494	120.19
254.727	118.19
254.96	128.19
255.193	116.19
255.426	111.19
255.659	112.19
255.892	116.19
256.124	116.19
256.357	118.19
256.59	117.19
256.823	114.19
257.056	108.19
257.289	133.19
257.521	125.19
257.754	119.19
257.987	137.19
258.22	128.19
258.452	122.19
258.685	133.19
258.918	117.19
259.151	124.19
259.383	132.19
259.616	122.19
259.849	129.19
260.081	130.19
260.314	119.19
260.547	136.19
260.779	123.19
261.012	126.19
261.244	126.19
261.477	129.19
261.71	126.19
261.942	135.19
262.175	128.19
262.407	144.19
262.64	131.19
262.872	135.19
263.105	123.19
263.337	133.19
263.57	129.19
263.802	130.19
264.035	119.19
264.267	123.19
264.499	141.19
264.732	123.19
264.964	130.19
265.197	127.19
265.429	140.19
265.661	137.19
265.894	156.19
266.126	141.19
266.358	130.19
266.591	141.19
266.823	137.19
267.055	131.19
267.287	147.19
267.52	145.19
267.752	126.19
267.984	155.19
268.216	147.19
268.448	119.19
268.681	138.19
268.913	137.19
269.145	132.19
269.377	128.19
269.609	140.19
269.841	136.19
270.073	129.19
270.306	140.19
270.538	144.19
270.77	128.19
271.002	143.19
271.234	134.19
271.466	143.19
271.698	154.19
271.93	141.19
272.162	153.19
272.394	145.19
272.626	148.19
272.858	142.19
273.09	149.19
273.322	133.19
273.553	141.19
273.785	139.19
274.017	146.19
274.249	148.19
274.481	148.19
274.713	146.19
274.945	162.19
275.176	154.19
275.408	144.19
275.64	141.19
275.872	160.19
276.104	161.19
276.335	147.19
276.567	154.19
276.799	173.19
277.031	156.19
277.262	156.19
277.494	156.19
277.726	145.19
277.957	148.19
278.189	148.19
278.421	157.19
278.652	164.19
278.884	142.19
279.115	164.19
279.347	140.19
279.579	157.19
279.81	154.19
280.042	159.19
280.273	141.19
280.505	138.19
280.736	160.19
280.968	151.19
281.199	158.19
281.431	163.19
281.662	157.19
281.894	158.19
282.125	155.19
282.356	164.19
282.588	166.19
282.819	169.19
283.051	152.19
283.282	155.19
283.513	155.19
283.745	183.19
283.976	149.19
284.207	181.19
284.439	166.19
284.67	170.19
284.901	171.19
285.132	183.19
285.364	177.19
285.595	167.19
285.826	164.19
286.057	179.19
286.288	173.19
286.52	154.19
286.751	177.19
286.982	166.19
287.213	157.19
287.444	189.19
287.675	183.19
287.906	176.19
288.138	168.19
288.369	164.19
288.6	178.19
288.831	173.19
289.062	173.19
289.293	162.19
289.524	164.19
289.755	181.19
289.986	170.19
290.217	175.19
290.448	181.19
290.679	188.19
290.91	156.19
291.141	163.19
291.371	175.19
291.602	185.19
291.833	179.19
292.064	171.19
292.295	203.19
292.526	171.19
292.757	195.19
292.987	180.19
293.218	184.19
293.449	192.19
293.68	168.19
293.91	164.19
294.141	174.19
294.372	162.19
294.603	169.19
294.833	164.19
295.064	181.19
295.295	182.19
295.525	183.19
295.756	189.19
295.987	180.19
296.217	173.19
296.448	177.19
296.679	172.19
296.909	192.19
297.14	184.19
297.37	201.19
297.601	192.19
297.831	175.19
298.062	182.19
298.292	180.19
298.523	196.19
298.753	181.19
298.984	201.19
299.214	195.19
299.445	205.19
299.675	193.19
299.905	190.19
300.136	186.19
300.366	195.19
300.597	183.19
300.827	183.19
301.057	200.19
301.288	201.19
301.518	216.19
301.748	195.19
301.979	200.19
302.209	212.19
302.439	184.19
302.669	197.19
302.9	196.19
303.13	203.19
303.36	183.19
303.59	196.19
303.82	193.19
304.051	203.19
304.281	209.19
304.511	211.19
304.741	182.19
304.971	200.19
305.201	203.19
305.431	201.19
305.661	201.19
305.891	187.19
306.121	199.19
306.352	189.19
306.582	205.19
306.812	198.19
307.042	177.19
307.272	208.19
307.502	185.19
307.731	193.19
307.961	202.19
308.191	196.19
308.421	203.19
308.651	216.19
308.881	199.19
309.111	189.19
309.341	196.19
309.571	215.19
309.8	214.19
310.03	199.19
310.26	201.19
310.49	197.19
310.72	187.19
310.949	191.19
311.179	204.19
311.409	191.19
311.639	191.19
311.868	183.19
312.098	195.19
312.328	203.19
312.557	193.19
312.787	192.19
313.017	208.19
313.246	205.19
313.476	193.19
313.706	205.19
313.935	208.19
314.165	203.19
314.394	225.19
314.624	211.19
314.853	205.19
315.083	212.19
315.312	193.19
315.542	194.19
315.771	207.19
316.001	199.19
316.23	195.19
316.46	209.19
316.689	222.19
316.919	196.19
317.148	213.19
317.377	207.19
317.607	193.19
317.836	210.19
318.065	211.19
318.295	203.19
318.524	205.19
318.753	199.19
318.983	207.19
319.212	195.19
319.441	216.19
319.67	207.19
319.9	217.19
320.129	209.19
320.358	209.19
320.587	200.19
320.816	226.19
321.046	218.19
321.275	210.19
321.504	221.19
321.733	212.19
321.962	213.19
322.191	219.19
322.42	216.19
322.649	204.19
322.878	205.19
323.108	202.19
323.337	215.19
323.566	213.19
323.795	212.19
324.024	222.19
324.253	230.19
324.482	220.19
324.71	206.19
324.939	218.19
325.168	229.19
325.397	225.19
325.626	218.19
325.855	239.19
326.084	220.19
326.313	226.19
326.542	220.19
326.77	236.19
326.999	228.19
327.228	229.19
327.457	221.19
327.686	221.19
327.914	224.19
328.143	244.19
328.372	216.19
328.6	223.19
328.829	227.19
329.058	230.19
329.287	216.19
329.515	224.19
329.744	216.19
329.972	210.19
330.201	237.19
330.43	228.19
330.658	231.19
330.887	223.19
331.115	236.19
331.344	235.19
331.572	236.19
331.801	224.19
332.03	236.19
332.258	253.19
332.486	255.19
332.715	236.19
332.943	275.19
333.172	268.19
333.4	295.19
333.629	280.19
333.857	279.19
334.085	281.19
334.314	266.19
334.542	279.19
334.771	263.19
334.999	288.19
335.227	274.19
335.455	269.19
335.684	270.19
335.912	281.19
336.14	263.19
336.369	272.19
336.597	273.19
336.825	265.19
337.053	261.19
337.281	253.19
337.51	258.19
337.738	258.19
337.966	261.19
338.194	244.19
338.422	237.19
338.65	263.19
338.878	250.19
339.106	269.19
339.334	271.19
339.562	239.19
339.79	243.19
340.018	236.19
340.246	255.19
340.474	233.19
340.702	229.19
340.93	244.19
341.158	228.19
341.386	239.19
341.614	250.19
341.842	215.19
342.07	245.19
342.298	253.19
342.526	248.19
342.754	235.19
342.981	261.19
343.209	263.19
343.437	255.19
343.665	251.19
343.893	277.19
344.12	268.19
344.348	262.19
344.576	263.19
344.804	248.19
345.031	233.19
345.259	239.19
345.487	231.19
345.714	229.19
345.942	225.19
346.17	234.19
346.397	231.19
346.625	239.19
346.853	230.19
347.08	243.19
347.308	245.19
347.535	242.19
347.763	240.19
347.99	223.19
348.218	228.19
348.445	244.19
348.673	228.19
348.9	239.19
349.128	230.19
349.355	232.19
349.583	248.19
349.81	238.19
350.037	226.19
350.265	231.19
350.492	224.19
350.72	232.19
350.947	223.19
351.174	228.19
351.402	240.19
351.629	231.19
351.856	214.19
352.083	219.19
352.311	231.19
352.538	237.19
352.765	227.19
352.992	229.19
353.22	221.19
353.447	212.19
353.674	219.19
353.901	225.19
354.128	238.19
354.355	220.19
354.583	243.19
354.81	216.19
355.037	241.19
355.264	222.19
355.491	245.19
355.718	247.19
355.945	228.19
356.172	236.19
356.399	230.19
356.626	241.19
356.853	227.19
357.08	226.19
357.307	234.19
357.534	229.19
357.761	232.19
357.988	219.19
358.215	241.19
358.441	228.19
358.668	233.19
358.895	241.19
359.122	220.19
359.349	216.19
359.576	232.19
359.802	221.19
360.029	228.19
360.256	227.19
360.483	235.19
360.709	221.19
360.936	237.19
361.163	227.19
361.39	228.19
361.616	231.19
361.843	231.19
362.07	227.19
362.296	222.19
362.523	241.19
362.749	231.19
362.976	221.19
363.203	227.19
363.429	236.19
363.656	223.19
363.882	219.19
364.109	222.19
364.335	225.19
364.562	228.19
364.788	221.19
365.015	241.19
365.241	243.19
365.468	232.19
365.694	225.19
365.92	239.19
366.147	243.19
366.373	226.19
366.599	235.19
366.826	232.19
367.052	237.19
367.278	247.19
367.505	241.19
367.731	225.19
367.957	252.19
368.184	243.19
368.41	230.19
368.636	246.19
368.862	226.19
369.089	229.19
369.315	229.19
369.541	229.19
369.767	233.19
369.993	227.19
370.219	243.19
370.445	241.19
370.672	236.19
370.898	262.19
371.124	257.19
371.35	231.19
371.576	263.19
371.802	249.19
372.028	259.19
372.254	229.19
372.48	243.19
372.706	261.19
372.932	259.19
373.158	264.19
373.384	248.19
373.61	236.19
373.835	245.19
374.061	254.19
374.287	257.19
374.513	264.19
374.739	284.19
374.965	263.19
375.191	267.19
375.416	269.19
375.642	278.19
375.868	277.19
376.094	266.19
376.319	239.19
376.545	256.19
376.771	237.19
376.997	262.19
377.222	273.19
377.448	264.19
377.674	258.19
377.899	224.19
378.125	255.19
378.35	251.19
378.576	244.19
378.802	243.19
379.027	261.19
379.253	242.19
379.478	257.19
379.704	250.19
379.929	230.19
380.155	258.19
380.38	241.19
380.606	277.19
380.831	252.19
381.057	256.19
381.282	265.19
381.507	261.19
381.733	242.19
381.958	248.19
382.184	239.19
382.409	244.19
382.634	275.19
382.86	264.19
383.085	284.19
383.31	275.19
383.535	272.19
383.761	280.19
383.986	278.19
384.211	274.19
384.436	294.19
384.662	286.19
384.887	291.19
385.112	284.19
385.337	287.19
385.562	287.19
385.787	293.19
386.013	303.19
386.238	311.19
386.463	293.19
386.688	283.19
386.913	271.19
387.138	289.19
387.363	293.19
387.588	284.19
387.813	288.19
388.038	277.19
388.263	287.19
388.488	282.19
388.713	282.19
388.938	291.19
389.163	297.19
389.387	285.19
389.612	289.19
389.837	268.19
390.062	287.19
390.287	272.19
390.512	313.19
390.736	303.19
390.961	289.19
391.186	321.19
391.411	325.19
391.636	314.19
391.86	330.19
392.085	322.19
392.31	299.19
392.534	307.19
392.759	307.19
392.984	314.19
393.208	325.19
393.433	304.19
393.658	312.19
393.882	313.19
394.107	297.19
394.331	310.19
394.556	299.19
394.78	300.19
395.005	320.19
395.229	316.19
395.454	313.19
395.678	309.19
395.903	336.19
396.127	312.19
396.352	303.19
396.576	297.19
396.801	282.19
397.025	312.19
397.249	325.19
397.474	319.19
397.698	325.19
397.922	311.19
398.147	325.19
398.371	331.19
398.595	352.19
398.82	349.19
399.044	372.19
399.268	414.19
399.492	452.19
399.717	456.19
399.941	471.19
400.165	429.19
400.389	386.19
400.613	385.19
400.837	378.19
401.062	352.19
401.286	376.19
401.51	361.19
401.734	353.19
401.958	348.19
402.182	362.19
402.406	345.19
402.63	364.19
402.854	361.19
403.078	377.19
403.302	385.19
403.526	370.19
403.75	383.19
403.974	397.19
404.198	371.19
404.422	402.19
404.645	383.19
404.869	391.19
405.093	379.19
405.317	367.19
405.541	370.19
405.765	382.19
405.988	372.19
406.212	371.19
406.436	379.19
406.66	415.19
406.883	399.19
407.107	421.19
407.331	423.19
407.555	435.19
407.778	411.19
408.002	419.19
408.226	411.19
408.449	414.19
408.673	397.19
408.896	403.19
409.12	400.19
409.344	403.19
409.567	401.19
409.791	426.19
410.014	389.19
410.238	389.19
410.461	384.19
410.685	385.19
410.908	374.19
411.132	378.19
411.355	388.19
411.578	387.19
411.802	381.19
412.025	372.19
412.249	376.19
412.472	371.19
412.695	359.19
412.919	368.19
413.142	359.19
413.365	374.19
413.589	354.19
413.812	366.19
414.035	370.19
414.258	347.19
414.482	363.19
414.705	369.19
414.928	361.19
415.151	379.19
415.374	371.19
415.597	364.19
415.821	347.19
416.044	373.19
416.267	339.19
416.49	355.19
416.713	377.19
416.936	357.19
417.159	356.19
417.382	363.19
417.605	349.19
417.828	362.19
418.051	360.19
418.274	369.19
418.497	352.19
418.72	374.19
418.943	369.19
419.166	379.19
419.389	408.19
419.611	391.19
419.834	353.19
420.057	375.19
420.28	387.19
420.503	356.19
420.726	347.19
420.948	369.19
421.171	348.19
421.394	335.19
421.617	350.19
421.839	364.19
422.062	376.19
422.285	346.19
422.507	359.19
422.73	370.19
422.953	374.19
423.175	363.19
423.398	367.19
423.621	383.19
423.843	384.19
424.066	383.19
424.288	392.19
424.511	374.19
424.733	358.19
424.956	402.19
425.178	347.19
425.401	346.19
425.623	360.19
425.846	356.19
426.068	337.19
426.291	332.19
426.513	344.19
426.735	339.19
426.958	333.19
427.18	346.19
427.402	320.19
427.625	351.19
427.847	345.19
428.069	343.19
428.292	334.19
428.514	345.19
428.736	341.19
428.958	333.19
429.181	325.19
429.403	324.19
429.625	333.19
429.847	323.19
430.069	318.19
430.292	326.19
430.514	328.19
430.736	350.19
430.958	324.19
431.18	331.19
431.402	322.19
431.624	321.19
431.846	327.19
432.068	316.19
432.29	323.19
432.512	312.19
432.734	339.19
432.956	322.19
433.178	346.19
433.4	339.19
433.622	338.19
433.844	341.19
434.066	354.19
434.287	340.19
434.509	348.19
434.731	357.19
434.953	368.19
435.175	356.19
435.397	363.19
435.618	351.19
435.84	343.19
436.062	321.19
436.284	347.19
436.505	344.19
436.727	359.19
436.949	324.19
437.17	324.19
437.392	327.19
437.614	335.19
437.835	303.19
438.057	311.19
438.278	321.19
438.5	316.19
438.721	307.19
438.943	337.19
439.165	318.19
439.386	335.19
439.608	343.19
439.829	344.19
440.05	364.19
440.272	356.19
440.493	353.19
440.715	344.19
440.936	346.19
441.158	354.19
441.379	372.19
441.6	365.19
441.822	381.19
442.043	380.19
442.264	360.19
442.486	382.19
442.707	375.19
442.928	351.19
443.149	377.19
443.371	363.19
443.592	375.19
443.813	400.19
444.034	386.19
444.255	372.19
444.476	380.19
444.698	436.19
444.919	412.19
445.14	492.19
445.361	454.19
445.582	380.19
445.803	365.19
446.024	365.19
446.245	370.19
446.466	359.19
446.687	343.19
446.908	338.19
447.129	354.19
447.35	354.19
447.571	345.19
447.792	344.19
448.013	343.19
448.234	323.19
448.455	331.19
448.675	330.19
448.896	328.19
449.117	317.19
449.338	324.19
449.559	320.19
449.779	315.19
450	334.19
450.221	309.19
450.442	326.19
450.662	327.19
450.883	312.19
451.104	339.19
451.324	329.19
451.545	302.19
451.766	348.19
451.986	313.19
452.207	308.19
452.428	308.19
452.648	328.19
452.869	306.19
453.089	307.19
453.31	317.19
453.53	304.19
453.751	313.19
453.971	307.19
454.192	311.19
454.412	310.19
454.633	305.19
454.853	307.19
455.073	310.19
455.294	292.19
455.514	268.19
455.734	279.19
455.955	282.19
456.175	287.19
456.395	293.19
456.616	283.19
456.836	295.19
457.056	304.19
457.276	291.19
457.497	284.19
457.717	305.19
457.937	311.19
458.157	305.19
458.377	288.19
458.598	300.19
458.818	307.19
459.038	321.19
459.258	341.19
459.478	343.19
459.698	330.19
459.918	348.19
460.138	349.19
460.358	377.19
460.578	376.19
460.798	388.19
461.018	396.19
461.238	384.19
461.458	365.19
461.678	380.19
461.898	399.19
462.118	394.19
462.338	387.19
462.558	424.19
462.777	412.19
462.997	453.19
463.217	474.19
463.437	481.19
463.657	441.19
463.876	443.19
464.096	413.19
464.316	418.19
464.536	423.19
464.755	402.19
464.975	402.19
465.195	380.19
465.414	359.19
465.634	347.19
465.854	345.19
466.073	334.19
466.293	344.19
466.512	317.19
466.732	314.19
466.951	339.19
467.171	322.19
467.391	327.19
467.61	329.19
467.829	317.19
468.049	327.19
468.268	319.19
468.488	325.19
468.707	317.19
468.927	312.19
469.146	317.19
469.365	328.19
469.585	320.19
469.804	327.19
470.023	336.19
470.243	326.19
470.462	343.19
470.681	314.19
470.901	341.19
471.12	314.19
471.339	335.19
471.558	336.19
471.777	328.19
471.997	331.19
472.216	316.19
472.435	311.19
472.654	310.19
472.873	290.19
473.092	309.19
473.311	295.19
473.53	297.19
473.749	303.19
473.968	331.19
474.187	312.19
474.406	303.19
474.625	311.19
474.844	320.19
475.063	308.19
475.282	304.19
475.501	300.19
475.72	311.19
475.939	326.19
476.158	318.19
476.377	308.19
476.596	302.19
476.814	305.19
477.033	321.19
477.252	315.19
477.471	320.19
477.69	349.19
477.908	346.19
478.127	362.19
478.346	346.19
478.564	358.19
478.783	352.19
479.002	353.19
479.22	370.19
479.439	361.19
479.658	354.19
479.876	363.19
480.095	362.19
480.313	368.19
480.532	371.19
480.751	372.19
480.969	340.19
481.188	345.19
481.406	341.19
481.624	334.19
481.843	333.19
482.061	339.19
482.28	321.19
482.498	349.19
482.717	348.19
482.935	347.19
483.153	339.19
483.372	365.19
483.59	337.19
483.808	347.19
484.027	339.19
484.245	345.19
484.463	341.19
484.681	371.19
484.9	341.19
485.118	362.19
485.336	344.19
485.554	343.19
485.772	335.19
485.99	326.19
486.209	342.19
486.427	345.19
486.645	339.19
486.863	354.19
487.081	321.19
487.299	350.19
487.517	345.19
487.735	354.19
487.953	355.19
488.171	353.19
488.389	359.19
488.607	355.19
488.825	337.19
489.043	344.19
489.261	335.19
489.479	360.19
489.696	350.19
489.914	341.19
490.132	341.19
490.35	349.19
490.568	344.19
490.786	361.19
491.003	353.19
491.221	353.19
491.439	359.19
491.657	361.19
491.874	365.19
492.092	350.19
492.31	375.19
492.527	367.19
492.745	355.19
492.963	371.19
493.18	365.19
493.398	373.19
493.615	357.19
493.833	378.19
494.05	369.19
494.268	385.19
494.485	370.19
494.703	367.19
494.92	376.19
495.138	370.19
495.355	364.19
495.573	383.19
495.79	381.19
496.008	361.19
496.225	364.19
496.442	392.19
496.66	399.19
496.877	383.19
497.094	395.19
497.312	389.19
497.529	403.19
497.746	401.19
497.963	430.19
498.181	422.19
498.398	456.19
498.615	458.19
498.832	477.19
499.049	531.19
499.267	570.19
499.484	603.19
499.701	662.19
499.918	714.19
500.135	774.19
500.352	896.19
500.569	927.19
500.786	903.19
501.003	834.19
501.22	743.19
501.437	674.19
501.654	590.19
501.871	563.19
502.088	533.19
502.305	510.19
