Data from Fe(NO3)3@0.1M.TitratingCurve.Agarose3%dH2O.NegLispCup.LampEnergy10.LIBS07252019_HRD10591_16-40-26-332.txt Node
Date: Thu Jul 25 16:40:26 EDT 2019
User: cochatt
Spectrometer: HR+D1059
Trigger mode: 1
Integration Time (sec): 1.000000E-1
Scans to average: 1
Electric dark correction enabled: true
Nonlinearity correction enabled: false
Boxcar width: 0
XAxis mode: Wavelengths
Number of Pixels in Spectrum: 2048
>>>>>Begin Spectral Data<<<<<
223.165	-11.19
223.4	-11.19
223.635	-11.19
223.869	-15.19
224.104	-25.19
224.338	-20.19
224.573	-17.19
224.808	-7.19
225.042	-3.19
225.277	-12.19
225.511	7.81
225.746	9.81
225.98	9.81
226.215	1.81
226.449	23.81
226.683	18.81
226.918	15.81
227.152	23.81
227.387	34.81
227.621	34.81
227.856	48.81
228.09	39.81
228.324	51.81
228.559	59.81
228.793	60.81
229.027	73.81
229.262	85.81
229.496	73.81
229.73	66.81
229.964	85.81
230.199	94.81
230.433	94.81
230.667	100.81
230.901	92.81
231.136	78.81
231.37	90.81
231.604	88.81
231.838	105.81
232.072	109.81
232.306	96.81
232.541	112.81
232.775	87.81
233.009	99.81
233.243	105.81
233.477	94.81
233.711	104.81
233.945	106.81
234.179	94.81
234.413	105.81
234.647	101.81
234.881	89.81
235.115	90.81
235.349	92.81
235.583	86.81
235.817	90.81
236.051	105.81
236.285	93.81
236.519	105.81
236.753	94.81
236.987	89.81
237.221	106.81
237.455	83.81
237.689	95.81
237.922	87.81
238.156	92.81
238.39	100.81
238.624	100.81
238.858	105.81
239.091	91.81
239.325	95.81
239.559	104.81
239.793	97.81
240.027	92.81
240.26	100.81
240.494	97.81
240.728	89.81
240.961	108.81
241.195	104.81
241.429	92.81
241.662	101.81
241.896	99.81
242.13	112.81
242.363	108.81
242.597	111.81
242.83	108.81
243.064	100.81
243.298	113.81
243.531	111.81
243.765	94.81
243.998	109.81
244.232	123.81
244.465	95.81
244.699	95.81
244.932	103.81
245.166	106.81
245.399	117.81
245.633	111.81
245.866	114.81
246.099	117.81
246.333	103.81
246.566	107.81
246.8	108.81
247.033	106.81
247.266	113.81
247.5	111.81
247.733	115.81
247.966	121.81
248.2	122.81
248.433	120.81
248.666	111.81
248.899	103.81
249.133	104.81
249.366	118.81
249.599	115.81
249.832	126.81
250.066	115.81
250.299	105.81
250.532	120.81
250.765	127.81
250.998	121.81
251.231	114.81
251.465	116.81
251.698	116.81
251.931	115.81
252.164	118.81
252.397	129.81
252.63	127.81
252.863	123.81
253.096	123.81
253.329	107.81
253.562	112.81
253.795	115.81
254.028	133.81
254.261	127.81
254.494	117.81
254.727	131.81
254.96	131.81
255.193	128.81
255.426	127.81
255.659	136.81
255.892	116.81
256.124	132.81
256.357	142.81
256.59	140.81
256.823	133.81
257.056	133.81
257.289	106.81
257.521	127.81
257.754	129.81
257.987	125.81
258.22	129.81
258.452	133.81
258.685	129.81
258.918	140.81
259.151	142.81
259.383	135.81
259.616	129.81
259.849	137.81
260.081	127.81
260.314	142.81
260.547	147.81
260.779	138.81
261.012	147.81
261.244	142.81
261.477	148.81
261.71	147.81
261.942	124.81
262.175	145.81
262.407	152.81
262.64	152.81
262.872	138.81
263.105	148.81
263.337	142.81
263.57	129.81
263.802	144.81
264.035	147.81
264.267	150.81
264.499	139.81
264.732	131.81
264.964	134.81
265.197	139.81
265.429	155.81
265.661	153.81
265.894	154.81
266.126	150.81
266.358	139.81
266.591	151.81
266.823	152.81
267.055	139.81
267.287	149.81
267.52	161.81
267.752	161.81
267.984	143.81
268.216	139.81
268.448	143.81
268.681	160.81
268.913	153.81
269.145	154.81
269.377	164.81
269.609	140.81
269.841	152.81
270.073	156.81
270.306	139.81
270.538	149.81
270.77	153.81
271.002	159.81
271.234	161.81
271.466	161.81
271.698	163.81
271.93	157.81
272.162	154.81
272.394	163.81
272.626	167.81
272.858	169.81
273.09	164.81
273.322	160.81
273.553	166.81
273.785	156.81
274.017	152.81
274.249	159.81
274.481	163.81
274.713	163.81
274.945	170.81
275.176	169.81
275.408	182.81
275.64	161.81
275.872	167.81
276.104	176.81
276.335	177.81
276.567	163.81
276.799	156.81
277.031	161.81
277.262	165.81
277.494	171.81
277.726	157.81
277.957	167.81
278.189	180.81
278.421	185.81
278.652	173.81
278.884	182.81
279.115	176.81
279.347	186.81
279.579	158.81
279.81	159.81
280.042	171.81
280.273	164.81
280.505	184.81
280.736	179.81
280.968	172.81
281.199	169.81
281.431	176.81
281.662	189.81
281.894	190.81
282.125	169.81
282.356	175.81
282.588	188.81
282.819	175.81
283.051	199.81
283.282	176.81
283.513	170.81
283.745	170.81
283.976	184.81
284.207	177.81
284.439	176.81
284.67	193.81
284.901	195.81
285.132	186.81
285.364	190.81
285.595	187.81
285.826	177.81
286.057	186.81
286.288	176.81
286.52	179.81
286.751	175.81
286.982	185.81
287.213	179.81
287.444	195.81
287.675	185.81
287.906	188.81
288.138	187.81
288.369	187.81
288.6	194.81
288.831	196.81
289.062	206.81
289.293	212.81
289.524	189.81
289.755	170.81
289.986	193.81
290.217	207.81
290.448	191.81
290.679	187.81
290.91	190.81
291.141	179.81
291.371	195.81
291.602	207.81
291.833	201.81
292.064	203.81
292.295	189.81
292.526	200.81
292.757	201.81
292.987	193.81
293.218	209.81
293.449	195.81
293.68	197.81
293.91	210.81
294.141	203.81
294.372	191.81
294.603	186.81
294.833	199.81
295.064	205.81
295.295	195.81
295.525	182.81
295.756	183.81
295.987	196.81
296.217	196.81
296.448	207.81
296.679	196.81
296.909	211.81
297.14	200.81
297.37	215.81
297.601	220.81
297.831	218.81
298.062	206.81
298.292	201.81
298.523	220.81
298.753	200.81
298.984	209.81
299.214	207.81
299.445	207.81
299.675	207.81
299.905	213.81
300.136	202.81
300.366	213.81
300.597	194.81
300.827	205.81
301.057	215.81
301.288	208.81
301.518	219.81
301.748	223.81
301.979	220.81
302.209	204.81
302.439	230.81
302.669	203.81
302.9	212.81
303.13	222.81
303.36	207.81
303.59	212.81
303.82	221.81
304.051	206.81
304.281	211.81
304.511	219.81
304.741	227.81
304.971	212.81
305.201	220.81
305.431	216.81
305.661	227.81
305.891	226.81
306.121	220.81
306.352	196.81
306.582	223.81
306.812	216.81
307.042	230.81
307.272	227.81
307.502	214.81
307.731	220.81
307.961	217.81
308.191	219.81
308.421	207.81
308.651	215.81
308.881	225.81
309.111	207.81
309.341	223.81
309.571	215.81
309.8	221.81
310.03	227.81
310.26	230.81
310.49	211.81
310.72	232.81
310.949	215.81
311.179	209.81
311.409	227.81
311.639	210.81
311.868	217.81
312.098	216.81
312.328	223.81
312.557	225.81
312.787	230.81
313.017	219.81
313.246	225.81
313.476	239.81
313.706	250.81
313.935	226.81
314.165	244.81
314.394	218.81
314.624	215.81
314.853	232.81
315.083	259.81
315.312	231.81
315.542	241.81
315.771	237.81
316.001	235.81
316.23	214.81
316.46	243.81
316.689	234.81
316.919	241.81
317.148	234.81
317.377	229.81
317.607	219.81
317.836	228.81
318.065	218.81
318.295	237.81
318.524	226.81
318.753	215.81
318.983	240.81
319.212	233.81
319.441	243.81
319.67	230.81
319.9	232.81
320.129	239.81
320.358	219.81
320.587	220.81
320.816	249.81
321.046	226.81
321.275	235.81
321.504	244.81
321.733	230.81
321.962	247.81
322.191	222.81
322.42	241.81
322.649	237.81
322.878	241.81
323.108	214.81
323.337	225.81
323.566	229.81
323.795	250.81
324.024	253.81
324.253	249.81
324.482	236.81
324.71	236.81
324.939	236.81
325.168	248.81
325.397	241.81
325.626	249.81
325.855	242.81
326.084	247.81
326.313	260.81
326.542	260.81
326.77	256.81
326.999	249.81
327.228	244.81
327.457	249.81
327.686	244.81
327.914	264.81
328.143	245.81
328.372	232.81
328.6	257.81
328.829	240.81
329.058	244.81
329.287	259.81
329.515	241.81
329.744	248.81
329.972	256.81
330.201	257.81
330.43	243.81
330.658	247.81
330.887	252.81
331.115	247.81
331.344	263.81
331.572	272.81
331.801	273.81
332.03	259.81
332.258	292.81
332.486	279.81
332.715	287.81
332.943	285.81
333.172	337.81
333.4	314.81
333.629	306.81
333.857	295.81
334.085	323.81
334.314	312.81
334.542	322.81
334.771	313.81
334.999	289.81
335.227	287.81
335.455	298.81
335.684	297.81
335.912	308.81
336.14	276.81
336.369	306.81
336.597	299.81
336.825	279.81
337.053	283.81
337.281	278.81
337.51	290.81
337.738	276.81
337.966	281.81
338.194	300.81
338.422	286.81
338.65	273.81
338.878	275.81
339.106	268.81
339.334	272.81
339.562	256.81
339.79	259.81
340.018	269.81
340.246	256.81
340.474	270.81
340.702	262.81
340.93	272.81
341.158	258.81
341.386	279.81
341.614	260.81
341.842	281.81
342.07	265.81
342.298	260.81
342.526	267.81
342.754	254.81
342.981	256.81
343.209	265.81
343.437	268.81
343.665	277.81
343.893	291.81
344.12	315.81
344.348	305.81
344.576	272.81
344.804	303.81
345.031	267.81
345.259	281.81
345.487	282.81
345.714	261.81
345.942	263.81
346.17	274.81
346.397	267.81
346.625	265.81
346.853	243.81
347.08	252.81
347.308	277.81
347.535	277.81
347.763	257.81
347.99	269.81
348.218	275.81
348.445	252.81
348.673	255.81
348.9	264.81
349.128	273.81
349.355	255.81
349.583	253.81
349.81	257.81
350.037	269.81
350.265	247.81
350.492	261.81
350.72	255.81
350.947	266.81
351.174	258.81
351.402	253.81
351.629	250.81
351.856	267.81
352.083	262.81
352.311	251.81
352.538	248.81
352.765	236.81
352.992	248.81
353.22	241.81
353.447	246.81
353.674	253.81
353.901	250.81
354.128	260.81
354.355	263.81
354.583	250.81
354.81	247.81
355.037	253.81
355.264	278.81
355.491	273.81
355.718	264.81
355.945	253.81
356.172	250.81
356.399	243.81
356.626	259.81
356.853	260.81
357.08	269.81
357.307	255.81
357.534	278.81
357.761	250.81
357.988	273.81
358.215	267.81
358.441	260.81
358.668	254.81
358.895	246.81
359.122	237.81
359.349	267.81
359.576	264.81
359.802	238.81
360.029	259.81
360.256	247.81
360.483	241.81
360.709	266.81
360.936	264.81
361.163	269.81
361.39	255.81
361.616	249.81
361.843	248.81
362.07	247.81
362.296	244.81
362.523	258.81
362.749	265.81
362.976	245.81
363.203	251.81
363.429	241.81
363.656	257.81
363.882	266.81
364.109	257.81
364.335	271.81
364.562	253.81
364.788	243.81
365.015	249.81
365.241	277.81
365.468	262.81
365.694	258.81
365.92	255.81
366.147	257.81
366.373	255.81
366.599	244.81
366.826	261.81
367.052	254.81
367.278	253.81
367.505	258.81
367.731	276.81
367.957	260.81
368.184	260.81
368.41	268.81
368.636	257.81
368.862	246.81
369.089	266.81
369.315	262.81
369.541	272.81
369.767	277.81
369.993	243.81
370.219	262.81
370.445	256.81
370.672	285.81
370.898	253.81
371.124	275.81
371.35	289.81
371.576	272.81
371.802	281.81
372.028	282.81
372.254	284.81
372.48	281.81
372.706	280.81
372.932	293.81
373.158	276.81
373.384	262.81
373.61	276.81
373.835	283.81
374.061	304.81
374.287	264.81
374.513	284.81
374.739	293.81
374.965	316.81
375.191	290.81
375.416	308.81
375.642	300.81
375.868	298.81
376.094	284.81
376.319	285.81
376.545	284.81
376.771	281.81
376.997	281.81
377.222	273.81
377.448	295.81
377.674	292.81
377.899	285.81
378.125	284.81
378.35	265.81
378.576	269.81
378.802	284.81
379.027	268.81
379.253	287.81
379.478	284.81
379.704	269.81
379.929	262.81
380.155	271.81
380.38	275.81
380.606	288.81
380.831	265.81
381.057	282.81
381.282	275.81
381.507	281.81
381.733	278.81
381.958	285.81
382.184	283.81
382.409	274.81
382.634	293.81
382.86	291.81
383.085	294.81
383.31	305.81
383.535	306.81
383.761	310.81
383.986	294.81
384.211	307.81
384.436	315.81
384.662	305.81
384.887	310.81
385.112	330.81
385.337	303.81
385.562	323.81
385.787	303.81
386.013	327.81
386.238	326.81
386.463	326.81
386.688	317.81
386.913	305.81
387.138	313.81
387.363	312.81
387.588	313.81
387.813	317.81
388.038	338.81
388.263	329.81
388.488	315.81
388.713	342.81
388.938	321.81
389.163	319.81
389.387	301.81
389.612	315.81
389.837	315.81
390.062	318.81
390.287	327.81
390.512	310.81
390.736	311.81
390.961	313.81
391.186	343.81
391.411	360.81
391.636	339.81
391.86	349.81
392.085	359.81
392.31	343.81
392.534	348.81
392.759	332.81
392.984	332.81
393.208	336.81
393.433	336.81
393.658	339.81
393.882	331.81
394.107	341.81
394.331	338.81
394.556	336.81
394.78	357.81
395.005	359.81
395.229	337.81
395.454	365.81
395.678	353.81
395.903	361.81
396.127	343.81
396.352	350.81
396.576	334.81
396.801	337.81
397.025	344.81
397.249	351.81
397.474	364.81
397.698	364.81
397.922	357.81
398.147	362.81
398.371	372.81
398.595	383.81
398.82	381.81
399.044	409.81
399.268	421.81
399.492	485.81
399.717	544.81
399.941	515.81
400.165	448.81
400.389	438.81
400.613	427.81
400.837	413.81
401.062	412.81
401.286	391.81
401.51	390.81
401.734	401.81
401.958	414.81
402.182	401.81
402.406	402.81
402.63	422.81
402.854	401.81
403.078	397.81
403.302	407.81
403.526	419.81
403.75	410.81
403.974	432.81
404.198	436.81
404.422	414.81
404.645	420.81
404.869	433.81
405.093	433.81
405.317	407.81
405.541	428.81
405.765	421.81
405.988	421.81
406.212	441.81
406.436	431.81
406.66	464.81
406.883	433.81
407.107	452.81
407.331	483.81
407.555	491.81
407.778	483.81
408.002	477.81
408.226	460.81
408.449	452.81
408.673	454.81
408.896	427.81
409.12	437.81
409.344	439.81
409.567	441.81
409.791	443.81
410.014	446.81
410.238	446.81
410.461	428.81
410.685	433.81
410.908	456.81
411.132	423.81
411.355	412.81
411.578	417.81
411.802	437.81
412.025	419.81
412.249	428.81
412.472	410.81
412.695	410.81
412.919	417.81
413.142	408.81
413.365	410.81
413.589	420.81
413.812	399.81
414.035	393.81
414.258	403.81
414.482	424.81
414.705	414.81
414.928	410.81
415.151	386.81
415.374	409.81
415.597	393.81
415.821	407.81
416.044	398.81
416.267	394.81
416.49	407.81
416.713	385.81
416.936	408.81
417.159	391.81
417.382	406.81
417.605	389.81
417.828	401.81
418.051	419.81
418.274	390.81
418.497	401.81
418.72	383.81
418.943	397.81
419.166	417.81
419.389	465.81
419.611	429.81
419.834	419.81
420.057	408.81
420.28	401.81
420.503	393.81
420.726	394.81
420.948	390.81
421.171	400.81
421.394	408.81
421.617	397.81
421.839	410.81
422.062	394.81
422.285	391.81
422.507	386.81
422.73	382.81
422.953	396.81
423.175	389.81
423.398	408.81
423.621	421.81
423.843	411.81
424.066	417.81
424.288	412.81
424.511	406.81
424.733	410.81
424.956	408.81
425.178	398.81
425.401	409.81
425.623	394.81
425.846	388.81
426.068	384.81
426.291	391.81
426.513	390.81
426.735	370.81
426.958	389.81
427.18	379.81
427.402	383.81
427.625	377.81
427.847	361.81
428.069	377.81
428.292	367.81
428.514	374.81
428.736	351.81
428.958	373.81
429.181	363.81
429.403	362.81
429.625	373.81
429.847	359.81
430.069	349.81
430.292	350.81
430.514	375.81
430.736	373.81
430.958	372.81
431.18	370.81
431.402	353.81
431.624	368.81
431.846	355.81
432.068	363.81
432.29	370.81
432.512	385.81
432.734	351.81
432.956	393.81
433.178	375.81
433.4	368.81
433.622	370.81
433.844	381.81
434.066	383.81
434.287	392.81
434.509	379.81
434.731	411.81
434.953	407.81
435.175	417.81
435.397	423.81
435.618	381.81
435.84	395.81
436.062	379.81
436.284	367.81
436.505	361.81
436.727	363.81
436.949	386.81
437.17	379.81
437.392	394.81
437.614	376.81
437.835	373.81
438.057	378.81
438.278	364.81
438.5	366.81
438.721	366.81
438.943	378.81
439.165	382.81
439.386	370.81
439.608	364.81
439.829	379.81
440.05	391.81
440.272	388.81
440.493	395.81
440.715	382.81
440.936	390.81
441.158	407.81
441.379	401.81
441.6	407.81
441.822	395.81
442.043	395.81
442.264	400.81
442.486	385.81
442.707	401.81
442.928	409.81
443.149	403.81
443.371	429.81
443.592	415.81
443.813	393.81
444.034	425.81
444.255	445.81
444.476	439.81
444.698	452.81
444.919	452.81
445.14	543.81
445.361	495.81
445.582	428.81
445.803	410.81
446.024	401.81
446.245	398.81
446.466	410.81
446.687	386.81
446.908	388.81
447.129	377.81
447.35	387.81
447.571	369.81
447.792	349.81
448.013	366.81
448.234	371.81
448.455	356.81
448.675	355.81
448.896	360.81
449.117	363.81
449.338	355.81
449.559	351.81
449.779	361.81
450	361.81
450.221	344.81
450.442	359.81
450.662	358.81
450.883	351.81
451.104	359.81
451.324	373.81
451.545	366.81
451.766	345.81
451.986	351.81
452.207	357.81
452.428	358.81
452.648	342.81
452.869	335.81
453.089	364.81
453.31	333.81
453.53	347.81
453.751	353.81
453.971	332.81
454.192	343.81
454.412	341.81
454.633	333.81
454.853	333.81
455.073	342.81
455.294	344.81
455.514	340.81
455.734	337.81
455.955	341.81
456.175	333.81
456.395	333.81
456.616	331.81
456.836	319.81
457.056	324.81
457.276	325.81
457.497	341.81
457.717	337.81
457.937	344.81
458.157	332.81
458.377	349.81
458.598	336.81
458.818	346.81
459.038	344.81
459.258	353.81
459.478	373.81
459.698	387.81
459.918	395.81
460.138	397.81
460.358	421.81
460.578	410.81
460.798	419.81
461.018	437.81
461.238	406.81
461.458	418.81
461.678	421.81
461.898	429.81
462.118	451.81
462.338	445.81
462.558	467.81
462.777	470.81
462.997	495.81
463.217	520.81
463.437	529.81
463.657	481.81
463.876	465.81
464.096	476.81
464.316	468.81
464.536	443.81
464.755	441.81
464.975	420.81
465.195	437.81
465.414	428.81
465.634	405.81
465.854	396.81
466.073	359.81
466.293	373.81
466.512	353.81
466.732	373.81
466.951	373.81
467.171	362.81
467.391	355.81
467.61	370.81
467.829	343.81
468.049	355.81
468.268	358.81
468.488	363.81
468.707	356.81
468.927	370.81
469.146	343.81
469.365	355.81
469.585	367.81
469.804	377.81
470.023	364.81
470.243	373.81
470.462	373.81
470.681	381.81
470.901	369.81
471.12	367.81
471.339	344.81
471.558	356.81
471.777	368.81
471.997	357.81
472.216	361.81
472.435	331.81
472.654	323.81
472.873	341.81
473.092	354.81
473.311	336.81
473.53	326.81
473.749	341.81
473.968	337.81
474.187	343.81
474.406	338.81
474.625	340.81
474.844	349.81
475.063	342.81
475.282	367.81
475.501	344.81
475.72	351.81
475.939	359.81
476.158	358.81
476.377	373.81
476.596	362.81
476.814	362.81
477.033	359.81
477.252	360.81
477.471	356.81
477.69	386.81
477.908	357.81
478.127	383.81
478.346	377.81
478.564	401.81
478.783	409.81
479.002	407.81
479.22	407.81
479.439	401.81
479.658	418.81
479.876	410.81
480.095	408.81
480.313	422.81
480.532	433.81
480.751	413.81
480.969	412.81
481.188	393.81
481.406	380.81
481.624	403.81
481.843	369.81
482.061	384.81
482.28	378.81
482.498	383.81
482.717	375.81
482.935	379.81
483.153	391.81
483.372	384.81
483.59	371.81
483.808	367.81
484.027	370.81
484.245	391.81
484.463	377.81
484.681	404.81
484.9	397.81
485.118	407.81
485.336	385.81
485.554	384.81
485.772	402.81
485.99	399.81
486.209	376.81
486.427	371.81
486.645	400.81
486.863	385.81
487.081	395.81
487.299	381.81
487.517	412.81
487.735	390.81
487.953	395.81
488.171	397.81
488.389	387.81
488.607	388.81
488.825	384.81
489.043	363.81
489.261	381.81
489.479	395.81
489.696	379.81
489.914	394.81
490.132	417.81
490.35	387.81
490.568	402.81
490.786	397.81
491.003	398.81
491.221	401.81
491.439	394.81
491.657	406.81
491.874	390.81
492.092	408.81
492.31	420.81
492.527	408.81
492.745	400.81
492.963	405.81
493.18	415.81
493.398	411.81
493.615	425.81
493.833	412.81
494.05	406.81
494.268	431.81
494.485	423.81
494.703	415.81
494.92	420.81
495.138	396.81
495.355	411.81
495.573	422.81
495.79	421.81
496.008	409.81
496.225	440.81
496.442	420.81
496.66	422.81
496.877	432.81
497.094	422.81
497.312	464.81
497.529	437.81
497.746	468.81
497.963	480.81
498.181	468.81
498.398	496.81
498.615	527.81
498.832	554.81
499.049	603.81
499.267	601.81
499.484	644.81
499.701	704.81
499.918	765.81
500.135	863.81
500.352	952.81
500.569	974.81
500.786	951.81
501.003	882.81
501.22	810.81
501.437	785.81
501.654	683.81
501.871	631.81
502.088	597.81
