Data from Fe(NO3)3@0.025M.TitratingCurve.Agarose3%dH2O.NegLispCup.LampEnergy10.LIBS07252019_HRD10591_16-53-46-335.txt Node
Date: Thu Jul 25 16:53:46 EDT 2019
User: cochatt
Spectrometer: HR+D1059
Trigger mode: 1
Integration Time (sec): 1.000000E-1
Scans to average: 1
Electric dark correction enabled: true
Nonlinearity correction enabled: false
Boxcar width: 0
XAxis mode: Wavelengths
Number of Pixels in Spectrum: 2048
>>>>>Begin Spectral Data<<<<<
223.165	-14.75
223.4	-14.75
223.635	-14.75
223.869	-21.75
224.104	-21.75
224.338	-12.75
224.573	-14.75
224.808	1.25
225.042	-6.75
225.277	4.25
225.511	-3.75
225.746	7.25
225.98	-7.75
226.215	12.25
226.449	12.25
226.683	20.25
226.918	8.25
227.152	38.25
227.387	33.25
227.621	49.25
227.856	38.25
228.09	49.25
228.324	43.25
228.559	51.25
228.793	58.25
229.027	84.25
229.262	117.25
229.496	82.25
229.73	74.25
229.964	102.25
230.199	103.25
230.433	97.25
230.667	97.25
230.901	98.25
231.136	108.25
231.37	111.25
231.604	103.25
231.838	113.25
232.072	106.25
232.306	115.25
232.541	108.25
232.775	120.25
233.009	108.25
233.243	123.25
233.477	115.25
233.711	134.25
233.945	123.25
234.179	118.25
234.413	138.25
234.647	124.25
234.881	120.25
235.115	129.25
235.349	122.25
235.583	129.25
235.817	107.25
236.051	116.25
236.285	135.25
236.519	117.25
236.753	124.25
236.987	122.25
237.221	135.25
237.455	137.25
237.689	117.25
237.922	144.25
238.156	125.25
238.39	142.25
238.624	137.25
238.858	139.25
239.091	147.25
239.325	149.25
239.559	137.25
239.793	146.25
240.027	130.25
240.26	139.25
240.494	140.25
240.728	132.25
240.961	124.25
241.195	159.25
241.429	140.25
241.662	142.25
241.896	142.25
242.13	144.25
242.363	138.25
242.597	142.25
242.83	146.25
243.064	139.25
243.298	141.25
243.531	148.25
243.765	146.25
243.998	149.25
244.232	151.25
244.465	165.25
244.699	161.25
244.932	159.25
245.166	155.25
245.399	179.25
245.633	155.25
245.866	155.25
246.099	154.25
246.333	159.25
246.566	158.25
246.8	160.25
247.033	161.25
247.266	160.25
247.5	141.25
247.733	157.25
247.966	165.25
248.2	170.25
248.433	179.25
248.666	179.25
248.899	183.25
249.133	160.25
249.366	163.25
249.599	160.25
249.832	175.25
250.066	173.25
250.299	168.25
250.532	181.25
250.765	162.25
250.998	182.25
251.231	183.25
251.465	179.25
251.698	179.25
251.931	201.25
252.164	181.25
252.397	189.25
252.63	200.25
252.863	187.25
253.096	191.25
253.329	188.25
253.562	188.25
253.795	205.25
254.028	198.25
254.261	202.25
254.494	200.25
254.727	202.25
254.96	193.25
255.193	202.25
255.426	190.25
255.659	196.25
255.892	180.25
256.124	183.25
256.357	211.25
256.59	194.25
256.823	200.25
257.056	205.25
257.289	193.25
257.521	212.25
257.754	204.25
257.987	199.25
258.22	208.25
258.452	221.25
258.685	211.25
258.918	209.25
259.151	231.25
259.383	227.25
259.616	214.25
259.849	201.25
260.081	247.25
260.314	255.25
260.547	237.25
260.779	238.25
261.012	224.25
261.244	229.25
261.477	240.25
261.71	237.25
261.942	241.25
262.175	226.25
262.407	246.25
262.64	235.25
262.872	235.25
263.105	246.25
263.337	227.25
263.57	242.25
263.802	208.25
264.035	244.25
264.267	232.25
264.499	245.25
264.732	235.25
264.964	234.25
265.197	221.25
265.429	247.25
265.661	239.25
265.894	228.25
266.126	256.25
266.358	261.25
266.591	243.25
266.823	248.25
267.055	246.25
267.287	243.25
267.52	239.25
267.752	274.25
267.984	249.25
268.216	255.25
268.448	257.25
268.681	252.25
268.913	250.25
269.145	255.25
269.377	257.25
269.609	261.25
269.841	245.25
270.073	259.25
270.306	263.25
270.538	279.25
270.77	277.25
271.002	272.25
271.234	255.25
271.466	265.25
271.698	267.25
271.93	277.25
272.162	258.25
272.394	273.25
272.626	271.25
272.858	265.25
273.09	289.25
273.322	297.25
273.553	305.25
273.785	280.25
274.017	285.25
274.249	296.25
274.481	284.25
274.713	301.25
274.945	331.25
275.176	332.25
275.408	329.25
275.64	306.25
275.872	317.25
276.104	306.25
276.335	304.25
276.567	304.25
276.799	308.25
277.031	325.25
277.262	299.25
277.494	319.25
277.726	310.25
277.957	303.25
278.189	300.25
278.421	303.25
278.652	323.25
278.884	284.25
279.115	336.25
279.347	311.25
279.579	315.25
279.81	319.25
280.042	327.25
280.273	321.25
280.505	305.25
280.736	339.25
280.968	319.25
281.199	329.25
281.431	329.25
281.662	321.25
281.894	330.25
282.125	331.25
282.356	333.25
282.588	338.25
282.819	322.25
283.051	336.25
283.282	340.25
283.513	352.25
283.745	325.25
283.976	332.25
284.207	362.25
284.439	352.25
284.67	349.25
284.901	338.25
285.132	344.25
285.364	338.25
285.595	343.25
285.826	337.25
286.057	354.25
286.288	355.25
286.52	338.25
286.751	344.25
286.982	358.25
287.213	352.25
287.444	351.25
287.675	357.25
287.906	361.25
288.138	352.25
288.369	353.25
288.6	378.25
288.831	354.25
289.062	360.25
289.293	356.25
289.524	352.25
289.755	363.25
289.986	380.25
290.217	387.25
290.448	358.25
290.679	360.25
290.91	363.25
291.141	378.25
291.371	360.25
291.602	377.25
291.833	373.25
292.064	379.25
292.295	354.25
292.526	375.25
292.757	363.25
292.987	379.25
293.218	368.25
293.449	357.25
293.68	381.25
293.91	360.25
294.141	367.25
294.372	368.25
294.603	376.25
294.833	369.25
295.064	387.25
295.295	373.25
295.525	371.25
295.756	372.25
295.987	397.25
296.217	377.25
296.448	396.25
296.679	376.25
296.909	373.25
297.14	397.25
297.37	404.25
297.601	395.25
297.831	375.25
298.062	407.25
298.292	400.25
298.523	402.25
298.753	399.25
298.984	394.25
299.214	376.25
299.445	383.25
299.675	414.25
299.905	404.25
300.136	413.25
300.366	405.25
300.597	408.25
300.827	426.25
301.057	398.25
301.288	412.25
301.518	419.25
301.748	413.25
301.979	412.25
302.209	416.25
302.439	407.25
302.669	420.25
302.9	424.25
303.13	431.25
303.36	429.25
303.59	432.25
303.82	433.25
304.051	421.25
304.281	427.25
304.511	425.25
304.741	423.25
304.971	406.25
305.201	420.25
305.431	440.25
305.661	431.25
305.891	429.25
306.121	417.25
306.352	424.25
306.582	425.25
306.812	432.25
307.042	434.25
307.272	427.25
307.502	435.25
307.731	398.25
307.961	418.25
308.191	418.25
308.421	440.25
308.651	435.25
308.881	436.25
309.111	437.25
309.341	436.25
309.571	440.25
309.8	434.25
310.03	432.25
310.26	435.25
310.49	455.25
310.72	445.25
310.949	444.25
311.179	458.25
311.409	440.25
311.639	451.25
311.868	413.25
312.098	448.25
312.328	454.25
312.557	479.25
312.787	442.25
313.017	461.25
313.246	474.25
313.476	459.25
313.706	448.25
313.935	450.25
314.165	471.25
314.394	454.25
314.624	471.25
314.853	466.25
315.083	487.25
315.312	468.25
315.542	457.25
315.771	472.25
316.001	450.25
316.23	471.25
316.46	467.25
316.689	486.25
316.919	479.25
317.148	476.25
317.377	480.25
317.607	485.25
317.836	477.25
318.065	472.25
318.295	480.25
318.524	486.25
318.753	486.25
318.983	482.25
319.212	460.25
319.441	479.25
319.67	481.25
319.9	483.25
320.129	491.25
320.358	472.25
320.587	480.25
320.816	479.25
321.046	484.25
321.275	498.25
321.504	508.25
321.733	504.25
321.962	496.25
322.191	489.25
322.42	498.25
322.649	517.25
322.878	502.25
323.108	490.25
323.337	520.25
323.566	497.25
323.795	499.25
324.024	507.25
324.253	518.25
324.482	524.25
324.71	524.25
324.939	512.25
325.168	517.25
325.397	511.25
325.626	515.25
325.855	505.25
326.084	519.25
326.313	513.25
326.542	513.25
326.77	518.25
326.999	503.25
327.228	528.25
327.457	523.25
327.686	528.25
327.914	520.25
328.143	530.25
328.372	522.25
328.6	512.25
328.829	513.25
329.058	528.25
329.287	502.25
329.515	523.25
329.744	533.25
329.972	522.25
330.201	533.25
330.43	553.25
330.658	533.25
330.887	540.25
331.115	526.25
331.344	528.25
331.572	522.25
331.801	562.25
332.03	562.25
332.258	531.25
332.486	575.25
332.715	550.25
332.943	554.25
333.172	569.25
333.4	563.25
333.629	578.25
333.857	580.25
334.085	600.25
334.314	589.25
334.542	564.25
334.771	589.25
334.999	569.25
335.227	569.25
335.455	575.25
335.684	600.25
335.912	599.25
336.14	591.25
336.369	600.25
336.597	549.25
336.825	582.25
337.053	592.25
337.281	593.25
337.51	585.25
337.738	578.25
337.966	561.25
338.194	568.25
338.422	572.25
338.65	579.25
338.878	562.25
339.106	576.25
339.334	581.25
339.562	570.25
339.79	554.25
340.018	569.25
340.246	581.25
340.474	545.25
340.702	554.25
340.93	564.25
341.158	556.25
341.386	542.25
341.614	563.25
341.842	560.25
342.07	542.25
342.298	572.25
342.526	575.25
342.754	569.25
342.981	541.25
343.209	543.25
343.437	555.25
343.665	581.25
343.893	581.25
344.12	612.25
344.348	575.25
344.576	579.25
344.804	600.25
345.031	573.25
345.259	578.25
345.487	574.25
345.714	550.25
345.942	551.25
346.17	573.25
346.397	554.25
346.625	548.25
346.853	555.25
347.08	562.25
347.308	544.25
347.535	519.25
347.763	567.25
347.99	562.25
348.218	539.25
348.445	540.25
348.673	551.25
348.9	546.25
349.128	543.25
349.355	534.25
349.583	553.25
349.81	561.25
350.037	551.25
350.265	537.25
350.492	533.25
350.72	530.25
350.947	540.25
351.174	535.25
351.402	562.25
351.629	538.25
351.856	540.25
352.083	548.25
352.311	560.25
352.538	532.25
352.765	538.25
352.992	532.25
353.22	547.25
353.447	553.25
353.674	547.25
353.901	523.25
354.128	550.25
354.355	538.25
354.583	550.25
354.81	552.25
355.037	556.25
355.264	541.25
355.491	543.25
355.718	523.25
355.945	532.25
356.172	537.25
356.399	544.25
356.626	551.25
356.853	556.25
357.08	554.25
357.307	532.25
357.534	529.25
357.761	552.25
357.988	543.25
358.215	540.25
358.441	565.25
358.668	529.25
358.895	554.25
359.122	562.25
359.349	529.25
359.576	537.25
359.802	553.25
360.029	539.25
360.256	540.25
360.483	521.25
360.709	535.25
360.936	566.25
361.163	556.25
361.39	538.25
361.616	546.25
361.843	537.25
362.07	553.25
362.296	546.25
362.523	548.25
362.749	573.25
362.976	546.25
363.203	564.25
363.429	562.25
363.656	571.25
363.882	548.25
364.109	562.25
364.335	550.25
364.562	566.25
364.788	543.25
365.015	566.25
365.241	545.25
365.468	570.25
365.694	552.25
365.92	564.25
366.147	573.25
366.373	540.25
366.599	553.25
366.826	554.25
367.052	573.25
367.278	534.25
367.505	576.25
367.731	560.25
367.957	584.25
368.184	567.25
368.41	592.25
368.636	577.25
368.862	555.25
369.089	580.25
369.315	556.25
369.541	584.25
369.767	584.25
369.993	577.25
370.219	581.25
370.445	586.25
370.672	596.25
370.898	588.25
371.124	587.25
371.35	587.25
371.576	582.25
371.802	614.25
372.028	603.25
372.254	590.25
372.48	585.25
372.706	603.25
372.932	607.25
373.158	606.25
373.384	606.25
373.61	592.25
373.835	603.25
374.061	598.25
374.287	631.25
374.513	623.25
374.739	614.25
374.965	608.25
375.191	608.25
375.416	630.25
375.642	580.25
375.868	604.25
376.094	595.25
376.319	589.25
376.545	597.25
376.771	587.25
376.997	592.25
377.222	579.25
377.448	581.25
377.674	585.25
377.899	582.25
378.125	588.25
378.35	580.25
378.576	616.25
378.802	605.25
379.027	592.25
379.253	572.25
379.478	580.25
379.704	590.25
379.929	597.25
380.155	584.25
380.38	586.25
380.606	594.25
380.831	586.25
381.057	603.25
381.282	604.25
381.507	602.25
381.733	601.25
381.958	592.25
382.184	588.25
382.409	590.25
382.634	600.25
382.86	610.25
383.085	632.25
383.31	606.25
383.535	615.25
383.761	639.25
383.986	641.25
384.211	615.25
384.436	610.25
384.662	632.25
384.887	643.25
385.112	626.25
385.337	620.25
385.562	635.25
385.787	636.25
386.013	652.25
386.238	637.25
386.463	633.25
386.688	663.25
386.913	651.25
387.138	668.25
387.363	661.25
387.588	639.25
387.813	687.25
388.038	671.25
388.263	642.25
388.488	667.25
388.713	663.25
388.938	664.25
389.163	629.25
389.387	659.25
389.612	655.25
389.837	671.25
390.062	656.25
390.287	678.25
390.512	654.25
390.736	666.25
390.961	671.25
391.186	663.25
391.411	637.25
391.636	674.25
391.86	678.25
392.085	709.25
392.31	695.25
392.534	692.25
392.759	679.25
392.984	707.25
393.208	681.25
393.433	697.25
393.658	698.25
393.882	691.25
394.107	687.25
394.331	691.25
394.556	698.25
394.78	681.25
395.005	689.25
395.229	697.25
395.454	695.25
395.678	701.25
395.903	718.25
396.127	716.25
396.352	709.25
396.576	688.25
396.801	705.25
397.025	708.25
397.249	722.25
397.474	723.25
397.698	693.25
397.922	717.25
398.147	730.25
398.371	718.25
398.595	735.25
398.82	726.25
399.044	744.25
399.268	774.25
399.492	820.25
399.717	841.25
399.941	811.25
400.165	800.25
400.389	789.25
400.613	805.25
400.837	792.25
401.062	756.25
401.286	756.25
401.51	751.25
401.734	748.25
401.958	779.25
402.182	740.25
402.406	747.25
402.63	723.25
402.854	731.25
403.078	781.25
403.302	770.25
403.526	765.25
403.75	754.25
403.974	747.25
404.198	765.25
404.422	771.25
404.645	764.25
404.869	748.25
405.093	749.25
405.317	754.25
405.541	777.25
405.765	778.25
405.988	743.25
406.212	821.25
406.436	779.25
406.66	766.25
406.883	795.25
407.107	794.25
407.331	824.25
407.555	812.25
407.778	805.25
408.002	850.25
408.226	812.25
408.449	832.25
408.673	809.25
408.896	835.25
409.12	784.25
409.344	791.25
409.567	772.25
409.791	802.25
410.014	752.25
410.238	791.25
410.461	805.25
410.685	779.25
410.908	775.25
411.132	774.25
411.355	744.25
411.578	736.25
411.802	722.25
412.025	751.25
412.249	752.25
412.472	770.25
412.695	758.25
412.919	742.25
413.142	748.25
413.365	775.25
413.589	737.25
413.812	744.25
414.035	786.25
414.258	757.25
414.482	743.25
414.705	735.25
414.928	735.25
415.151	738.25
415.374	729.25
415.597	730.25
415.821	719.25
416.044	716.25
416.267	728.25
416.49	724.25
416.713	730.25
416.936	722.25
417.159	714.25
417.382	715.25
417.605	703.25
417.828	704.25
418.051	710.25
418.274	724.25
418.497	704.25
418.72	698.25
418.943	716.25
419.166	737.25
419.389	776.25
419.611	751.25
419.834	735.25
420.057	717.25
420.28	723.25
420.503	709.25
420.726	709.25
420.948	699.25
421.171	731.25
421.394	716.25
421.617	693.25
421.839	699.25
422.062	727.25
422.285	692.25
422.507	715.25
422.73	716.25
422.953	703.25
423.175	726.25
423.398	718.25
423.621	706.25
423.843	715.25
424.066	701.25
424.288	740.25
424.511	708.25
424.733	697.25
424.956	673.25
425.178	688.25
425.401	712.25
425.623	684.25
425.846	709.25
426.068	703.25
426.291	696.25
426.513	672.25
426.735	707.25
426.958	671.25
427.18	679.25
427.402	682.25
427.625	675.25
427.847	695.25
428.069	679.25
428.292	674.25
428.514	704.25
428.736	689.25
428.958	678.25
429.181	676.25
429.403	666.25
429.625	684.25
429.847	657.25
430.069	651.25
430.292	676.25
430.514	648.25
430.736	688.25
430.958	700.25
431.18	686.25
431.402	689.25
431.624	687.25
431.846	664.25
432.068	683.25
432.29	678.25
432.512	700.25
432.734	687.25
432.956	678.25
433.178	693.25
433.4	684.25
433.622	695.25
433.844	680.25
434.066	681.25
434.287	703.25
434.509	697.25
434.731	712.25
434.953	698.25
435.175	716.25
435.397	714.25
435.618	700.25
435.84	711.25
436.062	675.25
436.284	663.25
436.505	650.25
436.727	683.25
436.949	674.25
437.17	688.25
437.392	667.25
437.614	669.25
437.835	639.25
438.057	661.25
438.278	652.25
438.5	641.25
438.721	665.25
438.943	664.25
439.165	643.25
439.386	650.25
439.608	682.25
439.829	660.25
440.05	668.25
440.272	663.25
440.493	677.25
440.715	652.25
440.936	665.25
441.158	658.25
441.379	689.25
441.6	671.25
441.822	677.25
442.043	685.25
442.264	666.25
442.486	663.25
442.707	688.25
442.928	676.25
443.149	665.25
443.371	694.25
443.592	679.25
443.813	680.25
444.034	694.25
444.255	703.25
444.476	680.25
444.698	683.25
444.919	712.25
445.14	807.25
445.361	721.25
445.582	683.25
445.803	661.25
446.024	639.25
446.245	683.25
446.466	674.25
446.687	664.25
446.908	656.25
447.129	654.25
447.35	645.25
447.571	639.25
447.792	600.25
448.013	655.25
448.234	632.25
448.455	616.25
448.675	633.25
448.896	641.25
449.117	642.25
449.338	606.25
449.559	612.25
449.779	604.25
450	620.25
450.221	627.25
450.442	628.25
450.662	612.25
450.883	635.25
451.104	621.25
451.324	627.25
451.545	623.25
451.766	614.25
451.986	596.25
452.207	603.25
452.428	609.25
452.648	602.25
452.869	583.25
453.089	601.25
453.31	613.25
453.53	613.25
453.751	617.25
453.971	610.25
454.192	610.25
454.412	600.25
454.633	592.25
454.853	614.25
455.073	588.25
455.294	586.25
455.514	605.25
455.734	604.25
455.955	565.25
456.175	595.25
456.395	565.25
456.616	604.25
456.836	602.25
457.056	599.25
457.276	590.25
457.497	601.25
457.717	624.25
457.937	611.25
458.157	624.25
458.377	621.25
458.598	635.25
458.818	631.25
459.038	613.25
459.258	657.25
459.478	651.25
459.698	635.25
459.918	663.25
460.138	657.25
460.358	664.25
460.578	667.25
460.798	697.25
461.018	667.25
461.238	687.25
461.458	724.25
461.678	686.25
461.898	684.25
462.118	697.25
462.338	695.25
462.558	721.25
462.777	726.25
462.997	739.25
463.217	758.25
463.437	739.25
463.657	733.25
463.876	748.25
464.096	709.25
464.316	725.25
464.536	705.25
464.755	716.25
464.975	697.25
465.195	679.25
465.414	711.25
465.634	682.25
465.854	685.25
466.073	703.25
466.293	660.25
466.512	651.25
466.732	657.25
466.951	649.25
467.171	659.25
467.391	665.25
467.61	671.25
467.829	639.25
468.049	635.25
468.268	656.25
468.488	655.25
468.707	647.25
468.927	640.25
469.146	640.25
469.365	642.25
469.585	656.25
469.804	668.25
470.023	665.25
470.243	634.25
470.462	633.25
470.681	675.25
470.901	649.25
471.12	661.25
471.339	673.25
471.558	649.25
471.777	637.25
471.997	652.25
472.216	647.25
472.435	662.25
472.654	651.25
472.873	672.25
473.092	649.25
473.311	663.25
473.53	650.25
473.749	652.25
473.968	660.25
474.187	672.25
474.406	643.25
474.625	668.25
474.844	642.25
475.063	669.25
475.282	663.25
475.501	664.25
475.72	687.25
475.939	716.25
476.158	708.25
476.377	725.25
476.596	712.25
476.814	687.25
477.033	716.25
477.252	708.25
477.471	708.25
477.69	712.25
477.908	727.25
478.127	743.25
478.346	704.25
478.564	723.25
478.783	752.25
479.002	744.25
479.22	767.25
479.439	754.25
479.658	743.25
479.876	777.25
480.095	768.25
480.313	740.25
480.532	801.25
480.751	777.25
480.969	764.25
481.188	761.25
481.406	782.25
481.624	759.25
481.843	762.25
482.061	770.25
482.28	787.25
482.498	788.25
482.717	759.25
482.935	778.25
483.153	782.25
483.372	743.25
483.59	747.25
483.808	789.25
484.027	791.25
484.245	792.25
484.463	757.25
484.681	802.25
484.9	771.25
485.118	785.25
485.336	760.25
485.554	751.25
485.772	802.25
485.99	793.25
486.209	780.25
486.427	785.25
486.645	775.25
486.863	790.25
487.081	804.25
487.299	807.25
487.517	815.25
487.735	803.25
487.953	802.25
488.171	796.25
488.389	802.25
488.607	791.25
488.825	789.25
489.043	794.25
489.261	808.25
489.479	796.25
489.696	798.25
489.914	807.25
490.132	807.25
490.35	793.25
490.568	804.25
490.786	826.25
491.003	817.25
491.221	806.25
491.439	812.25
491.657	768.25
491.874	824.25
492.092	812.25
492.31	802.25
492.527	819.25
492.745	816.25
492.963	841.25
493.18	822.25
493.398	826.25
493.615	833.25
493.833	827.25
494.05	838.25
494.268	823.25
494.485	819.25
494.703	848.25
494.92	845.25
495.138	824.25
495.355	830.25
495.573	836.25
495.79	819.25
496.008	868.25
496.225	872.25
496.442	873.25
496.66	872.25
496.877	876.25
497.094	887.25
497.312	879.25
497.529	882.25
497.746	897.25
497.963	927.25
498.181	924.25
498.398	967.25
498.615	957.25
498.832	1015.25
499.049	1005.25
499.267	1023.25
499.484	1035.25
499.701	1108.25
499.918	1119.25
500.135	1168.25
500.352	1207.25
500.569	1193.25
500.786	1199.25
501.003	1197.25
501.22	1169.25
501.437	1125.25
