Data from Fe(NO3)3@0.05M.TitratingCurve.Agarose3%dH2O.NegLispCup.LampEnergy10.LIBS07252019_HRD10591_16-47-11-334.txt Node
Date: Thu Jul 25 16:47:11 EDT 2019
User: cochatt
Spectrometer: HR+D1059
Trigger mode: 1
Integration Time (sec): 1.000000E-1
Scans to average: 1
Electric dark correction enabled: true
Nonlinearity correction enabled: false
Boxcar width: 0
XAxis mode: Wavelengths
Number of Pixels in Spectrum: 2048
>>>>>Begin Spectral Data<<<<<
223.165	-20.06
223.4	-20.06
223.635	-20.06
223.869	-8.06
224.104	-20.06
224.338	-20.06
224.573	-17.06
224.808	-17.06
225.042	9.94
225.277	7.94
225.511	6.94
225.746	-20.06
225.98	-9.06
226.215	4.94
226.449	10.94
226.683	30.94
226.918	26.94
227.152	32.94
227.387	28.94
227.621	53.94
227.856	23.94
228.09	45.94
228.324	50.94
228.559	52.94
228.793	68.94
229.027	86.94
229.262	90.94
229.496	97.94
229.73	82.94
229.964	102.94
230.199	99.94
230.433	96.94
230.667	112.94
230.901	111.94
231.136	118.94
231.37	127.94
231.604	118.94
231.838	127.94
232.072	121.94
232.306	115.94
232.541	116.94
232.775	117.94
233.009	118.94
233.243	145.94
233.477	142.94
233.711	128.94
233.945	137.94
234.179	127.94
234.413	130.94
234.647	126.94
234.881	133.94
235.115	138.94
235.349	140.94
235.583	133.94
235.817	133.94
236.051	125.94
236.285	135.94
236.519	148.94
236.753	124.94
236.987	130.94
237.221	139.94
237.455	132.94
237.689	127.94
237.922	137.94
238.156	139.94
238.39	144.94
238.624	139.94
238.858	141.94
239.091	133.94
239.325	151.94
239.559	147.94
239.793	157.94
240.027	152.94
240.26	166.94
240.494	147.94
240.728	157.94
240.961	151.94
241.195	152.94
241.429	175.94
241.662	148.94
241.896	149.94
242.13	155.94
242.363	157.94
242.597	159.94
242.83	154.94
243.064	165.94
243.298	149.94
243.531	158.94
243.765	149.94
243.998	162.94
244.232	154.94
244.465	167.94
244.699	175.94
244.932	159.94
245.166	177.94
245.399	163.94
245.633	179.94
245.866	173.94
246.099	179.94
246.333	172.94
246.566	160.94
246.8	162.94
247.033	166.94
247.266	169.94
247.5	166.94
247.733	185.94
247.966	186.94
248.2	194.94
248.433	186.94
248.666	175.94
248.899	197.94
249.133	177.94
249.366	201.94
249.599	176.94
249.832	194.94
250.066	168.94
250.299	197.94
250.532	184.94
250.765	197.94
250.998	190.94
251.231	186.94
251.465	190.94
251.698	189.94
251.931	213.94
252.164	192.94
252.397	219.94
252.63	217.94
252.863	201.94
253.096	219.94
253.329	202.94
253.562	228.94
253.795	211.94
254.028	226.94
254.261	229.94
254.494	222.94
254.727	215.94
254.96	217.94
255.193	218.94
255.426	225.94
255.659	207.94
255.892	219.94
256.124	209.94
256.357	217.94
256.59	220.94
256.823	230.94
257.056	222.94
257.289	221.94
257.521	215.94
257.754	230.94
257.987	224.94
258.22	225.94
258.452	241.94
258.685	239.94
258.918	231.94
259.151	240.94
259.383	237.94
259.616	234.94
259.849	235.94
260.081	278.94
260.314	294.94
260.547	254.94
260.779	247.94
261.012	256.94
261.244	254.94
261.477	261.94
261.71	271.94
261.942	240.94
262.175	242.94
262.407	264.94
262.64	262.94
262.872	289.94
263.105	286.94
263.337	267.94
263.57	267.94
263.802	258.94
264.035	243.94
264.267	246.94
264.499	249.94
264.732	257.94
264.964	249.94
265.197	256.94
265.429	244.94
265.661	265.94
265.894	257.94
266.126	276.94
266.358	281.94
266.591	265.94
266.823	251.94
267.055	273.94
267.287	265.94
267.52	264.94
267.752	261.94
267.984	275.94
268.216	264.94
268.448	274.94
268.681	273.94
268.913	281.94
269.145	287.94
269.377	276.94
269.609	270.94
269.841	284.94
270.073	273.94
270.306	275.94
270.538	286.94
270.77	287.94
271.002	295.94
271.234	280.94
271.466	291.94
271.698	281.94
271.93	284.94
272.162	301.94
272.394	291.94
272.626	290.94
272.858	284.94
273.09	294.94
273.322	308.94
273.553	302.94
273.785	296.94
274.017	309.94
274.249	330.94
274.481	349.94
274.713	329.94
274.945	355.94
275.176	350.94
275.408	361.94
275.64	342.94
275.872	343.94
276.104	344.94
276.335	311.94
276.567	302.94
276.799	336.94
277.031	328.94
277.262	329.94
277.494	331.94
277.726	315.94
277.957	325.94
278.189	319.94
278.421	329.94
278.652	326.94
278.884	330.94
279.115	331.94
279.347	326.94
279.579	331.94
279.81	329.94
280.042	322.94
280.273	321.94
280.505	325.94
280.736	330.94
280.968	342.94
281.199	330.94
281.431	324.94
281.662	365.94
281.894	339.94
282.125	319.94
282.356	329.94
282.588	352.94
282.819	353.94
283.051	350.94
283.282	349.94
283.513	354.94
283.745	341.94
283.976	364.94
284.207	347.94
284.439	365.94
284.67	347.94
284.901	352.94
285.132	337.94
285.364	361.94
285.595	356.94
285.826	354.94
286.057	352.94
286.288	329.94
286.52	362.94
286.751	362.94
286.982	361.94
287.213	360.94
287.444	362.94
287.675	352.94
287.906	355.94
288.138	390.94
288.369	368.94
288.6	380.94
288.831	381.94
289.062	376.94
289.293	390.94
289.524	381.94
289.755	375.94
289.986	394.94
290.217	379.94
290.448	377.94
290.679	386.94
290.91	377.94
291.141	388.94
291.371	406.94
291.602	395.94
291.833	363.94
292.064	381.94
292.295	380.94
292.526	372.94
292.757	379.94
292.987	395.94
293.218	379.94
293.449	416.94
293.68	385.94
293.91	375.94
294.141	385.94
294.372	377.94
294.603	369.94
294.833	391.94
295.064	385.94
295.295	380.94
295.525	391.94
295.756	387.94
295.987	367.94
296.217	395.94
296.448	395.94
296.679	397.94
296.909	380.94
297.14	396.94
297.37	405.94
297.601	404.94
297.831	403.94
298.062	386.94
298.292	389.94
298.523	424.94
298.753	425.94
298.984	431.94
299.214	411.94
299.445	429.94
299.675	409.94
299.905	425.94
300.136	395.94
300.366	417.94
300.597	411.94
300.827	411.94
301.057	425.94
301.288	429.94
301.518	416.94
301.748	409.94
301.979	429.94
302.209	435.94
302.439	437.94
302.669	438.94
302.9	446.94
303.13	433.94
303.36	422.94
303.59	437.94
303.82	410.94
304.051	433.94
304.281	443.94
304.511	411.94
304.741	451.94
304.971	431.94
305.201	420.94
305.431	427.94
305.661	426.94
305.891	420.94
306.121	446.94
306.352	426.94
306.582	429.94
306.812	440.94
307.042	435.94
307.272	451.94
307.502	421.94
307.731	435.94
307.961	433.94
308.191	424.94
308.421	439.94
308.651	425.94
308.881	443.94
309.111	434.94
309.341	432.94
309.571	435.94
309.8	436.94
310.03	454.94
310.26	452.94
310.49	442.94
310.72	437.94
310.949	462.94
311.179	445.94
311.409	445.94
311.639	454.94
311.868	460.94
312.098	457.94
312.328	461.94
312.557	451.94
312.787	437.94
313.017	449.94
313.246	454.94
313.476	443.94
313.706	460.94
313.935	471.94
314.165	486.94
314.394	454.94
314.624	461.94
314.853	474.94
315.083	481.94
315.312	477.94
315.542	476.94
315.771	456.94
316.001	458.94
316.23	476.94
316.46	459.94
316.689	491.94
316.919	452.94
317.148	457.94
317.377	446.94
317.607	477.94
317.836	493.94
318.065	451.94
318.295	477.94
318.524	449.94
318.753	463.94
318.983	481.94
319.212	467.94
319.441	500.94
319.67	495.94
319.9	489.94
320.129	478.94
320.358	473.94
320.587	484.94
320.816	485.94
321.046	497.94
321.275	464.94
321.504	477.94
321.733	472.94
321.962	475.94
322.191	479.94
322.42	467.94
322.649	478.94
322.878	475.94
323.108	494.94
323.337	479.94
323.566	501.94
323.795	484.94
324.024	474.94
324.253	492.94
324.482	485.94
324.71	469.94
324.939	487.94
325.168	484.94
325.397	504.94
325.626	505.94
325.855	509.94
326.084	509.94
326.313	524.94
326.542	520.94
326.77	538.94
326.999	513.94
327.228	511.94
327.457	495.94
327.686	506.94
327.914	515.94
328.143	497.94
328.372	508.94
328.6	531.94
328.829	522.94
329.058	512.94
329.287	495.94
329.515	503.94
329.744	494.94
329.972	521.94
330.201	480.94
330.43	531.94
330.658	539.94
330.887	517.94
331.115	519.94
331.344	530.94
331.572	537.94
331.801	560.94
332.03	541.94
332.258	554.94
332.486	557.94
332.715	554.94
332.943	559.94
333.172	584.94
333.4	623.94
333.629	599.94
333.857	650.94
334.085	637.94
334.314	617.94
334.542	615.94
334.771	625.94
334.999	619.94
335.227	616.94
335.455	627.94
335.684	613.94
335.912	608.94
336.14	618.94
336.369	602.94
336.597	603.94
336.825	598.94
337.053	591.94
337.281	587.94
337.51	574.94
337.738	574.94
337.966	570.94
338.194	584.94
338.422	576.94
338.65	585.94
338.878	563.94
339.106	579.94
339.334	568.94
339.562	553.94
339.79	548.94
340.018	549.94
340.246	547.94
340.474	533.94
340.702	534.94
340.93	560.94
341.158	565.94
341.386	555.94
341.614	543.94
341.842	543.94
342.07	560.94
342.298	555.94
342.526	537.94
342.754	535.94
342.981	543.94
343.209	562.94
343.437	572.94
343.665	569.94
343.893	606.94
344.12	617.94
344.348	638.94
344.576	629.94
344.804	604.94
345.031	567.94
345.259	545.94
345.487	561.94
345.714	537.94
345.942	566.94
346.17	537.94
346.397	529.94
346.625	545.94
346.853	545.94
347.08	553.94
347.308	527.94
347.535	536.94
347.763	536.94
347.99	531.94
348.218	534.94
348.445	530.94
348.673	539.94
348.9	533.94
349.128	528.94
349.355	519.94
349.583	515.94
349.81	541.94
350.037	520.94
350.265	517.94
350.492	515.94
350.72	527.94
350.947	530.94
351.174	523.94
351.402	518.94
351.629	542.94
351.856	516.94
352.083	520.94
352.311	514.94
352.538	500.94
352.765	509.94
352.992	510.94
353.22	513.94
353.447	510.94
353.674	514.94
353.901	501.94
354.128	509.94
354.355	515.94
354.583	515.94
354.81	527.94
355.037	505.94
355.264	511.94
355.491	539.94
355.718	509.94
355.945	516.94
356.172	535.94
356.399	537.94
356.626	497.94
356.853	526.94
357.08	519.94
357.307	535.94
357.534	545.94
357.761	537.94
357.988	554.94
358.215	555.94
358.441	547.94
358.668	535.94
358.895	533.94
359.122	517.94
359.349	527.94
359.576	511.94
359.802	524.94
360.029	539.94
360.256	520.94
360.483	533.94
360.709	518.94
360.936	528.94
361.163	539.94
361.39	514.94
361.616	535.94
361.843	551.94
362.07	536.94
362.296	530.94
362.523	521.94
362.749	533.94
362.976	518.94
363.203	530.94
363.429	554.94
363.656	532.94
363.882	535.94
364.109	546.94
364.335	508.94
364.562	541.94
364.788	542.94
365.015	521.94
365.241	545.94
365.468	538.94
365.694	529.94
365.92	518.94
366.147	538.94
366.373	525.94
366.599	543.94
366.826	530.94
367.052	533.94
367.278	529.94
367.505	529.94
367.731	563.94
367.957	517.94
368.184	547.94
368.41	550.94
368.636	541.94
368.862	563.94
369.089	527.94
369.315	562.94
369.541	557.94
369.767	575.94
369.993	554.94
370.219	563.94
370.445	565.94
370.672	577.94
370.898	567.94
371.124	589.94
371.35	579.94
371.576	573.94
371.802	577.94
372.028	592.94
372.254	583.94
372.48	620.94
372.706	604.94
372.932	608.94
373.158	608.94
373.384	596.94
373.61	613.94
373.835	631.94
374.061	606.94
374.287	607.94
374.513	600.94
374.739	595.94
374.965	645.94
375.191	639.94
375.416	630.94
375.642	594.94
375.868	602.94
376.094	606.94
376.319	605.94
376.545	589.94
376.771	610.94
376.997	597.94
377.222	579.94
377.448	569.94
377.674	582.94
377.899	561.94
378.125	576.94
378.35	583.94
378.576	585.94
378.802	574.94
379.027	582.94
379.253	589.94
379.478	569.94
379.704	594.94
379.929	591.94
380.155	592.94
380.38	584.94
380.606	579.94
380.831	596.94
381.057	601.94
381.282	601.94
381.507	586.94
381.733	616.94
381.958	593.94
382.184	636.94
382.409	635.94
382.634	632.94
382.86	637.94
383.085	637.94
383.31	627.94
383.535	662.94
383.761	659.94
383.986	639.94
384.211	643.94
384.436	672.94
384.662	659.94
384.887	667.94
385.112	672.94
385.337	698.94
385.562	691.94
385.787	685.94
386.013	719.94
386.238	711.94
386.463	687.94
386.688	692.94
386.913	673.94
387.138	682.94
387.363	682.94
387.588	692.94
387.813	695.94
388.038	730.94
388.263	689.94
388.488	701.94
388.713	729.94
388.938	704.94
389.163	702.94
389.387	704.94
389.612	721.94
389.837	697.94
390.062	704.94
390.287	713.94
390.512	714.94
390.736	717.94
390.961	728.94
391.186	756.94
391.411	743.94
391.636	739.94
391.86	766.94
392.085	785.94
392.31	763.94
392.534	764.94
392.759	754.94
392.984	764.94
393.208	749.94
393.433	738.94
393.658	740.94
393.882	742.94
394.107	728.94
394.331	740.94
394.556	714.94
394.78	739.94
395.005	733.94
395.229	715.94
395.454	801.94
395.678	772.94
395.903	787.94
396.127	761.94
396.352	759.94
396.576	770.94
396.801	762.94
397.025	793.94
397.249	781.94
397.474	797.94
397.698	818.94
397.922	805.94
398.147	813.94
398.371	824.94
398.595	840.94
398.82	855.94
399.044	883.94
399.268	933.94
399.492	994.94
399.717	1081.94
399.941	1106.94
400.165	1038.94
400.389	1022.94
400.613	974.94
400.837	927.94
401.062	901.94
401.286	906.94
401.51	888.94
401.734	897.94
401.958	872.94
402.182	858.94
402.406	875.94
402.63	879.94
402.854	857.94
403.078	883.94
403.302	872.94
403.526	923.94
403.75	902.94
403.974	897.94
404.198	895.94
404.422	890.94
404.645	898.94
404.869	927.94
405.093	907.94
405.317	905.94
405.541	900.94
405.765	902.94
405.988	921.94
406.212	905.94
406.436	930.94
406.66	941.94
406.883	935.94
407.107	970.94
407.331	978.94
407.555	1057.94
407.778	1018.94
408.002	1008.94
408.226	1018.94
408.449	993.94
408.673	955.94
408.896	951.94
409.12	941.94
409.344	968.94
409.567	936.94
409.791	935.94
410.014	929.94
410.238	918.94
410.461	906.94
410.685	946.94
410.908	899.94
411.132	898.94
411.355	886.94
411.578	923.94
411.802	868.94
412.025	896.94
412.249	911.94
412.472	908.94
412.695	880.94
412.919	870.94
413.142	900.94
413.365	878.94
413.589	869.94
413.812	872.94
414.035	888.94
414.258	874.94
414.482	903.94
414.705	886.94
414.928	879.94
415.151	866.94
415.374	879.94
415.597	863.94
415.821	860.94
416.044	833.94
416.267	828.94
416.49	862.94
416.713	879.94
416.936	823.94
417.159	830.94
417.382	826.94
417.605	863.94
417.828	848.94
418.051	846.94
418.274	836.94
418.497	843.94
418.72	838.94
418.943	850.94
419.166	883.94
419.389	927.94
419.611	913.94
419.834	893.94
420.057	874.94
420.28	858.94
420.503	829.94
420.726	822.94
420.948	853.94
421.171	840.94
421.394	858.94
421.617	843.94
421.839	838.94
422.062	849.94
422.285	845.94
422.507	854.94
422.73	843.94
422.953	856.94
423.175	856.94
423.398	869.94
423.621	853.94
423.843	857.94
424.066	861.94
424.288	833.94
424.511	849.94
424.733	883.94
424.956	863.94
425.178	858.94
425.401	832.94
425.623	846.94
425.846	817.94
426.068	851.94
426.291	817.94
426.513	836.94
426.735	840.94
426.958	839.94
427.18	827.94
427.402	827.94
427.625	819.94
427.847	791.94
428.069	792.94
428.292	822.94
428.514	807.94
428.736	785.94
428.958	815.94
429.181	789.94
429.403	800.94
429.625	800.94
429.847	788.94
430.069	778.94
430.292	815.94
430.514	772.94
430.736	810.94
430.958	771.94
431.18	799.94
431.402	779.94
431.624	770.94
431.846	785.94
432.068	768.94
432.29	801.94
432.512	778.94
432.734	825.94
432.956	789.94
433.178	802.94
433.4	807.94
433.622	787.94
433.844	798.94
434.066	807.94
434.287	803.94
434.509	820.94
434.731	851.94
434.953	831.94
435.175	835.94
435.397	844.94
435.618	822.94
435.84	807.94
436.062	814.94
436.284	789.94
436.505	775.94
436.727	791.94
436.949	801.94
437.17	785.94
437.392	779.94
437.614	792.94
437.835	747.94
438.057	771.94
438.278	742.94
438.5	786.94
438.721	798.94
438.943	781.94
439.165	787.94
439.386	753.94
439.608	794.94
439.829	805.94
440.05	806.94
440.272	797.94
440.493	783.94
440.715	808.94
440.936	799.94
441.158	824.94
441.379	831.94
441.6	877.94
441.822	881.94
442.043	867.94
442.264	841.94
442.486	842.94
442.707	839.94
442.928	878.94
443.149	859.94
443.371	831.94
443.592	839.94
443.813	861.94
444.034	858.94
444.255	869.94
444.476	906.94
444.698	913.94
444.919	919.94
445.14	1005.94
445.361	919.94
445.582	884.94
445.803	849.94
446.024	833.94
446.245	846.94
446.466	843.94
446.687	817.94
446.908	814.94
447.129	808.94
447.35	793.94
447.571	760.94
447.792	776.94
448.013	759.94
448.234	738.94
448.455	775.94
448.675	744.94
448.896	767.94
449.117	727.94
449.338	744.94
449.559	709.94
449.779	758.94
450	729.94
450.221	733.94
450.442	737.94
450.662	767.94
450.883	721.94
451.104	734.94
451.324	730.94
451.545	735.94
451.766	746.94
451.986	726.94
452.207	744.94
452.428	699.94
452.648	713.94
452.869	692.94
453.089	699.94
453.31	711.94
453.53	710.94
453.751	699.94
453.971	703.94
454.192	719.94
454.412	696.94
454.633	701.94
454.853	717.94
455.073	678.94
455.294	701.94
455.514	697.94
455.734	709.94
455.955	687.94
456.175	705.94
456.395	719.94
456.616	691.94
456.836	700.94
457.056	703.94
457.276	688.94
457.497	697.94
457.717	715.94
457.937	720.94
458.157	705.94
458.377	718.94
458.598	730.94
458.818	783.94
459.038	770.94
459.258	780.94
459.478	764.94
459.698	803.94
459.918	818.94
460.138	830.94
460.358	867.94
460.578	869.94
460.798	893.94
461.018	886.94
461.238	901.94
461.458	914.94
461.678	897.94
461.898	919.94
462.118	889.94
462.338	928.94
462.558	937.94
462.777	984.94
462.997	1016.94
463.217	1033.94
463.437	1071.94
463.657	1011.94
463.876	1012.94
464.096	1011.94
464.316	993.94
464.536	991.94
464.755	966.94
464.975	952.94
465.195	909.94
465.414	882.94
465.634	843.94
465.854	839.94
466.073	815.94
466.293	794.94
466.512	789.94
466.732	816.94
466.951	815.94
467.171	779.94
467.391	771.94
467.61	779.94
467.829	769.94
468.049	773.94
468.268	743.94
468.488	761.94
468.707	781.94
468.927	777.94
469.146	772.94
469.365	783.94
469.585	764.94
469.804	764.94
470.023	787.94
470.243	791.94
470.462	796.94
470.681	786.94
470.901	786.94
471.12	779.94
471.339	781.94
471.558	745.94
471.777	764.94
471.997	780.94
472.216	763.94
472.435	759.94
472.654	767.94
472.873	742.94
473.092	757.94
473.311	760.94
473.53	759.94
473.749	758.94
473.968	750.94
474.187	752.94
474.406	739.94
474.625	776.94
474.844	761.94
475.063	797.94
475.282	778.94
475.501	772.94
475.72	790.94
475.939	793.94
476.158	773.94
476.377	804.94
476.596	822.94
476.814	818.94
477.033	816.94
477.252	813.94
477.471	845.94
477.69	836.94
477.908	864.94
478.127	862.94
478.346	869.94
478.564	875.94
478.783	902.94
479.002	885.94
479.22	910.94
479.439	965.94
479.658	906.94
479.876	903.94
480.095	906.94
480.313	920.94
480.532	944.94
480.751	941.94
480.969	930.94
481.188	915.94
481.406	911.94
481.624	878.94
481.843	920.94
482.061	887.94
482.28	887.94
482.498	898.94
482.717	887.94
482.935	907.94
483.153	894.94
483.372	880.94
483.59	886.94
483.808	883.94
484.027	862.94
484.245	851.94
484.463	888.94
484.681	903.94
484.9	913.94
485.118	910.94
485.336	883.94
485.554	902.94
485.772	918.94
485.99	874.94
486.209	906.94
486.427	895.94
486.645	909.94
486.863	903.94
487.081	906.94
487.299	888.94
487.517	925.94
487.735	928.94
487.953	925.94
488.171	918.94
488.389	929.94
488.607	911.94
488.825	891.94
489.043	897.94
489.261	909.94
489.479	926.94
489.696	907.94
489.914	905.94
490.132	874.94
490.35	913.94
490.568	908.94
490.786	912.94
491.003	908.94
491.221	907.94
491.439	919.94
491.657	945.94
491.874	953.94
492.092	949.94
492.31	964.94
492.527	974.94
492.745	943.94
492.963	935.94
493.18	964.94
493.398	948.94
493.615	938.94
493.833	922.94
494.05	964.94
494.268	946.94
494.485	972.94
494.703	959.94
494.92	953.94
495.138	969.94
495.355	972.94
495.573	963.94
495.79	978.94
496.008	1007.94
496.225	983.94
496.442	999.94
496.66	1008.94
496.877	1014.94
497.094	1077.94
497.312	1062.94
497.529	1075.94
497.746	1098.94
497.963	1107.94
498.181	1173.94
498.398	1175.94
498.615	1240.94
498.832	1278.94
499.049	1380.94
499.267	1413.94
499.484	1502.94
499.701	1589.94
499.918	1669.94
500.135	1754.94
500.352	1880.94
500.569	1969.94
500.786	1937.94
501.003	1913.94
501.22	1823.94
