Data from Fe(NO3)3@0.1M.TitratingCurve.Agarose3%dH2O.NegLispCup.LampEnergy10.LIBS07252019_HRD10591_16-40-37-333.txt Node
Date: Thu Jul 25 16:40:37 EDT 2019
User: cochatt
Spectrometer: HR+D1059
Trigger mode: 1
Integration Time (sec): 1.000000E-1
Scans to average: 1
Electric dark correction enabled: true
Nonlinearity correction enabled: false
Boxcar width: 0
XAxis mode: Wavelengths
Number of Pixels in Spectrum: 2048
>>>>>Begin Spectral Data<<<<<
223.165	-7.19
223.4	-7.19
223.635	-7.19
223.869	-19.19
224.104	-22.19
224.338	-12.19
224.573	-16.19
224.808	-21.19
225.042	-10.19
225.277	-14.19
225.511	-20.19
225.746	12.81
225.98	19.81
226.215	10.81
226.449	5.81
226.683	31.81
226.918	22.81
227.152	38.81
227.387	34.81
227.621	29.81
227.856	33.81
228.09	39.81
228.324	43.81
228.559	60.81
228.793	59.81
229.027	80.81
229.262	89.81
229.496	94.81
229.73	110.81
229.964	98.81
230.199	97.81
230.433	108.81
230.667	115.81
230.901	104.81
231.136	105.81
231.37	113.81
231.604	116.81
231.838	107.81
232.072	115.81
232.306	119.81
232.541	130.81
232.775	120.81
233.009	113.81
233.243	116.81
233.477	115.81
233.711	126.81
233.945	120.81
234.179	126.81
234.413	98.81
234.647	117.81
234.881	117.81
235.115	141.81
235.349	120.81
235.583	132.81
235.817	120.81
236.051	126.81
236.285	127.81
236.519	119.81
236.753	116.81
236.987	129.81
237.221	122.81
237.455	132.81
237.689	135.81
237.922	122.81
238.156	133.81
238.39	127.81
238.624	132.81
238.858	129.81
239.091	137.81
239.325	124.81
239.559	124.81
239.793	132.81
240.027	145.81
240.26	134.81
240.494	145.81
240.728	133.81
240.961	139.81
241.195	149.81
241.429	141.81
241.662	127.81
241.896	120.81
242.13	134.81
242.363	137.81
242.597	152.81
242.83	137.81
243.064	142.81
243.298	138.81
243.531	162.81
243.765	158.81
243.998	149.81
244.232	157.81
244.465	123.81
244.699	138.81
244.932	146.81
245.166	161.81
245.399	167.81
245.633	163.81
245.866	153.81
246.099	144.81
246.333	164.81
246.566	148.81
246.8	157.81
247.033	158.81
247.266	155.81
247.5	166.81
247.733	179.81
247.966	161.81
248.2	177.81
248.433	161.81
248.666	170.81
248.899	179.81
249.133	164.81
249.366	187.81
249.599	177.81
249.832	179.81
250.066	179.81
250.299	187.81
250.532	168.81
250.765	172.81
250.998	185.81
251.231	186.81
251.465	172.81
251.698	168.81
251.931	186.81
252.164	182.81
252.397	182.81
252.63	186.81
252.863	193.81
253.096	194.81
253.329	195.81
253.562	185.81
253.795	202.81
254.028	197.81
254.261	196.81
254.494	202.81
254.727	204.81
254.96	196.81
255.193	188.81
255.426	199.81
255.659	171.81
255.892	193.81
256.124	195.81
256.357	195.81
256.59	196.81
256.823	205.81
257.056	206.81
257.289	192.81
257.521	224.81
257.754	202.81
257.987	204.81
258.22	209.81
258.452	202.81
258.685	216.81
258.918	205.81
259.151	204.81
259.383	205.81
259.616	201.81
259.849	211.81
260.081	204.81
260.314	231.81
260.547	210.81
260.779	232.81
261.012	239.81
261.244	226.81
261.477	235.81
261.71	231.81
261.942	232.81
262.175	224.81
262.407	222.81
262.64	220.81
262.872	234.81
263.105	215.81
263.337	239.81
263.57	239.81
263.802	241.81
264.035	218.81
264.267	239.81
264.499	236.81
264.732	229.81
264.964	240.81
265.197	237.81
265.429	240.81
265.661	234.81
265.894	243.81
266.126	232.81
266.358	235.81
266.591	247.81
266.823	241.81
267.055	225.81
267.287	243.81
267.52	228.81
267.752	237.81
267.984	244.81
268.216	260.81
268.448	253.81
268.681	239.81
268.913	239.81
269.145	239.81
269.377	247.81
269.609	261.81
269.841	253.81
270.073	252.81
270.306	252.81
270.538	260.81
270.77	250.81
271.002	264.81
271.234	231.81
271.466	255.81
271.698	267.81
271.93	270.81
272.162	273.81
272.394	267.81
272.626	273.81
272.858	257.81
273.09	282.81
273.322	263.81
273.553	270.81
273.785	280.81
274.017	263.81
274.249	269.81
274.481	272.81
274.713	274.81
274.945	289.81
275.176	285.81
275.408	273.81
275.64	267.81
275.872	283.81
276.104	280.81
276.335	269.81
276.567	297.81
276.799	291.81
277.031	284.81
277.262	304.81
277.494	290.81
277.726	283.81
277.957	292.81
278.189	294.81
278.421	291.81
278.652	290.81
278.884	302.81
279.115	297.81
279.347	311.81
279.579	294.81
279.81	291.81
280.042	291.81
280.273	309.81
280.505	289.81
280.736	300.81
280.968	312.81
281.199	315.81
281.431	315.81
281.662	305.81
281.894	315.81
282.125	293.81
282.356	323.81
282.588	303.81
282.819	299.81
283.051	303.81
283.282	309.81
283.513	317.81
283.745	307.81
283.976	332.81
284.207	309.81
284.439	316.81
284.67	315.81
284.901	334.81
285.132	311.81
285.364	319.81
285.595	324.81
285.826	312.81
286.057	326.81
286.288	324.81
286.52	327.81
286.751	327.81
286.982	329.81
287.213	320.81
287.444	328.81
287.675	336.81
287.906	338.81
288.138	346.81
288.369	338.81
288.6	344.81
288.831	328.81
289.062	341.81
289.293	340.81
289.524	317.81
289.755	351.81
289.986	333.81
290.217	350.81
290.448	364.81
290.679	344.81
290.91	337.81
291.141	344.81
291.371	343.81
291.602	334.81
291.833	331.81
292.064	349.81
292.295	358.81
292.526	350.81
292.757	354.81
292.987	340.81
293.218	332.81
293.449	343.81
293.68	352.81
293.91	357.81
294.141	333.81
294.372	346.81
294.603	345.81
294.833	360.81
295.064	349.81
295.295	354.81
295.525	339.81
295.756	350.81
295.987	353.81
296.217	361.81
296.448	378.81
296.679	371.81
296.909	372.81
297.14	360.81
297.37	377.81
297.601	381.81
297.831	376.81
298.062	373.81
298.292	370.81
298.523	382.81
298.753	366.81
298.984	379.81
299.214	389.81
299.445	376.81
299.675	395.81
299.905	364.81
300.136	373.81
300.366	367.81
300.597	365.81
300.827	407.81
301.057	373.81
301.288	396.81
301.518	387.81
301.748	371.81
301.979	390.81
302.209	397.81
302.439	401.81
302.669	403.81
302.9	395.81
303.13	373.81
303.36	403.81
303.59	380.81
303.82	384.81
304.051	391.81
304.281	401.81
304.511	403.81
304.741	404.81
304.971	392.81
305.201	387.81
305.431	397.81
305.661	386.81
305.891	399.81
306.121	382.81
306.352	388.81
306.582	380.81
306.812	364.81
307.042	384.81
307.272	403.81
307.502	381.81
307.731	393.81
307.961	380.81
308.191	375.81
308.421	375.81
308.651	381.81
308.881	391.81
309.111	412.81
309.341	380.81
309.571	403.81
309.8	405.81
310.03	387.81
310.26	373.81
310.49	403.81
310.72	382.81
310.949	395.81
311.179	400.81
311.409	399.81
311.639	393.81
311.868	412.81
312.098	412.81
312.328	412.81
312.557	405.81
312.787	410.81
313.017	416.81
313.246	422.81
313.476	414.81
313.706	419.81
313.935	413.81
314.165	407.81
314.394	409.81
314.624	428.81
314.853	420.81
315.083	425.81
315.312	417.81
315.542	404.81
315.771	422.81
316.001	415.81
316.23	425.81
316.46	412.81
316.689	416.81
316.919	421.81
317.148	423.81
317.377	424.81
317.607	413.81
317.836	416.81
318.065	420.81
318.295	417.81
318.524	408.81
318.753	402.81
318.983	415.81
319.212	428.81
319.441	422.81
319.67	433.81
319.9	419.81
320.129	416.81
320.358	434.81
320.587	421.81
320.816	412.81
321.046	417.81
321.275	425.81
321.504	434.81
321.733	417.81
321.962	420.81
322.191	431.81
322.42	415.81
322.649	426.81
322.878	415.81
323.108	427.81
323.337	407.81
323.566	434.81
323.795	425.81
324.024	431.81
324.253	439.81
324.482	421.81
324.71	435.81
324.939	458.81
325.168	431.81
325.397	447.81
325.626	443.81
325.855	451.81
326.084	457.81
326.313	457.81
326.542	472.81
326.77	449.81
326.999	452.81
327.228	445.81
327.457	440.81
327.686	459.81
327.914	459.81
328.143	484.81
328.372	464.81
328.6	440.81
328.829	443.81
329.058	463.81
329.287	480.81
329.515	464.81
329.744	456.81
329.972	460.81
330.201	463.81
330.43	476.81
330.658	462.81
330.887	483.81
331.115	461.81
331.344	475.81
331.572	479.81
331.801	487.81
332.03	492.81
332.258	515.81
332.486	524.81
332.715	520.81
332.943	535.81
333.172	545.81
333.4	553.81
333.629	585.81
333.857	561.81
334.085	555.81
334.314	579.81
334.542	575.81
334.771	554.81
334.999	562.81
335.227	565.81
335.455	558.81
335.684	559.81
335.912	545.81
336.14	544.81
336.369	556.81
336.597	549.81
336.825	538.81
337.053	529.81
337.281	545.81
337.51	539.81
337.738	543.81
337.966	534.81
338.194	497.81
338.422	507.81
338.65	504.81
338.878	501.81
339.106	521.81
339.334	505.81
339.562	499.81
339.79	504.81
340.018	479.81
340.246	482.81
340.474	515.81
340.702	501.81
340.93	490.81
341.158	508.81
341.386	491.81
341.614	478.81
341.842	503.81
342.07	453.81
342.298	479.81
342.526	491.81
342.754	480.81
342.981	468.81
343.209	490.81
343.437	528.81
343.665	549.81
343.893	546.81
344.12	567.81
344.348	543.81
344.576	543.81
344.804	521.81
345.031	527.81
345.259	513.81
345.487	468.81
345.714	484.81
345.942	488.81
346.17	453.81
346.397	453.81
346.625	450.81
346.853	452.81
347.08	457.81
347.308	467.81
347.535	477.81
347.763	462.81
347.99	468.81
348.218	453.81
348.445	476.81
348.673	434.81
348.9	460.81
349.128	457.81
349.355	453.81
349.583	469.81
349.81	454.81
350.037	455.81
350.265	469.81
350.492	467.81
350.72	450.81
350.947	440.81
351.174	459.81
351.402	471.81
351.629	466.81
351.856	451.81
352.083	439.81
352.311	457.81
352.538	457.81
352.765	452.81
352.992	465.81
353.22	445.81
353.447	457.81
353.674	485.81
353.901	445.81
354.128	457.81
354.355	459.81
354.583	471.81
354.81	472.81
355.037	474.81
355.264	467.81
355.491	463.81
355.718	449.81
355.945	453.81
356.172	430.81
356.399	461.81
356.626	469.81
356.853	474.81
357.08	459.81
357.307	443.81
357.534	492.81
357.761	468.81
357.988	452.81
358.215	472.81
358.441	457.81
358.668	454.81
358.895	453.81
359.122	456.81
359.349	443.81
359.576	451.81
359.802	470.81
360.029	459.81
360.256	442.81
360.483	471.81
360.709	451.81
360.936	436.81
361.163	465.81
361.39	453.81
361.616	449.81
361.843	464.81
362.07	468.81
362.296	478.81
362.523	463.81
362.749	473.81
362.976	460.81
363.203	485.81
363.429	457.81
363.656	475.81
363.882	453.81
364.109	441.81
364.335	449.81
364.562	455.81
364.788	451.81
365.015	453.81
365.241	461.81
365.468	468.81
365.694	472.81
365.92	450.81
366.147	462.81
366.373	450.81
366.599	455.81
366.826	471.81
367.052	474.81
367.278	456.81
367.505	461.81
367.731	461.81
367.957	478.81
368.184	444.81
368.41	456.81
368.636	472.81
368.862	476.81
369.089	469.81
369.315	475.81
369.541	485.81
369.767	504.81
369.993	495.81
370.219	476.81
370.445	512.81
370.672	486.81
370.898	523.81
371.124	521.81
371.35	496.81
371.576	474.81
371.802	501.81
372.028	483.81
372.254	505.81
372.48	496.81
372.706	525.81
372.932	531.81
373.158	534.81
373.384	531.81
373.61	514.81
373.835	513.81
374.061	500.81
374.287	490.81
374.513	502.81
374.739	531.81
374.965	561.81
375.191	538.81
375.416	528.81
375.642	518.81
375.868	529.81
376.094	513.81
376.319	542.81
376.545	518.81
376.771	498.81
376.997	501.81
377.222	481.81
377.448	500.81
377.674	488.81
377.899	492.81
378.125	514.81
378.35	474.81
378.576	514.81
378.802	512.81
379.027	518.81
379.253	533.81
379.478	491.81
379.704	471.81
379.929	502.81
380.155	529.81
380.38	504.81
380.606	514.81
380.831	520.81
381.057	514.81
381.282	518.81
381.507	519.81
381.733	513.81
381.958	510.81
382.184	535.81
382.409	526.81
382.634	516.81
382.86	529.81
383.085	552.81
383.31	540.81
383.535	531.81
383.761	571.81
383.986	575.81
384.211	576.81
384.436	550.81
384.662	571.81
384.887	565.81
385.112	566.81
385.337	581.81
385.562	596.81
385.787	617.81
386.013	605.81
386.238	626.81
386.463	577.81
386.688	571.81
386.913	607.81
387.138	594.81
387.363	605.81
387.588	607.81
387.813	611.81
388.038	595.81
388.263	602.81
388.488	572.81
388.713	628.81
388.938	579.81
389.163	595.81
389.387	597.81
389.612	595.81
389.837	567.81
390.062	587.81
390.287	593.81
390.512	576.81
390.736	609.81
390.961	614.81
391.186	594.81
391.411	635.81
391.636	639.81
391.86	656.81
392.085	693.81
392.31	677.81
392.534	652.81
392.759	635.81
392.984	627.81
393.208	630.81
393.433	611.81
393.658	645.81
393.882	639.81
394.107	633.81
394.331	621.81
394.556	621.81
394.78	639.81
395.005	649.81
395.229	635.81
395.454	655.81
395.678	652.81
395.903	639.81
396.127	658.81
396.352	635.81
396.576	637.81
396.801	627.81
397.025	647.81
397.249	688.81
397.474	672.81
397.698	658.81
397.922	690.81
398.147	657.81
398.371	668.81
398.595	721.81
398.82	719.81
399.044	783.81
399.268	827.81
399.492	924.81
399.717	978.81
399.941	1000.81
400.165	925.81
400.389	881.81
400.613	809.81
400.837	786.81
401.062	784.81
401.286	733.81
401.51	747.81
401.734	716.81
401.958	766.81
402.182	735.81
402.406	741.81
402.63	745.81
402.854	756.81
403.078	777.81
403.302	798.81
403.526	799.81
403.75	791.81
403.974	813.81
404.198	803.81
404.422	792.81
404.645	794.81
404.869	824.81
405.093	816.81
405.317	777.81
405.541	793.81
405.765	799.81
405.988	797.81
406.212	789.81
406.436	795.81
406.66	838.81
406.883	828.81
407.107	892.81
407.331	884.81
407.555	914.81
407.778	923.81
408.002	900.81
408.226	862.81
408.449	881.81
408.673	815.81
408.896	825.81
409.12	829.81
409.344	810.81
409.567	852.81
409.791	853.81
410.014	837.81
410.238	835.81
410.461	836.81
410.685	788.81
410.908	807.81
411.132	814.81
411.355	791.81
411.578	778.81
411.802	775.81
412.025	773.81
412.249	773.81
412.472	775.81
412.695	754.81
412.919	736.81
413.142	775.81
413.365	756.81
413.589	794.81
413.812	780.81
414.035	731.81
414.258	738.81
414.482	734.81
414.705	751.81
414.928	757.81
415.151	734.81
415.374	763.81
415.597	751.81
415.821	716.81
416.044	737.81
416.267	756.81
416.49	737.81
416.713	727.81
416.936	739.81
417.159	722.81
417.382	719.81
417.605	733.81
417.828	723.81
418.051	744.81
418.274	733.81
418.497	758.81
418.72	730.81
418.943	737.81
419.166	748.81
419.389	781.81
419.611	803.81
419.834	771.81
420.057	761.81
420.28	753.81
420.503	707.81
420.726	719.81
420.948	720.81
421.171	721.81
421.394	735.81
421.617	730.81
421.839	741.81
422.062	734.81
422.285	733.81
422.507	752.81
422.73	733.81
422.953	738.81
423.175	744.81
423.398	733.81
423.621	755.81
423.843	780.81
424.066	765.81
424.288	773.81
424.511	741.81
424.733	745.81
424.956	743.81
425.178	734.81
425.401	723.81
425.623	705.81
425.846	714.81
426.068	714.81
426.291	718.81
426.513	712.81
426.735	683.81
426.958	684.81
427.18	690.81
427.402	684.81
427.625	669.81
427.847	679.81
428.069	669.81
428.292	673.81
428.514	664.81
428.736	691.81
428.958	667.81
429.181	647.81
429.403	657.81
429.625	649.81
429.847	663.81
430.069	659.81
430.292	653.81
430.514	651.81
430.736	673.81
430.958	651.81
431.18	663.81
431.402	686.81
431.624	669.81
431.846	680.81
432.068	670.81
432.29	718.81
432.512	691.81
432.734	664.81
432.956	667.81
433.178	681.81
433.4	677.81
433.622	691.81
433.844	711.81
434.066	689.81
434.287	698.81
434.509	704.81
434.731	710.81
434.953	740.81
435.175	699.81
435.397	730.81
435.618	701.81
435.84	709.81
436.062	687.81
436.284	673.81
436.505	672.81
436.727	681.81
436.949	707.81
437.17	684.81
437.392	677.81
437.614	676.81
437.835	660.81
438.057	633.81
438.278	676.81
438.5	645.81
438.721	650.81
438.943	656.81
439.165	659.81
439.386	654.81
439.608	673.81
439.829	640.81
440.05	681.81
440.272	669.81
440.493	672.81
440.715	669.81
440.936	684.81
441.158	672.81
441.379	733.81
441.6	768.81
441.822	730.81
442.043	716.81
442.264	711.81
442.486	720.81
442.707	728.81
442.928	724.81
443.149	728.81
443.371	733.81
443.592	751.81
443.813	740.81
444.034	748.81
444.255	764.81
444.476	767.81
444.698	816.81
444.919	839.81
445.14	906.81
445.361	815.81
445.582	742.81
445.803	746.81
446.024	732.81
446.245	691.81
446.466	703.81
446.687	694.81
446.908	691.81
447.129	669.81
447.35	674.81
447.571	650.81
447.792	653.81
448.013	651.81
448.234	660.81
448.455	609.81
448.675	652.81
448.896	625.81
449.117	637.81
449.338	624.81
449.559	623.81
449.779	613.81
450	618.81
450.221	633.81
450.442	647.81
450.662	615.81
450.883	643.81
451.104	637.81
451.324	633.81
451.545	626.81
451.766	639.81
451.986	602.81
452.207	622.81
452.428	600.81
452.648	626.81
452.869	611.81
453.089	593.81
453.31	613.81
453.53	609.81
453.751	599.81
453.971	610.81
454.192	590.81
454.412	588.81
454.633	589.81
454.853	585.81
455.073	571.81
455.294	583.81
455.514	588.81
455.734	580.81
455.955	579.81
456.175	591.81
456.395	565.81
456.616	582.81
456.836	595.81
457.056	586.81
457.276	573.81
457.497	575.81
457.717	565.81
457.937	599.81
458.157	593.81
458.377	593.81
458.598	596.81
458.818	625.81
459.038	640.81
459.258	643.81
459.478	654.81
459.698	664.81
459.918	702.81
460.138	707.81
460.358	745.81
460.578	753.81
460.798	782.81
461.018	746.81
461.238	769.81
461.458	770.81
461.678	766.81
461.898	767.81
462.118	775.81
462.338	794.81
462.558	825.81
462.777	871.81
462.997	852.81
463.217	941.81
463.437	960.81
463.657	907.81
463.876	863.81
464.096	870.81
464.316	857.81
464.536	852.81
464.755	845.81
464.975	799.81
465.195	771.81
465.414	757.81
465.634	694.81
465.854	673.81
466.073	682.81
466.293	664.81
466.512	648.81
466.732	672.81
466.951	663.81
467.171	647.81
467.391	644.81
467.61	667.81
467.829	628.81
468.049	656.81
468.268	629.81
468.488	615.81
468.707	610.81
468.927	632.81
469.146	611.81
469.365	635.81
469.585	624.81
469.804	630.81
470.023	629.81
470.243	626.81
470.462	645.81
470.681	668.81
470.901	649.81
471.12	663.81
471.339	652.81
471.558	635.81
471.777	637.81
471.997	620.81
472.216	634.81
472.435	611.81
472.654	605.81
472.873	596.81
473.092	615.81
473.311	609.81
473.53	604.81
473.749	618.81
473.968	635.81
474.187	601.81
474.406	599.81
474.625	624.81
474.844	625.81
475.063	605.81
475.282	607.81
475.501	643.81
475.72	610.81
475.939	627.81
476.158	619.81
476.377	642.81
476.596	633.81
476.814	640.81
477.033	629.81
477.252	663.81
477.471	658.81
477.69	672.81
477.908	693.81
478.127	711.81
478.346	679.81
478.564	714.81
478.783	714.81
479.002	723.81
479.22	719.81
479.439	740.81
479.658	709.81
479.876	729.81
480.095	731.81
480.313	767.81
480.532	769.81
480.751	760.81
480.969	727.81
481.188	699.81
481.406	725.81
481.624	693.81
481.843	691.81
482.061	682.81
482.28	670.81
482.498	703.81
482.717	668.81
482.935	715.81
483.153	683.81
483.372	698.81
483.59	693.81
483.808	697.81
484.027	683.81
484.245	695.81
484.463	679.81
484.681	710.81
484.9	709.81
485.118	717.81
485.336	709.81
485.554	688.81
485.772	728.81
485.99	734.81
486.209	714.81
486.427	705.81
486.645	710.81
486.863	728.81
487.081	725.81
487.299	711.81
487.517	704.81
487.735	709.81
487.953	743.81
488.171	705.81
488.389	692.81
488.607	706.81
488.825	695.81
489.043	701.81
489.261	692.81
489.479	706.81
489.696	714.81
489.914	700.81
490.132	719.81
490.35	707.81
490.568	704.81
490.786	739.81
491.003	723.81
491.221	706.81
491.439	728.81
491.657	717.81
491.874	715.81
492.092	732.81
492.31	735.81
492.527	697.81
492.745	735.81
492.963	748.81
493.18	715.81
493.398	736.81
493.615	736.81
493.833	754.81
494.05	754.81
494.268	738.81
494.485	754.81
494.703	752.81
494.92	761.81
495.138	743.81
495.355	750.81
495.573	745.81
495.79	745.81
496.008	753.81
496.225	769.81
496.442	776.81
496.66	815.81
496.877	781.81
497.094	804.81
497.312	812.81
497.529	864.81
497.746	853.81
497.963	884.81
498.181	892.81
498.398	922.81
498.615	995.81
498.832	1033.81
499.049	1067.81
499.267	1180.81
499.484	1267.81
499.701	1366.81
499.918	1475.81
500.135	1633.81
500.352	1748.81
500.569	1810.81
500.786	1785.81
501.003	1704.81
501.22	1559.81
501.437	1447.81
