Data from Fe(NO3)3@0.05M.TitratingCurve.Agarose3%dH2O.NegLispCup.LampEnergy10.LIBS07252019_HRD10591_16-48-09-334.txt Node
Date: Thu Jul 25 16:48:09 EDT 2019
User: cochatt
Spectrometer: HR+D1059
Trigger mode: 1
Integration Time (sec): 1.000000E-1
Scans to average: 1
Electric dark correction enabled: true
Nonlinearity correction enabled: false
Boxcar width: 0
XAxis mode: Wavelengths
Number of Pixels in Spectrum: 2048
>>>>>Begin Spectral Data<<<<<
223.165	-18.25
223.4	-18.25
223.635	-18.25
223.869	-5.25
224.104	-0.25
224.338	-25.25
224.573	-16.25
224.808	-14.25
225.042	2.75
225.277	-2.25
225.511	-7.25
225.746	-0.25
225.98	4.75
226.215	2.75
226.449	7.75
226.683	20.75
226.918	21.75
227.152	28.75
227.387	34.75
227.621	32.75
227.856	44.75
228.09	43.75
228.324	49.75
228.559	62.75
228.793	65.75
229.027	64.75
229.262	74.75
229.496	71.75
229.73	90.75
229.964	73.75
230.199	77.75
230.433	81.75
230.667	82.75
230.901	82.75
231.136	77.75
231.37	96.75
231.604	99.75
231.838	90.75
232.072	90.75
232.306	105.75
232.541	98.75
232.775	97.75
233.009	93.75
233.243	93.75
233.477	90.75
233.711	95.75
233.945	83.75
234.179	75.75
234.413	109.75
234.647	87.75
234.881	105.75
235.115	94.75
235.349	88.75
235.583	102.75
235.817	101.75
236.051	90.75
236.285	103.75
236.519	86.75
236.753	91.75
236.987	98.75
237.221	94.75
237.455	88.75
237.689	91.75
237.922	88.75
238.156	109.75
238.39	93.75
238.624	89.75
238.858	106.75
239.091	105.75
239.325	97.75
239.559	75.75
239.793	81.75
240.027	93.75
240.26	101.75
240.494	112.75
240.728	98.75
240.961	105.75
241.195	103.75
241.429	110.75
241.662	99.75
241.896	91.75
242.13	86.75
242.363	104.75
242.597	105.75
242.83	99.75
243.064	98.75
243.298	100.75
243.531	105.75
243.765	96.75
243.998	94.75
244.232	115.75
244.465	105.75
244.699	102.75
244.932	99.75
245.166	109.75
245.399	107.75
245.633	118.75
245.866	101.75
246.099	119.75
246.333	115.75
246.566	105.75
246.8	106.75
247.033	117.75
247.266	110.75
247.5	117.75
247.733	101.75
247.966	96.75
248.2	91.75
248.433	107.75
248.666	110.75
248.899	117.75
249.133	109.75
249.366	118.75
249.599	107.75
249.832	113.75
250.066	122.75
250.299	96.75
250.532	97.75
250.765	110.75
250.998	117.75
251.231	124.75
251.465	111.75
251.698	113.75
251.931	106.75
252.164	112.75
252.397	118.75
252.63	110.75
252.863	130.75
253.096	112.75
253.329	137.75
253.562	125.75
253.795	106.75
254.028	117.75
254.261	129.75
254.494	125.75
254.727	125.75
254.96	116.75
255.193	106.75
255.426	124.75
255.659	123.75
255.892	127.75
256.124	109.75
256.357	106.75
256.59	116.75
256.823	134.75
257.056	129.75
257.289	123.75
257.521	120.75
257.754	110.75
257.987	126.75
258.22	127.75
258.452	127.75
258.685	124.75
258.918	109.75
259.151	128.75
259.383	117.75
259.616	121.75
259.849	136.75
260.081	138.75
260.314	145.75
260.547	130.75
260.779	130.75
261.012	131.75
261.244	142.75
261.477	121.75
261.71	129.75
261.942	132.75
262.175	125.75
262.407	119.75
262.64	135.75
262.872	136.75
263.105	135.75
263.337	141.75
263.57	118.75
263.802	129.75
264.035	123.75
264.267	123.75
264.499	129.75
264.732	130.75
264.964	128.75
265.197	129.75
265.429	128.75
265.661	120.75
265.894	131.75
266.126	133.75
266.358	134.75
266.591	129.75
266.823	133.75
267.055	129.75
267.287	135.75
267.52	133.75
267.752	134.75
267.984	138.75
268.216	136.75
268.448	136.75
268.681	135.75
268.913	135.75
269.145	138.75
269.377	147.75
269.609	153.75
269.841	146.75
270.073	143.75
270.306	148.75
270.538	133.75
270.77	131.75
271.002	123.75
271.234	123.75
271.466	126.75
271.698	161.75
271.93	145.75
272.162	142.75
272.394	138.75
272.626	147.75
272.858	134.75
273.09	153.75
273.322	157.75
273.553	153.75
273.785	144.75
274.017	142.75
274.249	158.75
274.481	157.75
274.713	159.75
274.945	163.75
275.176	179.75
275.408	165.75
275.64	160.75
275.872	160.75
276.104	140.75
276.335	138.75
276.567	152.75
276.799	142.75
277.031	157.75
277.262	148.75
277.494	153.75
277.726	157.75
277.957	173.75
278.189	147.75
278.421	139.75
278.652	155.75
278.884	152.75
279.115	164.75
279.347	161.75
279.579	162.75
279.81	155.75
280.042	159.75
280.273	161.75
280.505	146.75
280.736	151.75
280.968	167.75
281.199	160.75
281.431	161.75
281.662	155.75
281.894	161.75
282.125	142.75
282.356	157.75
282.588	169.75
282.819	163.75
283.051	158.75
283.282	156.75
283.513	153.75
283.745	179.75
283.976	185.75
284.207	161.75
284.439	167.75
284.67	147.75
284.901	165.75
285.132	165.75
285.364	155.75
285.595	160.75
285.826	165.75
286.057	158.75
286.288	152.75
286.52	171.75
286.751	175.75
286.982	163.75
287.213	164.75
287.444	151.75
287.675	160.75
287.906	185.75
288.138	166.75
288.369	170.75
288.6	154.75
288.831	171.75
289.062	157.75
289.293	159.75
289.524	162.75
289.755	166.75
289.986	169.75
290.217	170.75
290.448	158.75
290.679	172.75
290.91	156.75
291.141	166.75
291.371	181.75
291.602	165.75
291.833	168.75
292.064	187.75
292.295	159.75
292.526	163.75
292.757	169.75
292.987	194.75
293.218	166.75
293.449	158.75
293.68	159.75
293.91	160.75
294.141	177.75
294.372	170.75
294.603	185.75
294.833	178.75
295.064	173.75
295.295	190.75
295.525	176.75
295.756	169.75
295.987	169.75
296.217	161.75
296.448	181.75
296.679	165.75
296.909	181.75
297.14	174.75
297.37	186.75
297.601	179.75
297.831	182.75
298.062	174.75
298.292	185.75
298.523	186.75
298.753	166.75
298.984	174.75
299.214	179.75
299.445	192.75
299.675	185.75
299.905	183.75
300.136	174.75
300.366	175.75
300.597	182.75
300.827	170.75
301.057	183.75
301.288	179.75
301.518	182.75
301.748	181.75
301.979	190.75
302.209	200.75
302.439	196.75
302.669	197.75
302.9	193.75
303.13	195.75
303.36	187.75
303.59	192.75
303.82	185.75
304.051	179.75
304.281	189.75
304.511	177.75
304.741	179.75
304.971	192.75
305.201	190.75
305.431	182.75
305.661	182.75
305.891	176.75
306.121	192.75
306.352	193.75
306.582	194.75
306.812	176.75
307.042	181.75
307.272	197.75
307.502	182.75
307.731	181.75
307.961	183.75
308.191	185.75
308.421	173.75
308.651	194.75
308.881	175.75
309.111	175.75
309.341	187.75
309.571	206.75
309.8	182.75
310.03	178.75
310.26	185.75
310.49	185.75
310.72	183.75
310.949	181.75
311.179	175.75
311.409	202.75
311.639	206.75
311.868	203.75
312.098	187.75
312.328	203.75
312.557	192.75
312.787	196.75
313.017	203.75
313.246	183.75
313.476	190.75
313.706	207.75
313.935	199.75
314.165	191.75
314.394	192.75
314.624	195.75
314.853	204.75
315.083	194.75
315.312	181.75
315.542	201.75
315.771	193.75
316.001	210.75
316.23	199.75
316.46	182.75
316.689	203.75
316.919	203.75
317.148	186.75
317.377	197.75
317.607	201.75
317.836	220.75
318.065	209.75
318.295	191.75
318.524	200.75
318.753	185.75
318.983	209.75
319.212	202.75
319.441	202.75
319.67	189.75
319.9	203.75
320.129	217.75
320.358	201.75
320.587	186.75
320.816	178.75
321.046	201.75
321.275	198.75
321.504	214.75
321.733	198.75
321.962	202.75
322.191	208.75
322.42	226.75
322.649	211.75
322.878	193.75
323.108	187.75
323.337	195.75
323.566	202.75
323.795	215.75
324.024	190.75
324.253	201.75
324.482	202.75
324.71	195.75
324.939	217.75
325.168	221.75
325.397	218.75
325.626	209.75
325.855	193.75
326.084	202.75
326.313	220.75
326.542	194.75
326.77	214.75
326.999	207.75
327.228	209.75
327.457	216.75
327.686	211.75
327.914	228.75
328.143	232.75
328.372	209.75
328.6	211.75
328.829	211.75
329.058	201.75
329.287	213.75
329.515	205.75
329.744	220.75
329.972	212.75
330.201	227.75
330.43	217.75
330.658	200.75
330.887	194.75
331.115	213.75
331.344	227.75
331.572	222.75
331.801	213.75
332.03	218.75
332.258	237.75
332.486	229.75
332.715	234.75
332.943	264.75
333.172	263.75
333.4	258.75
333.629	261.75
333.857	271.75
334.085	262.75
334.314	279.75
334.542	259.75
334.771	247.75
334.999	243.75
335.227	229.75
335.455	256.75
335.684	240.75
335.912	230.75
336.14	233.75
336.369	237.75
336.597	238.75
336.825	240.75
337.053	240.75
337.281	243.75
337.51	223.75
337.738	237.75
337.966	239.75
338.194	218.75
338.422	231.75
338.65	221.75
338.878	243.75
339.106	240.75
339.334	239.75
339.562	218.75
339.79	220.75
340.018	214.75
340.246	231.75
340.474	222.75
340.702	211.75
340.93	231.75
341.158	215.75
341.386	212.75
341.614	205.75
341.842	204.75
342.07	215.75
342.298	222.75
342.526	228.75
342.754	242.75
342.981	234.75
343.209	210.75
343.437	242.75
343.665	242.75
343.893	254.75
344.12	252.75
344.348	248.75
344.576	248.75
344.804	233.75
345.031	227.75
345.259	237.75
345.487	219.75
345.714	217.75
345.942	221.75
346.17	233.75
346.397	215.75
346.625	213.75
346.853	224.75
347.08	219.75
347.308	225.75
347.535	222.75
347.763	213.75
347.99	213.75
348.218	210.75
348.445	210.75
348.673	220.75
348.9	229.75
349.128	221.75
349.355	228.75
349.583	216.75
349.81	218.75
350.037	210.75
350.265	206.75
350.492	221.75
350.72	203.75
350.947	209.75
351.174	206.75
351.402	215.75
351.629	227.75
351.856	210.75
352.083	222.75
352.311	219.75
352.538	190.75
352.765	199.75
352.992	224.75
353.22	220.75
353.447	199.75
353.674	212.75
353.901	191.75
354.128	229.75
354.355	223.75
354.583	212.75
354.81	218.75
355.037	221.75
355.264	214.75
355.491	210.75
355.718	221.75
355.945	212.75
356.172	216.75
356.399	211.75
356.626	209.75
356.853	240.75
357.08	219.75
357.307	221.75
357.534	211.75
357.761	228.75
357.988	221.75
358.215	239.75
358.441	221.75
358.668	215.75
358.895	204.75
359.122	225.75
359.349	216.75
359.576	221.75
359.802	216.75
360.029	218.75
360.256	234.75
360.483	234.75
360.709	201.75
360.936	226.75
361.163	223.75
361.39	234.75
361.616	215.75
361.843	231.75
362.07	215.75
362.296	219.75
362.523	227.75
362.749	235.75
362.976	222.75
363.203	207.75
363.429	212.75
363.656	223.75
363.882	228.75
364.109	216.75
364.335	215.75
364.562	226.75
364.788	224.75
365.015	219.75
365.241	219.75
365.468	237.75
365.694	218.75
365.92	206.75
366.147	224.75
366.373	226.75
366.599	234.75
366.826	217.75
367.052	212.75
367.278	227.75
367.505	231.75
367.731	224.75
367.957	232.75
368.184	226.75
368.41	224.75
368.636	230.75
368.862	220.75
369.089	223.75
369.315	232.75
369.541	228.75
369.767	223.75
369.993	245.75
370.219	220.75
370.445	237.75
370.672	240.75
370.898	249.75
371.124	246.75
371.35	256.75
371.576	240.75
371.802	239.75
372.028	245.75
372.254	242.75
372.48	232.75
372.706	243.75
372.932	238.75
373.158	223.75
373.384	255.75
373.61	258.75
373.835	257.75
374.061	242.75
374.287	248.75
374.513	249.75
374.739	268.75
374.965	269.75
375.191	278.75
375.416	271.75
375.642	263.75
375.868	266.75
376.094	256.75
376.319	245.75
376.545	249.75
376.771	260.75
376.997	258.75
377.222	235.75
377.448	229.75
377.674	257.75
377.899	249.75
378.125	240.75
378.35	244.75
378.576	229.75
378.802	263.75
379.027	250.75
379.253	243.75
379.478	232.75
379.704	232.75
379.929	237.75
380.155	252.75
380.38	240.75
380.606	238.75
380.831	255.75
381.057	241.75
381.282	240.75
381.507	245.75
381.733	255.75
381.958	269.75
382.184	258.75
382.409	267.75
382.634	270.75
382.86	261.75
383.085	257.75
383.31	281.75
383.535	272.75
383.761	265.75
383.986	280.75
384.211	273.75
384.436	281.75
384.662	269.75
384.887	289.75
385.112	298.75
385.337	291.75
385.562	309.75
385.787	298.75
386.013	301.75
386.238	309.75
386.463	304.75
386.688	290.75
386.913	281.75
387.138	284.75
387.363	291.75
387.588	279.75
387.813	294.75
388.038	274.75
388.263	285.75
388.488	295.75
388.713	287.75
388.938	297.75
389.163	294.75
389.387	306.75
389.612	275.75
389.837	294.75
390.062	298.75
390.287	290.75
390.512	287.75
390.736	302.75
390.961	296.75
391.186	299.75
391.411	305.75
391.636	305.75
391.86	319.75
392.085	328.75
392.31	319.75
392.534	330.75
392.759	313.75
392.984	325.75
393.208	301.75
393.433	295.75
393.658	305.75
393.882	309.75
394.107	302.75
394.331	313.75
394.556	306.75
394.78	298.75
395.005	307.75
395.229	317.75
395.454	325.75
395.678	326.75
395.903	311.75
396.127	309.75
396.352	309.75
396.576	302.75
396.801	321.75
397.025	308.75
397.249	324.75
397.474	343.75
397.698	319.75
397.922	324.75
398.147	319.75
398.371	336.75
398.595	345.75
398.82	360.75
399.044	378.75
399.268	388.75
399.492	435.75
399.717	466.75
399.941	474.75
400.165	423.75
400.389	381.75
400.613	373.75
400.837	355.75
401.062	358.75
401.286	367.75
401.51	359.75
401.734	349.75
401.958	370.75
402.182	351.75
402.406	357.75
402.63	386.75
402.854	357.75
403.078	375.75
403.302	369.75
403.526	389.75
403.75	380.75
403.974	398.75
404.198	373.75
404.422	388.75
404.645	395.75
404.869	399.75
405.093	391.75
405.317	360.75
405.541	404.75
405.765	379.75
405.988	388.75
406.212	375.75
406.436	371.75
406.66	400.75
406.883	392.75
407.107	427.75
407.331	435.75
407.555	453.75
407.778	440.75
408.002	429.75
408.226	426.75
408.449	415.75
408.673	415.75
408.896	391.75
409.12	404.75
409.344	405.75
409.567	393.75
409.791	394.75
410.014	384.75
410.238	398.75
410.461	382.75
410.685	378.75
410.908	403.75
411.132	377.75
411.355	390.75
411.578	356.75
411.802	375.75
412.025	386.75
412.249	385.75
412.472	351.75
412.695	383.75
412.919	373.75
413.142	389.75
413.365	382.75
413.589	370.75
413.812	352.75
414.035	379.75
414.258	381.75
414.482	367.75
414.705	400.75
414.928	373.75
415.151	356.75
415.374	379.75
415.597	360.75
415.821	347.75
416.044	356.75
416.267	356.75
416.49	352.75
416.713	370.75
416.936	360.75
417.159	375.75
417.382	367.75
417.605	343.75
417.828	341.75
418.051	360.75
418.274	373.75
418.497	369.75
418.72	376.75
418.943	378.75
419.166	383.75
419.389	413.75
419.611	404.75
419.834	379.75
420.057	372.75
420.28	372.75
420.503	370.75
420.726	371.75
420.948	384.75
421.171	389.75
421.394	381.75
421.617	376.75
421.839	357.75
422.062	356.75
422.285	378.75
422.507	377.75
422.73	377.75
422.953	379.75
423.175	372.75
423.398	377.75
423.621	379.75
423.843	384.75
424.066	375.75
424.288	387.75
424.511	380.75
424.733	371.75
424.956	377.75
425.178	373.75
425.401	377.75
425.623	368.75
425.846	360.75
426.068	356.75
426.291	384.75
426.513	356.75
426.735	364.75
426.958	375.75
427.18	347.75
427.402	359.75
427.625	333.75
427.847	326.75
428.069	334.75
428.292	354.75
428.514	341.75
428.736	341.75
428.958	329.75
429.181	345.75
429.403	319.75
429.625	327.75
429.847	336.75
430.069	326.75
430.292	331.75
430.514	336.75
430.736	347.75
430.958	341.75
431.18	348.75
431.402	346.75
431.624	321.75
431.846	335.75
432.068	312.75
432.29	339.75
432.512	355.75
432.734	362.75
432.956	367.75
433.178	363.75
433.4	373.75
433.622	351.75
433.844	353.75
434.066	365.75
434.287	347.75
434.509	358.75
434.731	386.75
434.953	389.75
435.175	369.75
435.397	361.75
435.618	369.75
435.84	340.75
436.062	341.75
436.284	358.75
436.505	345.75
436.727	354.75
436.949	351.75
437.17	345.75
437.392	365.75
437.614	350.75
437.835	336.75
438.057	326.75
438.278	331.75
438.5	362.75
438.721	351.75
438.943	331.75
439.165	356.75
439.386	345.75
439.608	345.75
439.829	358.75
440.05	363.75
440.272	358.75
440.493	353.75
440.715	358.75
440.936	376.75
441.158	376.75
441.379	382.75
441.6	377.75
441.822	391.75
442.043	393.75
442.264	396.75
442.486	384.75
442.707	383.75
442.928	391.75
443.149	377.75
443.371	385.75
443.592	394.75
443.813	385.75
444.034	393.75
444.255	397.75
444.476	399.75
444.698	421.75
444.919	439.75
445.14	560.75
445.361	471.75
445.582	380.75
445.803	382.75
446.024	381.75
446.245	395.75
446.466	373.75
446.687	376.75
446.908	372.75
447.129	374.75
447.35	362.75
447.571	351.75
447.792	354.75
448.013	356.75
448.234	360.75
448.455	342.75
448.675	356.75
448.896	347.75
449.117	347.75
449.338	338.75
449.559	361.75
449.779	335.75
450	341.75
450.221	334.75
450.442	349.75
450.662	341.75
450.883	327.75
451.104	331.75
451.324	339.75
451.545	353.75
451.766	336.75
451.986	345.75
452.207	338.75
452.428	336.75
452.648	329.75
452.869	330.75
453.089	331.75
453.31	316.75
453.53	321.75
453.751	327.75
453.971	320.75
454.192	322.75
454.412	327.75
454.633	325.75
454.853	329.75
455.073	323.75
455.294	318.75
455.514	326.75
455.734	310.75
455.955	320.75
456.175	341.75
456.395	311.75
456.616	322.75
456.836	322.75
457.056	330.75
457.276	318.75
457.497	321.75
457.717	317.75
457.937	303.75
458.157	316.75
458.377	336.75
458.598	331.75
458.818	322.75
459.038	322.75
459.258	327.75
459.478	352.75
459.698	359.75
459.918	390.75
460.138	365.75
460.358	384.75
460.578	366.75
460.798	416.75
461.018	425.75
461.238	393.75
461.458	387.75
461.678	406.75
461.898	418.75
462.118	420.75
462.338	429.75
462.558	420.75
462.777	445.75
462.997	462.75
463.217	510.75
463.437	501.75
463.657	453.75
463.876	439.75
464.096	435.75
464.316	455.75
464.536	449.75
464.755	433.75
464.975	421.75
465.195	408.75
465.414	394.75
465.634	370.75
465.854	367.75
466.073	390.75
466.293	386.75
466.512	365.75
466.732	362.75
466.951	363.75
467.171	370.75
467.391	355.75
467.61	365.75
467.829	336.75
468.049	338.75
468.268	356.75
468.488	356.75
468.707	356.75
468.927	355.75
469.146	348.75
469.365	356.75
469.585	357.75
469.804	369.75
470.023	361.75
470.243	347.75
470.462	357.75
470.681	365.75
470.901	365.75
471.12	357.75
471.339	358.75
471.558	344.75
471.777	351.75
471.997	344.75
472.216	351.75
472.435	341.75
472.654	341.75
472.873	333.75
473.092	336.75
473.311	357.75
473.53	347.75
473.749	338.75
473.968	342.75
474.187	336.75
474.406	355.75
474.625	328.75
474.844	332.75
475.063	351.75
475.282	347.75
475.501	352.75
475.72	340.75
475.939	346.75
476.158	369.75
476.377	359.75
476.596	349.75
476.814	347.75
477.033	363.75
477.252	359.75
477.471	370.75
477.69	385.75
477.908	375.75
478.127	402.75
478.346	388.75
478.564	398.75
478.783	398.75
479.002	407.75
479.22	406.75
479.439	408.75
479.658	403.75
479.876	383.75
480.095	385.75
480.313	394.75
480.532	400.75
480.751	411.75
480.969	389.75
481.188	389.75
481.406	392.75
481.624	402.75
481.843	372.75
482.061	359.75
482.28	385.75
482.498	384.75
482.717	368.75
482.935	376.75
483.153	383.75
483.372	407.75
483.59	401.75
483.808	387.75
484.027	383.75
484.245	381.75
484.463	403.75
484.681	391.75
484.9	386.75
485.118	404.75
485.336	402.75
485.554	389.75
485.772	395.75
485.99	389.75
486.209	395.75
486.427	395.75
486.645	413.75
486.863	406.75
487.081	387.75
487.299	393.75
487.517	385.75
487.735	393.75
487.953	410.75
488.171	403.75
488.389	383.75
488.607	393.75
488.825	379.75
489.043	376.75
489.261	395.75
489.479	385.75
489.696	411.75
489.914	393.75
490.132	406.75
490.35	400.75
490.568	417.75
490.786	392.75
491.003	421.75
491.221	380.75
491.439	426.75
491.657	422.75
491.874	399.75
492.092	413.75
492.31	416.75
492.527	438.75
492.745	429.75
492.963	424.75
493.18	433.75
493.398	431.75
493.615	425.75
493.833	429.75
494.05	421.75
494.268	411.75
494.485	426.75
494.703	417.75
494.92	420.75
495.138	427.75
495.355	416.75
495.573	420.75
495.79	417.75
496.008	425.75
496.225	430.75
496.442	430.75
496.66	425.75
496.877	448.75
497.094	442.75
497.312	461.75
497.529	435.75
497.746	454.75
497.963	482.75
498.181	473.75
498.398	498.75
498.615	515.75
498.832	545.75
499.049	561.75
499.267	601.75
499.484	615.75
499.701	708.75
499.918	734.75
500.135	800.75
500.352	914.75
500.569	918.75
500.786	926.75
501.003	868.75
501.22	787.75
501.437	730.75
501.654	648.75
501.871	588.75
502.088	575.75
502.305	559.75
