Data from Fe(NO3)3@0.0125M.TitratingCurve.Agarose3%dH2O.NegLispCup.LampEnergy10.LIBS07252019_HRD10591_17-01-16-338.txt Node
Date: Thu Jul 25 17:01:16 EDT 2019
User: cochatt
Spectrometer: HR+D1059
Trigger mode: 1
Integration Time (sec): 1.000000E-1
Scans to average: 1
Electric dark correction enabled: true
Nonlinearity correction enabled: false
Boxcar width: 0
XAxis mode: Wavelengths
Number of Pixels in Spectrum: 2048
>>>>>Begin Spectral Data<<<<<
223.165	-26.38
223.4	-26.38
223.635	-26.38
223.869	-28.38
224.104	-27.38
224.338	-13.38
224.573	-10.38
224.808	-13.38
225.042	2.62
225.277	0.62
225.511	-4.38
225.746	-0.38
225.98	9.62
226.215	16.62
226.449	13.62
226.683	20.62
226.918	23.62
227.152	36.62
227.387	30.62
227.621	48.62
227.856	28.62
228.09	40.62
228.324	47.62
228.559	55.62
228.793	67.62
229.027	77.62
229.262	91.62
229.496	74.62
229.73	82.62
229.964	91.62
230.199	93.62
230.433	105.62
230.667	90.62
230.901	90.62
231.136	75.62
231.37	95.62
231.604	99.62
231.838	102.62
232.072	87.62
232.306	94.62
232.541	96.62
232.775	99.62
233.009	113.62
233.243	113.62
233.477	100.62
233.711	90.62
233.945	96.62
234.179	98.62
234.413	92.62
234.647	105.62
234.881	111.62
235.115	106.62
235.349	121.62
235.583	120.62
235.817	107.62
236.051	108.62
236.285	102.62
236.519	111.62
236.753	110.62
236.987	107.62
237.221	95.62
237.455	102.62
237.689	112.62
237.922	111.62
238.156	123.62
238.39	103.62
238.624	109.62
238.858	112.62
239.091	115.62
239.325	106.62
239.559	117.62
239.793	112.62
240.027	118.62
240.26	104.62
240.494	106.62
240.728	106.62
240.961	101.62
241.195	116.62
241.429	111.62
241.662	102.62
241.896	117.62
242.13	105.62
242.363	105.62
242.597	113.62
242.83	124.62
243.064	116.62
243.298	108.62
243.531	122.62
243.765	118.62
243.998	109.62
244.232	140.62
244.465	113.62
244.699	119.62
244.932	118.62
245.166	122.62
245.399	127.62
245.633	131.62
245.866	121.62
246.099	119.62
246.333	109.62
246.566	115.62
246.8	115.62
247.033	133.62
247.266	121.62
247.5	127.62
247.733	117.62
247.966	135.62
248.2	140.62
248.433	143.62
248.666	138.62
248.899	139.62
249.133	138.62
249.366	143.62
249.599	150.62
249.832	138.62
250.066	147.62
250.299	134.62
250.532	139.62
250.765	137.62
250.998	136.62
251.231	140.62
251.465	127.62
251.698	150.62
251.931	145.62
252.164	148.62
252.397	137.62
252.63	140.62
252.863	148.62
253.096	151.62
253.329	152.62
253.562	142.62
253.795	148.62
254.028	152.62
254.261	147.62
254.494	147.62
254.727	139.62
254.96	140.62
255.193	146.62
255.426	142.62
255.659	145.62
255.892	161.62
256.124	142.62
256.357	161.62
256.59	148.62
256.823	149.62
257.056	152.62
257.289	153.62
257.521	167.62
257.754	152.62
257.987	156.62
258.22	159.62
258.452	163.62
258.685	152.62
258.918	155.62
259.151	152.62
259.383	146.62
259.616	182.62
259.849	154.62
260.081	173.62
260.314	172.62
260.547	163.62
260.779	164.62
261.012	169.62
261.244	178.62
261.477	173.62
261.71	164.62
261.942	159.62
262.175	157.62
262.407	159.62
262.64	166.62
262.872	189.62
263.105	173.62
263.337	165.62
263.57	165.62
263.802	172.62
264.035	157.62
264.267	155.62
264.499	160.62
264.732	161.62
264.964	166.62
265.197	160.62
265.429	171.62
265.661	181.62
265.894	177.62
266.126	166.62
266.358	178.62
266.591	189.62
266.823	171.62
267.055	175.62
267.287	171.62
267.52	192.62
267.752	167.62
267.984	164.62
268.216	184.62
268.448	187.62
268.681	191.62
268.913	177.62
269.145	169.62
269.377	193.62
269.609	189.62
269.841	186.62
270.073	171.62
270.306	175.62
270.538	194.62
270.77	180.62
271.002	175.62
271.234	184.62
271.466	196.62
271.698	184.62
271.93	191.62
272.162	205.62
272.394	213.62
272.626	194.62
272.858	194.62
273.09	190.62
273.322	208.62
273.553	193.62
273.785	217.62
274.017	196.62
274.249	216.62
274.481	221.62
274.713	227.62
274.945	203.62
275.176	210.62
275.408	201.62
275.64	218.62
275.872	211.62
276.104	209.62
276.335	201.62
276.567	192.62
276.799	205.62
277.031	208.62
277.262	210.62
277.494	205.62
277.726	202.62
277.957	197.62
278.189	200.62
278.421	209.62
278.652	222.62
278.884	223.62
279.115	214.62
279.347	212.62
279.579	220.62
279.81	219.62
280.042	204.62
280.273	222.62
280.505	198.62
280.736	220.62
280.968	209.62
281.199	212.62
281.431	205.62
281.662	219.62
281.894	222.62
282.125	218.62
282.356	227.62
282.588	224.62
282.819	215.62
283.051	234.62
283.282	215.62
283.513	235.62
283.745	223.62
283.976	225.62
284.207	221.62
284.439	234.62
284.67	221.62
284.901	229.62
285.132	242.62
285.364	240.62
285.595	251.62
285.826	225.62
286.057	224.62
286.288	215.62
286.52	226.62
286.751	241.62
286.982	243.62
287.213	234.62
287.444	234.62
287.675	241.62
287.906	259.62
288.138	243.62
288.369	248.62
288.6	239.62
288.831	227.62
289.062	245.62
289.293	231.62
289.524	229.62
289.755	233.62
289.986	249.62
290.217	242.62
290.448	251.62
290.679	257.62
290.91	243.62
291.141	248.62
291.371	245.62
291.602	255.62
291.833	233.62
292.064	248.62
292.295	263.62
292.526	254.62
292.757	231.62
292.987	237.62
293.218	245.62
293.449	246.62
293.68	244.62
293.91	239.62
294.141	264.62
294.372	240.62
294.603	256.62
294.833	258.62
295.064	259.62
295.295	266.62
295.525	260.62
295.756	263.62
295.987	259.62
296.217	267.62
296.448	245.62
296.679	265.62
296.909	253.62
297.14	261.62
297.37	268.62
297.601	272.62
297.831	267.62
298.062	264.62
298.292	271.62
298.523	296.62
298.753	285.62
298.984	271.62
299.214	280.62
299.445	281.62
299.675	261.62
299.905	256.62
300.136	261.62
300.366	275.62
300.597	263.62
300.827	261.62
301.057	281.62
301.288	286.62
301.518	253.62
301.748	266.62
301.979	284.62
302.209	285.62
302.439	285.62
302.669	279.62
302.9	290.62
303.13	292.62
303.36	273.62
303.59	292.62
303.82	289.62
304.051	280.62
304.281	292.62
304.511	288.62
304.741	281.62
304.971	284.62
305.201	296.62
305.431	295.62
305.661	283.62
305.891	300.62
306.121	284.62
306.352	288.62
306.582	298.62
306.812	291.62
307.042	294.62
307.272	295.62
307.502	267.62
307.731	301.62
307.961	314.62
308.191	283.62
308.421	292.62
308.651	307.62
308.881	305.62
309.111	299.62
309.341	291.62
309.571	291.62
309.8	308.62
310.03	285.62
310.26	303.62
310.49	299.62
310.72	299.62
310.949	304.62
311.179	296.62
311.409	305.62
311.639	298.62
311.868	310.62
312.098	316.62
312.328	303.62
312.557	315.62
312.787	299.62
313.017	315.62
313.246	316.62
313.476	297.62
313.706	332.62
313.935	330.62
314.165	298.62
314.394	320.62
314.624	316.62
314.853	324.62
315.083	305.62
315.312	319.62
315.542	319.62
315.771	300.62
316.001	310.62
316.23	311.62
316.46	307.62
316.689	303.62
316.919	320.62
317.148	320.62
317.377	308.62
317.607	312.62
317.836	294.62
318.065	319.62
318.295	309.62
318.524	331.62
318.753	336.62
318.983	329.62
319.212	314.62
319.441	316.62
319.67	331.62
319.9	319.62
320.129	339.62
320.358	322.62
320.587	335.62
320.816	326.62
321.046	333.62
321.275	345.62
321.504	307.62
321.733	332.62
321.962	328.62
322.191	342.62
322.42	317.62
322.649	333.62
322.878	327.62
323.108	351.62
323.337	339.62
323.566	340.62
323.795	333.62
324.024	339.62
324.253	341.62
324.482	327.62
324.71	331.62
324.939	335.62
325.168	331.62
325.397	355.62
325.626	320.62
325.855	339.62
326.084	348.62
326.313	346.62
326.542	351.62
326.77	356.62
326.999	359.62
327.228	356.62
327.457	340.62
327.686	347.62
327.914	362.62
328.143	351.62
328.372	345.62
328.6	347.62
328.829	352.62
329.058	347.62
329.287	356.62
329.515	356.62
329.744	356.62
329.972	351.62
330.201	358.62
330.43	354.62
330.658	351.62
330.887	367.62
331.115	384.62
331.344	368.62
331.572	344.62
331.801	357.62
332.03	371.62
332.258	359.62
332.486	375.62
332.715	364.62
332.943	391.62
333.172	393.62
333.4	375.62
333.629	395.62
333.857	396.62
334.085	389.62
334.314	373.62
334.542	402.62
334.771	408.62
334.999	402.62
335.227	388.62
335.455	406.62
335.684	408.62
335.912	403.62
336.14	390.62
336.369	388.62
336.597	410.62
336.825	387.62
337.053	384.62
337.281	401.62
337.51	396.62
337.738	383.62
337.966	382.62
338.194	391.62
338.422	383.62
338.65	403.62
338.878	369.62
339.106	379.62
339.334	403.62
339.562	376.62
339.79	400.62
340.018	391.62
340.246	381.62
340.474	375.62
340.702	364.62
340.93	401.62
341.158	370.62
341.386	384.62
341.614	386.62
341.842	380.62
342.07	383.62
342.298	370.62
342.526	380.62
342.754	391.62
342.981	374.62
343.209	383.62
343.437	388.62
343.665	403.62
343.893	395.62
344.12	387.62
344.348	401.62
344.576	396.62
344.804	389.62
345.031	403.62
345.259	374.62
345.487	412.62
345.714	394.62
345.942	368.62
346.17	376.62
346.397	374.62
346.625	383.62
346.853	388.62
347.08	369.62
347.308	349.62
347.535	373.62
347.763	383.62
347.99	374.62
348.218	376.62
348.445	376.62
348.673	374.62
348.9	378.62
349.128	364.62
349.355	362.62
349.583	374.62
349.81	376.62
350.037	384.62
350.265	348.62
350.492	361.62
350.72	369.62
350.947	357.62
351.174	362.62
351.402	381.62
351.629	371.62
351.856	372.62
352.083	369.62
352.311	379.62
352.538	361.62
352.765	345.62
352.992	376.62
353.22	372.62
353.447	392.62
353.674	358.62
353.901	360.62
354.128	371.62
354.355	351.62
354.583	358.62
354.81	378.62
355.037	377.62
355.264	353.62
355.491	362.62
355.718	379.62
355.945	380.62
356.172	375.62
356.399	353.62
356.626	383.62
356.853	363.62
357.08	353.62
357.307	372.62
357.534	369.62
357.761	358.62
357.988	379.62
358.215	379.62
358.441	375.62
358.668	382.62
358.895	403.62
359.122	371.62
359.349	379.62
359.576	384.62
359.802	395.62
360.029	389.62
360.256	396.62
360.483	363.62
360.709	367.62
360.936	379.62
361.163	377.62
361.39	367.62
361.616	375.62
361.843	360.62
362.07	362.62
362.296	364.62
362.523	348.62
362.749	376.62
362.976	367.62
363.203	370.62
363.429	363.62
363.656	371.62
363.882	374.62
364.109	369.62
364.335	372.62
364.562	379.62
364.788	373.62
365.015	370.62
365.241	393.62
365.468	393.62
365.694	374.62
365.92	390.62
366.147	376.62
366.373	371.62
366.599	376.62
366.826	368.62
367.052	391.62
367.278	383.62
367.505	374.62
367.731	400.62
367.957	388.62
368.184	408.62
368.41	407.62
368.636	387.62
368.862	381.62
369.089	395.62
369.315	389.62
369.541	385.62
369.767	395.62
369.993	387.62
370.219	398.62
370.445	391.62
370.672	411.62
370.898	405.62
371.124	397.62
371.35	399.62
371.576	393.62
371.802	404.62
372.028	416.62
372.254	412.62
372.48	402.62
372.706	411.62
372.932	423.62
373.158	410.62
373.384	438.62
373.61	413.62
373.835	402.62
374.061	409.62
374.287	410.62
374.513	419.62
374.739	409.62
374.965	417.62
375.191	419.62
375.416	419.62
375.642	404.62
375.868	416.62
376.094	400.62
376.319	381.62
376.545	407.62
376.771	409.62
376.997	388.62
377.222	412.62
377.448	395.62
377.674	411.62
377.899	391.62
378.125	408.62
378.35	407.62
378.576	408.62
378.802	387.62
379.027	409.62
379.253	423.62
379.478	408.62
379.704	403.62
379.929	396.62
380.155	405.62
380.38	397.62
380.606	394.62
380.831	391.62
381.057	410.62
381.282	389.62
381.507	410.62
381.733	417.62
381.958	443.62
382.184	419.62
382.409	416.62
382.634	430.62
382.86	407.62
383.085	428.62
383.31	412.62
383.535	419.62
383.761	410.62
383.986	417.62
384.211	419.62
384.436	447.62
384.662	431.62
384.887	436.62
385.112	436.62
385.337	457.62
385.562	431.62
385.787	456.62
386.013	462.62
386.238	451.62
386.463	440.62
386.688	446.62
386.913	455.62
387.138	461.62
387.363	447.62
387.588	484.62
387.813	480.62
388.038	460.62
388.263	464.62
388.488	460.62
388.713	443.62
388.938	449.62
389.163	450.62
389.387	453.62
389.612	469.62
389.837	467.62
390.062	477.62
390.287	467.62
390.512	453.62
390.736	471.62
390.961	496.62
391.186	473.62
391.411	473.62
391.636	474.62
391.86	480.62
392.085	480.62
392.31	474.62
392.534	489.62
392.759	475.62
392.984	473.62
393.208	498.62
393.433	493.62
393.658	495.62
393.882	467.62
394.107	479.62
394.331	463.62
394.556	475.62
394.78	476.62
395.005	476.62
395.229	488.62
395.454	493.62
395.678	500.62
395.903	495.62
396.127	477.62
396.352	485.62
396.576	517.62
396.801	497.62
397.025	522.62
397.249	514.62
397.474	497.62
397.698	525.62
397.922	511.62
398.147	500.62
398.371	523.62
398.595	512.62
398.82	521.62
399.044	565.62
399.268	563.62
399.492	596.62
399.717	591.62
399.941	610.62
400.165	600.62
400.389	596.62
400.613	575.62
400.837	547.62
401.062	576.62
401.286	569.62
401.51	522.62
401.734	547.62
401.958	569.62
402.182	547.62
402.406	555.62
402.63	536.62
402.854	539.62
403.078	542.62
403.302	532.62
403.526	531.62
403.75	532.62
403.974	530.62
404.198	518.62
404.422	537.62
404.645	542.62
404.869	540.62
405.093	553.62
405.317	547.62
405.541	551.62
405.765	568.62
405.988	542.62
406.212	580.62
406.436	573.62
406.66	560.62
406.883	560.62
407.107	591.62
407.331	577.62
407.555	599.62
407.778	603.62
408.002	587.62
408.226	591.62
408.449	596.62
408.673	569.62
408.896	566.62
409.12	575.62
409.344	578.62
409.567	549.62
409.791	553.62
410.014	567.62
410.238	566.62
410.461	551.62
410.685	559.62
410.908	575.62
411.132	587.62
411.355	545.62
411.578	531.62
411.802	548.62
412.025	536.62
412.249	550.62
412.472	557.62
412.695	547.62
412.919	555.62
413.142	552.62
413.365	545.62
413.589	560.62
413.812	550.62
414.035	555.62
414.258	536.62
414.482	532.62
414.705	545.62
414.928	523.62
415.151	536.62
415.374	532.62
415.597	518.62
415.821	519.62
416.044	515.62
416.267	509.62
416.49	497.62
416.713	514.62
416.936	547.62
417.159	491.62
417.382	480.62
417.605	508.62
417.828	499.62
418.051	543.62
418.274	515.62
418.497	527.62
418.72	518.62
418.943	509.62
419.166	548.62
419.389	534.62
419.611	554.62
419.834	526.62
420.057	524.62
420.28	496.62
420.503	513.62
420.726	502.62
420.948	517.62
421.171	514.62
421.394	515.62
421.617	496.62
421.839	522.62
422.062	501.62
422.285	507.62
422.507	493.62
422.73	513.62
422.953	526.62
423.175	499.62
423.398	525.62
423.621	514.62
423.843	499.62
424.066	517.62
424.288	510.62
424.511	503.62
424.733	497.62
424.956	502.62
425.178	488.62
425.401	511.62
425.623	522.62
425.846	532.62
426.068	503.62
426.291	490.62
426.513	500.62
426.735	502.62
426.958	481.62
427.18	499.62
427.402	515.62
427.625	502.62
427.847	491.62
428.069	490.62
428.292	491.62
428.514	484.62
428.736	485.62
428.958	505.62
429.181	467.62
429.403	459.62
429.625	483.62
429.847	472.62
430.069	493.62
430.292	472.62
430.514	483.62
430.736	485.62
430.958	464.62
431.18	481.62
431.402	481.62
431.624	464.62
431.846	478.62
432.068	479.62
432.29	506.62
432.512	476.62
432.734	485.62
432.956	501.62
433.178	485.62
433.4	487.62
433.622	495.62
433.844	505.62
434.066	491.62
434.287	484.62
434.509	499.62
434.731	503.62
434.953	490.62
435.175	509.62
435.397	510.62
435.618	502.62
435.84	485.62
436.062	482.62
436.284	470.62
436.505	486.62
436.727	485.62
436.949	488.62
437.17	464.62
437.392	460.62
437.614	498.62
437.835	473.62
438.057	467.62
438.278	454.62
438.5	481.62
438.721	490.62
438.943	467.62
439.165	459.62
439.386	465.62
439.608	458.62
439.829	476.62
440.05	484.62
440.272	470.62
440.493	482.62
440.715	490.62
440.936	485.62
441.158	485.62
441.379	474.62
441.6	505.62
441.822	499.62
442.043	503.62
442.264	490.62
442.486	491.62
442.707	479.62
442.928	484.62
443.149	505.62
443.371	486.62
443.592	496.62
443.813	510.62
444.034	521.62
444.255	506.62
444.476	493.62
444.698	500.62
444.919	531.62
445.14	589.62
445.361	556.62
445.582	488.62
445.803	507.62
446.024	494.62
446.245	499.62
446.466	513.62
446.687	473.62
446.908	484.62
447.129	479.62
447.35	460.62
447.571	452.62
447.792	465.62
448.013	450.62
448.234	468.62
448.455	457.62
448.675	477.62
448.896	447.62
449.117	465.62
449.338	458.62
449.559	451.62
449.779	451.62
450	425.62
450.221	450.62
450.442	460.62
450.662	440.62
450.883	434.62
451.104	441.62
451.324	433.62
451.545	427.62
451.766	451.62
451.986	451.62
452.207	455.62
452.428	437.62
452.648	451.62
452.869	444.62
453.089	411.62
453.31	451.62
453.53	443.62
453.751	420.62
453.971	434.62
454.192	443.62
454.412	437.62
454.633	419.62
454.853	434.62
455.073	419.62
455.294	444.62
455.514	453.62
455.734	437.62
455.955	431.62
456.175	434.62
456.395	412.62
456.616	436.62
456.836	436.62
457.056	413.62
457.276	407.62
457.497	423.62
457.717	424.62
457.937	435.62
458.157	437.62
458.377	453.62
458.598	449.62
458.818	457.62
459.038	464.62
459.258	480.62
459.478	469.62
459.698	495.62
459.918	476.62
460.138	490.62
460.358	499.62
460.578	500.62
460.798	508.62
461.018	503.62
461.238	523.62
461.458	514.62
461.678	521.62
461.898	546.62
462.118	545.62
462.338	551.62
462.558	533.62
462.777	555.62
462.997	558.62
463.217	580.62
463.437	548.62
463.657	563.62
463.876	547.62
464.096	563.62
464.316	572.62
464.536	551.62
464.755	549.62
464.975	530.62
465.195	531.62
465.414	525.62
465.634	511.62
465.854	521.62
466.073	486.62
466.293	479.62
466.512	485.62
466.732	498.62
466.951	482.62
467.171	465.62
467.391	456.62
467.61	459.62
467.829	465.62
468.049	464.62
468.268	480.62
468.488	470.62
468.707	448.62
468.927	453.62
469.146	467.62
469.365	460.62
469.585	470.62
469.804	481.62
470.023	468.62
470.243	461.62
470.462	485.62
470.681	454.62
470.901	484.62
471.12	489.62
471.339	461.62
471.558	471.62
471.777	467.62
471.997	461.62
472.216	481.62
472.435	473.62
472.654	456.62
472.873	479.62
473.092	482.62
473.311	468.62
473.53	460.62
473.749	470.62
473.968	490.62
474.187	471.62
474.406	499.62
474.625	476.62
474.844	488.62
475.063	466.62
475.282	487.62
475.501	477.62
475.72	499.62
475.939	495.62
476.158	482.62
476.377	511.62
476.596	495.62
476.814	501.62
477.033	499.62
477.252	511.62
477.471	486.62
477.69	535.62
477.908	519.62
478.127	513.62
478.346	516.62
478.564	543.62
478.783	556.62
479.002	557.62
479.22	560.62
479.439	556.62
479.658	584.62
479.876	575.62
480.095	572.62
480.313	596.62
480.532	568.62
480.751	582.62
480.969	561.62
481.188	555.62
481.406	576.62
481.624	561.62
481.843	584.62
482.061	565.62
482.28	557.62
482.498	562.62
482.717	559.62
482.935	543.62
483.153	572.62
483.372	575.62
483.59	573.62
483.808	573.62
484.027	560.62
484.245	582.62
484.463	547.62
484.681	579.62
484.9	579.62
485.118	589.62
485.336	565.62
485.554	605.62
485.772	568.62
485.99	560.62
486.209	581.62
486.427	563.62
486.645	601.62
486.863	582.62
487.081	582.62
487.299	600.62
487.517	597.62
487.735	584.62
487.953	593.62
488.171	583.62
488.389	592.62
488.607	579.62
488.825	589.62
489.043	585.62
489.261	584.62
489.479	581.62
489.696	607.62
489.914	587.62
490.132	595.62
490.35	581.62
490.568	583.62
490.786	608.62
491.003	592.62
491.221	613.62
491.439	594.62
491.657	580.62
491.874	571.62
492.092	603.62
492.31	592.62
492.527	588.62
492.745	583.62
492.963	597.62
493.18	586.62
493.398	593.62
493.615	608.62
493.833	586.62
494.05	595.62
494.268	606.62
494.485	582.62
494.703	614.62
494.92	607.62
495.138	632.62
495.355	635.62
495.573	626.62
495.79	620.62
496.008	621.62
496.225	623.62
496.442	647.62
496.66	641.62
496.877	648.62
497.094	661.62
497.312	657.62
497.529	644.62
497.746	651.62
497.963	710.62
498.181	702.62
498.398	724.62
498.615	746.62
498.832	758.62
499.049	795.62
499.267	834.62
499.484	853.62
499.701	868.62
499.918	886.62
500.135	931.62
500.352	949.62
500.569	964.62
500.786	947.62
501.003	933.62
501.22	914.62
501.437	872.62
501.654	833.62
501.871	832.62
