Data from Fe(NO3)3@0.05M.TitratingCurve.Agarose3%dH2O.NegLispCup.LampEnergy10.LIBS07252019_HRD10591_16-48-12-334.txt Node
Date: Thu Jul 25 16:48:12 EDT 2019
User: cochatt
Spectrometer: HR+D1059
Trigger mode: 1
Integration Time (sec): 1.000000E-1
Scans to average: 1
Electric dark correction enabled: true
Nonlinearity correction enabled: false
Boxcar width: 0
XAxis mode: Wavelengths
Number of Pixels in Spectrum: 2048
>>>>>Begin Spectral Data<<<<<
223.165	-21.38
223.4	-21.38
223.635	-21.38
223.869	-19.38
224.104	-20.38
224.338	-25.38
224.573	-11.38
224.808	-4.38
225.042	-5.38
225.277	-12.38
225.511	-7.38
225.746	16.62
225.98	8.62
226.215	2.62
226.449	20.62
226.683	11.62
226.918	35.62
227.152	31.62
227.387	32.62
227.621	51.62
227.856	42.62
228.09	43.62
228.324	36.62
228.559	59.62
228.793	69.62
229.027	77.62
229.262	87.62
229.496	72.62
229.73	92.62
229.964	92.62
230.199	101.62
230.433	83.62
230.667	83.62
230.901	106.62
231.136	90.62
231.37	86.62
231.604	84.62
231.838	105.62
232.072	88.62
232.306	91.62
232.541	96.62
232.775	110.62
233.009	100.62
233.243	102.62
233.477	101.62
233.711	96.62
233.945	90.62
234.179	104.62
234.413	95.62
234.647	94.62
234.881	90.62
235.115	106.62
235.349	94.62
235.583	93.62
235.817	94.62
236.051	101.62
236.285	104.62
236.519	93.62
236.753	112.62
236.987	100.62
237.221	108.62
237.455	86.62
237.689	99.62
237.922	103.62
238.156	105.62
238.39	98.62
238.624	91.62
238.858	95.62
239.091	100.62
239.325	103.62
239.559	109.62
239.793	96.62
240.027	118.62
240.26	99.62
240.494	115.62
240.728	103.62
240.961	108.62
241.195	97.62
241.429	110.62
241.662	110.62
241.896	120.62
242.13	85.62
242.363	95.62
242.597	120.62
242.83	118.62
243.064	113.62
243.298	104.62
243.531	107.62
243.765	114.62
243.998	103.62
244.232	106.62
244.465	111.62
244.699	107.62
244.932	105.62
245.166	124.62
245.399	120.62
245.633	114.62
245.866	93.62
246.099	111.62
246.333	111.62
246.566	106.62
246.8	111.62
247.033	134.62
247.266	122.62
247.5	109.62
247.733	116.62
247.966	115.62
248.2	118.62
248.433	128.62
248.666	111.62
248.899	122.62
249.133	109.62
249.366	118.62
249.599	126.62
249.832	136.62
250.066	152.62
250.299	114.62
250.532	120.62
250.765	121.62
250.998	132.62
251.231	133.62
251.465	114.62
251.698	137.62
251.931	130.62
252.164	129.62
252.397	126.62
252.63	125.62
252.863	154.62
253.096	132.62
253.329	131.62
253.562	128.62
253.795	132.62
254.028	130.62
254.261	135.62
254.494	121.62
254.727	118.62
254.96	129.62
255.193	131.62
255.426	127.62
255.659	127.62
255.892	132.62
256.124	130.62
256.357	125.62
256.59	132.62
256.823	130.62
257.056	144.62
257.289	137.62
257.521	129.62
257.754	143.62
257.987	133.62
258.22	122.62
258.452	130.62
258.685	139.62
258.918	145.62
259.151	148.62
259.383	147.62
259.616	135.62
259.849	142.62
260.081	145.62
260.314	152.62
260.547	141.62
260.779	135.62
261.012	150.62
261.244	148.62
261.477	160.62
261.71	128.62
261.942	135.62
262.175	136.62
262.407	130.62
262.64	142.62
262.872	136.62
263.105	121.62
263.337	130.62
263.57	137.62
263.802	123.62
264.035	136.62
264.267	139.62
264.499	144.62
264.732	132.62
264.964	139.62
265.197	132.62
265.429	143.62
265.661	147.62
265.894	148.62
266.126	154.62
266.358	138.62
266.591	151.62
266.823	144.62
267.055	142.62
267.287	143.62
267.52	139.62
267.752	147.62
267.984	160.62
268.216	148.62
268.448	161.62
268.681	159.62
268.913	140.62
269.145	136.62
269.377	157.62
269.609	162.62
269.841	170.62
270.073	163.62
270.306	160.62
270.538	154.62
270.77	155.62
271.002	156.62
271.234	155.62
271.466	159.62
271.698	179.62
271.93	155.62
272.162	166.62
272.394	163.62
272.626	182.62
272.858	176.62
273.09	140.62
273.322	149.62
273.553	149.62
273.785	166.62
274.017	171.62
274.249	179.62
274.481	171.62
274.713	178.62
274.945	186.62
275.176	171.62
275.408	170.62
275.64	180.62
275.872	169.62
276.104	164.62
276.335	172.62
276.567	168.62
276.799	171.62
277.031	186.62
277.262	162.62
277.494	160.62
277.726	155.62
277.957	173.62
278.189	158.62
278.421	166.62
278.652	169.62
278.884	166.62
279.115	193.62
279.347	170.62
279.579	140.62
279.81	165.62
280.042	174.62
280.273	168.62
280.505	184.62
280.736	175.62
280.968	167.62
281.199	164.62
281.431	162.62
281.662	180.62
281.894	168.62
282.125	182.62
282.356	165.62
282.588	173.62
282.819	166.62
283.051	166.62
283.282	183.62
283.513	173.62
283.745	159.62
283.976	160.62
284.207	172.62
284.439	192.62
284.67	187.62
284.901	171.62
285.132	181.62
285.364	178.62
285.595	155.62
285.826	190.62
286.057	190.62
286.288	187.62
286.52	171.62
286.751	198.62
286.982	198.62
287.213	190.62
287.444	185.62
287.675	183.62
287.906	188.62
288.138	172.62
288.369	182.62
288.6	180.62
288.831	204.62
289.062	174.62
289.293	183.62
289.524	198.62
289.755	196.62
289.986	182.62
290.217	198.62
290.448	186.62
290.679	179.62
290.91	185.62
291.141	189.62
291.371	205.62
291.602	200.62
291.833	185.62
292.064	198.62
292.295	191.62
292.526	191.62
292.757	191.62
292.987	190.62
293.218	185.62
293.449	188.62
293.68	200.62
293.91	180.62
294.141	193.62
294.372	181.62
294.603	185.62
294.833	202.62
295.064	196.62
295.295	196.62
295.525	187.62
295.756	194.62
295.987	186.62
296.217	180.62
296.448	184.62
296.679	183.62
296.909	197.62
297.14	186.62
297.37	189.62
297.601	201.62
297.831	213.62
298.062	210.62
298.292	211.62
298.523	214.62
298.753	191.62
298.984	202.62
299.214	205.62
299.445	203.62
299.675	201.62
299.905	218.62
300.136	192.62
300.366	198.62
300.597	200.62
300.827	213.62
301.057	206.62
301.288	194.62
301.518	227.62
301.748	204.62
301.979	226.62
302.209	208.62
302.439	210.62
302.669	213.62
302.9	189.62
303.13	208.62
303.36	219.62
303.59	213.62
303.82	202.62
304.051	209.62
304.281	207.62
304.511	202.62
304.741	199.62
304.971	221.62
305.201	210.62
305.431	214.62
305.661	202.62
305.891	206.62
306.121	211.62
306.352	216.62
306.582	201.62
306.812	199.62
307.042	201.62
307.272	203.62
307.502	206.62
307.731	212.62
307.961	198.62
308.191	202.62
308.421	202.62
308.651	207.62
308.881	205.62
309.111	203.62
309.341	202.62
309.571	224.62
309.8	222.62
310.03	225.62
310.26	203.62
310.49	218.62
310.72	215.62
310.949	210.62
311.179	224.62
311.409	211.62
311.639	238.62
311.868	219.62
312.098	200.62
312.328	201.62
312.557	213.62
312.787	215.62
313.017	214.62
313.246	223.62
313.476	220.62
313.706	213.62
313.935	225.62
314.165	219.62
314.394	228.62
314.624	213.62
314.853	216.62
315.083	222.62
315.312	222.62
315.542	213.62
315.771	221.62
316.001	215.62
316.23	222.62
316.46	208.62
316.689	214.62
316.919	201.62
317.148	237.62
317.377	206.62
317.607	212.62
317.836	222.62
318.065	217.62
318.295	214.62
318.524	229.62
318.753	227.62
318.983	201.62
319.212	229.62
319.441	215.62
319.67	220.62
319.9	233.62
320.129	238.62
320.358	224.62
320.587	213.62
320.816	217.62
321.046	229.62
321.275	229.62
321.504	217.62
321.733	226.62
321.962	214.62
322.191	213.62
322.42	204.62
322.649	233.62
322.878	233.62
323.108	204.62
323.337	215.62
323.566	228.62
323.795	214.62
324.024	233.62
324.253	212.62
324.482	236.62
324.71	213.62
324.939	230.62
325.168	231.62
325.397	222.62
325.626	236.62
325.855	219.62
326.084	234.62
326.313	242.62
326.542	247.62
326.77	228.62
326.999	221.62
327.228	228.62
327.457	231.62
327.686	248.62
327.914	245.62
328.143	225.62
328.372	241.62
328.6	225.62
328.829	233.62
329.058	244.62
329.287	233.62
329.515	235.62
329.744	236.62
329.972	235.62
330.201	261.62
330.43	234.62
330.658	224.62
330.887	238.62
331.115	245.62
331.344	239.62
331.572	250.62
331.801	244.62
332.03	249.62
332.258	248.62
332.486	280.62
332.715	267.62
332.943	270.62
333.172	282.62
333.4	281.62
333.629	285.62
333.857	296.62
334.085	294.62
334.314	273.62
334.542	271.62
334.771	269.62
334.999	265.62
335.227	292.62
335.455	272.62
335.684	268.62
335.912	262.62
336.14	256.62
336.369	274.62
336.597	256.62
336.825	276.62
337.053	272.62
337.281	292.62
337.51	260.62
337.738	256.62
337.966	242.62
338.194	261.62
338.422	249.62
338.65	243.62
338.878	260.62
339.106	251.62
339.334	261.62
339.562	259.62
339.79	258.62
340.018	250.62
340.246	248.62
340.474	235.62
340.702	248.62
340.93	238.62
341.158	247.62
341.386	247.62
341.614	250.62
341.842	262.62
342.07	242.62
342.298	256.62
342.526	232.62
342.754	246.62
342.981	246.62
343.209	256.62
343.437	255.62
343.665	276.62
343.893	276.62
344.12	277.62
344.348	267.62
344.576	264.62
344.804	263.62
345.031	267.62
345.259	234.62
345.487	236.62
345.714	247.62
345.942	268.62
346.17	252.62
346.397	260.62
346.625	256.62
346.853	253.62
347.08	240.62
347.308	248.62
347.535	260.62
347.763	254.62
347.99	236.62
348.218	245.62
348.445	262.62
348.673	235.62
348.9	232.62
349.128	259.62
349.355	218.62
349.583	247.62
349.81	252.62
350.037	234.62
350.265	244.62
350.492	229.62
350.72	246.62
350.947	230.62
351.174	240.62
351.402	241.62
351.629	254.62
351.856	230.62
352.083	235.62
352.311	249.62
352.538	235.62
352.765	244.62
352.992	242.62
353.22	257.62
353.447	238.62
353.674	244.62
353.901	244.62
354.128	232.62
354.355	246.62
354.583	237.62
354.81	235.62
355.037	239.62
355.264	231.62
355.491	247.62
355.718	230.62
355.945	248.62
356.172	241.62
356.399	246.62
356.626	233.62
356.853	245.62
357.08	240.62
357.307	255.62
357.534	248.62
357.761	246.62
357.988	254.62
358.215	249.62
358.441	230.62
358.668	249.62
358.895	242.62
359.122	261.62
359.349	242.62
359.576	245.62
359.802	246.62
360.029	247.62
360.256	242.62
360.483	237.62
360.709	243.62
360.936	265.62
361.163	240.62
361.39	238.62
361.616	247.62
361.843	234.62
362.07	236.62
362.296	238.62
362.523	239.62
362.749	258.62
362.976	242.62
363.203	260.62
363.429	247.62
363.656	253.62
363.882	244.62
364.109	235.62
364.335	271.62
364.562	230.62
364.788	252.62
365.015	231.62
365.241	254.62
365.468	253.62
365.694	224.62
365.92	247.62
366.147	241.62
366.373	249.62
366.599	248.62
366.826	249.62
367.052	260.62
367.278	251.62
367.505	260.62
367.731	267.62
367.957	257.62
368.184	264.62
368.41	266.62
368.636	237.62
368.862	252.62
369.089	260.62
369.315	265.62
369.541	262.62
369.767	269.62
369.993	270.62
370.219	249.62
370.445	274.62
370.672	280.62
370.898	266.62
371.124	264.62
371.35	251.62
371.576	258.62
371.802	271.62
372.028	264.62
372.254	279.62
372.48	281.62
372.706	267.62
372.932	290.62
373.158	277.62
373.384	279.62
373.61	289.62
373.835	291.62
374.061	277.62
374.287	277.62
374.513	273.62
374.739	279.62
374.965	295.62
375.191	317.62
375.416	289.62
375.642	281.62
375.868	294.62
376.094	295.62
376.319	267.62
376.545	289.62
376.771	270.62
376.997	277.62
377.222	267.62
377.448	264.62
377.674	262.62
377.899	282.62
378.125	308.62
378.35	273.62
378.576	260.62
378.802	275.62
379.027	263.62
379.253	299.62
379.478	262.62
379.704	278.62
379.929	278.62
380.155	283.62
380.38	269.62
380.606	296.62
380.831	300.62
381.057	285.62
381.282	276.62
381.507	287.62
381.733	282.62
381.958	298.62
382.184	306.62
382.409	295.62
382.634	287.62
382.86	297.62
383.085	284.62
383.31	302.62
383.535	309.62
383.761	308.62
383.986	292.62
384.211	323.62
384.436	322.62
384.662	327.62
384.887	317.62
385.112	306.62
385.337	323.62
385.562	331.62
385.787	320.62
386.013	339.62
386.238	330.62
386.463	326.62
386.688	333.62
386.913	328.62
387.138	329.62
387.363	327.62
387.588	327.62
387.813	330.62
388.038	329.62
388.263	344.62
388.488	328.62
388.713	342.62
388.938	310.62
389.163	333.62
389.387	336.62
389.612	327.62
389.837	323.62
390.062	314.62
390.287	328.62
390.512	327.62
390.736	321.62
390.961	312.62
391.186	329.62
391.411	354.62
391.636	362.62
391.86	375.62
392.085	351.62
392.31	354.62
392.534	350.62
392.759	355.62
392.984	332.62
393.208	352.62
393.433	355.62
393.658	323.62
393.882	341.62
394.107	350.62
394.331	332.62
394.556	341.62
394.78	342.62
395.005	347.62
395.229	348.62
395.454	366.62
395.678	358.62
395.903	365.62
396.127	362.62
396.352	352.62
396.576	359.62
396.801	356.62
397.025	351.62
397.249	367.62
397.474	363.62
397.698	360.62
397.922	386.62
398.147	380.62
398.371	373.62
398.595	397.62
398.82	408.62
399.044	423.62
399.268	435.62
399.492	500.62
399.717	546.62
399.941	526.62
400.165	477.62
400.389	450.62
400.613	417.62
400.837	436.62
401.062	396.62
401.286	400.62
401.51	409.62
401.734	408.62
401.958	397.62
402.182	395.62
402.406	401.62
402.63	389.62
402.854	429.62
403.078	414.62
403.302	441.62
403.526	447.62
403.75	434.62
403.974	439.62
404.198	450.62
404.422	431.62
404.645	442.62
404.869	431.62
405.093	422.62
405.317	441.62
405.541	411.62
405.765	442.62
405.988	452.62
406.212	452.62
406.436	456.62
406.66	434.62
406.883	435.62
407.107	446.62
407.331	467.62
407.555	494.62
407.778	483.62
408.002	494.62
408.226	469.62
408.449	473.62
408.673	441.62
408.896	455.62
409.12	427.62
409.344	452.62
409.567	442.62
409.791	471.62
410.014	442.62
410.238	443.62
410.461	451.62
410.685	432.62
410.908	430.62
411.132	429.62
411.355	420.62
411.578	425.62
411.802	432.62
412.025	426.62
412.249	415.62
412.472	402.62
412.695	408.62
412.919	390.62
413.142	392.62
413.365	408.62
413.589	432.62
413.812	407.62
414.035	427.62
414.258	420.62
414.482	418.62
414.705	394.62
414.928	417.62
415.151	407.62
415.374	422.62
415.597	422.62
415.821	399.62
416.044	415.62
416.267	414.62
416.49	408.62
416.713	407.62
416.936	395.62
417.159	396.62
417.382	383.62
417.605	407.62
417.828	407.62
418.051	422.62
418.274	420.62
418.497	435.62
418.72	426.62
418.943	423.62
419.166	439.62
419.389	430.62
419.611	437.62
419.834	432.62
420.057	414.62
420.28	424.62
420.503	416.62
420.726	392.62
420.948	414.62
421.171	410.62
421.394	419.62
421.617	404.62
421.839	407.62
422.062	412.62
422.285	410.62
422.507	411.62
422.73	448.62
422.953	427.62
423.175	441.62
423.398	430.62
423.621	430.62
423.843	429.62
424.066	431.62
424.288	418.62
424.511	427.62
424.733	419.62
424.956	429.62
425.178	428.62
425.401	446.62
425.623	422.62
425.846	416.62
426.068	418.62
426.291	398.62
426.513	404.62
426.735	403.62
426.958	396.62
427.18	404.62
427.402	400.62
427.625	404.62
427.847	395.62
428.069	390.62
428.292	382.62
428.514	386.62
428.736	386.62
428.958	404.62
429.181	384.62
429.403	381.62
429.625	382.62
429.847	392.62
430.069	389.62
430.292	399.62
430.514	374.62
430.736	400.62
430.958	406.62
431.18	381.62
431.402	383.62
431.624	392.62
431.846	390.62
432.068	387.62
432.29	385.62
432.512	403.62
432.734	386.62
432.956	394.62
433.178	396.62
433.4	410.62
433.622	386.62
433.844	423.62
434.066	396.62
434.287	413.62
434.509	396.62
434.731	416.62
434.953	427.62
435.175	438.62
435.397	427.62
435.618	407.62
435.84	413.62
436.062	408.62
436.284	399.62
436.505	411.62
436.727	388.62
436.949	398.62
437.17	392.62
437.392	392.62
437.614	380.62
437.835	374.62
438.057	397.62
438.278	391.62
438.5	386.62
438.721	377.62
438.943	405.62
439.165	393.62
439.386	416.62
439.608	423.62
439.829	408.62
440.05	395.62
440.272	426.62
440.493	412.62
440.715	391.62
440.936	419.62
441.158	426.62
441.379	418.62
441.6	424.62
441.822	437.62
442.043	455.62
442.264	438.62
442.486	442.62
442.707	432.62
442.928	436.62
443.149	434.62
443.371	408.62
443.592	442.62
443.813	423.62
444.034	430.62
444.255	446.62
444.476	460.62
444.698	478.62
444.919	489.62
445.14	577.62
445.361	544.62
445.582	452.62
445.803	425.62
446.024	416.62
446.245	415.62
446.466	411.62
446.687	424.62
446.908	409.62
447.129	400.62
447.35	419.62
447.571	411.62
447.792	396.62
448.013	380.62
448.234	386.62
448.455	389.62
448.675	392.62
448.896	396.62
449.117	388.62
449.338	400.62
449.559	384.62
449.779	379.62
450	397.62
450.221	361.62
450.442	385.62
450.662	377.62
450.883	382.62
451.104	379.62
451.324	406.62
451.545	384.62
451.766	400.62
451.986	395.62
452.207	365.62
452.428	376.62
452.648	398.62
452.869	365.62
453.089	372.62
453.31	384.62
453.53	370.62
453.751	351.62
453.971	354.62
454.192	352.62
454.412	349.62
454.633	339.62
454.853	371.62
455.073	372.62
455.294	363.62
455.514	354.62
455.734	365.62
455.955	346.62
456.175	373.62
456.395	370.62
456.616	373.62
456.836	355.62
457.056	361.62
457.276	354.62
457.497	371.62
457.717	348.62
457.937	352.62
458.157	365.62
458.377	357.62
458.598	372.62
458.818	386.62
459.038	372.62
459.258	390.62
459.478	396.62
459.698	398.62
459.918	418.62
460.138	424.62
460.358	457.62
460.578	452.62
460.798	459.62
461.018	460.62
461.238	455.62
461.458	470.62
461.678	436.62
461.898	464.62
462.118	472.62
462.338	463.62
462.558	476.62
462.777	501.62
462.997	515.62
463.217	538.62
463.437	535.62
463.657	539.62
463.876	488.62
464.096	512.62
464.316	487.62
464.536	506.62
464.755	485.62
464.975	470.62
465.195	440.62
465.414	441.62
465.634	410.62
465.854	424.62
466.073	414.62
466.293	424.62
466.512	408.62
466.732	421.62
466.951	392.62
467.171	417.62
467.391	424.62
467.61	406.62
467.829	404.62
468.049	417.62
468.268	395.62
468.488	387.62
468.707	386.62
468.927	401.62
469.146	399.62
469.365	395.62
469.585	399.62
469.804	416.62
470.023	398.62
470.243	395.62
470.462	402.62
470.681	395.62
470.901	412.62
471.12	410.62
471.339	404.62
471.558	415.62
471.777	401.62
471.997	400.62
472.216	402.62
472.435	381.62
472.654	395.62
472.873	390.62
473.092	380.62
473.311	388.62
473.53	398.62
473.749	387.62
473.968	376.62
474.187	387.62
474.406	390.62
474.625	393.62
474.844	404.62
475.063	380.62
475.282	394.62
475.501	394.62
475.72	392.62
475.939	379.62
476.158	408.62
476.377	400.62
476.596	398.62
476.814	405.62
477.033	437.62
477.252	431.62
477.471	414.62
477.69	428.62
477.908	409.62
478.127	453.62
478.346	450.62
478.564	445.62
478.783	466.62
479.002	475.62
479.22	443.62
479.439	469.62
479.658	452.62
479.876	462.62
480.095	436.62
480.313	447.62
480.532	485.62
480.751	475.62
480.969	480.62
481.188	455.62
481.406	436.62
481.624	468.62
481.843	440.62
482.061	435.62
482.28	442.62
482.498	436.62
482.717	432.62
482.935	434.62
483.153	434.62
483.372	454.62
483.59	428.62
483.808	438.62
484.027	447.62
484.245	449.62
484.463	440.62
484.681	437.62
484.9	452.62
485.118	450.62
485.336	462.62
485.554	466.62
485.772	454.62
485.99	461.62
486.209	456.62
486.427	455.62
486.645	462.62
486.863	448.62
487.081	443.62
487.299	462.62
487.517	423.62
487.735	446.62
487.953	457.62
488.171	458.62
488.389	464.62
488.607	468.62
488.825	440.62
489.043	429.62
489.261	459.62
489.479	444.62
489.696	442.62
489.914	461.62
490.132	466.62
490.35	458.62
490.568	474.62
490.786	447.62
491.003	445.62
491.221	454.62
491.439	475.62
491.657	477.62
491.874	470.62
492.092	474.62
492.31	506.62
492.527	485.62
492.745	481.62
492.963	474.62
493.18	489.62
493.398	464.62
493.615	490.62
493.833	456.62
494.05	477.62
494.268	459.62
494.485	487.62
494.703	475.62
494.92	468.62
495.138	491.62
495.355	498.62
495.573	494.62
495.79	472.62
496.008	484.62
496.225	491.62
496.442	519.62
496.66	518.62
496.877	515.62
497.094	515.62
497.312	501.62
497.529	531.62
497.746	543.62
497.963	535.62
498.181	547.62
498.398	578.62
498.615	566.62
498.832	603.62
499.049	620.62
499.267	666.62
499.484	716.62
499.701	760.62
499.918	823.62
500.135	890.62
500.352	977.62
500.569	995.62
500.786	999.62
501.003	955.62
501.22	874.62
501.437	818.62
501.654	718.62
501.871	695.62
502.088	644.62
