Data from Fe(NO3)3@0.1M.TitratingCurve.Agarose3%dH2O.NegLispCup.LampEnergy10.LIBS07252019_HRD10591_16-40-05-333.txt Node
Date: Thu Jul 25 16:40:05 EDT 2019
User: cochatt
Spectrometer: HR+D1059
Trigger mode: 1
Integration Time (sec): 1.000000E-1
Scans to average: 1
Electric dark correction enabled: true
Nonlinearity correction enabled: false
Boxcar width: 0
XAxis mode: Wavelengths
Number of Pixels in Spectrum: 2048
>>>>>Begin Spectral Data<<<<<
223.165	-15.38
223.4	-15.38
223.635	-15.38
223.869	-12.38
224.104	-23.38
224.338	-26.38
224.573	-15.38
224.808	17.62
225.042	-3.38
225.277	-8.38
225.511	-11.38
225.746	-10.38
225.98	-0.38
226.215	6.62
226.449	20.62
226.683	17.62
226.918	24.62
227.152	39.62
227.387	28.62
227.621	37.62
227.856	45.62
228.09	49.62
228.324	54.62
228.559	59.62
228.793	52.62
229.027	84.62
229.262	80.62
229.496	79.62
229.73	98.62
229.964	90.62
230.199	99.62
230.433	105.62
230.667	96.62
230.901	97.62
231.136	107.62
231.37	121.62
231.604	125.62
231.838	114.62
232.072	123.62
232.306	125.62
232.541	126.62
232.775	122.62
233.009	103.62
233.243	103.62
233.477	123.62
233.711	117.62
233.945	120.62
234.179	118.62
234.413	111.62
234.647	104.62
234.881	127.62
235.115	124.62
235.349	114.62
235.583	116.62
235.817	111.62
236.051	103.62
236.285	118.62
236.519	133.62
236.753	129.62
236.987	137.62
237.221	119.62
237.455	119.62
237.689	125.62
237.922	138.62
238.156	129.62
238.39	126.62
238.624	127.62
238.858	135.62
239.091	133.62
239.325	129.62
239.559	135.62
239.793	121.62
240.027	108.62
240.26	118.62
240.494	139.62
240.728	138.62
240.961	147.62
241.195	151.62
241.429	135.62
241.662	144.62
241.896	125.62
242.13	133.62
242.363	146.62
242.597	151.62
242.83	143.62
243.064	148.62
243.298	128.62
243.531	143.62
243.765	155.62
243.998	155.62
244.232	152.62
244.465	147.62
244.699	147.62
244.932	155.62
245.166	158.62
245.399	158.62
245.633	163.62
245.866	155.62
246.099	148.62
246.333	153.62
246.566	148.62
246.8	167.62
247.033	168.62
247.266	146.62
247.5	171.62
247.733	164.62
247.966	168.62
248.2	163.62
248.433	167.62
248.666	157.62
248.899	184.62
249.133	159.62
249.366	169.62
249.599	169.62
249.832	191.62
250.066	159.62
250.299	163.62
250.532	172.62
250.765	168.62
250.998	168.62
251.231	164.62
251.465	172.62
251.698	184.62
251.931	181.62
252.164	179.62
252.397	190.62
252.63	181.62
252.863	180.62
253.096	181.62
253.329	187.62
253.562	189.62
253.795	192.62
254.028	194.62
254.261	195.62
254.494	199.62
254.727	206.62
254.96	191.62
255.193	188.62
255.426	191.62
255.659	183.62
255.892	179.62
256.124	192.62
256.357	189.62
256.59	184.62
256.823	207.62
257.056	188.62
257.289	185.62
257.521	206.62
257.754	203.62
257.987	202.62
258.22	211.62
258.452	191.62
258.685	201.62
258.918	201.62
259.151	204.62
259.383	201.62
259.616	217.62
259.849	201.62
260.081	219.62
260.314	215.62
260.547	213.62
260.779	212.62
261.012	222.62
261.244	219.62
261.477	222.62
261.71	220.62
261.942	215.62
262.175	210.62
262.407	207.62
262.64	211.62
262.872	222.62
263.105	218.62
263.337	212.62
263.57	225.62
263.802	215.62
264.035	236.62
264.267	231.62
264.499	227.62
264.732	234.62
264.964	219.62
265.197	226.62
265.429	225.62
265.661	234.62
265.894	217.62
266.126	243.62
266.358	224.62
266.591	239.62
266.823	241.62
267.055	227.62
267.287	255.62
267.52	239.62
267.752	249.62
267.984	247.62
268.216	214.62
268.448	244.62
268.681	254.62
268.913	234.62
269.145	219.62
269.377	241.62
269.609	232.62
269.841	243.62
270.073	239.62
270.306	242.62
270.538	248.62
270.77	253.62
271.002	244.62
271.234	246.62
271.466	259.62
271.698	251.62
271.93	257.62
272.162	260.62
272.394	262.62
272.626	247.62
272.858	268.62
273.09	259.62
273.322	266.62
273.553	257.62
273.785	263.62
274.017	265.62
274.249	287.62
274.481	260.62
274.713	267.62
274.945	279.62
275.176	275.62
275.408	279.62
275.64	276.62
275.872	269.62
276.104	289.62
276.335	268.62
276.567	286.62
276.799	284.62
277.031	291.62
277.262	275.62
277.494	280.62
277.726	298.62
277.957	276.62
278.189	279.62
278.421	296.62
278.652	306.62
278.884	300.62
279.115	274.62
279.347	297.62
279.579	291.62
279.81	313.62
280.042	314.62
280.273	306.62
280.505	294.62
280.736	291.62
280.968	299.62
281.199	290.62
281.431	288.62
281.662	296.62
281.894	291.62
282.125	298.62
282.356	285.62
282.588	298.62
282.819	305.62
283.051	329.62
283.282	289.62
283.513	291.62
283.745	306.62
283.976	307.62
284.207	323.62
284.439	297.62
284.67	314.62
284.901	320.62
285.132	304.62
285.364	315.62
285.595	310.62
285.826	297.62
286.057	324.62
286.288	315.62
286.52	325.62
286.751	320.62
286.982	314.62
287.213	312.62
287.444	311.62
287.675	343.62
287.906	321.62
288.138	324.62
288.369	336.62
288.6	323.62
288.831	320.62
289.062	312.62
289.293	325.62
289.524	325.62
289.755	330.62
289.986	326.62
290.217	324.62
290.448	329.62
290.679	335.62
290.91	345.62
291.141	323.62
291.371	318.62
291.602	330.62
291.833	334.62
292.064	333.62
292.295	323.62
292.526	325.62
292.757	329.62
292.987	332.62
293.218	324.62
293.449	341.62
293.68	332.62
293.91	327.62
294.141	338.62
294.372	323.62
294.603	336.62
294.833	340.62
295.064	345.62
295.295	328.62
295.525	332.62
295.756	344.62
295.987	334.62
296.217	353.62
296.448	341.62
296.679	351.62
296.909	362.62
297.14	357.62
297.37	343.62
297.601	339.62
297.831	348.62
298.062	339.62
298.292	383.62
298.523	372.62
298.753	367.62
298.984	364.62
299.214	347.62
299.445	355.62
299.675	349.62
299.905	342.62
300.136	362.62
300.366	355.62
300.597	355.62
300.827	386.62
301.057	361.62
301.288	371.62
301.518	371.62
301.748	376.62
301.979	361.62
302.209	371.62
302.439	364.62
302.669	376.62
302.9	387.62
303.13	372.62
303.36	367.62
303.59	378.62
303.82	362.62
304.051	389.62
304.281	393.62
304.511	387.62
304.741	375.62
304.971	385.62
305.201	375.62
305.431	376.62
305.661	375.62
305.891	388.62
306.121	363.62
306.352	389.62
306.582	371.62
306.812	367.62
307.042	376.62
307.272	373.62
307.502	363.62
307.731	371.62
307.961	373.62
308.191	377.62
308.421	378.62
308.651	384.62
308.881	339.62
309.111	376.62
309.341	378.62
309.571	373.62
309.8	378.62
310.03	382.62
310.26	385.62
310.49	384.62
310.72	378.62
310.949	380.62
311.179	383.62
311.409	385.62
311.639	384.62
311.868	380.62
312.098	381.62
312.328	379.62
312.557	391.62
312.787	390.62
313.017	406.62
313.246	411.62
313.476	377.62
313.706	405.62
313.935	399.62
314.165	408.62
314.394	403.62
314.624	389.62
314.853	396.62
315.083	397.62
315.312	398.62
315.542	404.62
315.771	392.62
316.001	409.62
316.23	404.62
316.46	400.62
316.689	404.62
316.919	378.62
317.148	393.62
317.377	417.62
317.607	391.62
317.836	390.62
318.065	379.62
318.295	406.62
318.524	387.62
318.753	392.62
318.983	394.62
319.212	400.62
319.441	409.62
319.67	400.62
319.9	385.62
320.129	404.62
320.358	403.62
320.587	390.62
320.816	389.62
321.046	400.62
321.275	407.62
321.504	388.62
321.733	391.62
321.962	373.62
322.191	406.62
322.42	396.62
322.649	403.62
322.878	398.62
323.108	405.62
323.337	426.62
323.566	398.62
323.795	420.62
324.024	406.62
324.253	400.62
324.482	403.62
324.71	401.62
324.939	420.62
325.168	416.62
325.397	424.62
325.626	415.62
325.855	430.62
326.084	415.62
326.313	431.62
326.542	431.62
326.77	443.62
326.999	426.62
327.228	447.62
327.457	442.62
327.686	436.62
327.914	452.62
328.143	433.62
328.372	419.62
328.6	426.62
328.829	439.62
329.058	417.62
329.287	425.62
329.515	450.62
329.744	418.62
329.972	445.62
330.201	447.62
330.43	434.62
330.658	452.62
330.887	455.62
331.115	461.62
331.344	448.62
331.572	452.62
331.801	459.62
332.03	472.62
332.258	498.62
332.486	467.62
332.715	502.62
332.943	533.62
333.172	540.62
333.4	554.62
333.629	549.62
333.857	549.62
334.085	554.62
334.314	533.62
334.542	550.62
334.771	526.62
334.999	546.62
335.227	543.62
335.455	513.62
335.684	544.62
335.912	536.62
336.14	513.62
336.369	516.62
336.597	542.62
336.825	519.62
337.053	514.62
337.281	521.62
337.51	524.62
337.738	516.62
337.966	472.62
338.194	487.62
338.422	500.62
338.65	478.62
338.878	476.62
339.106	479.62
339.334	492.62
339.562	479.62
339.79	462.62
340.018	469.62
340.246	471.62
340.474	466.62
340.702	469.62
340.93	487.62
341.158	475.62
341.386	472.62
341.614	444.62
341.842	448.62
342.07	452.62
342.298	484.62
342.526	451.62
342.754	445.62
342.981	475.62
343.209	472.62
343.437	477.62
343.665	499.62
343.893	515.62
344.12	536.62
344.348	526.62
344.576	515.62
344.804	499.62
345.031	468.62
345.259	465.62
345.487	451.62
345.714	455.62
345.942	453.62
346.17	457.62
346.397	457.62
346.625	441.62
346.853	448.62
347.08	460.62
347.308	457.62
347.535	445.62
347.763	439.62
347.99	472.62
348.218	447.62
348.445	425.62
348.673	448.62
348.9	451.62
349.128	446.62
349.355	443.62
349.583	448.62
349.81	447.62
350.037	413.62
350.265	449.62
350.492	439.62
350.72	444.62
350.947	439.62
351.174	423.62
351.402	428.62
351.629	421.62
351.856	439.62
352.083	447.62
352.311	444.62
352.538	434.62
352.765	432.62
352.992	438.62
353.22	457.62
353.447	449.62
353.674	441.62
353.901	436.62
354.128	433.62
354.355	424.62
354.583	442.62
354.81	424.62
355.037	452.62
355.264	424.62
355.491	427.62
355.718	443.62
355.945	446.62
356.172	426.62
356.399	421.62
356.626	439.62
356.853	431.62
357.08	462.62
357.307	433.62
357.534	424.62
357.761	437.62
357.988	443.62
358.215	434.62
358.441	415.62
358.668	424.62
358.895	431.62
359.122	429.62
359.349	461.62
359.576	410.62
359.802	434.62
360.029	459.62
360.256	451.62
360.483	405.62
360.709	428.62
360.936	427.62
361.163	452.62
361.39	426.62
361.616	431.62
361.843	451.62
362.07	437.62
362.296	427.62
362.523	437.62
362.749	448.62
362.976	421.62
363.203	450.62
363.429	427.62
363.656	429.62
363.882	441.62
364.109	425.62
364.335	432.62
364.562	424.62
364.788	439.62
365.015	452.62
365.241	456.62
365.468	435.62
365.694	440.62
365.92	426.62
366.147	419.62
366.373	446.62
366.599	447.62
366.826	436.62
367.052	428.62
367.278	431.62
367.505	457.62
367.731	439.62
367.957	454.62
368.184	433.62
368.41	451.62
368.636	469.62
368.862	454.62
369.089	437.62
369.315	435.62
369.541	448.62
369.767	465.62
369.993	466.62
370.219	450.62
370.445	462.62
370.672	465.62
370.898	479.62
371.124	456.62
371.35	465.62
371.576	468.62
371.802	459.62
372.028	490.62
372.254	486.62
372.48	478.62
372.706	479.62
372.932	482.62
373.158	513.62
373.384	483.62
373.61	484.62
373.835	476.62
374.061	457.62
374.287	481.62
374.513	515.62
374.739	500.62
374.965	523.62
375.191	515.62
375.416	515.62
375.642	508.62
375.868	494.62
376.094	498.62
376.319	499.62
376.545	482.62
376.771	474.62
376.997	496.62
377.222	492.62
377.448	478.62
377.674	475.62
377.899	476.62
378.125	461.62
378.35	484.62
378.576	470.62
378.802	474.62
379.027	466.62
379.253	461.62
379.478	469.62
379.704	474.62
379.929	484.62
380.155	470.62
380.38	495.62
380.606	498.62
380.831	490.62
381.057	473.62
381.282	487.62
381.507	486.62
381.733	491.62
381.958	486.62
382.184	498.62
382.409	513.62
382.634	488.62
382.86	507.62
383.085	490.62
383.31	522.62
383.535	529.62
383.761	533.62
383.986	537.62
384.211	551.62
384.436	542.62
384.662	571.62
384.887	530.62
385.112	548.62
385.337	562.62
385.562	578.62
385.787	581.62
386.013	578.62
386.238	593.62
386.463	569.62
386.688	564.62
386.913	549.62
387.138	579.62
387.363	578.62
387.588	581.62
387.813	568.62
388.038	578.62
388.263	583.62
388.488	570.62
388.713	574.62
388.938	586.62
389.163	571.62
389.387	574.62
389.612	590.62
389.837	579.62
390.062	580.62
390.287	557.62
390.512	587.62
390.736	583.62
390.961	592.62
391.186	601.62
391.411	616.62
391.636	610.62
391.86	627.62
392.085	617.62
392.31	607.62
392.534	640.62
392.759	628.62
392.984	614.62
393.208	616.62
393.433	614.62
393.658	607.62
393.882	604.62
394.107	637.62
394.331	636.62
394.556	614.62
394.78	603.62
395.005	640.62
395.229	618.62
395.454	639.62
395.678	644.62
395.903	629.62
396.127	621.62
396.352	599.62
396.576	639.62
396.801	628.62
397.025	632.62
397.249	635.62
397.474	648.62
397.698	643.62
397.922	665.62
398.147	673.62
398.371	649.62
398.595	661.62
398.82	717.62
399.044	739.62
399.268	812.62
399.492	871.62
399.717	934.62
399.941	921.62
400.165	887.62
400.389	819.62
400.613	787.62
400.837	768.62
401.062	731.62
401.286	745.62
401.51	717.62
401.734	714.62
401.958	733.62
402.182	724.62
402.406	696.62
402.63	710.62
402.854	726.62
403.078	766.62
403.302	724.62
403.526	767.62
403.75	793.62
403.974	764.62
404.198	791.62
404.422	753.62
404.645	761.62
404.869	744.62
405.093	771.62
405.317	757.62
405.541	773.62
405.765	773.62
405.988	771.62
406.212	778.62
406.436	758.62
406.66	764.62
406.883	778.62
407.107	823.62
407.331	836.62
407.555	873.62
407.778	895.62
408.002	857.62
408.226	865.62
408.449	862.62
408.673	835.62
408.896	807.62
409.12	791.62
409.344	835.62
409.567	796.62
409.791	791.62
410.014	810.62
410.238	810.62
410.461	799.62
410.685	780.62
410.908	772.62
411.132	793.62
411.355	777.62
411.578	758.62
411.802	748.62
412.025	765.62
412.249	745.62
412.472	754.62
412.695	737.62
412.919	727.62
413.142	741.62
413.365	752.62
413.589	760.62
413.812	724.62
414.035	720.62
414.258	717.62
414.482	732.62
414.705	743.62
414.928	765.62
415.151	736.62
415.374	737.62
415.597	721.62
415.821	722.62
416.044	704.62
416.267	710.62
416.49	711.62
416.713	713.62
416.936	725.62
417.159	699.62
417.382	711.62
417.605	683.62
417.828	697.62
418.051	719.62
418.274	710.62
418.497	704.62
418.72	725.62
418.943	733.62
419.166	769.62
419.389	803.62
419.611	784.62
419.834	761.62
420.057	716.62
420.28	733.62
420.503	681.62
420.726	707.62
420.948	701.62
421.171	698.62
421.394	712.62
421.617	704.62
421.839	706.62
422.062	710.62
422.285	685.62
422.507	699.62
422.73	691.62
422.953	705.62
423.175	689.62
423.398	722.62
423.621	702.62
423.843	721.62
424.066	741.62
424.288	731.62
424.511	715.62
424.733	711.62
424.956	704.62
425.178	700.62
425.401	724.62
425.623	697.62
425.846	689.62
426.068	703.62
426.291	711.62
426.513	669.62
426.735	671.62
426.958	668.62
427.18	681.62
427.402	655.62
427.625	672.62
427.847	648.62
428.069	651.62
428.292	652.62
428.514	672.62
428.736	648.62
428.958	651.62
429.181	630.62
429.403	629.62
429.625	652.62
429.847	633.62
430.069	633.62
430.292	644.62
430.514	623.62
430.736	661.62
430.958	657.62
431.18	642.62
431.402	638.62
431.624	648.62
431.846	650.62
432.068	652.62
432.29	671.62
432.512	671.62
432.734	680.62
432.956	646.62
433.178	650.62
433.4	652.62
433.622	647.62
433.844	662.62
434.066	657.62
434.287	647.62
434.509	705.62
434.731	691.62
434.953	703.62
435.175	703.62
435.397	724.62
435.618	703.62
435.84	679.62
436.062	645.62
436.284	679.62
436.505	636.62
436.727	659.62
436.949	647.62
437.17	659.62
437.392	641.62
437.614	647.62
437.835	632.62
438.057	611.62
438.278	621.62
438.5	633.62
438.721	623.62
438.943	633.62
439.165	638.62
439.386	665.62
439.608	650.62
439.829	632.62
440.05	633.62
440.272	655.62
440.493	675.62
440.715	664.62
440.936	663.62
441.158	664.62
441.379	679.62
441.6	722.62
441.822	726.62
442.043	700.62
442.264	701.62
442.486	675.62
442.707	713.62
442.928	705.62
443.149	709.62
443.371	694.62
443.592	735.62
443.813	746.62
444.034	727.62
444.255	747.62
444.476	792.62
444.698	803.62
444.919	804.62
445.14	879.62
445.361	815.62
445.582	734.62
445.803	724.62
446.024	724.62
446.245	698.62
446.466	680.62
446.687	653.62
446.908	682.62
447.129	659.62
447.35	661.62
447.571	652.62
447.792	648.62
448.013	623.62
448.234	625.62
448.455	620.62
448.675	611.62
448.896	617.62
449.117	630.62
449.338	618.62
449.559	604.62
449.779	607.62
450	590.62
450.221	587.62
450.442	620.62
450.662	611.62
450.883	607.62
451.104	635.62
451.324	635.62
451.545	640.62
451.766	613.62
451.986	601.62
452.207	607.62
452.428	594.62
452.648	588.62
452.869	581.62
453.089	582.62
453.31	584.62
453.53	567.62
453.751	568.62
453.971	568.62
454.192	590.62
454.412	565.62
454.633	574.62
454.853	589.62
455.073	567.62
455.294	583.62
455.514	563.62
455.734	545.62
455.955	567.62
456.175	553.62
456.395	563.62
456.616	563.62
456.836	563.62
457.056	580.62
457.276	552.62
457.497	574.62
457.717	569.62
457.937	579.62
458.157	585.62
458.377	600.62
458.598	609.62
458.818	611.62
459.038	599.62
459.258	615.62
459.478	625.62
459.698	671.62
459.918	706.62
460.138	697.62
460.358	723.62
460.578	732.62
460.798	722.62
461.018	739.62
461.238	752.62
461.458	740.62
461.678	717.62
461.898	744.62
462.118	757.62
462.338	767.62
462.558	791.62
462.777	800.62
462.997	866.62
463.217	891.62
463.437	921.62
463.657	869.62
463.876	850.62
464.096	829.62
464.316	812.62
464.536	819.62
464.755	807.62
464.975	769.62
465.195	751.62
465.414	695.62
465.634	683.62
465.854	685.62
466.073	661.62
466.293	648.62
466.512	635.62
466.732	645.62
466.951	652.62
467.171	659.62
467.391	634.62
467.61	632.62
467.829	620.62
468.049	618.62
468.268	616.62
468.488	611.62
468.707	597.62
468.927	624.62
469.146	603.62
469.365	618.62
469.585	603.62
469.804	656.62
470.023	628.62
470.243	612.62
470.462	649.62
470.681	623.62
470.901	632.62
471.12	628.62
471.339	624.62
471.558	630.62
471.777	636.62
471.997	615.62
472.216	626.62
472.435	591.62
472.654	579.62
472.873	584.62
473.092	585.62
473.311	595.62
473.53	610.62
473.749	588.62
473.968	607.62
474.187	593.62
474.406	571.62
474.625	591.62
474.844	582.62
475.063	603.62
475.282	586.62
475.501	575.62
475.72	594.62
475.939	591.62
476.158	605.62
476.377	602.62
476.596	633.62
476.814	619.62
477.033	623.62
477.252	632.62
477.471	663.62
477.69	646.62
477.908	680.62
478.127	688.62
478.346	680.62
478.564	673.62
478.783	694.62
479.002	717.62
479.22	727.62
479.439	720.62
479.658	712.62
479.876	704.62
480.095	753.62
480.313	723.62
480.532	731.62
480.751	736.62
480.969	735.62
481.188	715.62
481.406	687.62
481.624	707.62
481.843	676.62
482.061	676.62
482.28	687.62
482.498	664.62
482.717	659.62
482.935	663.62
483.153	666.62
483.372	691.62
483.59	681.62
483.808	679.62
484.027	693.62
484.245	666.62
484.463	691.62
484.681	695.62
484.9	698.62
485.118	692.62
485.336	673.62
485.554	705.62
485.772	681.62
485.99	727.62
486.209	689.62
486.427	705.62
486.645	702.62
486.863	701.62
487.081	692.62
487.299	707.62
487.517	683.62
487.735	697.62
487.953	711.62
488.171	708.62
488.389	684.62
488.607	710.62
488.825	695.62
489.043	680.62
489.261	693.62
489.479	699.62
489.696	697.62
489.914	667.62
490.132	695.62
490.35	699.62
490.568	687.62
490.786	709.62
491.003	715.62
491.221	726.62
491.439	725.62
491.657	711.62
491.874	702.62
492.092	727.62
492.31	723.62
492.527	705.62
492.745	726.62
492.963	738.62
493.18	736.62
493.398	722.62
493.615	728.62
493.833	706.62
494.05	729.62
494.268	728.62
494.485	745.62
494.703	735.62
494.92	743.62
495.138	742.62
495.355	737.62
495.573	744.62
495.79	771.62
496.008	748.62
496.225	791.62
496.442	793.62
496.66	802.62
496.877	815.62
497.094	812.62
497.312	812.62
497.529	796.62
497.746	831.62
497.963	873.62
498.181	885.62
498.398	899.62
498.615	975.62
498.832	1010.62
499.049	1071.62
499.267	1143.62
499.484	1220.62
499.701	1339.62
499.918	1429.62
500.135	1565.62
500.352	1695.62
500.569	1783.62
500.786	1736.62
501.003	1685.62
501.22	1527.62
501.437	1448.62
