Data from Fe(NO3)3@0.1M.TitratingCurve.Agarose3%dH2O.NegLispCup.LampEnergy10.LIBS07252019_HRD10591_16-42-21-333.txt Node
Date: Thu Jul 25 16:42:21 EDT 2019
User: cochatt
Spectrometer: HR+D1059
Trigger mode: 1
Integration Time (sec): 1.000000E-1
Scans to average: 1
Electric dark correction enabled: true
Nonlinearity correction enabled: false
Boxcar width: 0
XAxis mode: Wavelengths
Number of Pixels in Spectrum: 2048
>>>>>Begin Spectral Data<<<<<
223.165	-15.56
223.4	-15.56
223.635	-15.56
223.869	-2.56
224.104	-10.56
224.338	-10.56
224.573	-18.56
224.808	-25.56
225.042	-11.56
225.277	-19.56
225.511	1.44
225.746	5.44
225.98	5.44
226.215	8.44
226.449	27.44
226.683	30.44
226.918	24.44
227.152	11.44
227.387	28.44
227.621	41.44
227.856	47.44
228.09	44.44
228.324	57.44
228.559	67.44
228.793	63.44
229.027	80.44
229.262	72.44
229.496	76.44
229.73	97.44
229.964	99.44
230.199	90.44
230.433	86.44
230.667	87.44
230.901	106.44
231.136	112.44
231.37	102.44
231.604	106.44
231.838	105.44
232.072	103.44
232.306	92.44
232.541	111.44
232.775	112.44
233.009	97.44
233.243	108.44
233.477	110.44
233.711	114.44
233.945	109.44
234.179	106.44
234.413	99.44
234.647	99.44
234.881	108.44
235.115	95.44
235.349	89.44
235.583	105.44
235.817	96.44
236.051	107.44
236.285	110.44
236.519	111.44
236.753	112.44
236.987	98.44
237.221	108.44
237.455	101.44
237.689	116.44
237.922	97.44
238.156	121.44
238.39	120.44
238.624	107.44
238.858	104.44
239.091	104.44
239.325	112.44
239.559	132.44
239.793	133.44
240.027	109.44
240.26	116.44
240.494	123.44
240.728	110.44
240.961	125.44
241.195	127.44
241.429	114.44
241.662	107.44
241.896	126.44
242.13	105.44
242.363	115.44
242.597	101.44
242.83	131.44
243.064	127.44
243.298	124.44
243.531	133.44
243.765	119.44
243.998	117.44
244.232	136.44
244.465	106.44
244.699	120.44
244.932	117.44
245.166	124.44
245.399	115.44
245.633	127.44
245.866	122.44
246.099	123.44
246.333	124.44
246.566	126.44
246.8	141.44
247.033	141.44
247.266	136.44
247.5	142.44
247.733	132.44
247.966	126.44
248.2	133.44
248.433	131.44
248.666	128.44
248.899	143.44
249.133	124.44
249.366	130.44
249.599	142.44
249.832	135.44
250.066	146.44
250.299	153.44
250.532	140.44
250.765	128.44
250.998	128.44
251.231	137.44
251.465	149.44
251.698	154.44
251.931	153.44
252.164	133.44
252.397	138.44
252.63	141.44
252.863	142.44
253.096	137.44
253.329	143.44
253.562	144.44
253.795	128.44
254.028	150.44
254.261	140.44
254.494	143.44
254.727	144.44
254.96	168.44
255.193	142.44
255.426	142.44
255.659	140.44
255.892	151.44
256.124	163.44
256.357	134.44
256.59	146.44
256.823	144.44
257.056	146.44
257.289	158.44
257.521	147.44
257.754	154.44
257.987	148.44
258.22	165.44
258.452	157.44
258.685	137.44
258.918	168.44
259.151	151.44
259.383	153.44
259.616	168.44
259.849	175.44
260.081	165.44
260.314	160.44
260.547	163.44
260.779	159.44
261.012	174.44
261.244	153.44
261.477	153.44
261.71	176.44
261.942	161.44
262.175	166.44
262.407	175.44
262.64	151.44
262.872	159.44
263.105	170.44
263.337	157.44
263.57	173.44
263.802	163.44
264.035	170.44
264.267	182.44
264.499	158.44
264.732	164.44
264.964	185.44
265.197	182.44
265.429	169.44
265.661	181.44
265.894	159.44
266.126	173.44
266.358	187.44
266.591	162.44
266.823	171.44
267.055	164.44
267.287	189.44
267.52	183.44
267.752	174.44
267.984	176.44
268.216	189.44
268.448	182.44
268.681	173.44
268.913	179.44
269.145	185.44
269.377	181.44
269.609	171.44
269.841	184.44
270.073	186.44
270.306	191.44
270.538	167.44
270.77	193.44
271.002	191.44
271.234	185.44
271.466	171.44
271.698	183.44
271.93	184.44
272.162	189.44
272.394	188.44
272.626	171.44
272.858	189.44
273.09	197.44
273.322	205.44
273.553	196.44
273.785	189.44
274.017	191.44
274.249	196.44
274.481	210.44
274.713	195.44
274.945	191.44
275.176	199.44
275.408	206.44
275.64	203.44
275.872	198.44
276.104	212.44
276.335	192.44
276.567	193.44
276.799	198.44
277.031	196.44
277.262	191.44
277.494	205.44
277.726	202.44
277.957	202.44
278.189	197.44
278.421	200.44
278.652	202.44
278.884	193.44
279.115	202.44
279.347	205.44
279.579	205.44
279.81	204.44
280.042	199.44
280.273	207.44
280.505	193.44
280.736	209.44
280.968	209.44
281.199	212.44
281.431	205.44
281.662	225.44
281.894	217.44
282.125	217.44
282.356	222.44
282.588	214.44
282.819	217.44
283.051	212.44
283.282	196.44
283.513	232.44
283.745	210.44
283.976	208.44
284.207	205.44
284.439	225.44
284.67	225.44
284.901	228.44
285.132	224.44
285.364	233.44
285.595	226.44
285.826	238.44
286.057	228.44
286.288	239.44
286.52	218.44
286.751	218.44
286.982	233.44
287.213	225.44
287.444	212.44
287.675	232.44
287.906	236.44
288.138	217.44
288.369	230.44
288.6	230.44
288.831	241.44
289.062	214.44
289.293	235.44
289.524	203.44
289.755	231.44
289.986	230.44
290.217	224.44
290.448	234.44
290.679	238.44
290.91	230.44
291.141	217.44
291.371	222.44
291.602	236.44
291.833	221.44
292.064	235.44
292.295	233.44
292.526	229.44
292.757	237.44
292.987	245.44
293.218	244.44
293.449	216.44
293.68	227.44
293.91	222.44
294.141	241.44
294.372	239.44
294.603	261.44
294.833	249.44
295.064	230.44
295.295	234.44
295.525	249.44
295.756	219.44
295.987	237.44
296.217	241.44
296.448	243.44
296.679	240.44
296.909	251.44
297.14	243.44
297.37	235.44
297.601	225.44
297.831	246.44
298.062	251.44
298.292	255.44
298.523	261.44
298.753	251.44
298.984	257.44
299.214	247.44
299.445	248.44
299.675	256.44
299.905	243.44
300.136	256.44
300.366	245.44
300.597	264.44
300.827	254.44
301.057	265.44
301.288	264.44
301.518	252.44
301.748	259.44
301.979	240.44
302.209	255.44
302.439	269.44
302.669	243.44
302.9	271.44
303.13	262.44
303.36	263.44
303.59	267.44
303.82	248.44
304.051	249.44
304.281	270.44
304.511	253.44
304.741	256.44
304.971	276.44
305.201	246.44
305.431	248.44
305.661	265.44
305.891	259.44
306.121	263.44
306.352	248.44
306.582	251.44
306.812	238.44
307.042	264.44
307.272	245.44
307.502	273.44
307.731	255.44
307.961	248.44
308.191	246.44
308.421	265.44
308.651	263.44
308.881	258.44
309.111	254.44
309.341	261.44
309.571	253.44
309.8	258.44
310.03	251.44
310.26	261.44
310.49	258.44
310.72	275.44
310.949	271.44
311.179	263.44
311.409	267.44
311.639	232.44
311.868	243.44
312.098	270.44
312.328	269.44
312.557	261.44
312.787	253.44
313.017	272.44
313.246	268.44
313.476	285.44
313.706	263.44
313.935	283.44
314.165	270.44
314.394	271.44
314.624	276.44
314.853	285.44
315.083	279.44
315.312	286.44
315.542	269.44
315.771	284.44
316.001	260.44
316.23	270.44
316.46	277.44
316.689	268.44
316.919	285.44
317.148	283.44
317.377	289.44
317.607	279.44
317.836	281.44
318.065	279.44
318.295	283.44
318.524	286.44
318.753	270.44
318.983	267.44
319.212	283.44
319.441	273.44
319.67	284.44
319.9	271.44
320.129	273.44
320.358	279.44
320.587	269.44
320.816	272.44
321.046	271.44
321.275	282.44
321.504	266.44
321.733	272.44
321.962	282.44
322.191	295.44
322.42	279.44
322.649	277.44
322.878	270.44
323.108	281.44
323.337	287.44
323.566	286.44
323.795	287.44
324.024	295.44
324.253	281.44
324.482	273.44
324.71	284.44
324.939	297.44
325.168	286.44
325.397	295.44
325.626	288.44
325.855	285.44
326.084	302.44
326.313	264.44
326.542	294.44
326.77	305.44
326.999	321.44
327.228	301.44
327.457	304.44
327.686	310.44
327.914	308.44
328.143	309.44
328.372	304.44
328.6	291.44
328.829	321.44
329.058	308.44
329.287	307.44
329.515	303.44
329.744	322.44
329.972	310.44
330.201	303.44
330.43	311.44
330.658	286.44
330.887	316.44
331.115	302.44
331.344	305.44
331.572	305.44
331.801	328.44
332.03	341.44
332.258	347.44
332.486	349.44
332.715	360.44
332.943	358.44
333.172	383.44
333.4	384.44
333.629	385.44
333.857	386.44
334.085	380.44
334.314	392.44
334.542	369.44
334.771	366.44
334.999	363.44
335.227	356.44
335.455	359.44
335.684	368.44
335.912	360.44
336.14	352.44
336.369	355.44
336.597	347.44
336.825	335.44
337.053	355.44
337.281	350.44
337.51	324.44
337.738	335.44
337.966	330.44
338.194	346.44
338.422	323.44
338.65	327.44
338.878	330.44
339.106	331.44
339.334	324.44
339.562	321.44
339.79	310.44
340.018	319.44
340.246	304.44
340.474	319.44
340.702	326.44
340.93	327.44
341.158	299.44
341.386	315.44
341.614	300.44
341.842	315.44
342.07	315.44
342.298	319.44
342.526	308.44
342.754	319.44
342.981	315.44
343.209	322.44
343.437	327.44
343.665	355.44
343.893	351.44
344.12	389.44
344.348	368.44
344.576	368.44
344.804	345.44
345.031	330.44
345.259	313.44
345.487	316.44
345.714	301.44
345.942	311.44
346.17	299.44
346.397	297.44
346.625	311.44
346.853	315.44
347.08	297.44
347.308	300.44
347.535	297.44
347.763	313.44
347.99	291.44
348.218	309.44
348.445	303.44
348.673	298.44
348.9	297.44
349.128	319.44
349.355	302.44
349.583	303.44
349.81	296.44
350.037	288.44
350.265	304.44
350.492	299.44
350.72	293.44
350.947	297.44
351.174	280.44
351.402	305.44
351.629	292.44
351.856	319.44
352.083	281.44
352.311	269.44
352.538	291.44
352.765	303.44
352.992	304.44
353.22	299.44
353.447	300.44
353.674	296.44
353.901	302.44
354.128	299.44
354.355	277.44
354.583	282.44
354.81	290.44
355.037	309.44
355.264	298.44
355.491	301.44
355.718	287.44
355.945	308.44
356.172	288.44
356.399	308.44
356.626	303.44
356.853	309.44
357.08	296.44
357.307	303.44
357.534	283.44
357.761	315.44
357.988	319.44
358.215	280.44
358.441	291.44
358.668	302.44
358.895	303.44
359.122	304.44
359.349	302.44
359.576	295.44
359.802	303.44
360.029	285.44
360.256	282.44
360.483	320.44
360.709	293.44
360.936	303.44
361.163	293.44
361.39	301.44
361.616	302.44
361.843	285.44
362.07	296.44
362.296	281.44
362.523	283.44
362.749	283.44
362.976	317.44
363.203	299.44
363.429	309.44
363.656	317.44
363.882	296.44
364.109	302.44
364.335	300.44
364.562	311.44
364.788	311.44
365.015	296.44
365.241	297.44
365.468	281.44
365.694	302.44
365.92	281.44
366.147	295.44
366.373	286.44
366.599	299.44
366.826	316.44
367.052	313.44
367.278	317.44
367.505	305.44
367.731	300.44
367.957	318.44
368.184	301.44
368.41	338.44
368.636	301.44
368.862	318.44
369.089	312.44
369.315	329.44
369.541	304.44
369.767	316.44
369.993	310.44
370.219	321.44
370.445	299.44
370.672	318.44
370.898	307.44
371.124	316.44
371.35	330.44
371.576	333.44
371.802	331.44
372.028	313.44
372.254	326.44
372.48	320.44
372.706	337.44
372.932	346.44
373.158	334.44
373.384	351.44
373.61	328.44
373.835	334.44
374.061	303.44
374.287	332.44
374.513	341.44
374.739	350.44
374.965	356.44
375.191	364.44
375.416	337.44
375.642	346.44
375.868	356.44
376.094	331.44
376.319	349.44
376.545	346.44
376.771	328.44
376.997	322.44
377.222	348.44
377.448	340.44
377.674	324.44
377.899	325.44
378.125	325.44
378.35	335.44
378.576	325.44
378.802	320.44
379.027	331.44
379.253	315.44
379.478	323.44
379.704	313.44
379.929	309.44
380.155	319.44
380.38	333.44
380.606	328.44
380.831	307.44
381.057	336.44
381.282	340.44
381.507	330.44
381.733	335.44
381.958	331.44
382.184	324.44
382.409	340.44
382.634	348.44
382.86	352.44
383.085	349.44
383.31	353.44
383.535	340.44
383.761	361.44
383.986	358.44
384.211	384.44
384.436	363.44
384.662	373.44
384.887	389.44
385.112	391.44
385.337	383.44
385.562	411.44
385.787	400.44
386.013	414.44
386.238	385.44
386.463	381.44
386.688	380.44
386.913	404.44
387.138	370.44
387.363	379.44
387.588	373.44
387.813	357.44
388.038	391.44
388.263	395.44
388.488	389.44
388.713	382.44
388.938	383.44
389.163	353.44
389.387	359.44
389.612	391.44
389.837	378.44
390.062	360.44
390.287	375.44
390.512	390.44
390.736	386.44
390.961	402.44
391.186	408.44
391.411	409.44
391.636	415.44
391.86	402.44
392.085	447.44
392.31	421.44
392.534	423.44
392.759	418.44
392.984	408.44
393.208	403.44
393.433	391.44
393.658	403.44
393.882	416.44
394.107	406.44
394.331	415.44
394.556	393.44
394.78	403.44
395.005	420.44
395.229	412.44
395.454	424.44
395.678	425.44
395.903	431.44
396.127	421.44
396.352	437.44
396.576	423.44
396.801	401.44
397.025	402.44
397.249	429.44
397.474	431.44
397.698	437.44
397.922	432.44
398.147	444.44
398.371	427.44
398.595	443.44
398.82	483.44
399.044	473.44
399.268	533.44
399.492	598.44
399.717	656.44
399.941	655.44
400.165	593.44
400.389	548.44
400.613	515.44
400.837	505.44
401.062	479.44
401.286	472.44
401.51	470.44
401.734	461.44
401.958	469.44
402.182	478.44
402.406	482.44
402.63	496.44
402.854	501.44
403.078	500.44
403.302	510.44
403.526	524.44
403.75	527.44
403.974	536.44
404.198	515.44
404.422	531.44
404.645	535.44
404.869	526.44
405.093	525.44
405.317	518.44
405.541	525.44
405.765	515.44
405.988	520.44
406.212	522.44
406.436	519.44
406.66	534.44
406.883	549.44
407.107	572.44
407.331	605.44
407.555	591.44
407.778	593.44
408.002	590.44
408.226	526.44
408.449	575.44
408.673	541.44
408.896	548.44
409.12	542.44
409.344	548.44
409.567	543.44
409.791	537.44
410.014	521.44
410.238	532.44
410.461	523.44
410.685	515.44
410.908	495.44
411.132	511.44
411.355	483.44
411.578	483.44
411.802	523.44
412.025	517.44
412.249	519.44
412.472	491.44
412.695	491.44
412.919	465.44
413.142	475.44
413.365	496.44
413.589	480.44
413.812	478.44
414.035	492.44
414.258	488.44
414.482	473.44
414.705	498.44
414.928	512.44
415.151	479.44
415.374	486.44
415.597	493.44
415.821	468.44
416.044	465.44
416.267	476.44
416.49	471.44
416.713	478.44
416.936	483.44
417.159	453.44
417.382	463.44
417.605	483.44
417.828	471.44
418.051	488.44
418.274	485.44
418.497	475.44
418.72	488.44
418.943	484.44
419.166	519.44
419.389	515.44
419.611	504.44
419.834	525.44
420.057	506.44
420.28	482.44
420.503	463.44
420.726	481.44
420.948	469.44
421.171	484.44
421.394	481.44
421.617	483.44
421.839	489.44
422.062	481.44
422.285	477.44
422.507	471.44
422.73	473.44
422.953	486.44
423.175	480.44
423.398	495.44
423.621	499.44
423.843	510.44
424.066	511.44
424.288	484.44
424.511	486.44
424.733	486.44
424.956	493.44
425.178	473.44
425.401	478.44
425.623	473.44
425.846	463.44
426.068	461.44
426.291	463.44
426.513	463.44
426.735	463.44
426.958	468.44
427.18	448.44
427.402	452.44
427.625	453.44
427.847	457.44
428.069	440.44
428.292	468.44
428.514	448.44
428.736	419.44
428.958	463.44
429.181	431.44
429.403	433.44
429.625	428.44
429.847	432.44
430.069	432.44
430.292	456.44
430.514	428.44
430.736	457.44
430.958	430.44
431.18	420.44
431.402	440.44
431.624	421.44
431.846	445.44
432.068	434.44
432.29	412.44
432.512	446.44
432.734	447.44
432.956	451.44
433.178	458.44
433.4	468.44
433.622	445.44
433.844	453.44
434.066	455.44
434.287	456.44
434.509	469.44
434.731	472.44
434.953	476.44
435.175	514.44
435.397	478.44
435.618	448.44
435.84	454.44
436.062	438.44
436.284	448.44
436.505	441.44
436.727	445.44
436.949	459.44
437.17	452.44
437.392	440.44
437.614	441.44
437.835	421.44
438.057	430.44
438.278	439.44
438.5	425.44
438.721	437.44
438.943	436.44
439.165	445.44
439.386	441.44
439.608	472.44
439.829	444.44
440.05	463.44
440.272	435.44
440.493	459.44
440.715	456.44
440.936	462.44
441.158	467.44
441.379	473.44
441.6	501.44
441.822	501.44
442.043	491.44
442.264	489.44
442.486	503.44
442.707	495.44
442.928	475.44
443.149	521.44
443.371	481.44
443.592	499.44
443.813	486.44
444.034	480.44
444.255	535.44
444.476	515.44
444.698	558.44
444.919	590.44
445.14	632.44
445.361	574.44
445.582	517.44
445.803	507.44
446.024	493.44
446.245	472.44
446.466	469.44
446.687	469.44
446.908	454.44
447.129	432.44
447.35	443.44
447.571	444.44
447.792	435.44
448.013	424.44
448.234	407.44
448.455	421.44
448.675	444.44
448.896	424.44
449.117	422.44
449.338	441.44
449.559	428.44
449.779	413.44
450	411.44
450.221	428.44
450.442	439.44
450.662	425.44
450.883	416.44
451.104	409.44
451.324	441.44
451.545	453.44
451.766	436.44
451.986	428.44
452.207	432.44
452.428	418.44
452.648	423.44
452.869	401.44
453.089	402.44
453.31	421.44
453.53	425.44
453.751	399.44
453.971	399.44
454.192	399.44
454.412	411.44
454.633	395.44
454.853	410.44
455.073	392.44
455.294	407.44
455.514	399.44
455.734	390.44
455.955	384.44
456.175	385.44
456.395	395.44
456.616	388.44
456.836	407.44
457.056	381.44
457.276	370.44
457.497	386.44
457.717	381.44
457.937	395.44
458.157	400.44
458.377	399.44
458.598	417.44
458.818	431.44
459.038	424.44
459.258	434.44
459.478	453.44
459.698	452.44
459.918	452.44
460.138	478.44
460.358	512.44
460.578	504.44
460.798	504.44
461.018	500.44
461.238	520.44
461.458	500.44
461.678	491.44
461.898	523.44
462.118	504.44
462.338	537.44
462.558	544.44
462.777	569.44
462.997	609.44
463.217	635.44
463.437	637.44
463.657	596.44
463.876	585.44
464.096	585.44
464.316	562.44
464.536	558.44
464.755	547.44
464.975	548.44
465.195	536.44
465.414	486.44
465.634	464.44
465.854	446.44
466.073	455.44
466.293	444.44
466.512	458.44
466.732	433.44
466.951	434.44
467.171	430.44
467.391	444.44
467.61	429.44
467.829	429.44
468.049	421.44
468.268	416.44
468.488	415.44
468.707	411.44
468.927	430.44
469.146	394.44
469.365	414.44
469.585	412.44
469.804	418.44
470.023	428.44
470.243	444.44
470.462	424.44
470.681	455.44
470.901	447.44
471.12	432.44
471.339	440.44
471.558	428.44
471.777	424.44
471.997	449.44
472.216	435.44
472.435	417.44
472.654	392.44
472.873	416.44
473.092	381.44
473.311	401.44
473.53	392.44
473.749	401.44
473.968	408.44
474.187	407.44
474.406	412.44
474.625	395.44
474.844	402.44
475.063	404.44
475.282	429.44
475.501	422.44
475.72	415.44
475.939	417.44
476.158	415.44
476.377	429.44
476.596	417.44
476.814	432.44
477.033	415.44
477.252	442.44
477.471	440.44
477.69	462.44
477.908	455.44
478.127	469.44
478.346	469.44
478.564	467.44
478.783	466.44
479.002	478.44
479.22	484.44
479.439	481.44
479.658	496.44
479.876	468.44
480.095	490.44
480.313	510.44
480.532	516.44
480.751	503.44
480.969	497.44
481.188	461.44
481.406	463.44
481.624	464.44
481.843	453.44
482.061	437.44
482.28	441.44
482.498	453.44
482.717	444.44
482.935	468.44
483.153	442.44
483.372	455.44
483.59	458.44
483.808	436.44
484.027	454.44
484.245	446.44
484.463	455.44
484.681	469.44
484.9	476.44
485.118	461.44
485.336	440.44
485.554	464.44
485.772	488.44
485.99	477.44
486.209	470.44
486.427	456.44
486.645	457.44
486.863	458.44
487.081	454.44
487.299	460.44
487.517	456.44
487.735	487.44
487.953	480.44
488.171	467.44
488.389	471.44
488.607	457.44
488.825	456.44
489.043	471.44
489.261	486.44
489.479	477.44
489.696	477.44
489.914	457.44
490.132	459.44
490.35	460.44
490.568	478.44
490.786	471.44
491.003	487.44
491.221	492.44
491.439	484.44
491.657	487.44
491.874	480.44
492.092	495.44
492.31	521.44
492.527	491.44
492.745	511.44
492.963	498.44
493.18	498.44
493.398	497.44
493.615	477.44
493.833	483.44
494.05	491.44
494.268	503.44
494.485	470.44
494.703	510.44
494.92	481.44
495.138	475.44
495.355	499.44
495.573	501.44
495.79	484.44
496.008	482.44
496.225	494.44
496.442	519.44
496.66	492.44
496.877	507.44
497.094	515.44
497.312	527.44
497.529	529.44
497.746	542.44
497.963	569.44
498.181	589.44
498.398	597.44
498.615	630.44
498.832	640.44
499.049	712.44
499.267	749.44
499.484	819.44
499.701	916.44
499.918	972.44
500.135	1115.44
500.352	1233.44
500.569	1275.44
500.786	1253.44
501.003	1145.44
501.22	1054.44
501.437	928.44
501.654	853.44
