Data from Fe(NO3)3@0.0125M.TitratingCurve.Agarose3%dH2O.NegLispCup.LampEnergy10.LIBS07252019_HRD10591_17-00-41-338.txt Node
Date: Thu Jul 25 17:00:41 EDT 2019
User: cochatt
Spectrometer: HR+D1059
Trigger mode: 1
Integration Time (sec): 1.000000E-1
Scans to average: 1
Electric dark correction enabled: true
Nonlinearity correction enabled: false
Boxcar width: 0
XAxis mode: Wavelengths
Number of Pixels in Spectrum: 2048
>>>>>Begin Spectral Data<<<<<
223.165	-18.5
223.4	-18.5
223.635	-18.5
223.869	-17.5
224.104	-2.5
224.338	-12.5
224.573	-16.5
224.808	-13.5
225.042	-16.5
225.277	2.5
225.511	7.5
225.746	-3.5
225.98	10.5
226.215	6.5
226.449	4.5
226.683	10.5
226.918	34.5
227.152	24.5
227.387	39.5
227.621	29.5
227.856	24.5
228.09	33.5
228.324	48.5
228.559	59.5
228.793	52.5
229.027	62.5
229.262	66.5
229.496	67.5
229.73	84.5
229.964	74.5
230.199	81.5
230.433	77.5
230.667	73.5
230.901	87.5
231.136	79.5
231.37	92.5
231.604	84.5
231.838	94.5
232.072	91.5
232.306	89.5
232.541	88.5
232.775	87.5
233.009	79.5
233.243	85.5
233.477	76.5
233.711	85.5
233.945	84.5
234.179	92.5
234.413	93.5
234.647	100.5
234.881	107.5
235.115	100.5
235.349	79.5
235.583	97.5
235.817	94.5
236.051	98.5
236.285	89.5
236.519	113.5
236.753	88.5
236.987	88.5
237.221	88.5
237.455	95.5
237.689	83.5
237.922	98.5
238.156	91.5
238.39	104.5
238.624	102.5
238.858	103.5
239.091	86.5
239.325	101.5
239.559	102.5
239.793	104.5
240.027	106.5
240.26	104.5
240.494	86.5
240.728	101.5
240.961	104.5
241.195	94.5
241.429	97.5
241.662	95.5
241.896	103.5
242.13	98.5
242.363	103.5
242.597	95.5
242.83	100.5
243.064	102.5
243.298	102.5
243.531	101.5
243.765	92.5
243.998	98.5
244.232	89.5
244.465	104.5
244.699	101.5
244.932	84.5
245.166	89.5
245.399	116.5
245.633	97.5
245.866	101.5
246.099	105.5
246.333	108.5
246.566	109.5
246.8	110.5
247.033	97.5
247.266	96.5
247.5	109.5
247.733	109.5
247.966	101.5
248.2	104.5
248.433	106.5
248.666	105.5
248.899	110.5
249.133	109.5
249.366	97.5
249.599	106.5
249.832	110.5
250.066	107.5
250.299	113.5
250.532	107.5
250.765	119.5
250.998	106.5
251.231	100.5
251.465	114.5
251.698	106.5
251.931	100.5
252.164	111.5
252.397	113.5
252.63	120.5
252.863	116.5
253.096	112.5
253.329	107.5
253.562	104.5
253.795	102.5
254.028	124.5
254.261	133.5
254.494	110.5
254.727	121.5
254.96	115.5
255.193	110.5
255.426	113.5
255.659	117.5
255.892	120.5
256.124	116.5
256.357	112.5
256.59	130.5
256.823	130.5
257.056	122.5
257.289	121.5
257.521	97.5
257.754	111.5
257.987	123.5
258.22	127.5
258.452	129.5
258.685	118.5
258.918	115.5
259.151	127.5
259.383	118.5
259.616	126.5
259.849	114.5
260.081	128.5
260.314	137.5
260.547	143.5
260.779	128.5
261.012	132.5
261.244	122.5
261.477	121.5
261.71	116.5
261.942	131.5
262.175	127.5
262.407	121.5
262.64	137.5
262.872	118.5
263.105	131.5
263.337	147.5
263.57	122.5
263.802	133.5
264.035	147.5
264.267	132.5
264.499	134.5
264.732	127.5
264.964	131.5
265.197	141.5
265.429	134.5
265.661	133.5
265.894	124.5
266.126	140.5
266.358	120.5
266.591	143.5
266.823	145.5
267.055	139.5
267.287	134.5
267.52	127.5
267.752	120.5
267.984	127.5
268.216	132.5
268.448	150.5
268.681	127.5
268.913	134.5
269.145	140.5
269.377	138.5
269.609	137.5
269.841	154.5
270.073	130.5
270.306	135.5
270.538	147.5
270.77	134.5
271.002	147.5
271.234	135.5
271.466	146.5
271.698	145.5
271.93	147.5
272.162	141.5
272.394	147.5
272.626	162.5
272.858	135.5
273.09	142.5
273.322	158.5
273.553	142.5
273.785	163.5
274.017	153.5
274.249	154.5
274.481	175.5
274.713	147.5
274.945	157.5
275.176	156.5
275.408	148.5
275.64	163.5
275.872	153.5
276.104	149.5
276.335	149.5
276.567	152.5
276.799	160.5
277.031	153.5
277.262	138.5
277.494	147.5
277.726	168.5
277.957	159.5
278.189	154.5
278.421	175.5
278.652	156.5
278.884	163.5
279.115	151.5
279.347	142.5
279.579	152.5
279.81	158.5
280.042	157.5
280.273	161.5
280.505	165.5
280.736	155.5
280.968	165.5
281.199	157.5
281.431	154.5
281.662	145.5
281.894	165.5
282.125	163.5
282.356	161.5
282.588	163.5
282.819	162.5
283.051	177.5
283.282	161.5
283.513	164.5
283.745	159.5
283.976	169.5
284.207	157.5
284.439	163.5
284.67	164.5
284.901	159.5
285.132	176.5
285.364	188.5
285.595	162.5
285.826	170.5
286.057	175.5
286.288	168.5
286.52	173.5
286.751	176.5
286.982	167.5
287.213	169.5
287.444	189.5
287.675	180.5
287.906	174.5
288.138	160.5
288.369	158.5
288.6	171.5
288.831	177.5
289.062	168.5
289.293	181.5
289.524	181.5
289.755	178.5
289.986	184.5
290.217	184.5
290.448	186.5
290.679	182.5
290.91	199.5
291.141	167.5
291.371	182.5
291.602	173.5
291.833	191.5
292.064	179.5
292.295	164.5
292.526	177.5
292.757	186.5
292.987	161.5
293.218	180.5
293.449	184.5
293.68	170.5
293.91	177.5
294.141	189.5
294.372	179.5
294.603	170.5
294.833	191.5
295.064	183.5
295.295	191.5
295.525	169.5
295.756	189.5
295.987	176.5
296.217	185.5
296.448	172.5
296.679	184.5
296.909	210.5
297.14	189.5
297.37	201.5
297.601	174.5
297.831	190.5
298.062	186.5
298.292	203.5
298.523	169.5
298.753	191.5
298.984	200.5
299.214	196.5
299.445	196.5
299.675	201.5
299.905	203.5
300.136	194.5
300.366	200.5
300.597	199.5
300.827	193.5
301.057	181.5
301.288	195.5
301.518	185.5
301.748	208.5
301.979	199.5
302.209	207.5
302.439	212.5
302.669	206.5
302.9	207.5
303.13	213.5
303.36	218.5
303.59	208.5
303.82	191.5
304.051	219.5
304.281	199.5
304.511	197.5
304.741	216.5
304.971	211.5
305.201	189.5
305.431	212.5
305.661	216.5
305.891	204.5
306.121	208.5
306.352	195.5
306.582	199.5
306.812	196.5
307.042	206.5
307.272	212.5
307.502	209.5
307.731	206.5
307.961	181.5
308.191	207.5
308.421	220.5
308.651	207.5
308.881	195.5
309.111	206.5
309.341	214.5
309.571	216.5
309.8	212.5
310.03	206.5
310.26	221.5
310.49	191.5
310.72	227.5
310.949	219.5
311.179	221.5
311.409	222.5
311.639	222.5
311.868	204.5
312.098	231.5
312.328	216.5
312.557	215.5
312.787	211.5
313.017	218.5
313.246	223.5
313.476	249.5
313.706	215.5
313.935	229.5
314.165	218.5
314.394	211.5
314.624	228.5
314.853	209.5
315.083	214.5
315.312	211.5
315.542	213.5
315.771	222.5
316.001	213.5
316.23	209.5
316.46	206.5
316.689	228.5
316.919	241.5
317.148	225.5
317.377	231.5
317.607	225.5
317.836	220.5
318.065	224.5
318.295	229.5
318.524	219.5
318.753	226.5
318.983	222.5
319.212	240.5
319.441	226.5
319.67	219.5
319.9	223.5
320.129	236.5
320.358	226.5
320.587	235.5
320.816	225.5
321.046	226.5
321.275	235.5
321.504	241.5
321.733	228.5
321.962	225.5
322.191	232.5
322.42	233.5
322.649	231.5
322.878	223.5
323.108	230.5
323.337	226.5
323.566	231.5
323.795	227.5
324.024	226.5
324.253	234.5
324.482	248.5
324.71	241.5
324.939	241.5
325.168	258.5
325.397	226.5
325.626	249.5
325.855	227.5
326.084	242.5
326.313	227.5
326.542	230.5
326.77	244.5
326.999	245.5
327.228	249.5
327.457	246.5
327.686	249.5
327.914	240.5
328.143	256.5
328.372	237.5
328.6	264.5
328.829	251.5
329.058	260.5
329.287	248.5
329.515	237.5
329.744	257.5
329.972	243.5
330.201	241.5
330.43	254.5
330.658	239.5
330.887	244.5
331.115	263.5
331.344	264.5
331.572	258.5
331.801	258.5
332.03	265.5
332.258	265.5
332.486	272.5
332.715	267.5
332.943	251.5
333.172	276.5
333.4	257.5
333.629	274.5
333.857	286.5
334.085	279.5
334.314	275.5
334.542	272.5
334.771	284.5
334.999	257.5
335.227	275.5
335.455	281.5
335.684	268.5
335.912	301.5
336.14	305.5
336.369	285.5
336.597	275.5
336.825	269.5
337.053	267.5
337.281	280.5
337.51	274.5
337.738	282.5
337.966	276.5
338.194	270.5
338.422	247.5
338.65	264.5
338.878	274.5
339.106	255.5
339.334	265.5
339.562	273.5
339.79	258.5
340.018	286.5
340.246	263.5
340.474	265.5
340.702	246.5
340.93	263.5
341.158	282.5
341.386	272.5
341.614	267.5
341.842	253.5
342.07	279.5
342.298	267.5
342.526	271.5
342.754	253.5
342.981	247.5
343.209	285.5
343.437	281.5
343.665	272.5
343.893	282.5
344.12	285.5
344.348	283.5
344.576	260.5
344.804	268.5
345.031	266.5
345.259	282.5
345.487	260.5
345.714	263.5
345.942	286.5
346.17	265.5
346.397	283.5
346.625	277.5
346.853	257.5
347.08	253.5
347.308	249.5
347.535	256.5
347.763	255.5
347.99	273.5
348.218	265.5
348.445	270.5
348.673	262.5
348.9	291.5
349.128	268.5
349.355	251.5
349.583	252.5
349.81	265.5
350.037	277.5
350.265	267.5
350.492	249.5
350.72	258.5
350.947	281.5
351.174	240.5
351.402	257.5
351.629	259.5
351.856	276.5
352.083	253.5
352.311	261.5
352.538	252.5
352.765	273.5
352.992	251.5
353.22	283.5
353.447	243.5
353.674	254.5
353.901	275.5
354.128	268.5
354.355	261.5
354.583	261.5
354.81	263.5
355.037	248.5
355.264	274.5
355.491	274.5
355.718	255.5
355.945	279.5
356.172	276.5
356.399	264.5
356.626	248.5
356.853	266.5
357.08	265.5
357.307	262.5
357.534	266.5
357.761	270.5
357.988	265.5
358.215	261.5
358.441	272.5
358.668	264.5
358.895	257.5
359.122	269.5
359.349	264.5
359.576	275.5
359.802	262.5
360.029	255.5
360.256	256.5
360.483	292.5
360.709	274.5
360.936	274.5
361.163	278.5
361.39	249.5
361.616	259.5
361.843	283.5
362.07	274.5
362.296	287.5
362.523	264.5
362.749	248.5
362.976	267.5
363.203	280.5
363.429	286.5
363.656	274.5
363.882	278.5
364.109	262.5
364.335	270.5
364.562	269.5
364.788	273.5
365.015	255.5
365.241	280.5
365.468	281.5
365.694	270.5
365.92	277.5
366.147	279.5
366.373	294.5
366.599	266.5
366.826	279.5
367.052	287.5
367.278	292.5
367.505	264.5
367.731	287.5
367.957	264.5
368.184	281.5
368.41	279.5
368.636	277.5
368.862	262.5
369.089	288.5
369.315	273.5
369.541	267.5
369.767	271.5
369.993	291.5
370.219	277.5
370.445	276.5
370.672	289.5
370.898	274.5
371.124	277.5
371.35	289.5
371.576	277.5
371.802	286.5
372.028	282.5
372.254	299.5
372.48	282.5
372.706	287.5
372.932	295.5
373.158	302.5
373.384	309.5
373.61	313.5
373.835	296.5
374.061	301.5
374.287	294.5
374.513	305.5
374.739	314.5
374.965	312.5
375.191	317.5
375.416	301.5
375.642	294.5
375.868	307.5
376.094	296.5
376.319	297.5
376.545	300.5
376.771	302.5
376.997	290.5
377.222	298.5
377.448	287.5
377.674	289.5
377.899	297.5
378.125	308.5
378.35	308.5
378.576	290.5
378.802	285.5
379.027	299.5
379.253	288.5
379.478	301.5
379.704	298.5
379.929	294.5
380.155	291.5
380.38	301.5
380.606	290.5
380.831	298.5
381.057	304.5
381.282	294.5
381.507	306.5
381.733	295.5
381.958	315.5
382.184	309.5
382.409	317.5
382.634	311.5
382.86	317.5
383.085	298.5
383.31	308.5
383.535	305.5
383.761	316.5
383.986	307.5
384.211	312.5
384.436	306.5
384.662	312.5
384.887	327.5
385.112	307.5
385.337	315.5
385.562	325.5
385.787	328.5
386.013	327.5
386.238	310.5
386.463	326.5
386.688	313.5
386.913	331.5
387.138	330.5
387.363	328.5
387.588	321.5
387.813	327.5
388.038	313.5
388.263	336.5
388.488	337.5
388.713	325.5
388.938	313.5
389.163	319.5
389.387	334.5
389.612	338.5
389.837	343.5
390.062	341.5
390.287	330.5
390.512	350.5
390.736	355.5
390.961	341.5
391.186	353.5
391.411	338.5
391.636	352.5
391.86	350.5
392.085	356.5
392.31	351.5
392.534	345.5
392.759	350.5
392.984	326.5
393.208	357.5
393.433	366.5
393.658	352.5
393.882	335.5
394.107	344.5
394.331	345.5
394.556	353.5
394.78	350.5
395.005	353.5
395.229	335.5
395.454	360.5
395.678	360.5
395.903	346.5
396.127	369.5
396.352	358.5
396.576	374.5
396.801	367.5
397.025	364.5
397.249	356.5
397.474	377.5
397.698	341.5
397.922	373.5
398.147	366.5
398.371	367.5
398.595	382.5
398.82	376.5
399.044	383.5
399.268	393.5
399.492	410.5
399.717	431.5
399.941	407.5
400.165	420.5
400.389	388.5
400.613	382.5
400.837	400.5
401.062	393.5
401.286	369.5
401.51	401.5
401.734	366.5
401.958	377.5
402.182	379.5
402.406	353.5
402.63	376.5
402.854	390.5
403.078	385.5
403.302	402.5
403.526	389.5
403.75	394.5
403.974	401.5
404.198	385.5
404.422	392.5
404.645	407.5
404.869	391.5
405.093	398.5
405.317	399.5
405.541	389.5
405.765	399.5
405.988	391.5
406.212	418.5
406.436	408.5
406.66	402.5
406.883	390.5
407.107	412.5
407.331	414.5
407.555	421.5
407.778	425.5
408.002	422.5
408.226	423.5
408.449	443.5
408.673	410.5
408.896	425.5
409.12	415.5
409.344	386.5
409.567	424.5
409.791	410.5
410.014	400.5
410.238	394.5
410.461	408.5
410.685	406.5
410.908	409.5
411.132	408.5
411.355	396.5
411.578	406.5
411.802	383.5
412.025	405.5
412.249	399.5
412.472	404.5
412.695	379.5
412.919	389.5
413.142	388.5
413.365	402.5
413.589	389.5
413.812	383.5
414.035	370.5
414.258	390.5
414.482	375.5
414.705	408.5
414.928	401.5
415.151	399.5
415.374	390.5
415.597	398.5
415.821	381.5
416.044	383.5
416.267	372.5
416.49	357.5
416.713	387.5
416.936	373.5
417.159	371.5
417.382	374.5
417.605	377.5
417.828	367.5
418.051	370.5
418.274	391.5
418.497	367.5
418.72	375.5
418.943	379.5
419.166	379.5
419.389	395.5
419.611	403.5
419.834	382.5
420.057	384.5
420.28	374.5
420.503	381.5
420.726	379.5
420.948	383.5
421.171	375.5
421.394	365.5
421.617	372.5
421.839	391.5
422.062	384.5
422.285	386.5
422.507	382.5
422.73	373.5
422.953	374.5
423.175	368.5
423.398	381.5
423.621	369.5
423.843	395.5
424.066	383.5
424.288	383.5
424.511	371.5
424.733	360.5
424.956	387.5
425.178	379.5
425.401	363.5
425.623	378.5
425.846	358.5
426.068	361.5
426.291	377.5
426.513	368.5
426.735	355.5
426.958	365.5
427.18	367.5
427.402	355.5
427.625	376.5
427.847	369.5
428.069	376.5
428.292	350.5
428.514	349.5
428.736	365.5
428.958	375.5
429.181	369.5
429.403	373.5
429.625	361.5
429.847	357.5
430.069	354.5
430.292	353.5
430.514	368.5
430.736	371.5
430.958	371.5
431.18	381.5
431.402	377.5
431.624	387.5
431.846	380.5
432.068	358.5
432.29	361.5
432.512	357.5
432.734	382.5
432.956	375.5
433.178	376.5
433.4	373.5
433.622	368.5
433.844	381.5
434.066	348.5
434.287	380.5
434.509	369.5
434.731	370.5
434.953	389.5
435.175	381.5
435.397	383.5
435.618	378.5
435.84	375.5
436.062	372.5
436.284	375.5
436.505	362.5
436.727	370.5
436.949	371.5
437.17	375.5
437.392	382.5
437.614	367.5
437.835	364.5
438.057	364.5
438.278	351.5
438.5	358.5
438.721	367.5
438.943	349.5
439.165	362.5
439.386	383.5
439.608	367.5
439.829	361.5
440.05	357.5
440.272	355.5
440.493	367.5
440.715	367.5
440.936	377.5
441.158	371.5
441.379	365.5
441.6	361.5
441.822	377.5
442.043	387.5
442.264	373.5
442.486	372.5
442.707	391.5
442.928	375.5
443.149	387.5
443.371	375.5
443.592	379.5
443.813	369.5
444.034	365.5
444.255	381.5
444.476	387.5
444.698	404.5
444.919	396.5
445.14	441.5
445.361	418.5
445.582	393.5
445.803	372.5
446.024	354.5
446.245	370.5
446.466	360.5
446.687	372.5
446.908	370.5
447.129	363.5
447.35	369.5
447.571	344.5
447.792	350.5
448.013	349.5
448.234	352.5
448.455	350.5
448.675	358.5
448.896	346.5
449.117	357.5
449.338	347.5
449.559	352.5
449.779	347.5
450	371.5
450.221	339.5
450.442	336.5
450.662	343.5
450.883	360.5
451.104	362.5
451.324	352.5
451.545	336.5
451.766	365.5
451.986	369.5
452.207	346.5
452.428	340.5
452.648	348.5
452.869	335.5
453.089	316.5
453.31	346.5
453.53	344.5
453.751	330.5
453.971	342.5
454.192	353.5
454.412	343.5
454.633	338.5
454.853	342.5
455.073	333.5
455.294	344.5
455.514	336.5
455.734	338.5
455.955	355.5
456.175	345.5
456.395	356.5
456.616	340.5
456.836	334.5
457.056	328.5
457.276	355.5
457.497	344.5
457.717	375.5
457.937	347.5
458.157	356.5
458.377	365.5
458.598	357.5
458.818	344.5
459.038	362.5
459.258	361.5
459.478	372.5
459.698	358.5
459.918	385.5
460.138	373.5
460.358	394.5
460.578	386.5
460.798	375.5
461.018	373.5
461.238	398.5
461.458	404.5
461.678	394.5
461.898	409.5
462.118	411.5
462.338	392.5
462.558	414.5
462.777	429.5
462.997	429.5
463.217	422.5
463.437	433.5
463.657	432.5
463.876	411.5
464.096	424.5
464.316	402.5
464.536	425.5
464.755	419.5
464.975	403.5
465.195	393.5
465.414	390.5
465.634	389.5
465.854	395.5
466.073	382.5
466.293	386.5
466.512	381.5
466.732	363.5
466.951	379.5
467.171	368.5
467.391	373.5
467.61	369.5
467.829	358.5
468.049	377.5
468.268	383.5
468.488	374.5
468.707	382.5
468.927	375.5
469.146	367.5
469.365	398.5
469.585	368.5
469.804	361.5
470.023	381.5
470.243	361.5
470.462	377.5
470.681	387.5
470.901	380.5
471.12	371.5
471.339	382.5
471.558	378.5
471.777	385.5
471.997	378.5
472.216	394.5
472.435	386.5
472.654	383.5
472.873	374.5
473.092	371.5
473.311	383.5
473.53	389.5
473.749	373.5
473.968	388.5
474.187	382.5
474.406	375.5
474.625	387.5
474.844	409.5
475.063	395.5
475.282	401.5
475.501	397.5
475.72	383.5
475.939	393.5
476.158	383.5
476.377	409.5
476.596	424.5
476.814	415.5
477.033	406.5
477.252	420.5
477.471	413.5
477.69	413.5
477.908	437.5
478.127	433.5
478.346	415.5
478.564	417.5
478.783	450.5
479.002	444.5
479.22	427.5
479.439	453.5
479.658	441.5
479.876	436.5
480.095	439.5
480.313	463.5
480.532	436.5
480.751	446.5
480.969	443.5
481.188	450.5
481.406	450.5
481.624	466.5
481.843	459.5
482.061	442.5
482.28	446.5
482.498	454.5
482.717	455.5
482.935	469.5
483.153	445.5
483.372	443.5
483.59	458.5
483.808	450.5
484.027	482.5
484.245	475.5
484.463	467.5
484.681	462.5
484.9	455.5
485.118	464.5
485.336	467.5
485.554	463.5
485.772	458.5
485.99	467.5
486.209	461.5
486.427	447.5
486.645	463.5
486.863	470.5
487.081	463.5
487.299	456.5
487.517	465.5
487.735	465.5
487.953	460.5
488.171	498.5
488.389	469.5
488.607	495.5
488.825	463.5
489.043	463.5
489.261	457.5
489.479	459.5
489.696	475.5
489.914	476.5
490.132	474.5
490.35	477.5
490.568	478.5
490.786	490.5
491.003	512.5
491.221	489.5
491.439	488.5
491.657	474.5
491.874	472.5
492.092	506.5
492.31	486.5
492.527	478.5
492.745	497.5
492.963	483.5
493.18	494.5
493.398	495.5
493.615	483.5
493.833	500.5
494.05	499.5
494.268	498.5
494.485	500.5
494.703	515.5
494.92	515.5
495.138	516.5
495.355	507.5
495.573	513.5
495.79	488.5
496.008	525.5
496.225	512.5
496.442	516.5
496.66	519.5
496.877	523.5
497.094	535.5
497.312	532.5
497.529	538.5
497.746	541.5
497.963	556.5
498.181	587.5
498.398	585.5
498.615	611.5
498.832	595.5
499.049	602.5
499.267	618.5
499.484	619.5
499.701	650.5
499.918	681.5
500.135	669.5
500.352	729.5
500.569	712.5
500.786	701.5
501.003	709.5
501.22	687.5
501.437	672.5
501.654	631.5
501.871	627.5
502.088	623.5
502.305	610.5
502.522	593.5
502.739	572.5
502.956	545.5
503.172	557.5
503.389	551.5
503.606	509.5
503.823	542.5
504.04	533.5
504.256	545.5
504.473	520.5
504.69	513.5
504.907	520.5
505.123	509.5
505.34	502.5
505.557	483.5
505.773	490.5
505.99	466.5
506.207	470.5
506.423	476.5
506.64	485.5
506.856	481.5
507.073	483.5
507.289	450.5
507.506	445.5
507.722	462.5
507.939	468.5
508.155	464.5
508.372	464.5
508.588	451.5
508.805	433.5
509.021	454.5
509.238	431.5
509.454	431.5
509.67	439.5
509.887	430.5
510.103	443.5
510.319	439.5
510.536	444.5
510.752	432.5
510.968	413.5
511.184	429.5
511.401	420.5
511.617	433.5
511.833	435.5
512.049	432.5
512.265	424.5
512.481	437.5
512.698	425.5
512.914	431.5
513.13	426.5
513.346	423.5
513.562	418.5
513.778	427.5
513.994	435.5
514.21	419.5
514.426	411.5
514.642	437.5
514.858	430.5
515.074	431.5
515.29	449.5
515.506	450.5
515.721	432.5
515.937	424.5
516.153	426.5
516.369	456.5
516.585	435.5
516.801	435.5
517.016	467.5
517.232	453.5
517.448	455.5
517.664	470.5
517.879	457.5
518.095	476.5
518.311	452.5
518.527	451.5
518.742	455.5
518.958	453.5
519.173	441.5
519.389	440.5
519.605	438.5
519.82	433.5
520.036	434.5
520.251	450.5
