Data from Fe(NO3)3@0.0125M.TitratingCurve.Agarose3%dH2O.NegLispCup.LampEnergy10.LIBS07252019_HRD10591_16-58-59-340.txt Node
Date: Thu Jul 25 16:58:59 EDT 2019
User: cochatt
Spectrometer: HR+D1059
Trigger mode: 1
Integration Time (sec): 1.000000E-1
Scans to average: 1
Electric dark correction enabled: true
Nonlinearity correction enabled: false
Boxcar width: 0
XAxis mode: Wavelengths
Number of Pixels in Spectrum: 2048
>>>>>Begin Spectral Data<<<<<
223.165	-12.75
223.4	-12.75
223.635	-12.75
223.869	-11.75
224.104	-19.75
224.338	-11.75
224.573	-15.75
224.808	-9.75
225.042	-7.75
225.277	-5.75
225.511	1.25
225.746	1.25
225.98	14.25
226.215	9.25
226.449	5.25
226.683	16.25
226.918	20.25
227.152	27.25
227.387	30.25
227.621	28.25
227.856	35.25
228.09	60.25
228.324	50.25
228.559	62.25
228.793	65.25
229.027	104.25
229.262	102.25
229.496	112.25
229.73	115.25
229.964	118.25
230.199	121.25
230.433	134.25
230.667	125.25
230.901	128.25
231.136	128.25
231.37	120.25
231.604	134.25
231.838	136.25
232.072	128.25
232.306	124.25
232.541	140.25
232.775	130.25
233.009	140.25
233.243	150.25
233.477	140.25
233.711	155.25
233.945	140.25
234.179	146.25
234.413	142.25
234.647	162.25
234.881	151.25
235.115	160.25
235.349	155.25
235.583	132.25
235.817	141.25
236.051	151.25
236.285	162.25
236.519	160.25
236.753	156.25
236.987	158.25
237.221	153.25
237.455	151.25
237.689	158.25
237.922	158.25
238.156	175.25
238.39	166.25
238.624	167.25
238.858	156.25
239.091	158.25
239.325	157.25
239.559	163.25
239.793	164.25
240.027	184.25
240.26	169.25
240.494	178.25
240.728	168.25
240.961	189.25
241.195	182.25
241.429	176.25
241.662	190.25
241.896	178.25
242.13	181.25
242.363	188.25
242.597	171.25
242.83	184.25
243.064	196.25
243.298	194.25
243.531	200.25
243.765	193.25
243.998	180.25
244.232	194.25
244.465	184.25
244.699	202.25
244.932	197.25
245.166	200.25
245.399	191.25
245.633	209.25
245.866	202.25
246.099	213.25
246.333	216.25
246.566	202.25
246.8	209.25
247.033	215.25
247.266	202.25
247.5	211.25
247.733	200.25
247.966	244.25
248.2	242.25
248.433	221.25
248.666	237.25
248.899	228.25
249.133	229.25
249.366	252.25
249.599	229.25
249.832	240.25
250.066	237.25
250.299	241.25
250.532	231.25
250.765	237.25
250.998	238.25
251.231	232.25
251.465	245.25
251.698	254.25
251.931	241.25
252.164	232.25
252.397	231.25
252.63	240.25
252.863	257.25
253.096	264.25
253.329	263.25
253.562	253.25
253.795	253.25
254.028	259.25
254.261	270.25
254.494	263.25
254.727	276.25
254.96	259.25
255.193	277.25
255.426	260.25
255.659	264.25
255.892	264.25
256.124	283.25
256.357	269.25
256.59	292.25
256.823	275.25
257.056	276.25
257.289	284.25
257.521	275.25
257.754	271.25
257.987	280.25
258.22	285.25
258.452	284.25
258.685	295.25
258.918	298.25
259.151	297.25
259.383	293.25
259.616	313.25
259.849	306.25
260.081	322.25
260.314	343.25
260.547	320.25
260.779	323.25
261.012	314.25
261.244	316.25
261.477	323.25
261.71	312.25
261.942	309.25
262.175	321.25
262.407	316.25
262.64	314.25
262.872	317.25
263.105	325.25
263.337	330.25
263.57	326.25
263.802	331.25
264.035	315.25
264.267	318.25
264.499	323.25
264.732	317.25
264.964	323.25
265.197	340.25
265.429	349.25
265.661	347.25
265.894	331.25
266.126	324.25
266.358	342.25
266.591	322.25
266.823	336.25
267.055	340.25
267.287	348.25
267.52	338.25
267.752	342.25
267.984	352.25
268.216	350.25
268.448	371.25
268.681	368.25
268.913	369.25
269.145	376.25
269.377	358.25
269.609	357.25
269.841	360.25
270.073	358.25
270.306	357.25
270.538	377.25
270.77	368.25
271.002	380.25
271.234	370.25
271.466	384.25
271.698	374.25
271.93	378.25
272.162	385.25
272.394	387.25
272.626	392.25
272.858	381.25
273.09	372.25
273.322	411.25
273.553	404.25
273.785	403.25
274.017	424.25
274.249	413.25
274.481	445.25
274.713	433.25
274.945	445.25
275.176	440.25
275.408	447.25
275.64	459.25
275.872	424.25
276.104	436.25
276.335	414.25
276.567	412.25
276.799	425.25
277.031	454.25
277.262	450.25
277.494	412.25
277.726	437.25
277.957	432.25
278.189	437.25
278.421	428.25
278.652	418.25
278.884	427.25
279.115	437.25
279.347	452.25
279.579	450.25
279.81	444.25
280.042	413.25
280.273	452.25
280.505	439.25
280.736	439.25
280.968	452.25
281.199	451.25
281.431	459.25
281.662	452.25
281.894	458.25
282.125	442.25
282.356	454.25
282.588	465.25
282.819	463.25
283.051	462.25
283.282	466.25
283.513	465.25
283.745	468.25
283.976	476.25
284.207	457.25
284.439	452.25
284.67	480.25
284.901	479.25
285.132	476.25
285.364	458.25
285.595	477.25
285.826	514.25
286.057	503.25
286.288	503.25
286.52	499.25
286.751	494.25
286.982	515.25
287.213	483.25
287.444	520.25
287.675	489.25
287.906	505.25
288.138	523.25
288.369	520.25
288.6	482.25
288.831	496.25
289.062	496.25
289.293	497.25
289.524	498.25
289.755	518.25
289.986	492.25
290.217	520.25
290.448	513.25
290.679	533.25
290.91	514.25
291.141	515.25
291.371	535.25
291.602	523.25
291.833	537.25
292.064	544.25
292.295	552.25
292.526	530.25
292.757	523.25
292.987	514.25
293.218	524.25
293.449	558.25
293.68	520.25
293.91	523.25
294.141	552.25
294.372	534.25
294.603	543.25
294.833	556.25
295.064	544.25
295.295	555.25
295.525	549.25
295.756	548.25
295.987	536.25
296.217	519.25
296.448	548.25
296.679	546.25
296.909	555.25
297.14	521.25
297.37	573.25
297.601	559.25
297.831	579.25
298.062	554.25
298.292	566.25
298.523	555.25
298.753	571.25
298.984	563.25
299.214	584.25
299.445	587.25
299.675	592.25
299.905	560.25
300.136	556.25
300.366	575.25
300.597	564.25
300.827	589.25
301.057	594.25
301.288	595.25
301.518	578.25
301.748	601.25
301.979	593.25
302.209	618.25
302.439	594.25
302.669	599.25
302.9	627.25
303.13	612.25
303.36	629.25
303.59	597.25
303.82	613.25
304.051	626.25
304.281	604.25
304.511	600.25
304.741	632.25
304.971	591.25
305.201	617.25
305.431	603.25
305.661	612.25
305.891	617.25
306.121	622.25
306.352	617.25
306.582	610.25
306.812	584.25
307.042	638.25
307.272	636.25
307.502	653.25
307.731	621.25
307.961	648.25
308.191	615.25
308.421	622.25
308.651	620.25
308.881	635.25
309.111	632.25
309.341	631.25
309.571	609.25
309.8	644.25
310.03	621.25
310.26	648.25
310.49	630.25
310.72	632.25
310.949	646.25
311.179	650.25
311.409	643.25
311.639	644.25
311.868	652.25
312.098	656.25
312.328	640.25
312.557	654.25
312.787	668.25
313.017	650.25
313.246	666.25
313.476	685.25
313.706	702.25
313.935	691.25
314.165	680.25
314.394	672.25
314.624	689.25
314.853	694.25
315.083	684.25
315.312	668.25
315.542	710.25
315.771	672.25
316.001	699.25
316.23	704.25
316.46	680.25
316.689	692.25
316.919	684.25
317.148	696.25
317.377	695.25
317.607	681.25
317.836	688.25
318.065	698.25
318.295	726.25
318.524	704.25
318.753	718.25
318.983	700.25
319.212	736.25
319.441	729.25
319.67	715.25
319.9	694.25
320.129	714.25
320.358	705.25
320.587	727.25
320.816	717.25
321.046	713.25
321.275	726.25
321.504	727.25
321.733	732.25
321.962	737.25
322.191	730.25
322.42	728.25
322.649	723.25
322.878	715.25
323.108	747.25
323.337	738.25
323.566	725.25
323.795	750.25
324.024	776.25
324.253	759.25
324.482	760.25
324.71	746.25
324.939	724.25
325.168	754.25
325.397	747.25
325.626	756.25
325.855	775.25
326.084	757.25
326.313	724.25
326.542	744.25
326.77	785.25
326.999	764.25
327.228	772.25
327.457	772.25
327.686	778.25
327.914	780.25
328.143	809.25
328.372	770.25
328.6	752.25
328.829	778.25
329.058	756.25
329.287	782.25
329.515	780.25
329.744	759.25
329.972	793.25
330.201	792.25
330.43	782.25
330.658	800.25
330.887	786.25
331.115	811.25
331.344	790.25
331.572	804.25
331.801	788.25
332.03	783.25
332.258	790.25
332.486	808.25
332.715	802.25
332.943	811.25
333.172	823.25
333.4	825.25
333.629	795.25
333.857	842.25
334.085	854.25
334.314	828.25
334.542	828.25
334.771	856.25
334.999	853.25
335.227	856.25
335.455	857.25
335.684	866.25
335.912	852.25
336.14	854.25
336.369	849.25
336.597	854.25
336.825	866.25
337.053	845.25
337.281	853.25
337.51	837.25
337.738	834.25
337.966	837.25
338.194	838.25
338.422	830.25
338.65	855.25
338.878	848.25
339.106	819.25
339.334	839.25
339.562	826.25
339.79	818.25
340.018	834.25
340.246	836.25
340.474	861.25
340.702	840.25
340.93	843.25
341.158	837.25
341.386	818.25
341.614	835.25
341.842	828.25
342.07	835.25
342.298	824.25
342.526	822.25
342.754	813.25
342.981	828.25
343.209	814.25
343.437	832.25
343.665	847.25
343.893	863.25
344.12	849.25
344.348	865.25
344.576	869.25
344.804	878.25
345.031	855.25
345.259	826.25
345.487	852.25
345.714	830.25
345.942	819.25
346.17	826.25
346.397	825.25
346.625	806.25
346.853	832.25
347.08	772.25
347.308	794.25
347.535	814.25
347.763	801.25
347.99	805.25
348.218	824.25
348.445	809.25
348.673	792.25
348.9	816.25
349.128	821.25
349.355	794.25
349.583	821.25
349.81	814.25
350.037	824.25
350.265	800.25
350.492	802.25
350.72	801.25
350.947	805.25
351.174	819.25
351.402	795.25
351.629	796.25
351.856	799.25
352.083	822.25
352.311	797.25
352.538	800.25
352.765	798.25
352.992	804.25
353.22	812.25
353.447	785.25
353.674	761.25
353.901	783.25
354.128	802.25
354.355	760.25
354.583	776.25
354.81	811.25
355.037	785.25
355.264	791.25
355.491	804.25
355.718	773.25
355.945	796.25
356.172	804.25
356.399	833.25
356.626	786.25
356.853	795.25
357.08	776.25
357.307	828.25
357.534	811.25
357.761	801.25
357.988	820.25
358.215	791.25
358.441	808.25
358.668	793.25
358.895	809.25
359.122	798.25
359.349	823.25
359.576	802.25
359.802	797.25
360.029	805.25
360.256	819.25
360.483	820.25
360.709	797.25
360.936	813.25
361.163	808.25
361.39	823.25
361.616	802.25
361.843	816.25
362.07	820.25
362.296	807.25
362.523	798.25
362.749	808.25
362.976	824.25
363.203	834.25
363.429	803.25
363.656	827.25
363.882	846.25
364.109	825.25
364.335	835.25
364.562	800.25
364.788	853.25
365.015	824.25
365.241	820.25
365.468	840.25
365.694	825.25
365.92	834.25
366.147	828.25
366.373	826.25
366.599	820.25
366.826	821.25
367.052	795.25
367.278	844.25
367.505	846.25
367.731	825.25
367.957	838.25
368.184	846.25
368.41	843.25
368.636	833.25
368.862	841.25
369.089	836.25
369.315	860.25
369.541	845.25
369.767	849.25
369.993	858.25
370.219	846.25
370.445	850.25
370.672	872.25
370.898	843.25
371.124	850.25
371.35	873.25
371.576	871.25
371.802	830.25
372.028	864.25
372.254	880.25
372.48	916.25
372.706	858.25
372.932	848.25
373.158	857.25
373.384	890.25
373.61	902.25
373.835	913.25
374.061	874.25
374.287	880.25
374.513	864.25
374.739	881.25
374.965	906.25
375.191	888.25
375.416	866.25
375.642	869.25
375.868	906.25
376.094	868.25
376.319	843.25
376.545	900.25
376.771	865.25
376.997	863.25
377.222	859.25
377.448	858.25
377.674	870.25
377.899	887.25
378.125	902.25
378.35	862.25
378.576	837.25
378.802	840.25
379.027	871.25
379.253	858.25
379.478	850.25
379.704	880.25
379.929	874.25
380.155	889.25
380.38	845.25
380.606	870.25
380.831	872.25
381.057	882.25
381.282	858.25
381.507	854.25
381.733	892.25
381.958	884.25
382.184	892.25
382.409	930.25
382.634	899.25
382.86	904.25
383.085	876.25
383.31	866.25
383.535	896.25
383.761	884.25
383.986	905.25
384.211	910.25
384.436	911.25
384.662	902.25
384.887	906.25
385.112	914.25
385.337	944.25
385.562	929.25
385.787	920.25
386.013	955.25
386.238	943.25
386.463	944.25
386.688	971.25
386.913	948.25
387.138	954.25
387.363	945.25
387.588	953.25
387.813	914.25
388.038	972.25
388.263	944.25
388.488	942.25
388.713	931.25
388.938	948.25
389.163	957.25
389.387	969.25
389.612	947.25
389.837	936.25
390.062	965.25
390.287	937.25
390.512	979.25
390.736	951.25
390.961	975.25
391.186	941.25
391.411	941.25
391.636	968.25
391.86	966.25
392.085	991.25
392.31	992.25
392.534	979.25
392.759	952.25
392.984	972.25
393.208	960.25
393.433	977.25
393.658	971.25
393.882	960.25
394.107	963.25
394.331	966.25
394.556	994.25
394.78	989.25
395.005	979.25
395.229	955.25
395.454	972.25
395.678	986.25
395.903	978.25
396.127	989.25
396.352	993.25
396.576	1009.25
396.801	976.25
397.025	1012.25
397.249	1013.25
397.474	1032.25
397.698	1024.25
397.922	1004.25
398.147	1014.25
398.371	1036.25
398.595	1021.25
398.82	1046.25
399.044	1045.25
399.268	1045.25
399.492	1097.25
399.717	1093.25
399.941	1108.25
400.165	1133.25
400.389	1126.25
400.613	1100.25
400.837	1089.25
401.062	1056.25
401.286	1066.25
401.51	1060.25
401.734	1032.25
401.958	1054.25
402.182	1060.25
402.406	1067.25
402.63	1060.25
402.854	1055.25
403.078	1048.25
403.302	1073.25
403.526	1028.25
403.75	1027.25
403.974	1065.25
404.198	1062.25
404.422	1064.25
404.645	1049.25
404.869	1066.25
405.093	1093.25
405.317	1070.25
405.541	1054.25
405.765	1076.25
405.988	1102.25
406.212	1092.25
406.436	1066.25
406.66	1105.25
406.883	1093.25
407.107	1133.25
407.331	1105.25
407.555	1149.25
407.778	1123.25
408.002	1150.25
408.226	1129.25
408.449	1184.25
408.673	1116.25
408.896	1107.25
409.12	1128.25
409.344	1076.25
409.567	1092.25
409.791	1065.25
410.014	1053.25
410.238	1087.25
410.461	1116.25
410.685	1102.25
410.908	1110.25
411.132	1118.25
411.355	1063.25
411.578	1074.25
411.802	1078.25
412.025	1074.25
412.249	1081.25
412.472	1085.25
412.695	1059.25
412.919	1057.25
413.142	1097.25
413.365	1053.25
413.589	1064.25
413.812	1076.25
414.035	1031.25
414.258	1048.25
414.482	1042.25
414.705	1068.25
414.928	1040.25
415.151	1036.25
415.374	1041.25
415.597	1038.25
415.821	1005.25
416.044	1042.25
416.267	1013.25
416.49	1009.25
416.713	1013.25
416.936	1051.25
417.159	997.25
417.382	1010.25
417.605	990.25
417.828	986.25
418.051	1008.25
418.274	1035.25
418.497	1001.25
418.72	989.25
418.943	971.25
419.166	1030.25
419.389	1084.25
419.611	1080.25
419.834	1055.25
420.057	999.25
420.28	1009.25
420.503	976.25
420.726	952.25
420.948	984.25
421.171	979.25
421.394	974.25
421.617	978.25
421.839	1002.25
422.062	1025.25
422.285	946.25
422.507	996.25
422.73	969.25
422.953	1013.25
423.175	981.25
423.398	984.25
423.621	962.25
423.843	982.25
424.066	996.25
424.288	999.25
424.511	1011.25
424.733	988.25
424.956	950.25
425.178	985.25
425.401	981.25
425.623	992.25
425.846	967.25
426.068	993.25
426.291	968.25
426.513	958.25
426.735	950.25
426.958	968.25
427.18	971.25
427.402	972.25
427.625	972.25
427.847	953.25
428.069	944.25
428.292	987.25
428.514	968.25
428.736	982.25
428.958	943.25
429.181	928.25
429.403	977.25
429.625	983.25
429.847	980.25
430.069	967.25
430.292	961.25
430.514	940.25
430.736	939.25
430.958	942.25
431.18	964.25
431.402	957.25
431.624	945.25
431.846	945.25
432.068	966.25
432.29	962.25
432.512	947.25
432.734	944.25
432.956	935.25
433.178	952.25
433.4	946.25
433.622	1003.25
433.844	985.25
434.066	982.25
434.287	937.25
434.509	964.25
434.731	994.25
434.953	970.25
435.175	972.25
435.397	998.25
435.618	971.25
435.84	973.25
436.062	945.25
436.284	900.25
436.505	951.25
436.727	928.25
436.949	958.25
437.17	958.25
437.392	928.25
437.614	933.25
437.835	946.25
438.057	957.25
438.278	923.25
438.5	908.25
438.721	932.25
438.943	942.25
439.165	934.25
439.386	921.25
439.608	929.25
439.829	948.25
440.05	954.25
440.272	946.25
440.493	920.25
440.715	932.25
440.936	923.25
441.158	937.25
441.379	956.25
441.6	936.25
441.822	904.25
442.043	950.25
442.264	956.25
442.486	937.25
442.707	948.25
442.928	932.25
443.149	973.25
443.371	950.25
443.592	952.25
443.813	927.25
444.034	959.25
444.255	938.25
444.476	952.25
444.698	941.25
444.919	972.25
445.14	1097.25
445.361	998.25
445.582	984.25
445.803	949.25
446.024	922.25
446.245	944.25
446.466	915.25
446.687	904.25
446.908	905.25
447.129	896.25
447.35	918.25
447.571	903.25
447.792	891.25
448.013	875.25
448.234	913.25
448.455	892.25
448.675	873.25
448.896	903.25
449.117	866.25
449.338	904.25
449.559	886.25
449.779	881.25
450	858.25
450.221	884.25
450.442	887.25
450.662	864.25
450.883	864.25
451.104	905.25
451.324	874.25
451.545	887.25
451.766	865.25
451.986	856.25
452.207	859.25
452.428	856.25
452.648	858.25
452.869	845.25
453.089	874.25
453.31	868.25
453.53	874.25
453.751	839.25
453.971	846.25
454.192	858.25
454.412	842.25
454.633	846.25
454.853	856.25
455.073	838.25
455.294	875.25
455.514	848.25
455.734	848.25
455.955	819.25
456.175	863.25
456.395	845.25
456.616	841.25
456.836	844.25
457.056	867.25
457.276	856.25
457.497	869.25
457.717	817.25
457.937	844.25
458.157	865.25
458.377	920.25
458.598	875.25
458.818	900.25
459.038	884.25
459.258	891.25
459.478	891.25
459.698	924.25
459.918	916.25
460.138	930.25
460.358	927.25
460.578	962.25
460.798	956.25
461.018	965.25
461.238	942.25
461.458	970.25
461.678	926.25
461.898	971.25
462.118	966.25
462.338	1014.25
462.558	1005.25
462.777	1024.25
462.997	1014.25
463.217	1020.25
463.437	1038.25
463.657	1019.25
463.876	1015.25
464.096	1051.25
464.316	1026.25
464.536	992.25
464.755	1008.25
464.975	988.25
465.195	976.25
465.414	982.25
465.634	936.25
465.854	949.25
466.073	961.25
466.293	929.25
466.512	923.25
466.732	938.25
466.951	941.25
467.171	918.25
467.391	941.25
467.61	915.25
467.829	931.25
468.049	922.25
468.268	906.25
468.488	907.25
468.707	904.25
468.927	918.25
469.146	910.25
469.365	916.25
469.585	887.25
469.804	920.25
470.023	942.25
470.243	907.25
470.462	912.25
470.681	921.25
470.901	904.25
471.12	928.25
471.339	949.25
471.558	904.25
471.777	948.25
471.997	936.25
472.216	950.25
472.435	930.25
472.654	946.25
472.873	955.25
473.092	939.25
473.311	948.25
473.53	953.25
473.749	945.25
473.968	932.25
474.187	969.25
474.406	910.25
474.625	940.25
474.844	980.25
475.063	992.25
475.282	963.25
475.501	984.25
475.72	1003.25
475.939	995.25
476.158	1003.25
476.377	1013.25
476.596	1018.25
476.814	1016.25
477.033	1015.25
477.252	1015.25
477.471	1048.25
477.69	1022.25
477.908	1082.25
478.127	1045.25
478.346	1046.25
478.564	1032.25
478.783	1060.25
479.002	1096.25
479.22	1077.25
479.439	1094.25
479.658	1101.25
479.876	1106.25
480.095	1106.25
480.313	1111.25
480.532	1111.25
480.751	1109.25
480.969	1142.25
481.188	1114.25
481.406	1103.25
481.624	1124.25
481.843	1130.25
482.061	1127.25
482.28	1114.25
482.498	1128.25
482.717	1104.25
482.935	1127.25
483.153	1105.25
483.372	1125.25
483.59	1162.25
483.808	1124.25
484.027	1124.25
484.245	1131.25
484.463	1121.25
484.681	1129.25
484.9	1146.25
485.118	1152.25
485.336	1160.25
485.554	1141.25
485.772	1161.25
485.99	1113.25
486.209	1178.25
486.427	1162.25
486.645	1117.25
486.863	1145.25
487.081	1167.25
487.299	1160.25
487.517	1189.25
487.735	1151.25
487.953	1166.25
488.171	1152.25
488.389	1155.25
488.607	1177.25
488.825	1163.25
489.043	1161.25
489.261	1122.25
489.479	1156.25
489.696	1156.25
489.914	1162.25
490.132	1169.25
490.35	1216.25
490.568	1178.25
490.786	1189.25
491.003	1161.25
491.221	1154.25
491.439	1187.25
491.657	1167.25
491.874	1195.25
492.092	1204.25
492.31	1194.25
492.527	1192.25
492.745	1169.25
492.963	1164.25
493.18	1189.25
493.398	1156.25
493.615	1205.25
493.833	1193.25
494.05	1220.25
494.268	1187.25
494.485	1240.25
494.703	1236.25
494.92	1214.25
495.138	1226.25
495.355	1207.25
495.573	1220.25
495.79	1214.25
496.008	1237.25
496.225	1252.25
496.442	1234.25
496.66	1230.25
496.877	1250.25
497.094	1267.25
497.312	1294.25
497.529	1267.25
497.746	1258.25
497.963	1323.25
498.181	1290.25
498.398	1338.25
498.615	1379.25
