Data from Fe(NO3)3@0.0125M.TitratingCurve.Agarose3%dH2O.NegLispCup.LampEnergy10.LIBS07252019_HRD10591_17-00-37-336.txt Node
Date: Thu Jul 25 17:00:37 EDT 2019
User: cochatt
Spectrometer: HR+D1059
Trigger mode: 1
Integration Time (sec): 1.000000E-1
Scans to average: 1
Electric dark correction enabled: true
Nonlinearity correction enabled: false
Boxcar width: 0
XAxis mode: Wavelengths
Number of Pixels in Spectrum: 2048
>>>>>Begin Spectral Data<<<<<
223.165	-13
223.4	-13
223.635	-13
223.869	-11
224.104	-25
224.338	-12
224.573	-13
224.808	-17
225.042	-12
225.277	-13
225.511	7
225.746	-7
225.98	6
226.215	11
226.449	22
226.683	13
226.918	33
227.152	31
227.387	28
227.621	39
227.856	43
228.09	46
228.324	59
228.559	51
228.793	62
229.027	68
229.262	72
229.496	75
229.73	87
229.964	97
230.199	99
230.433	93
230.667	94
230.901	95
231.136	106
231.37	98
231.604	102
231.838	102
232.072	108
232.306	91
232.541	109
232.775	100
233.009	95
233.243	104
233.477	114
233.711	114
233.945	117
234.179	103
234.413	112
234.647	103
234.881	102
235.115	104
235.349	110
235.583	120
235.817	113
236.051	110
236.285	108
236.519	124
236.753	94
236.987	124
237.221	104
237.455	117
237.689	105
237.922	118
238.156	114
238.39	127
238.624	131
238.858	113
239.091	120
239.325	128
239.559	106
239.793	119
240.027	120
240.26	122
240.494	119
240.728	123
240.961	124
241.195	132
241.429	115
241.662	120
241.896	120
242.13	117
242.363	110
242.597	114
242.83	121
243.064	123
243.298	131
243.531	141
243.765	130
243.998	138
244.232	122
244.465	132
244.699	126
244.932	122
245.166	117
245.399	131
245.633	133
245.866	122
246.099	130
246.333	138
246.566	132
246.8	134
247.033	139
247.266	130
247.5	135
247.733	121
247.966	133
248.2	145
248.433	133
248.666	130
248.899	142
249.133	140
249.366	158
249.599	153
249.832	146
250.066	143
250.299	147
250.532	140
250.765	142
250.998	143
251.231	134
251.465	145
251.698	135
251.931	146
252.164	142
252.397	142
252.63	166
252.863	145
253.096	149
253.329	153
253.562	159
253.795	162
254.028	160
254.261	176
254.494	156
254.727	155
254.96	138
255.193	174
255.426	171
255.659	158
255.892	142
256.124	153
256.357	170
256.59	171
256.823	182
257.056	182
257.289	161
257.521	178
257.754	163
257.987	167
258.22	165
258.452	183
258.685	176
258.918	189
259.151	187
259.383	172
259.616	168
259.849	167
260.081	190
260.314	204
260.547	181
260.779	188
261.012	188
261.244	182
261.477	182
261.71	189
261.942	190
262.175	184
262.407	166
262.64	171
262.872	182
263.105	182
263.337	197
263.57	185
263.802	180
264.035	172
264.267	194
264.499	175
264.732	213
264.964	175
265.197	170
265.429	171
265.661	195
265.894	189
266.126	204
266.358	174
266.591	178
266.823	186
267.055	178
267.287	191
267.52	190
267.752	198
267.984	183
268.216	211
268.448	204
268.681	195
268.913	196
269.145	204
269.377	183
269.609	204
269.841	202
270.073	199
270.306	200
270.538	208
270.77	202
271.002	204
271.234	215
271.466	196
271.698	206
271.93	186
272.162	210
272.394	211
272.626	214
272.858	206
273.09	212
273.322	214
273.553	222
273.785	220
274.017	214
274.249	240
274.481	229
274.713	226
274.945	235
275.176	226
275.408	238
275.64	239
275.872	223
276.104	266
276.335	231
276.567	208
276.799	219
277.031	228
277.262	222
277.494	239
277.726	219
277.957	220
278.189	241
278.421	220
278.652	234
278.884	246
279.115	233
279.347	230
279.579	225
279.81	255
280.042	234
280.273	232
280.505	242
280.736	236
280.968	228
281.199	239
281.431	238
281.662	236
281.894	243
282.125	244
282.356	263
282.588	244
282.819	241
283.051	258
283.282	230
283.513	240
283.745	242
283.976	257
284.207	243
284.439	251
284.67	245
284.901	231
285.132	258
285.364	248
285.595	253
285.826	255
286.057	266
286.288	254
286.52	246
286.751	245
286.982	250
287.213	258
287.444	267
287.675	251
287.906	266
288.138	258
288.369	267
288.6	269
288.831	272
289.062	261
289.293	252
289.524	267
289.755	273
289.986	280
290.217	276
290.448	267
290.679	248
290.91	267
291.141	264
291.371	259
291.602	260
291.833	268
292.064	267
292.295	282
292.526	268
292.757	256
292.987	263
293.218	278
293.449	264
293.68	278
293.91	280
294.141	278
294.372	304
294.603	276
294.833	274
295.064	266
295.295	262
295.525	279
295.756	278
295.987	252
296.217	280
296.448	268
296.679	283
296.909	275
297.14	281
297.37	286
297.601	283
297.831	290
298.062	283
298.292	290
298.523	302
298.753	294
298.984	285
299.214	283
299.445	297
299.675	285
299.905	282
300.136	288
300.366	296
300.597	291
300.827	298
301.057	302
301.288	298
301.518	298
301.748	309
301.979	299
302.209	303
302.439	308
302.669	311
302.9	306
303.13	327
303.36	314
303.59	314
303.82	314
304.051	325
304.281	302
304.511	311
304.741	309
304.971	314
305.201	318
305.431	324
305.661	302
305.891	300
306.121	293
306.352	313
306.582	309
306.812	287
307.042	306
307.272	302
307.502	297
307.731	326
307.961	316
308.191	312
308.421	309
308.651	318
308.881	320
309.111	323
309.341	315
309.571	327
309.8	306
310.03	305
310.26	298
310.49	311
310.72	321
310.949	308
311.179	331
311.409	322
311.639	316
311.868	324
312.098	320
312.328	324
312.557	345
312.787	312
313.017	328
313.246	335
313.476	335
313.706	337
313.935	354
314.165	329
314.394	336
314.624	343
314.853	340
315.083	345
315.312	343
315.542	334
315.771	324
316.001	342
316.23	330
316.46	351
316.689	352
316.919	335
317.148	342
317.377	335
317.607	363
317.836	352
318.065	361
318.295	350
318.524	348
318.753	345
318.983	341
319.212	339
319.441	339
319.67	368
319.9	344
320.129	358
320.358	368
320.587	344
320.816	334
321.046	356
321.275	355
321.504	344
321.733	342
321.962	352
322.191	354
322.42	335
322.649	367
322.878	353
323.108	368
323.337	354
323.566	347
323.795	351
324.024	358
324.253	346
324.482	362
324.71	360
324.939	367
325.168	374
325.397	349
325.626	378
325.855	373
326.084	376
326.313	367
326.542	354
326.77	371
326.999	394
327.228	362
327.457	342
327.686	386
327.914	382
328.143	371
328.372	379
328.6	371
328.829	377
329.058	374
329.287	371
329.515	358
329.744	376
329.972	383
330.201	374
330.43	395
330.658	374
330.887	386
331.115	350
331.344	379
331.572	388
331.801	386
332.03	407
332.258	386
332.486	404
332.715	396
332.943	400
333.172	411
333.4	418
333.629	418
333.857	422
334.085	411
334.314	417
334.542	411
334.771	443
334.999	417
335.227	435
335.455	440
335.684	426
335.912	431
336.14	453
336.369	418
336.597	436
336.825	438
337.053	430
337.281	418
337.51	395
337.738	422
337.966	429
338.194	436
338.422	430
338.65	391
338.878	399
339.106	420
339.334	432
339.562	404
339.79	410
340.018	388
340.246	411
340.474	412
340.702	414
340.93	410
341.158	390
341.386	387
341.614	404
341.842	410
342.07	418
342.298	419
342.526	415
342.754	405
342.981	394
343.209	388
343.437	416
343.665	407
343.893	428
344.12	430
344.348	450
344.576	424
344.804	422
345.031	434
345.259	392
345.487	403
345.714	411
345.942	420
346.17	416
346.397	398
346.625	412
346.853	392
347.08	387
347.308	403
347.535	396
347.763	414
347.99	382
348.218	381
348.445	423
348.673	404
348.9	405
349.128	393
349.355	389
349.583	398
349.81	390
350.037	400
350.265	383
350.492	375
350.72	403
350.947	387
351.174	379
351.402	401
351.629	379
351.856	381
352.083	380
352.311	403
352.538	386
352.765	390
352.992	391
353.22	382
353.447	391
353.674	393
353.901	393
354.128	382
354.355	359
354.583	385
354.81	387
355.037	382
355.264	394
355.491	390
355.718	403
355.945	391
356.172	401
356.399	391
356.626	389
356.853	411
357.08	409
357.307	414
357.534	392
357.761	379
357.988	418
358.215	396
358.441	403
358.668	374
358.895	381
359.122	371
359.349	396
359.576	393
359.802	398
360.029	410
360.256	387
360.483	386
360.709	402
360.936	411
361.163	397
361.39	409
361.616	393
361.843	390
362.07	396
362.296	411
362.523	395
362.749	413
362.976	388
363.203	414
363.429	402
363.656	386
363.882	402
364.109	391
364.335	390
364.562	400
364.788	402
365.015	408
365.241	401
365.468	415
365.694	438
365.92	394
366.147	391
366.373	388
366.599	396
366.826	388
367.052	396
367.278	412
367.505	414
367.731	403
367.957	420
368.184	416
368.41	439
368.636	414
368.862	438
369.089	418
369.315	427
369.541	431
369.767	423
369.993	421
370.219	398
370.445	446
370.672	439
370.898	437
371.124	425
371.35	405
371.576	421
371.802	425
372.028	434
372.254	436
372.48	452
372.706	436
372.932	444
373.158	439
373.384	442
373.61	422
373.835	435
374.061	442
374.287	443
374.513	446
374.739	465
374.965	459
375.191	448
375.416	443
375.642	449
375.868	462
376.094	451
376.319	424
376.545	437
376.771	438
376.997	428
377.222	430
377.448	403
377.674	420
377.899	437
378.125	416
378.35	425
378.576	417
378.802	415
379.027	426
379.253	428
379.478	428
379.704	437
379.929	434
380.155	450
380.38	432
380.606	409
380.831	428
381.057	443
381.282	437
381.507	444
381.733	437
381.958	444
382.184	431
382.409	434
382.634	449
382.86	457
383.085	458
383.31	463
383.535	473
383.761	447
383.986	452
384.211	474
384.436	473
384.662	484
384.887	488
385.112	463
385.337	487
385.562	488
385.787	463
386.013	486
386.238	474
386.463	491
386.688	473
386.913	482
387.138	490
387.363	500
387.588	508
387.813	495
388.038	494
388.263	496
388.488	483
388.713	490
388.938	490
389.163	506
389.387	504
389.612	483
389.837	506
390.062	480
390.287	510
390.512	524
390.736	529
390.961	514
391.186	514
391.411	500
391.636	516
391.86	529
392.085	501
392.31	513
392.534	514
392.759	524
392.984	524
393.208	528
393.433	543
393.658	548
393.882	531
394.107	489
394.331	523
394.556	532
394.78	525
395.005	545
395.229	522
395.454	532
395.678	546
395.903	512
396.127	532
396.352	531
396.576	525
396.801	542
397.025	572
397.249	565
397.474	567
397.698	557
397.922	540
398.147	534
398.371	571
398.595	567
398.82	594
399.044	595
399.268	603
399.492	611
399.717	634
399.941	659
400.165	630
400.389	631
400.613	615
400.837	602
401.062	607
401.286	582
401.51	589
401.734	602
401.958	587
402.182	564
402.406	574
402.63	596
402.854	572
403.078	585
403.302	586
403.526	586
403.75	584
403.974	596
404.198	574
404.422	607
404.645	591
404.869	588
405.093	615
405.317	584
405.541	589
405.765	587
405.988	595
406.212	609
406.436	594
406.66	640
406.883	616
407.107	631
407.331	628
407.555	647
407.778	648
408.002	641
408.226	659
408.449	667
408.673	648
408.896	640
409.12	631
409.344	634
409.567	630
409.791	636
410.014	633
410.238	638
410.461	628
410.685	637
410.908	607
411.132	612
411.355	594
411.578	606
411.802	596
412.025	598
412.249	593
412.472	594
412.695	618
412.919	578
413.142	599
413.365	579
413.589	576
413.812	590
414.035	605
414.258	595
414.482	582
414.705	588
414.928	584
415.151	596
415.374	567
415.597	601
415.821	587
416.044	575
416.267	586
416.49	582
416.713	579
416.936	570
417.159	551
417.382	568
417.605	569
417.828	580
418.051	571
418.274	568
418.497	556
418.72	580
418.943	551
419.166	575
419.389	614
419.611	598
419.834	618
420.057	594
420.28	566
420.503	562
420.726	551
420.948	562
421.171	552
421.394	553
421.617	564
421.839	564
422.062	574
422.285	538
422.507	566
422.73	564
422.953	561
423.175	547
423.398	574
423.621	578
423.843	565
424.066	594
424.288	578
424.511	568
424.733	557
424.956	582
425.178	544
425.401	574
425.623	567
425.846	536
426.068	544
426.291	564
426.513	562
426.735	542
426.958	548
427.18	552
427.402	544
427.625	561
427.847	532
428.069	539
428.292	550
428.514	530
428.736	543
428.958	561
429.181	520
429.403	526
429.625	537
429.847	537
430.069	536
430.292	545
430.514	552
430.736	540
430.958	547
431.18	538
431.402	539
431.624	546
431.846	547
432.068	560
432.29	556
432.512	546
432.734	554
432.956	542
433.178	546
433.4	563
433.622	554
433.844	556
434.066	542
434.287	545
434.509	544
434.731	574
434.953	538
435.175	550
435.397	572
435.618	567
435.84	560
436.062	534
436.284	549
436.505	541
436.727	562
436.949	542
437.17	542
437.392	531
437.614	536
437.835	526
438.057	534
438.278	517
438.5	526
438.721	538
438.943	542
439.165	532
439.386	540
439.608	543
439.829	535
440.05	522
440.272	537
440.493	539
440.715	543
440.936	553
441.158	523
441.379	538
441.6	553
441.822	560
442.043	560
442.264	546
442.486	544
442.707	547
442.928	563
443.149	550
443.371	538
443.592	561
443.813	564
444.034	548
444.255	568
444.476	584
444.698	591
444.919	596
445.14	671
445.361	613
445.582	547
445.803	565
446.024	560
446.245	552
446.466	544
446.687	536
446.908	534
447.129	505
447.35	523
447.571	528
447.792	516
448.013	526
448.234	526
448.455	517
448.675	522
448.896	517
449.117	516
449.338	513
449.559	530
449.779	495
450	511
450.221	512
450.442	520
450.662	496
450.883	502
451.104	517
451.324	484
451.545	510
451.766	489
451.986	508
452.207	494
452.428	494
452.648	483
452.869	502
453.089	506
453.31	499
453.53	503
453.751	488
453.971	476
454.192	485
454.412	485
454.633	492
454.853	479
455.073	480
455.294	484
455.514	488
455.734	503
455.955	473
456.175	497
456.395	499
456.616	489
456.836	477
457.056	512
457.276	465
457.497	499
457.717	508
457.937	504
458.157	517
458.377	506
458.598	496
458.818	520
459.038	513
459.258	537
459.478	539
459.698	546
459.918	549
460.138	548
460.358	560
460.578	570
460.798	552
461.018	579
461.238	569
461.458	581
461.678	579
461.898	580
462.118	595
462.338	608
462.558	608
462.777	626
462.997	628
463.217	617
463.437	640
463.657	644
463.876	617
464.096	630
464.316	615
464.536	613
464.755	611
464.975	631
465.195	601
465.414	575
465.634	555
465.854	544
466.073	565
466.293	566
466.512	576
466.732	545
466.951	554
467.171	546
467.391	544
467.61	544
467.829	535
468.049	552
468.268	536
468.488	522
468.707	532
468.927	558
469.146	532
469.365	500
469.585	535
469.804	551
470.023	535
470.243	563
470.462	536
470.681	536
470.901	529
471.12	532
471.339	528
471.558	530
471.777	534
471.997	546
472.216	535
472.435	534
472.654	543
472.873	549
473.092	539
473.311	528
473.53	541
473.749	548
473.968	537
474.187	535
474.406	538
474.625	530
474.844	570
475.063	544
475.282	538
475.501	562
475.72	558
475.939	553
476.158	586
476.377	559
476.596	590
476.814	590
477.033	597
477.252	573
477.471	571
477.69	588
477.908	607
478.127	615
478.346	607
478.564	606
478.783	625
479.002	629
479.22	589
479.439	639
479.658	631
479.876	634
480.095	638
480.313	634
480.532	646
480.751	647
480.969	630
481.188	616
481.406	646
481.624	656
481.843	637
482.061	660
482.28	640
482.498	633
482.717	640
482.935	652
483.153	646
483.372	657
483.59	646
483.808	633
484.027	638
484.245	644
484.463	664
484.681	664
484.9	662
485.118	659
485.336	654
485.554	661
485.772	662
485.99	660
486.209	650
486.427	656
486.645	664
486.863	658
487.081	640
487.299	674
487.517	682
487.735	667
487.953	653
488.171	680
488.389	694
488.607	681
488.825	685
489.043	657
489.261	676
489.479	657
489.696	641
489.914	675
490.132	668
490.35	670
490.568	681
490.786	678
491.003	679
491.221	706
491.439	694
491.657	659
491.874	674
492.092	671
492.31	679
492.527	680
492.745	681
492.963	704
493.18	666
493.398	694
493.615	713
493.833	680
494.05	686
494.268	709
494.485	693
494.703	677
494.92	706
495.138	707
495.355	728
495.573	700
495.79	698
496.008	721
496.225	733
496.442	725
496.66	737
496.877	734
497.094	755
497.312	746
497.529	751
497.746	766
497.963	780
498.181	799
498.398	795
498.615	836
498.832	872
499.049	883
499.267	910
499.484	926
499.701	986
499.918	1013
500.135	1030
500.352	1079
500.569	1055
500.786	1088
501.003	1054
501.22	1069
501.437	1018
501.654	974
501.871	951
502.088	905
502.305	875
502.522	878
502.739	841
502.956	796
503.172	828
503.389	800
503.606	779
503.823	741
504.04	756
504.256	777
504.473	750
504.69	749
504.907	697
505.123	727
505.34	705
505.557	678
505.773	678
505.99	687
506.207	672
506.423	671
506.64	653
506.856	648
507.073	650
507.289	643
507.506	623
507.722	633
507.939	637
508.155	606
508.372	618
508.588	634
508.805	630
509.021	609
509.238	592
509.454	615
509.67	601
509.887	598
510.103	598
510.319	610
510.536	584
510.752	584
510.968	587
511.184	597
511.401	586
511.617	586
511.833	591
512.049	564
512.265	582
512.481	602
512.698	588
512.914	587
513.13	582
513.346	595
513.562	582
513.778	583
513.994	568
514.21	591
514.426	587
514.642	564
514.858	594
515.074	616
515.29	604
515.506	596
515.721	589
515.937	603
516.153	611
516.369	598
516.585	623
516.801	640
517.016	630
517.232	640
517.448	624
517.664	656
517.879	633
518.095	638
518.311	645
518.527	648
518.742	633
518.958	620
519.173	634
519.389	615
519.605	606
519.82	595
520.036	582
520.251	590
520.467	583
520.682	579
520.898	571
521.113	580
521.329	567
521.544	571
521.76	582
521.975	576
522.19	588
522.406	576
522.621	577
522.836	575
523.052	577
523.267	545
523.482	547
523.698	549
523.913	562
524.128	549
524.343	523
524.559	539
524.774	557
524.989	553
525.204	534
525.419	534
525.634	555
525.849	552
526.064	539
526.28	548
526.495	549
526.71	537
526.925	547
527.14	542
527.355	534
527.57	549
527.785	550
527.999	514
528.214	521
528.429	521
528.644	545
528.859	527
529.074	530
529.289	524
529.503	544
529.718	527
529.933	547
530.148	516
530.363	527
530.577	567
530.792	527
531.007	522
531.221	560
531.436	524
531.651	516
531.865	519
532.08	537
532.295	502
532.509	530
532.724	524
532.938	534
533.153	512
533.367	536
533.582	524
533.796	527
534.011	520
534.225	516
534.44	517
534.654	516
534.868	538
535.083	530
535.297	528
535.511	497
535.726	516
535.94	491
536.154	508
536.369	508
536.583	517
536.797	497
537.011	507
537.225	500
537.44	500
537.654	491
537.868	473
538.082	489
538.296	501
538.51	502
538.724	511
538.938	491
539.153	489
539.367	501
539.581	498
539.795	484
540.009	504
540.222	482
540.436	496
540.65	486
540.864	487
541.078	488
541.292	504
541.506	487
541.72	498
541.934	477
542.147	499
542.361	514
542.575	482
542.789	516
543.002	494
543.216	498
543.43	474
543.644	481
543.857	481
544.071	484
544.285	492
544.498	496
544.712	499
544.925	490
545.139	487
545.352	501
545.566	504
545.779	505
545.993	496
546.206	505
546.42	477
546.633	473
546.847	499
547.06	470
547.274	497
547.487	503
547.7	521
547.914	498
548.127	507
548.34	500
548.554	489
548.767	473
548.98	475
549.193	495
549.407	496
549.62	510
549.833	499
550.046	478
550.259	470
550.473	486
550.686	512
550.899	512
551.112	506
551.325	475
551.538	494
551.751	468
551.964	504
552.177	471
552.39	498
552.603	496
552.816	495
553.029	487
553.242	510
553.455	501
553.667	489
553.88	496
554.093	479
554.306	476
554.519	483
554.732	474
554.944	468
555.157	459
555.37	473
555.583	454
555.795	460
556.008	450
556.221	470
556.433	450
556.646	444
556.859	452
557.071	462
557.284	454
557.496	438
557.709	425
557.921	453
558.134	435
558.346	441
558.559	432
558.771	424
558.984	440
559.196	440
559.409	434
559.621	416
559.833	436
560.046	437
560.258	411
560.47	406
560.683	430
560.895	436
561.107	441
561.32	430
561.532	434
561.744	429
561.956	424
562.168	438
562.381	438
562.593	415
562.805	432
563.017	422
563.229	434
