Data from Fe(NO3)3@0.05M.TitratingCurve.Agarose3%dH2O.NegLispCup.LampEnergy10.LIBS07252019_HRD10591_16-46-02-333.txt Node
Date: Thu Jul 25 16:46:02 EDT 2019
User: cochatt
Spectrometer: HR+D1059
Trigger mode: 1
Integration Time (sec): 1.000000E-1
Scans to average: 1
Electric dark correction enabled: true
Nonlinearity correction enabled: false
Boxcar width: 0
XAxis mode: Wavelengths
Number of Pixels in Spectrum: 2048
>>>>>Begin Spectral Data<<<<<
223.165	3.81
223.4	3.81
223.635	3.81
223.869	-11.19
224.104	-34.19
224.338	-17.19
224.573	-14.19
224.808	-27.19
225.042	-18.19
225.277	-2.19
225.511	-1.19
225.746	11.81
225.98	8.81
226.215	13.81
226.449	11.81
226.683	22.81
226.918	29.81
227.152	22.81
227.387	33.81
227.621	34.81
227.856	38.81
228.09	51.81
228.324	55.81
228.559	57.81
228.793	78.81
229.027	115.81
229.262	129.81
229.496	128.81
229.73	158.81
229.964	141.81
230.199	139.81
230.433	141.81
230.667	154.81
230.901	158.81
231.136	148.81
231.37	148.81
231.604	173.81
231.838	158.81
232.072	160.81
232.306	156.81
232.541	167.81
232.775	166.81
233.009	185.81
233.243	186.81
233.477	216.81
233.711	191.81
233.945	182.81
234.179	182.81
234.413	204.81
234.647	197.81
234.881	215.81
235.115	192.81
235.349	203.81
235.583	191.81
235.817	198.81
236.051	197.81
236.285	219.81
236.519	219.81
236.753	219.81
236.987	205.81
237.221	201.81
237.455	223.81
237.689	229.81
237.922	217.81
238.156	227.81
238.39	270.81
238.624	291.81
238.858	261.81
239.091	221.81
239.325	242.81
239.559	229.81
239.793	254.81
240.027	277.81
240.26	253.81
240.494	251.81
240.728	257.81
240.961	312.81
241.195	276.81
241.429	278.81
241.662	271.81
241.896	241.81
242.13	239.81
242.363	263.81
242.597	257.81
242.83	274.81
243.064	269.81
243.298	279.81
243.531	290.81
243.765	291.81
243.998	273.81
244.232	297.81
244.465	266.81
244.699	292.81
244.932	277.81
245.166	313.81
245.399	285.81
245.633	291.81
245.866	271.81
246.099	307.81
246.333	305.81
246.566	323.81
246.8	312.81
247.033	306.81
247.266	309.81
247.5	312.81
247.733	325.81
247.966	310.81
248.2	326.81
248.433	348.81
248.666	350.81
248.899	322.81
249.133	347.81
249.366	360.81
249.599	373.81
249.832	388.81
250.066	329.81
250.299	339.81
250.532	351.81
250.765	339.81
250.998	335.81
251.231	352.81
251.465	360.81
251.698	353.81
251.931	370.81
252.164	385.81
252.397	385.81
252.63	392.81
252.863	395.81
253.096	411.81
253.329	394.81
253.562	389.81
253.795	417.81
254.028	438.81
254.261	425.81
254.494	427.81
254.727	390.81
254.96	389.81
255.193	427.81
255.426	394.81
255.659	381.81
255.892	354.81
256.124	381.81
256.357	409.81
256.59	439.81
256.823	410.81
257.056	423.81
257.289	388.81
257.521	396.81
257.754	401.81
257.987	398.81
258.22	436.81
258.452	421.81
258.685	431.81
258.918	450.81
259.151	450.81
259.383	410.81
259.616	463.81
259.849	476.81
260.081	563.81
260.314	618.81
260.547	518.81
260.779	476.81
261.012	507.81
261.244	498.81
261.477	530.81
261.71	534.81
261.942	476.81
262.175	461.81
262.407	477.81
262.64	456.81
262.872	506.81
263.105	520.81
263.337	541.81
263.57	533.81
263.802	465.81
264.035	458.81
264.267	466.81
264.499	457.81
264.732	468.81
264.964	454.81
265.197	451.81
265.429	470.81
265.661	437.81
265.894	453.81
266.126	459.81
266.358	461.81
266.591	466.81
266.823	503.81
267.055	500.81
267.287	484.81
267.52	466.81
267.752	476.81
267.984	491.81
268.216	473.81
268.448	477.81
268.681	503.81
268.913	489.81
269.145	492.81
269.377	488.81
269.609	482.81
269.841	479.81
270.073	510.81
270.306	483.81
270.538	517.81
270.77	528.81
271.002	489.81
271.234	522.81
271.466	527.81
271.698	550.81
271.93	545.81
272.162	539.81
272.394	539.81
272.626	536.81
272.858	548.81
273.09	550.81
273.322	558.81
273.553	555.81
273.785	601.81
274.017	638.81
274.249	693.81
274.481	702.81
274.713	726.81
274.945	785.81
275.176	803.81
275.408	742.81
275.64	718.81
275.872	719.81
276.104	649.81
276.335	591.81
276.567	595.81
276.799	609.81
277.031	612.81
277.262	571.81
277.494	564.81
277.726	568.81
277.957	587.81
278.189	588.81
278.421	591.81
278.652	604.81
278.884	577.81
279.115	584.81
279.347	586.81
279.579	594.81
279.81	569.81
280.042	587.81
280.273	578.81
280.505	603.81
280.736	590.81
280.968	588.81
281.199	585.81
281.431	582.81
281.662	610.81
281.894	596.81
282.125	589.81
282.356	613.81
282.588	598.81
282.819	614.81
283.051	611.81
283.282	621.81
283.513	634.81
283.745	618.81
283.976	619.81
284.207	611.81
284.439	638.81
284.67	625.81
284.901	625.81
285.132	637.81
285.364	655.81
285.595	634.81
285.826	633.81
286.057	643.81
286.288	648.81
286.52	648.81
286.751	644.81
286.982	665.81
287.213	655.81
287.444	673.81
287.675	666.81
287.906	666.81
288.138	632.81
288.369	658.81
288.6	636.81
288.831	638.81
289.062	662.81
289.293	671.81
289.524	661.81
289.755	641.81
289.986	627.81
290.217	653.81
290.448	653.81
290.679	652.81
290.91	643.81
291.141	646.81
291.371	652.81
291.602	663.81
291.833	659.81
292.064	674.81
292.295	636.81
292.526	678.81
292.757	691.81
292.987	680.81
293.218	685.81
293.449	696.81
293.68	690.81
293.91	694.81
294.141	662.81
294.372	667.81
294.603	688.81
294.833	694.81
295.064	680.81
295.295	691.81
295.525	688.81
295.756	681.81
295.987	677.81
296.217	695.81
296.448	673.81
296.679	716.81
296.909	673.81
297.14	716.81
297.37	710.81
297.601	714.81
297.831	704.81
298.062	708.81
298.292	694.81
298.523	723.81
298.753	727.81
298.984	727.81
299.214	707.81
299.445	720.81
299.675	771.81
299.905	717.81
300.136	735.81
300.366	719.81
300.597	703.81
300.827	725.81
301.057	754.81
301.288	721.81
301.518	728.81
301.748	742.81
301.979	742.81
302.209	777.81
302.439	769.81
302.669	770.81
302.9	758.81
303.13	755.81
303.36	773.81
303.59	733.81
303.82	742.81
304.051	781.81
304.281	767.81
304.511	749.81
304.741	744.81
304.971	755.81
305.201	763.81
305.431	757.81
305.661	766.81
305.891	739.81
306.121	769.81
306.352	778.81
306.582	746.81
306.812	746.81
307.042	788.81
307.272	763.81
307.502	740.81
307.731	786.81
307.961	755.81
308.191	783.81
308.421	777.81
308.651	765.81
308.881	741.81
309.111	786.81
309.341	773.81
309.571	797.81
309.8	801.81
310.03	766.81
310.26	780.81
310.49	781.81
310.72	778.81
310.949	787.81
311.179	794.81
311.409	811.81
311.639	778.81
311.868	801.81
312.098	823.81
312.328	791.81
312.557	819.81
312.787	811.81
313.017	822.81
313.246	815.81
313.476	795.81
313.706	833.81
313.935	832.81
314.165	827.81
314.394	801.81
314.624	827.81
314.853	801.81
315.083	837.81
315.312	813.81
315.542	836.81
315.771	838.81
316.001	843.81
316.23	839.81
316.46	789.81
316.689	823.81
316.919	836.81
317.148	864.81
317.377	835.81
317.607	855.81
317.836	856.81
318.065	851.81
318.295	858.81
318.524	822.81
318.753	843.81
318.983	853.81
319.212	862.81
319.441	834.81
319.67	851.81
319.9	837.81
320.129	869.81
320.358	862.81
320.587	871.81
320.816	883.81
321.046	855.81
321.275	867.81
321.504	847.81
321.733	864.81
321.962	869.81
322.191	847.81
322.42	869.81
322.649	883.81
322.878	861.81
323.108	859.81
323.337	898.81
323.566	889.81
323.795	908.81
324.024	898.81
324.253	892.81
324.482	892.81
324.71	891.81
324.939	895.81
325.168	876.81
325.397	901.81
325.626	899.81
325.855	890.81
326.084	901.81
326.313	900.81
326.542	941.81
326.77	948.81
326.999	923.81
327.228	891.81
327.457	899.81
327.686	898.81
327.914	906.81
328.143	899.81
328.372	893.81
328.6	926.81
328.829	920.81
329.058	913.81
329.287	915.81
329.515	946.81
329.744	917.81
329.972	962.81
330.201	936.81
330.43	940.81
330.658	924.81
330.887	945.81
331.115	941.81
331.344	964.81
331.572	936.81
331.801	973.81
332.03	1003.81
332.258	980.81
332.486	957.81
332.715	997.81
332.943	1025.81
333.172	1009.81
333.4	1010.81
333.629	1034.81
333.857	1061.81
334.085	1069.81
334.314	1060.81
334.542	1076.81
334.771	1064.81
334.999	1058.81
335.227	1057.81
335.455	1060.81
335.684	1079.81
335.912	1044.81
336.14	1085.81
336.369	1050.81
336.597	1038.81
336.825	1045.81
337.053	1049.81
337.281	1036.81
337.51	1038.81
337.738	1042.81
337.966	1027.81
338.194	1036.81
338.422	1055.81
338.65	1011.81
338.878	1002.81
339.106	979.81
339.334	1003.81
339.562	1009.81
339.79	1025.81
340.018	1011.81
340.246	969.81
340.474	969.81
340.702	1017.81
340.93	980.81
341.158	998.81
341.386	993.81
341.614	1023.81
341.842	988.81
342.07	1002.81
342.298	976.81
342.526	981.81
342.754	975.81
342.981	988.81
343.209	980.81
343.437	1002.81
343.665	1029.81
343.893	1060.81
344.12	1081.81
344.348	1049.81
344.576	1034.81
344.804	1039.81
345.031	1049.81
345.259	1006.81
345.487	990.81
345.714	1009.81
345.942	984.81
346.17	957.81
346.397	988.81
346.625	951.81
346.853	970.81
347.08	934.81
347.308	957.81
347.535	965.81
347.763	954.81
347.99	930.81
348.218	949.81
348.445	963.81
348.673	950.81
348.9	957.81
349.128	948.81
349.355	942.81
349.583	950.81
349.81	933.81
350.037	942.81
350.265	939.81
350.492	933.81
350.72	959.81
350.947	951.81
351.174	954.81
351.402	932.81
351.629	907.81
351.856	906.81
352.083	921.81
352.311	936.81
352.538	891.81
352.765	941.81
352.992	954.81
353.22	931.81
353.447	928.81
353.674	972.81
353.901	939.81
354.128	915.81
354.355	899.81
354.583	961.81
354.81	921.81
355.037	926.81
355.264	922.81
355.491	927.81
355.718	905.81
355.945	931.81
356.172	942.81
356.399	960.81
356.626	965.81
356.853	951.81
357.08	956.81
357.307	979.81
357.534	963.81
357.761	937.81
357.988	949.81
358.215	964.81
358.441	983.81
358.668	946.81
358.895	966.81
359.122	925.81
359.349	933.81
359.576	953.81
359.802	960.81
360.029	931.81
360.256	958.81
360.483	957.81
360.709	963.81
360.936	988.81
361.163	972.81
361.39	935.81
361.616	953.81
361.843	931.81
362.07	1014.81
362.296	979.81
362.523	978.81
362.749	961.81
362.976	960.81
363.203	969.81
363.429	940.81
363.656	937.81
363.882	941.81
364.109	939.81
364.335	949.81
364.562	959.81
364.788	950.81
365.015	991.81
365.241	964.81
365.468	973.81
365.694	985.81
365.92	919.81
366.147	968.81
366.373	965.81
366.599	955.81
366.826	973.81
367.052	961.81
367.278	975.81
367.505	964.81
367.731	955.81
367.957	945.81
368.184	967.81
368.41	963.81
368.636	1005.81
368.862	997.81
369.089	988.81
369.315	993.81
369.541	991.81
369.767	997.81
369.993	984.81
370.219	995.81
370.445	996.81
370.672	1003.81
370.898	1044.81
371.124	1031.81
371.35	1041.81
371.576	1034.81
371.802	1054.81
372.028	1067.81
372.254	1069.81
372.48	1067.81
372.706	1062.81
372.932	1063.81
373.158	1066.81
373.384	1074.81
373.61	1113.81
373.835	1112.81
374.061	1066.81
374.287	1064.81
374.513	1089.81
374.739	1146.81
374.965	1137.81
375.191	1141.81
375.416	1085.81
375.642	1079.81
375.868	1107.81
376.094	1092.81
376.319	1081.81
376.545	1090.81
376.771	1049.81
376.997	1066.81
377.222	1008.81
377.448	1027.81
377.674	1017.81
377.899	1020.81
378.125	1064.81
378.35	1031.81
378.576	1029.81
378.802	1029.81
379.027	1052.81
379.253	1041.81
379.478	1053.81
379.704	1051.81
379.929	1070.81
380.155	1041.81
380.38	1061.81
380.606	1011.81
380.831	1044.81
381.057	1066.81
381.282	1047.81
381.507	1067.81
381.733	1091.81
381.958	1060.81
382.184	1133.81
382.409	1149.81
382.634	1133.81
382.86	1139.81
383.085	1117.81
383.31	1118.81
383.535	1100.81
383.761	1155.81
383.986	1159.81
384.211	1137.81
384.436	1129.81
384.662	1165.81
384.887	1161.81
385.112	1161.81
385.337	1204.81
385.562	1175.81
385.787	1170.81
386.013	1197.81
386.238	1236.81
386.463	1209.81
386.688	1217.81
386.913	1173.81
387.138	1186.81
387.363	1199.81
387.588	1189.81
387.813	1187.81
388.038	1242.81
388.263	1225.81
388.488	1190.81
388.713	1223.81
388.938	1214.81
389.163	1241.81
389.387	1219.81
389.612	1229.81
389.837	1213.81
390.062	1214.81
390.287	1212.81
390.512	1222.81
390.736	1237.81
390.961	1270.81
391.186	1209.81
391.411	1260.81
391.636	1258.81
391.86	1319.81
392.085	1316.81
392.31	1280.81
392.534	1302.81
392.759	1275.81
392.984	1296.81
393.208	1298.81
393.433	1261.81
393.658	1302.81
393.882	1301.81
394.107	1311.81
394.331	1284.81
394.556	1289.81
394.78	1277.81
395.005	1314.81
395.229	1318.81
395.454	1306.81
395.678	1331.81
395.903	1301.81
396.127	1332.81
396.352	1324.81
396.576	1341.81
396.801	1345.81
397.025	1344.81
397.249	1351.81
397.474	1323.81
397.698	1358.81
397.922	1358.81
398.147	1366.81
398.371	1405.81
398.595	1405.81
398.82	1452.81
399.044	1474.81
399.268	1515.81
399.492	1594.81
399.717	1657.81
399.941	1686.81
400.165	1666.81
400.389	1605.81
400.613	1574.81
400.837	1539.81
401.062	1512.81
401.286	1493.81
401.51	1486.81
401.734	1458.81
401.958	1441.81
402.182	1474.81
402.406	1465.81
402.63	1453.81
402.854	1455.81
403.078	1496.81
403.302	1496.81
403.526	1477.81
403.75	1473.81
403.974	1479.81
404.198	1499.81
404.422	1502.81
404.645	1501.81
404.869	1520.81
405.093	1535.81
405.317	1538.81
405.541	1515.81
405.765	1513.81
405.988	1510.81
406.212	1583.81
406.436	1552.81
406.66	1595.81
406.883	1561.81
407.107	1659.81
407.331	1665.81
407.555	1675.81
407.778	1679.81
408.002	1650.81
408.226	1655.81
408.449	1643.81
408.673	1660.81
408.896	1590.81
409.12	1587.81
409.344	1614.81
409.567	1600.81
409.791	1596.81
410.014	1593.81
410.238	1580.81
410.461	1542.81
410.685	1531.81
410.908	1566.81
411.132	1488.81
411.355	1502.81
411.578	1529.81
411.802	1499.81
412.025	1524.81
412.249	1507.81
412.472	1563.81
412.695	1555.81
412.919	1467.81
413.142	1509.81
413.365	1531.81
413.589	1496.81
413.812	1451.81
414.035	1492.81
414.258	1489.81
414.482	1487.81
414.705	1548.81
414.928	1481.81
415.151	1491.81
415.374	1503.81
415.597	1442.81
415.821	1421.81
416.044	1405.81
416.267	1449.81
416.49	1438.81
416.713	1441.81
416.936	1421.81
417.159	1429.81
417.382	1410.81
417.605	1409.81
417.828	1426.81
418.051	1430.81
418.274	1402.81
418.497	1409.81
418.72	1407.81
418.943	1389.81
419.166	1495.81
419.389	1579.81
419.611	1553.81
419.834	1494.81
420.057	1461.81
420.28	1439.81
420.503	1406.81
420.726	1413.81
420.948	1352.81
421.171	1415.81
421.394	1381.81
421.617	1401.81
421.839	1408.81
422.062	1414.81
422.285	1402.81
422.507	1389.81
422.73	1388.81
422.953	1438.81
423.175	1420.81
423.398	1411.81
423.621	1396.81
423.843	1443.81
424.066	1409.81
424.288	1435.81
424.511	1404.81
424.733	1418.81
424.956	1420.81
425.178	1423.81
425.401	1415.81
425.623	1430.81
425.846	1362.81
426.068	1398.81
426.291	1390.81
426.513	1390.81
426.735	1379.81
426.958	1377.81
427.18	1346.81
427.402	1382.81
427.625	1368.81
427.847	1370.81
428.069	1339.81
428.292	1373.81
428.514	1372.81
428.736	1346.81
428.958	1354.81
429.181	1309.81
429.403	1323.81
429.625	1390.81
429.847	1355.81
430.069	1346.81
430.292	1358.81
430.514	1351.81
430.736	1358.81
430.958	1369.81
431.18	1378.81
431.402	1326.81
431.624	1333.81
431.846	1334.81
432.068	1366.81
432.29	1391.81
432.512	1342.81
432.734	1405.81
432.956	1373.81
433.178	1396.81
433.4	1385.81
433.622	1360.81
433.844	1357.81
434.066	1393.81
434.287	1365.81
434.509	1379.81
434.731	1439.81
434.953	1409.81
435.175	1429.81
435.397	1435.81
435.618	1393.81
435.84	1399.81
436.062	1373.81
436.284	1339.81
436.505	1338.81
436.727	1349.81
436.949	1375.81
437.17	1349.81
437.392	1317.81
437.614	1326.81
437.835	1317.81
438.057	1294.81
438.278	1326.81
438.5	1363.81
438.721	1358.81
438.943	1355.81
439.165	1319.81
439.386	1301.81
439.608	1345.81
439.829	1323.81
440.05	1358.81
440.272	1334.81
440.493	1338.81
440.715	1378.81
440.936	1388.81
441.158	1345.81
441.379	1358.81
441.6	1398.81
441.822	1384.81
442.043	1415.81
442.264	1386.81
442.486	1398.81
442.707	1409.81
442.928	1386.81
443.149	1378.81
443.371	1382.81
443.592	1394.81
443.813	1389.81
444.034	1379.81
444.255	1433.81
444.476	1452.81
444.698	1470.81
444.919	1476.81
445.14	1563.81
445.361	1502.81
445.582	1438.81
445.803	1388.81
446.024	1354.81
446.245	1358.81
446.466	1333.81
446.687	1326.81
446.908	1373.81
447.129	1294.81
447.35	1280.81
447.571	1313.81
447.792	1240.81
448.013	1277.81
448.234	1251.81
448.455	1270.81
448.675	1292.81
448.896	1271.81
449.117	1244.81
449.338	1239.81
449.559	1229.81
449.779	1241.81
450	1226.81
450.221	1229.81
450.442	1265.81
450.662	1217.81
450.883	1217.81
451.104	1245.81
451.324	1228.81
451.545	1213.81
451.766	1225.81
451.986	1215.81
452.207	1210.81
452.428	1206.81
452.648	1225.81
452.869	1198.81
453.089	1173.81
453.31	1223.81
453.53	1149.81
453.751	1187.81
453.971	1189.81
454.192	1176.81
454.412	1147.81
454.633	1197.81
454.853	1187.81
455.073	1153.81
455.294	1174.81
455.514	1207.81
455.734	1166.81
455.955	1150.81
456.175	1178.81
456.395	1188.81
456.616	1180.81
456.836	1170.81
457.056	1163.81
457.276	1167.81
457.497	1220.81
457.717	1195.81
457.937	1213.81
458.157	1243.81
458.377	1230.81
458.598	1213.81
458.818	1230.81
459.038	1310.81
459.258	1300.81
459.478	1285.81
459.698	1316.81
459.918	1354.81
460.138	1395.81
460.358	1409.81
460.578	1390.81
460.798	1421.81
461.018	1423.81
461.238	1414.81
461.458	1454.81
461.678	1423.81
461.898	1449.81
462.118	1465.81
462.338	1486.81
462.558	1541.81
462.777	1541.81
462.997	1621.81
463.217	1651.81
463.437	1634.81
463.657	1604.81
463.876	1614.81
464.096	1586.81
464.316	1537.81
464.536	1532.81
464.755	1551.81
464.975	1493.81
465.195	1463.81
465.414	1457.81
465.634	1408.81
465.854	1380.81
466.073	1371.81
466.293	1360.81
466.512	1344.81
466.732	1318.81
466.951	1358.81
467.171	1299.81
467.391	1327.81
467.61	1266.81
467.829	1311.81
468.049	1303.81
468.268	1296.81
468.488	1337.81
468.707	1338.81
468.927	1333.81
469.146	1337.81
469.365	1326.81
469.585	1331.81
469.804	1350.81
470.023	1351.81
470.243	1293.81
470.462	1302.81
470.681	1285.81
470.901	1297.81
471.12	1326.81
471.339	1317.81
471.558	1310.81
471.777	1339.81
471.997	1369.81
472.216	1358.81
472.435	1327.81
472.654	1290.81
472.873	1308.81
473.092	1333.81
473.311	1331.81
473.53	1272.81
473.749	1293.81
473.968	1283.81
474.187	1334.81
474.406	1305.81
474.625	1303.81
474.844	1354.81
475.063	1365.81
475.282	1357.81
475.501	1340.81
475.72	1342.81
475.939	1364.81
476.158	1359.81
476.377	1402.81
476.596	1479.81
476.814	1526.81
477.033	1467.81
477.252	1411.81
477.471	1438.81
477.69	1470.81
477.908	1468.81
478.127	1533.81
478.346	1513.81
478.564	1510.81
478.783	1494.81
479.002	1549.81
479.22	1580.81
479.439	1637.81
479.658	1603.81
479.876	1557.81
480.095	1601.81
480.313	1594.81
480.532	1585.81
480.751	1600.81
480.969	1617.81
481.188	1630.81
481.406	1630.81
481.624	1605.81
481.843	1601.81
482.061	1595.81
482.28	1598.81
482.498	1622.81
482.717	1581.81
482.935	1609.81
483.153	1577.81
483.372	1586.81
483.59	1612.81
483.808	1603.81
484.027	1594.81
484.245	1613.81
484.463	1625.81
484.681	1649.81
484.9	1664.81
485.118	1674.81
485.336	1651.81
485.554	1649.81
485.772	1623.81
485.99	1625.81
486.209	1628.81
486.427	1642.81
486.645	1662.81
486.863	1671.81
487.081	1674.81
487.299	1637.81
487.517	1713.81
487.735	1656.81
487.953	1645.81
488.171	1682.81
488.389	1657.81
488.607	1642.81
488.825	1633.81
489.043	1665.81
489.261	1620.81
489.479	1658.81
489.696	1656.81
489.914	1653.81
490.132	1632.81
490.35	1641.81
490.568	1666.81
490.786	1677.81
491.003	1636.81
491.221	1655.81
491.439	1674.81
491.657	1630.81
491.874	1674.81
492.092	1691.81
492.31	1685.81
492.527	1697.81
492.745	1676.81
492.963	1658.81
493.18	1647.81
493.398	1689.81
