Data from Fe(NO3)3@0.0125M.TitratingCurve.Agarose3%dH2O.NegLispCup.LampEnergy10.LIBS07252019_HRD10591_17-01-08-337.txt Node
Date: Thu Jul 25 17:01:08 EDT 2019
User: cochatt
Spectrometer: HR+D1059
Trigger mode: 1
Integration Time (sec): 1.000000E-1
Scans to average: 1
Electric dark correction enabled: true
Nonlinearity correction enabled: false
Boxcar width: 0
XAxis mode: Wavelengths
Number of Pixels in Spectrum: 2048
>>>>>Begin Spectral Data<<<<<
223.165	-10.06
223.4	-10.06
223.635	-10.06
223.869	-12.06
224.104	-12.06
224.338	-17.06
224.573	-21.06
224.808	-5.06
225.042	-10.06
225.277	-13.06
225.511	-9.06
225.746	6.94
225.98	1.94
226.215	13.94
226.449	9.94
226.683	11.94
226.918	29.94
227.152	34.94
227.387	19.94
227.621	37.94
227.856	48.94
228.09	31.94
228.324	51.94
228.559	71.94
228.793	62.94
229.027	62.94
229.262	73.94
229.496	70.94
229.73	90.94
229.964	87.94
230.199	82.94
230.433	87.94
230.667	90.94
230.901	93.94
231.136	87.94
231.37	90.94
231.604	80.94
231.838	104.94
232.072	81.94
232.306	101.94
232.541	102.94
232.775	96.94
233.009	94.94
233.243	100.94
233.477	95.94
233.711	85.94
233.945	75.94
234.179	95.94
234.413	107.94
234.647	115.94
234.881	100.94
235.115	97.94
235.349	87.94
235.583	94.94
235.817	101.94
236.051	93.94
236.285	80.94
236.519	90.94
236.753	88.94
236.987	108.94
237.221	91.94
237.455	99.94
237.689	87.94
237.922	73.94
238.156	106.94
238.39	85.94
238.624	99.94
238.858	104.94
239.091	106.94
239.325	103.94
239.559	96.94
239.793	107.94
240.027	91.94
240.26	93.94
240.494	100.94
240.728	104.94
240.961	104.94
241.195	108.94
241.429	85.94
241.662	95.94
241.896	99.94
242.13	111.94
242.363	99.94
242.597	115.94
242.83	103.94
243.064	108.94
243.298	117.94
243.531	104.94
243.765	112.94
243.998	113.94
244.232	102.94
244.465	105.94
244.699	108.94
244.932	114.94
245.166	106.94
245.399	121.94
245.633	127.94
245.866	100.94
246.099	121.94
246.333	107.94
246.566	117.94
246.8	116.94
247.033	115.94
247.266	108.94
247.5	111.94
247.733	113.94
247.966	115.94
248.2	124.94
248.433	114.94
248.666	125.94
248.899	119.94
249.133	119.94
249.366	138.94
249.599	127.94
249.832	115.94
250.066	114.94
250.299	120.94
250.532	116.94
250.765	113.94
250.998	145.94
251.231	132.94
251.465	122.94
251.698	117.94
251.931	122.94
252.164	116.94
252.397	101.94
252.63	125.94
252.863	122.94
253.096	120.94
253.329	129.94
253.562	127.94
253.795	140.94
254.028	136.94
254.261	122.94
254.494	116.94
254.727	143.94
254.96	133.94
255.193	128.94
255.426	143.94
255.659	127.94
255.892	124.94
256.124	124.94
256.357	131.94
256.59	119.94
256.823	131.94
257.056	135.94
257.289	135.94
257.521	132.94
257.754	137.94
257.987	135.94
258.22	119.94
258.452	137.94
258.685	129.94
258.918	126.94
259.151	141.94
259.383	132.94
259.616	137.94
259.849	131.94
260.081	139.94
260.314	148.94
260.547	153.94
260.779	132.94
261.012	140.94
261.244	147.94
261.477	133.94
261.71	145.94
261.942	148.94
262.175	141.94
262.407	129.94
262.64	145.94
262.872	151.94
263.105	148.94
263.337	150.94
263.57	149.94
263.802	150.94
264.035	144.94
264.267	153.94
264.499	144.94
264.732	133.94
264.964	152.94
265.197	158.94
265.429	135.94
265.661	163.94
265.894	137.94
266.126	138.94
266.358	139.94
266.591	138.94
266.823	141.94
267.055	158.94
267.287	157.94
267.52	143.94
267.752	150.94
267.984	146.94
268.216	162.94
268.448	128.94
268.681	143.94
268.913	147.94
269.145	145.94
269.377	139.94
269.609	152.94
269.841	169.94
270.073	157.94
270.306	152.94
270.538	159.94
270.77	171.94
271.002	149.94
271.234	151.94
271.466	157.94
271.698	171.94
271.93	147.94
272.162	162.94
272.394	192.94
272.626	164.94
272.858	151.94
273.09	153.94
273.322	179.94
273.553	173.94
273.785	181.94
274.017	172.94
274.249	172.94
274.481	194.94
274.713	185.94
274.945	191.94
275.176	179.94
275.408	172.94
275.64	181.94
275.872	185.94
276.104	189.94
276.335	165.94
276.567	176.94
276.799	167.94
277.031	175.94
277.262	172.94
277.494	187.94
277.726	169.94
277.957	179.94
278.189	183.94
278.421	164.94
278.652	174.94
278.884	183.94
279.115	173.94
279.347	171.94
279.579	182.94
279.81	188.94
280.042	188.94
280.273	205.94
280.505	178.94
280.736	187.94
280.968	188.94
281.199	186.94
281.431	184.94
281.662	172.94
281.894	181.94
282.125	192.94
282.356	177.94
282.588	186.94
282.819	197.94
283.051	187.94
283.282	195.94
283.513	206.94
283.745	192.94
283.976	201.94
284.207	194.94
284.439	177.94
284.67	187.94
284.901	195.94
285.132	198.94
285.364	191.94
285.595	199.94
285.826	201.94
286.057	176.94
286.288	184.94
286.52	202.94
286.751	193.94
286.982	203.94
287.213	184.94
287.444	200.94
287.675	200.94
287.906	205.94
288.138	211.94
288.369	198.94
288.6	185.94
288.831	183.94
289.062	177.94
289.293	197.94
289.524	199.94
289.755	204.94
289.986	213.94
290.217	201.94
290.448	214.94
290.679	211.94
290.91	187.94
291.141	196.94
291.371	211.94
291.602	192.94
291.833	190.94
292.064	216.94
292.295	193.94
292.526	213.94
292.757	197.94
292.987	199.94
293.218	214.94
293.449	203.94
293.68	232.94
293.91	205.94
294.141	208.94
294.372	211.94
294.603	198.94
294.833	197.94
295.064	226.94
295.295	209.94
295.525	211.94
295.756	216.94
295.987	206.94
296.217	213.94
296.448	197.94
296.679	224.94
296.909	202.94
297.14	214.94
297.37	215.94
297.601	218.94
297.831	213.94
298.062	209.94
298.292	211.94
298.523	199.94
298.753	201.94
298.984	233.94
299.214	221.94
299.445	232.94
299.675	213.94
299.905	233.94
300.136	214.94
300.366	236.94
300.597	216.94
300.827	221.94
301.057	228.94
301.288	210.94
301.518	209.94
301.748	231.94
301.979	230.94
302.209	242.94
302.439	245.94
302.669	226.94
302.9	239.94
303.13	226.94
303.36	247.94
303.59	247.94
303.82	241.94
304.051	246.94
304.281	235.94
304.511	231.94
304.741	226.94
304.971	205.94
305.201	233.94
305.431	241.94
305.661	250.94
305.891	250.94
306.121	237.94
306.352	237.94
306.582	246.94
306.812	235.94
307.042	234.94
307.272	240.94
307.502	236.94
307.731	247.94
307.961	242.94
308.191	238.94
308.421	242.94
308.651	228.94
308.881	232.94
309.111	234.94
309.341	241.94
309.571	243.94
309.8	234.94
310.03	249.94
310.26	235.94
310.49	226.94
310.72	247.94
310.949	264.94
311.179	241.94
311.409	241.94
311.639	241.94
311.868	241.94
312.098	253.94
312.328	265.94
312.557	241.94
312.787	263.94
313.017	263.94
313.246	243.94
313.476	257.94
313.706	243.94
313.935	240.94
314.165	263.94
314.394	263.94
314.624	261.94
314.853	259.94
315.083	260.94
315.312	261.94
315.542	266.94
315.771	252.94
316.001	253.94
316.23	254.94
316.46	249.94
316.689	251.94
316.919	257.94
317.148	277.94
317.377	256.94
317.607	259.94
317.836	267.94
318.065	269.94
318.295	251.94
318.524	241.94
318.753	265.94
318.983	258.94
319.212	261.94
319.441	272.94
319.67	253.94
319.9	259.94
320.129	270.94
320.358	275.94
320.587	269.94
320.816	259.94
321.046	260.94
321.275	275.94
321.504	257.94
321.733	272.94
321.962	263.94
322.191	275.94
322.42	267.94
322.649	266.94
322.878	240.94
323.108	279.94
323.337	275.94
323.566	255.94
323.795	280.94
324.024	276.94
324.253	256.94
324.482	283.94
324.71	283.94
324.939	292.94
325.168	265.94
325.397	289.94
325.626	269.94
325.855	280.94
326.084	293.94
326.313	267.94
326.542	274.94
326.77	276.94
326.999	290.94
327.228	286.94
327.457	279.94
327.686	275.94
327.914	262.94
328.143	273.94
328.372	287.94
328.6	277.94
328.829	304.94
329.058	279.94
329.287	267.94
329.515	297.94
329.744	275.94
329.972	303.94
330.201	311.94
330.43	269.94
330.658	286.94
330.887	282.94
331.115	296.94
331.344	297.94
331.572	308.94
331.801	290.94
332.03	300.94
332.258	287.94
332.486	304.94
332.715	298.94
332.943	291.94
333.172	320.94
333.4	313.94
333.629	313.94
333.857	314.94
334.085	304.94
334.314	305.94
334.542	308.94
334.771	302.94
334.999	323.94
335.227	323.94
335.455	315.94
335.684	313.94
335.912	308.94
336.14	307.94
336.369	334.94
336.597	325.94
336.825	321.94
337.053	316.94
337.281	333.94
337.51	293.94
337.738	309.94
337.966	315.94
338.194	321.94
338.422	325.94
338.65	299.94
338.878	325.94
339.106	296.94
339.334	319.94
339.562	329.94
339.79	301.94
340.018	287.94
340.246	319.94
340.474	316.94
340.702	303.94
340.93	314.94
341.158	328.94
341.386	315.94
341.614	285.94
341.842	307.94
342.07	295.94
342.298	311.94
342.526	311.94
342.754	299.94
342.981	301.94
343.209	307.94
343.437	334.94
343.665	308.94
343.893	316.94
344.12	321.94
344.348	320.94
344.576	312.94
344.804	312.94
345.031	328.94
345.259	292.94
345.487	283.94
345.714	303.94
345.942	305.94
346.17	280.94
346.397	303.94
346.625	300.94
346.853	305.94
347.08	307.94
347.308	285.94
347.535	275.94
347.763	279.94
347.99	296.94
348.218	279.94
348.445	273.94
348.673	299.94
348.9	297.94
349.128	304.94
349.355	292.94
349.583	286.94
349.81	292.94
350.037	299.94
350.265	285.94
350.492	294.94
350.72	303.94
350.947	277.94
351.174	297.94
351.402	303.94
351.629	293.94
351.856	276.94
352.083	286.94
352.311	284.94
352.538	293.94
352.765	292.94
352.992	288.94
353.22	309.94
353.447	309.94
353.674	291.94
353.901	293.94
354.128	294.94
354.355	295.94
354.583	317.94
354.81	294.94
355.037	293.94
355.264	285.94
355.491	290.94
355.718	273.94
355.945	292.94
356.172	293.94
356.399	282.94
356.626	312.94
356.853	303.94
357.08	291.94
357.307	306.94
357.534	283.94
357.761	295.94
357.988	287.94
358.215	292.94
358.441	305.94
358.668	300.94
358.895	291.94
359.122	291.94
359.349	294.94
359.576	289.94
359.802	279.94
360.029	288.94
360.256	292.94
360.483	291.94
360.709	298.94
360.936	309.94
361.163	286.94
361.39	303.94
361.616	293.94
361.843	297.94
362.07	300.94
362.296	295.94
362.523	306.94
362.749	290.94
362.976	291.94
363.203	305.94
363.429	297.94
363.656	280.94
363.882	294.94
364.109	313.94
364.335	300.94
364.562	307.94
364.788	328.94
365.015	299.94
365.241	303.94
365.468	307.94
365.694	284.94
365.92	300.94
366.147	292.94
366.373	320.94
366.599	312.94
366.826	286.94
367.052	299.94
367.278	325.94
367.505	303.94
367.731	314.94
367.957	306.94
368.184	299.94
368.41	311.94
368.636	305.94
368.862	309.94
369.089	304.94
369.315	314.94
369.541	310.94
369.767	311.94
369.993	327.94
370.219	306.94
370.445	310.94
370.672	325.94
370.898	307.94
371.124	317.94
371.35	312.94
371.576	322.94
371.802	321.94
372.028	326.94
372.254	337.94
372.48	329.94
372.706	328.94
372.932	320.94
373.158	312.94
373.384	328.94
373.61	325.94
373.835	320.94
374.061	329.94
374.287	319.94
374.513	307.94
374.739	324.94
374.965	345.94
375.191	355.94
375.416	334.94
375.642	326.94
375.868	328.94
376.094	323.94
376.319	311.94
376.545	324.94
376.771	309.94
376.997	309.94
377.222	312.94
377.448	310.94
377.674	317.94
377.899	310.94
378.125	314.94
378.35	329.94
378.576	317.94
378.802	329.94
379.027	310.94
379.253	329.94
379.478	314.94
379.704	317.94
379.929	344.94
380.155	328.94
380.38	312.94
380.606	317.94
380.831	319.94
381.057	332.94
381.282	309.94
381.507	330.94
381.733	317.94
381.958	356.94
382.184	331.94
382.409	337.94
382.634	341.94
382.86	332.94
383.085	340.94
383.31	336.94
383.535	339.94
383.761	334.94
383.986	341.94
384.211	352.94
384.436	350.94
384.662	337.94
384.887	351.94
385.112	348.94
385.337	356.94
385.562	344.94
385.787	359.94
386.013	348.94
386.238	364.94
386.463	351.94
386.688	352.94
386.913	356.94
387.138	368.94
387.363	363.94
387.588	349.94
387.813	371.94
388.038	367.94
388.263	364.94
388.488	375.94
388.713	374.94
388.938	360.94
389.163	364.94
389.387	353.94
389.612	343.94
389.837	353.94
390.062	354.94
390.287	368.94
390.512	334.94
390.736	362.94
390.961	358.94
391.186	382.94
391.411	382.94
391.636	374.94
391.86	381.94
392.085	358.94
392.31	377.94
392.534	394.94
392.759	378.94
392.984	374.94
393.208	351.94
393.433	387.94
393.658	359.94
393.882	394.94
394.107	377.94
394.331	385.94
394.556	374.94
394.78	379.94
395.005	373.94
395.229	381.94
395.454	368.94
395.678	383.94
395.903	394.94
396.127	375.94
396.352	372.94
396.576	381.94
396.801	387.94
397.025	403.94
397.249	390.94
397.474	387.94
397.698	375.94
397.922	389.94
398.147	386.94
398.371	403.94
398.595	404.94
398.82	417.94
399.044	410.94
399.268	439.94
399.492	450.94
399.717	457.94
399.941	455.94
400.165	467.94
400.389	459.94
400.613	445.94
400.837	422.94
401.062	444.94
401.286	407.94
401.51	411.94
401.734	419.94
401.958	416.94
402.182	419.94
402.406	409.94
402.63	423.94
402.854	412.94
403.078	398.94
403.302	396.94
403.526	431.94
403.75	379.94
403.974	406.94
404.198	412.94
404.422	416.94
404.645	417.94
404.869	416.94
405.093	437.94
405.317	419.94
405.541	426.94
405.765	427.94
405.988	420.94
406.212	441.94
406.436	424.94
406.66	439.94
406.883	431.94
407.107	434.94
407.331	443.94
407.555	467.94
407.778	455.94
408.002	445.94
408.226	448.94
408.449	431.94
408.673	466.94
408.896	445.94
409.12	456.94
409.344	438.94
409.567	432.94
409.791	428.94
410.014	431.94
410.238	429.94
410.461	431.94
410.685	417.94
410.908	407.94
411.132	442.94
411.355	401.94
411.578	425.94
411.802	400.94
412.025	417.94
412.249	428.94
412.472	429.94
412.695	405.94
412.919	417.94
413.142	433.94
413.365	413.94
413.589	417.94
413.812	425.94
414.035	427.94
414.258	427.94
414.482	419.94
414.705	417.94
414.928	419.94
415.151	398.94
415.374	396.94
415.597	413.94
415.821	407.94
416.044	411.94
416.267	399.94
416.49	406.94
416.713	403.94
416.936	394.94
417.159	415.94
417.382	403.94
417.605	386.94
417.828	420.94
418.051	390.94
418.274	383.94
418.497	395.94
418.72	409.94
418.943	392.94
419.166	400.94
419.389	417.94
419.611	418.94
419.834	427.94
420.057	399.94
420.28	392.94
420.503	390.94
420.726	376.94
420.948	385.94
421.171	407.94
421.394	399.94
421.617	388.94
421.839	401.94
422.062	388.94
422.285	386.94
422.507	389.94
422.73	377.94
422.953	392.94
423.175	396.94
423.398	387.94
423.621	398.94
423.843	415.94
424.066	389.94
424.288	381.94
424.511	392.94
424.733	394.94
424.956	379.94
425.178	378.94
425.401	392.94
425.623	393.94
425.846	384.94
426.068	385.94
426.291	384.94
426.513	383.94
426.735	403.94
426.958	389.94
427.18	385.94
427.402	378.94
427.625	376.94
427.847	383.94
428.069	376.94
428.292	397.94
428.514	385.94
428.736	378.94
428.958	401.94
429.181	371.94
429.403	360.94
429.625	363.94
429.847	381.94
430.069	373.94
430.292	392.94
430.514	377.94
430.736	375.94
430.958	381.94
431.18	369.94
431.402	373.94
431.624	380.94
431.846	373.94
432.068	403.94
432.29	385.94
432.512	397.94
432.734	373.94
432.956	393.94
433.178	383.94
433.4	377.94
433.622	382.94
433.844	391.94
434.066	377.94
434.287	384.94
434.509	399.94
434.731	399.94
434.953	405.94
435.175	375.94
435.397	403.94
435.618	387.94
435.84	383.94
436.062	385.94
436.284	391.94
436.505	386.94
436.727	393.94
436.949	369.94
437.17	384.94
437.392	360.94
437.614	371.94
437.835	362.94
438.057	373.94
438.278	375.94
438.5	385.94
438.721	359.94
438.943	365.94
439.165	362.94
439.386	368.94
439.608	361.94
439.829	397.94
440.05	377.94
440.272	354.94
440.493	376.94
440.715	389.94
440.936	379.94
441.158	361.94
441.379	389.94
441.6	376.94
441.822	386.94
442.043	392.94
442.264	386.94
442.486	395.94
442.707	392.94
442.928	390.94
443.149	391.94
443.371	397.94
443.592	410.94
443.813	401.94
444.034	379.94
444.255	374.94
444.476	421.94
444.698	409.94
444.919	394.94
445.14	484.94
445.361	420.94
445.582	369.94
445.803	377.94
446.024	375.94
446.245	376.94
446.466	384.94
446.687	372.94
446.908	381.94
447.129	363.94
447.35	375.94
447.571	369.94
447.792	367.94
448.013	360.94
448.234	346.94
448.455	339.94
448.675	346.94
448.896	358.94
449.117	357.94
449.338	369.94
449.559	365.94
449.779	370.94
450	348.94
450.221	354.94
450.442	340.94
450.662	365.94
450.883	338.94
451.104	359.94
451.324	338.94
451.545	335.94
451.766	352.94
451.986	344.94
452.207	329.94
452.428	331.94
452.648	337.94
452.869	343.94
453.089	326.94
453.31	335.94
453.53	365.94
453.751	343.94
453.971	338.94
454.192	336.94
454.412	335.94
454.633	331.94
454.853	345.94
455.073	316.94
455.294	332.94
455.514	344.94
455.734	330.94
455.955	337.94
456.175	340.94
456.395	345.94
456.616	353.94
456.836	330.94
457.056	330.94
457.276	322.94
457.497	359.94
457.717	346.94
457.937	353.94
458.157	348.94
458.377	348.94
458.598	365.94
458.818	348.94
459.038	367.94
459.258	377.94
459.478	362.94
459.698	377.94
459.918	369.94
460.138	388.94
460.358	387.94
460.578	396.94
460.798	410.94
461.018	391.94
461.238	411.94
461.458	434.94
461.678	416.94
461.898	397.94
462.118	407.94
462.338	428.94
462.558	429.94
462.777	416.94
462.997	436.94
463.217	439.94
463.437	461.94
463.657	429.94
463.876	447.94
464.096	426.94
464.316	423.94
464.536	418.94
464.755	433.94
464.975	415.94
465.195	395.94
465.414	391.94
465.634	405.94
465.854	389.94
466.073	394.94
466.293	367.94
466.512	385.94
466.732	372.94
466.951	380.94
467.171	368.94
467.391	376.94
467.61	355.94
467.829	364.94
468.049	374.94
468.268	376.94
468.488	358.94
468.707	363.94
468.927	352.94
469.146	363.94
469.365	387.94
469.585	375.94
469.804	360.94
470.023	379.94
470.243	371.94
470.462	368.94
470.681	376.94
470.901	388.94
471.12	375.94
471.339	391.94
471.558	373.94
471.777	377.94
471.997	382.94
472.216	352.94
472.435	362.94
472.654	375.94
472.873	385.94
473.092	367.94
473.311	371.94
473.53	385.94
473.749	372.94
473.968	374.94
474.187	342.94
474.406	379.94
474.625	375.94
474.844	393.94
475.063	387.94
475.282	381.94
475.501	377.94
475.72	387.94
475.939	387.94
476.158	403.94
476.377	387.94
476.596	407.94
476.814	423.94
477.033	381.94
477.252	389.94
477.471	397.94
477.69	415.94
477.908	415.94
478.127	419.94
478.346	425.94
478.564	433.94
478.783	451.94
479.002	419.94
479.22	413.94
479.439	459.94
479.658	437.94
479.876	423.94
480.095	417.94
480.313	410.94
480.532	443.94
480.751	435.94
480.969	437.94
481.188	439.94
481.406	423.94
481.624	448.94
481.843	441.94
482.061	427.94
482.28	443.94
482.498	449.94
482.717	408.94
482.935	462.94
483.153	429.94
483.372	439.94
483.59	465.94
483.808	437.94
484.027	441.94
484.245	449.94
484.463	465.94
484.681	446.94
484.9	445.94
485.118	448.94
485.336	461.94
485.554	463.94
485.772	457.94
485.99	457.94
486.209	451.94
486.427	458.94
486.645	466.94
486.863	455.94
487.081	449.94
487.299	478.94
487.517	458.94
487.735	456.94
487.953	467.94
488.171	449.94
488.389	447.94
488.607	492.94
488.825	459.94
489.043	438.94
489.261	433.94
489.479	448.94
489.696	451.94
489.914	429.94
490.132	445.94
490.35	443.94
490.568	464.94
490.786	484.94
491.003	473.94
491.221	456.94
491.439	461.94
491.657	468.94
491.874	455.94
492.092	460.94
492.31	481.94
492.527	470.94
492.745	462.94
492.963	460.94
493.18	486.94
493.398	470.94
493.615	464.94
493.833	480.94
494.05	455.94
494.268	484.94
494.485	484.94
494.703	474.94
494.92	450.94
495.138	475.94
495.355	480.94
495.573	478.94
495.79	485.94
496.008	492.94
496.225	482.94
496.442	490.94
496.66	493.94
496.877	502.94
497.094	516.94
497.312	496.94
497.529	490.94
497.746	524.94
497.963	523.94
498.181	570.94
498.398	559.94
498.615	564.94
498.832	584.94
499.049	597.94
499.267	615.94
499.484	626.94
499.701	641.94
499.918	677.94
500.135	714.94
500.352	720.94
500.569	700.94
500.786	728.94
501.003	711.94
501.22	705.94
501.437	673.94
501.654	645.94
501.871	634.94
502.088	616.94
