Data from Fe(NO3)3@0.1M.TitratingCurve.Agarose3%dH2O.NegLispCup.LampEnergy10.LIBS07252019_HRD10591_16-37-58-332.txt Node
Date: Thu Jul 25 16:37:58 EDT 2019
User: cochatt
Spectrometer: HR+D1059
Trigger mode: 1
Integration Time (sec): 1.000000E-1
Scans to average: 1
Electric dark correction enabled: true
Nonlinearity correction enabled: false
Boxcar width: 0
XAxis mode: Wavelengths
Number of Pixels in Spectrum: 2048
>>>>>Begin Spectral Data<<<<<
223.165	-18.56
223.4	-18.56
223.635	-18.56
223.869	-15.56
224.104	0.44
224.338	-19.56
224.573	-29.56
224.808	-33.56
225.042	-8.56
225.277	5.44
225.511	4.44
225.746	4.44
225.98	0.44
226.215	9.44
226.449	20.44
226.683	35.44
226.918	20.44
227.152	24.44
227.387	25.44
227.621	36.44
227.856	52.44
228.09	50.44
228.324	39.44
228.559	58.44
228.793	54.44
229.027	66.44
229.262	54.44
229.496	62.44
229.73	76.44
229.964	74.44
230.199	85.44
230.433	76.44
230.667	67.44
230.901	80.44
231.136	78.44
231.37	82.44
231.604	65.44
231.838	78.44
232.072	88.44
232.306	86.44
232.541	64.44
232.775	89.44
233.009	98.44
233.243	99.44
233.477	85.44
233.711	80.44
233.945	85.44
234.179	89.44
234.413	96.44
234.647	97.44
234.881	85.44
235.115	77.44
235.349	78.44
235.583	97.44
235.817	96.44
236.051	85.44
236.285	89.44
236.519	91.44
236.753	105.44
236.987	83.44
237.221	82.44
237.455	75.44
237.689	79.44
237.922	90.44
238.156	89.44
238.39	78.44
238.624	89.44
238.858	95.44
239.091	91.44
239.325	78.44
239.559	96.44
239.793	76.44
240.027	82.44
240.26	68.44
240.494	81.44
240.728	76.44
240.961	80.44
241.195	84.44
241.429	79.44
241.662	82.44
241.896	87.44
242.13	96.44
242.363	89.44
242.597	90.44
242.83	70.44
243.064	87.44
243.298	74.44
243.531	85.44
243.765	87.44
243.998	96.44
244.232	95.44
244.465	78.44
244.699	79.44
244.932	80.44
245.166	85.44
245.399	75.44
245.633	92.44
245.866	81.44
246.099	84.44
246.333	99.44
246.566	92.44
246.8	93.44
247.033	104.44
247.266	82.44
247.5	76.44
247.733	66.44
247.966	93.44
248.2	95.44
248.433	95.44
248.666	86.44
248.899	76.44
249.133	84.44
249.366	96.44
249.599	89.44
249.832	72.44
250.066	85.44
250.299	93.44
250.532	94.44
250.765	92.44
250.998	96.44
251.231	91.44
251.465	100.44
251.698	84.44
251.931	87.44
252.164	93.44
252.397	93.44
252.63	107.44
252.863	101.44
253.096	93.44
253.329	103.44
253.562	109.44
253.795	115.44
254.028	96.44
254.261	96.44
254.494	99.44
254.727	107.44
254.96	96.44
255.193	92.44
255.426	98.44
255.659	97.44
255.892	87.44
256.124	89.44
256.357	108.44
256.59	89.44
256.823	98.44
257.056	88.44
257.289	99.44
257.521	77.44
257.754	82.44
257.987	86.44
258.22	113.44
258.452	108.44
258.685	110.44
258.918	94.44
259.151	104.44
259.383	104.44
259.616	102.44
259.849	95.44
260.081	98.44
260.314	115.44
260.547	109.44
260.779	94.44
261.012	88.44
261.244	83.44
261.477	102.44
261.71	105.44
261.942	100.44
262.175	100.44
262.407	98.44
262.64	94.44
262.872	91.44
263.105	107.44
263.337	109.44
263.57	108.44
263.802	116.44
264.035	96.44
264.267	90.44
264.499	100.44
264.732	100.44
264.964	105.44
265.197	98.44
265.429	100.44
265.661	99.44
265.894	95.44
266.126	104.44
266.358	92.44
266.591	87.44
266.823	86.44
267.055	91.44
267.287	102.44
267.52	95.44
267.752	109.44
267.984	108.44
268.216	99.44
268.448	96.44
268.681	100.44
268.913	96.44
269.145	99.44
269.377	97.44
269.609	100.44
269.841	110.44
270.073	117.44
270.306	112.44
270.538	103.44
270.77	98.44
271.002	101.44
271.234	93.44
271.466	93.44
271.698	94.44
271.93	115.44
272.162	99.44
272.394	104.44
272.626	98.44
272.858	100.44
273.09	107.44
273.322	97.44
273.553	108.44
273.785	122.44
274.017	105.44
274.249	115.44
274.481	114.44
274.713	103.44
274.945	118.44
275.176	106.44
275.408	102.44
275.64	108.44
275.872	107.44
276.104	106.44
276.335	105.44
276.567	97.44
276.799	98.44
277.031	112.44
277.262	100.44
277.494	111.44
277.726	115.44
277.957	116.44
278.189	116.44
278.421	83.44
278.652	114.44
278.884	122.44
279.115	121.44
279.347	109.44
279.579	121.44
279.81	101.44
280.042	104.44
280.273	118.44
280.505	115.44
280.736	119.44
280.968	103.44
281.199	109.44
281.431	115.44
281.662	110.44
281.894	117.44
282.125	106.44
282.356	112.44
282.588	116.44
282.819	124.44
283.051	109.44
283.282	104.44
283.513	115.44
283.745	119.44
283.976	117.44
284.207	122.44
284.439	134.44
284.67	113.44
284.901	108.44
285.132	113.44
285.364	108.44
285.595	118.44
285.826	107.44
286.057	121.44
286.288	109.44
286.52	116.44
286.751	108.44
286.982	115.44
287.213	112.44
287.444	117.44
287.675	113.44
287.906	131.44
288.138	87.44
288.369	128.44
288.6	120.44
288.831	105.44
289.062	106.44
289.293	118.44
289.524	99.44
289.755	110.44
289.986	99.44
290.217	108.44
290.448	123.44
290.679	118.44
290.91	121.44
291.141	117.44
291.371	115.44
291.602	117.44
291.833	117.44
292.064	118.44
292.295	117.44
292.526	119.44
292.757	103.44
292.987	116.44
293.218	118.44
293.449	112.44
293.68	104.44
293.91	122.44
294.141	102.44
294.372	107.44
294.603	121.44
294.833	118.44
295.064	102.44
295.295	104.44
295.525	134.44
295.756	121.44
295.987	114.44
296.217	137.44
296.448	118.44
296.679	124.44
296.909	109.44
297.14	125.44
297.37	108.44
297.601	127.44
297.831	122.44
298.062	108.44
298.292	114.44
298.523	122.44
298.753	125.44
298.984	139.44
299.214	124.44
299.445	116.44
299.675	132.44
299.905	113.44
300.136	121.44
300.366	114.44
300.597	121.44
300.827	108.44
301.057	132.44
301.288	134.44
301.518	116.44
301.748	121.44
301.979	103.44
302.209	123.44
302.439	133.44
302.669	121.44
302.9	122.44
303.13	117.44
303.36	123.44
303.59	128.44
303.82	120.44
304.051	113.44
304.281	126.44
304.511	122.44
304.741	144.44
304.971	113.44
305.201	129.44
305.431	132.44
305.661	132.44
305.891	126.44
306.121	126.44
306.352	142.44
306.582	133.44
306.812	120.44
307.042	114.44
307.272	144.44
307.502	142.44
307.731	140.44
307.961	114.44
308.191	125.44
308.421	124.44
308.651	124.44
308.881	111.44
309.111	118.44
309.341	126.44
309.571	121.44
309.8	122.44
310.03	132.44
310.26	127.44
310.49	122.44
310.72	126.44
310.949	127.44
311.179	129.44
311.409	148.44
311.639	126.44
311.868	128.44
312.098	132.44
312.328	114.44
312.557	133.44
312.787	114.44
313.017	122.44
313.246	117.44
313.476	136.44
313.706	124.44
313.935	131.44
314.165	136.44
314.394	130.44
314.624	128.44
314.853	130.44
315.083	124.44
315.312	125.44
315.542	134.44
315.771	140.44
316.001	137.44
316.23	128.44
316.46	138.44
316.689	130.44
316.919	133.44
317.148	127.44
317.377	125.44
317.607	142.44
317.836	128.44
318.065	128.44
318.295	129.44
318.524	130.44
318.753	122.44
318.983	137.44
319.212	132.44
319.441	141.44
319.67	137.44
319.9	133.44
320.129	124.44
320.358	127.44
320.587	126.44
320.816	126.44
321.046	109.44
321.275	129.44
321.504	131.44
321.733	116.44
321.962	125.44
322.191	121.44
322.42	128.44
322.649	124.44
322.878	130.44
323.108	113.44
323.337	143.44
323.566	132.44
323.795	128.44
324.024	150.44
324.253	128.44
324.482	128.44
324.71	124.44
324.939	118.44
325.168	125.44
325.397	122.44
325.626	123.44
325.855	136.44
326.084	128.44
326.313	128.44
326.542	138.44
326.77	135.44
326.999	133.44
327.228	116.44
327.457	141.44
327.686	122.44
327.914	120.44
328.143	129.44
328.372	134.44
328.6	122.44
328.829	127.44
329.058	133.44
329.287	139.44
329.515	139.44
329.744	149.44
329.972	142.44
330.201	137.44
330.43	126.44
330.658	132.44
330.887	139.44
331.115	134.44
331.344	148.44
331.572	145.44
331.801	147.44
332.03	136.44
332.258	157.44
332.486	152.44
332.715	133.44
332.943	152.44
333.172	155.44
333.4	160.44
333.629	156.44
333.857	142.44
334.085	136.44
334.314	145.44
334.542	156.44
334.771	158.44
334.999	140.44
335.227	132.44
335.455	141.44
335.684	143.44
335.912	153.44
336.14	145.44
336.369	143.44
336.597	128.44
336.825	135.44
337.053	134.44
337.281	147.44
337.51	142.44
337.738	141.44
337.966	141.44
338.194	124.44
338.422	143.44
338.65	118.44
338.878	138.44
339.106	137.44
339.334	128.44
339.562	135.44
339.79	139.44
340.018	141.44
340.246	135.44
340.474	124.44
340.702	140.44
340.93	126.44
341.158	129.44
341.386	142.44
341.614	134.44
341.842	142.44
342.07	126.44
342.298	124.44
342.526	124.44
342.754	140.44
342.981	143.44
343.209	132.44
343.437	130.44
343.665	150.44
343.893	151.44
344.12	146.44
344.348	146.44
344.576	149.44
344.804	140.44
345.031	135.44
345.259	141.44
345.487	142.44
345.714	137.44
345.942	141.44
346.17	150.44
346.397	136.44
346.625	142.44
346.853	134.44
347.08	126.44
347.308	145.44
347.535	152.44
347.763	143.44
347.99	130.44
348.218	136.44
348.445	129.44
348.673	148.44
348.9	150.44
349.128	133.44
349.355	150.44
349.583	137.44
349.81	148.44
350.037	135.44
350.265	134.44
350.492	128.44
350.72	149.44
350.947	136.44
351.174	133.44
351.402	141.44
351.629	133.44
351.856	125.44
352.083	136.44
352.311	138.44
352.538	147.44
352.765	125.44
352.992	137.44
353.22	123.44
353.447	143.44
353.674	134.44
353.901	153.44
354.128	145.44
354.355	131.44
354.583	133.44
354.81	146.44
355.037	150.44
355.264	154.44
355.491	129.44
355.718	141.44
355.945	133.44
356.172	123.44
356.399	151.44
356.626	137.44
356.853	139.44
357.08	142.44
357.307	139.44
357.534	125.44
357.761	117.44
357.988	138.44
358.215	140.44
358.441	143.44
358.668	127.44
358.895	132.44
359.122	137.44
359.349	135.44
359.576	146.44
359.802	147.44
360.029	130.44
360.256	139.44
360.483	130.44
360.709	141.44
360.936	136.44
361.163	135.44
361.39	140.44
361.616	140.44
361.843	142.44
362.07	131.44
362.296	132.44
362.523	126.44
362.749	134.44
362.976	129.44
363.203	147.44
363.429	141.44
363.656	140.44
363.882	131.44
364.109	147.44
364.335	144.44
364.562	147.44
364.788	137.44
365.015	129.44
365.241	136.44
365.468	118.44
365.694	132.44
365.92	136.44
366.147	121.44
366.373	138.44
366.599	141.44
366.826	151.44
367.052	139.44
367.278	150.44
367.505	142.44
367.731	144.44
367.957	144.44
368.184	140.44
368.41	132.44
368.636	135.44
368.862	148.44
369.089	136.44
369.315	157.44
369.541	136.44
369.767	149.44
369.993	143.44
370.219	150.44
370.445	136.44
370.672	132.44
370.898	142.44
371.124	157.44
371.35	126.44
371.576	139.44
371.802	129.44
372.028	155.44
372.254	146.44
372.48	148.44
372.706	146.44
372.932	157.44
373.158	148.44
373.384	150.44
373.61	157.44
373.835	157.44
374.061	146.44
374.287	148.44
374.513	156.44
374.739	149.44
374.965	168.44
375.191	164.44
375.416	169.44
375.642	171.44
375.868	151.44
376.094	148.44
376.319	138.44
376.545	140.44
376.771	158.44
376.997	146.44
377.222	150.44
377.448	141.44
377.674	142.44
377.899	141.44
378.125	142.44
378.35	142.44
378.576	150.44
378.802	162.44
379.027	148.44
379.253	160.44
379.478	151.44
379.704	155.44
379.929	154.44
380.155	155.44
380.38	166.44
380.606	147.44
380.831	143.44
381.057	161.44
381.282	163.44
381.507	159.44
381.733	171.44
381.958	137.44
382.184	158.44
382.409	169.44
382.634	166.44
382.86	180.44
383.085	180.44
383.31	169.44
383.535	163.44
383.761	173.44
383.986	165.44
384.211	151.44
384.436	160.44
384.662	169.44
384.887	169.44
385.112	181.44
385.337	177.44
385.562	162.44
385.787	168.44
386.013	182.44
386.238	178.44
386.463	170.44
386.688	165.44
386.913	156.44
387.138	169.44
387.363	169.44
387.588	178.44
387.813	178.44
388.038	163.44
388.263	181.44
388.488	178.44
388.713	182.44
388.938	171.44
389.163	167.44
389.387	166.44
389.612	164.44
389.837	175.44
390.062	190.44
390.287	176.44
390.512	180.44
390.736	179.44
390.961	178.44
391.186	174.44
391.411	178.44
391.636	171.44
391.86	181.44
392.085	190.44
392.31	199.44
392.534	172.44
392.759	185.44
392.984	172.44
393.208	172.44
393.433	186.44
393.658	176.44
393.882	193.44
394.107	162.44
394.331	180.44
394.556	198.44
394.78	192.44
395.005	183.44
395.229	184.44
395.454	177.44
395.678	173.44
395.903	184.44
396.127	187.44
396.352	193.44
396.576	182.44
396.801	179.44
397.025	179.44
397.249	190.44
397.474	189.44
397.698	188.44
397.922	188.44
398.147	204.44
398.371	185.44
398.595	188.44
398.82	209.44
399.044	197.44
399.268	228.44
399.492	240.44
399.717	252.44
399.941	248.44
400.165	230.44
400.389	221.44
400.613	206.44
400.837	195.44
401.062	214.44
401.286	212.44
401.51	214.44
401.734	196.44
401.958	199.44
402.182	197.44
402.406	204.44
402.63	203.44
402.854	212.44
403.078	196.44
403.302	225.44
403.526	220.44
403.75	214.44
403.974	229.44
404.198	209.44
404.422	212.44
404.645	217.44
404.869	218.44
405.093	205.44
405.317	228.44
405.541	231.44
405.765	213.44
405.988	210.44
406.212	217.44
406.436	228.44
406.66	216.44
406.883	226.44
407.107	237.44
407.331	242.44
407.555	249.44
407.778	230.44
408.002	227.44
408.226	221.44
408.449	217.44
408.673	233.44
408.896	224.44
409.12	225.44
409.344	219.44
409.567	204.44
409.791	221.44
410.014	229.44
410.238	226.44
410.461	222.44
410.685	229.44
410.908	214.44
411.132	229.44
411.355	213.44
411.578	216.44
411.802	229.44
412.025	193.44
412.249	213.44
412.472	240.44
412.695	232.44
412.919	225.44
413.142	204.44
413.365	192.44
413.589	208.44
413.812	209.44
414.035	202.44
414.258	213.44
414.482	212.44
414.705	217.44
414.928	200.44
415.151	211.44
415.374	203.44
415.597	212.44
415.821	202.44
416.044	200.44
416.267	216.44
416.49	209.44
416.713	214.44
416.936	206.44
417.159	209.44
417.382	198.44
417.605	212.44
417.828	195.44
418.051	229.44
418.274	216.44
418.497	210.44
418.72	215.44
418.943	216.44
419.166	224.44
419.389	229.44
419.611	222.44
419.834	239.44
420.057	219.44
420.28	211.44
420.503	202.44
420.726	210.44
420.948	212.44
421.171	212.44
421.394	205.44
421.617	224.44
421.839	214.44
422.062	197.44
422.285	213.44
422.507	222.44
422.73	206.44
422.953	219.44
423.175	217.44
423.398	207.44
423.621	225.44
423.843	230.44
424.066	205.44
424.288	226.44
424.511	225.44
424.733	202.44
424.956	194.44
425.178	214.44
425.401	209.44
425.623	222.44
425.846	227.44
426.068	201.44
426.291	203.44
426.513	210.44
426.735	192.44
426.958	211.44
427.18	215.44
427.402	210.44
427.625	205.44
427.847	194.44
428.069	203.44
428.292	198.44
428.514	196.44
428.736	200.44
428.958	206.44
429.181	193.44
429.403	202.44
429.625	202.44
429.847	181.44
430.069	195.44
430.292	193.44
430.514	203.44
430.736	184.44
430.958	196.44
431.18	192.44
431.402	188.44
431.624	206.44
431.846	198.44
432.068	179.44
432.29	199.44
432.512	192.44
432.734	217.44
432.956	212.44
433.178	205.44
433.4	185.44
433.622	209.44
433.844	210.44
434.066	189.44
434.287	203.44
434.509	210.44
434.731	200.44
434.953	196.44
435.175	228.44
435.397	217.44
435.618	224.44
435.84	205.44
436.062	192.44
436.284	197.44
436.505	201.44
436.727	220.44
436.949	196.44
437.17	194.44
437.392	200.44
437.614	205.44
437.835	199.44
438.057	198.44
438.278	186.44
438.5	185.44
438.721	211.44
438.943	190.44
439.165	210.44
439.386	200.44
439.608	184.44
439.829	192.44
440.05	191.44
440.272	187.44
440.493	195.44
440.715	204.44
440.936	204.44
441.158	210.44
441.379	193.44
441.6	207.44
441.822	217.44
442.043	209.44
442.264	207.44
442.486	222.44
442.707	212.44
442.928	226.44
443.149	220.44
443.371	200.44
443.592	210.44
443.813	200.44
444.034	208.44
444.255	210.44
444.476	224.44
444.698	227.44
444.919	246.44
445.14	363.44
445.361	297.44
445.582	211.44
445.803	220.44
446.024	208.44
446.245	220.44
446.466	208.44
446.687	195.44
446.908	190.44
447.129	210.44
447.35	196.44
447.571	202.44
447.792	204.44
448.013	199.44
448.234	206.44
448.455	205.44
448.675	197.44
448.896	182.44
449.117	193.44
449.338	176.44
449.559	188.44
449.779	171.44
450	180.44
450.221	191.44
450.442	190.44
450.662	203.44
450.883	193.44
451.104	194.44
451.324	189.44
451.545	185.44
451.766	187.44
451.986	189.44
452.207	185.44
452.428	181.44
452.648	183.44
452.869	189.44
453.089	187.44
453.31	186.44
453.53	193.44
453.751	186.44
453.971	175.44
454.192	184.44
454.412	171.44
454.633	192.44
454.853	170.44
455.073	193.44
455.294	183.44
455.514	189.44
455.734	188.44
455.955	193.44
456.175	174.44
456.395	184.44
456.616	174.44
456.836	192.44
457.056	181.44
457.276	181.44
457.497	188.44
457.717	186.44
457.937	187.44
458.157	177.44
458.377	191.44
458.598	174.44
458.818	179.44
459.038	193.44
459.258	197.44
459.478	218.44
459.698	183.44
459.918	204.44
460.138	218.44
460.358	224.44
460.578	221.44
460.798	226.44
461.018	230.44
461.238	214.44
461.458	218.44
461.678	236.44
461.898	225.44
462.118	229.44
462.338	239.44
462.558	222.44
462.777	240.44
462.997	234.44
463.217	278.44
463.437	257.44
463.657	237.44
463.876	248.44
464.096	233.44
464.316	249.44
464.536	244.44
464.755	248.44
464.975	244.44
465.195	225.44
465.414	221.44
465.634	206.44
465.854	210.44
466.073	212.44
466.293	209.44
466.512	206.44
466.732	205.44
466.951	197.44
467.171	208.44
467.391	208.44
467.61	207.44
467.829	206.44
468.049	201.44
468.268	193.44
468.488	197.44
468.707	202.44
468.927	200.44
469.146	207.44
469.365	206.44
469.585	200.44
469.804	208.44
470.023	211.44
470.243	201.44
470.462	202.44
470.681	209.44
470.901	210.44
471.12	220.44
471.339	213.44
471.558	192.44
471.777	212.44
471.997	212.44
472.216	203.44
472.435	190.44
472.654	192.44
472.873	174.44
473.092	180.44
473.311	200.44
473.53	203.44
473.749	197.44
473.968	211.44
474.187	188.44
474.406	195.44
474.625	190.44
474.844	205.44
475.063	199.44
475.282	196.44
475.501	201.44
475.72	202.44
475.939	203.44
476.158	187.44
476.377	202.44
476.596	195.44
476.814	196.44
477.033	209.44
477.252	205.44
477.471	206.44
477.69	203.44
477.908	218.44
478.127	225.44
478.346	221.44
478.564	226.44
478.783	229.44
479.002	228.44
479.22	222.44
479.439	221.44
479.658	230.44
479.876	225.44
480.095	213.44
480.313	230.44
480.532	226.44
480.751	222.44
480.969	221.44
481.188	198.44
481.406	219.44
481.624	220.44
481.843	204.44
482.061	217.44
482.28	211.44
482.498	201.44
482.717	213.44
482.935	214.44
483.153	229.44
483.372	238.44
483.59	202.44
483.808	216.44
484.027	201.44
484.245	194.44
484.463	215.44
484.681	234.44
484.9	224.44
485.118	221.44
485.336	230.44
485.554	224.44
485.772	209.44
485.99	212.44
486.209	218.44
486.427	218.44
486.645	237.44
486.863	226.44
487.081	229.44
487.299	240.44
487.517	230.44
487.735	224.44
487.953	231.44
488.171	233.44
488.389	237.44
488.607	226.44
488.825	212.44
489.043	235.44
489.261	226.44
489.479	227.44
489.696	228.44
489.914	240.44
490.132	220.44
490.35	212.44
490.568	223.44
490.786	218.44
491.003	209.44
491.221	231.44
491.439	245.44
491.657	234.44
491.874	225.44
492.092	246.44
492.31	237.44
492.527	236.44
492.745	232.44
492.963	248.44
493.18	244.44
493.398	229.44
493.615	250.44
493.833	234.44
494.05	243.44
494.268	256.44
494.485	237.44
494.703	222.44
494.92	234.44
495.138	233.44
495.355	241.44
495.573	240.44
495.79	256.44
496.008	259.44
496.225	244.44
496.442	233.44
496.66	245.44
496.877	258.44
497.094	245.44
497.312	247.44
497.529	252.44
497.746	260.44
497.963	240.44
498.181	273.44
498.398	278.44
498.615	282.44
498.832	287.44
499.049	304.44
499.267	334.44
499.484	339.44
499.701	364.44
499.918	394.44
500.135	416.44
500.352	461.44
500.569	462.44
500.786	450.44
501.003	448.44
501.22	406.44
501.437	380.44
501.654	346.44
501.871	336.44
502.088	317.44
502.305	322.44
502.522	291.44
502.739	279.44
502.956	274.44
503.172	270.44
503.389	260.44
503.606	257.44
