Data from Fe(NO3)3@0.025M.TitratingCurve.Agarose3%dH2O.NegLispCup.LampEnergy10.LIBS07252019_HRD10591_16-54-45-335.txt Node
Date: Thu Jul 25 16:54:45 EDT 2019
User: cochatt
Spectrometer: HR+D1059
Trigger mode: 1
Integration Time (sec): 1.000000E-1
Scans to average: 1
Electric dark correction enabled: true
Nonlinearity correction enabled: false
Boxcar width: 0
XAxis mode: Wavelengths
Number of Pixels in Spectrum: 2048
>>>>>Begin Spectral Data<<<<<
223.165	-10.56
223.4	-10.56
223.635	-10.56
223.869	-17.56
224.104	-19.56
224.338	-18.56
224.573	-11.56
224.808	-34.56
225.042	-0.56
225.277	-3.56
225.511	3.44
225.746	12.44
225.98	-10.56
226.215	-2.56
226.449	29.44
226.683	8.44
226.918	30.44
227.152	45.44
227.387	35.44
227.621	49.44
227.856	48.44
228.09	32.44
228.324	52.44
228.559	66.44
228.793	67.44
229.027	77.44
229.262	80.44
229.496	70.44
229.73	71.44
229.964	91.44
230.199	83.44
230.433	83.44
230.667	96.44
230.901	91.44
231.136	106.44
231.37	92.44
231.604	81.44
231.838	89.44
232.072	87.44
232.306	101.44
232.541	96.44
232.775	100.44
233.009	92.44
233.243	91.44
233.477	93.44
233.711	104.44
233.945	107.44
234.179	103.44
234.413	99.44
234.647	98.44
234.881	99.44
235.115	113.44
235.349	101.44
235.583	105.44
235.817	102.44
236.051	96.44
236.285	96.44
236.519	103.44
236.753	93.44
236.987	100.44
237.221	94.44
237.455	87.44
237.689	114.44
237.922	99.44
238.156	82.44
238.39	97.44
238.624	97.44
238.858	111.44
239.091	106.44
239.325	107.44
239.559	101.44
239.793	104.44
240.027	115.44
240.26	99.44
240.494	107.44
240.728	98.44
240.961	112.44
241.195	98.44
241.429	104.44
241.662	80.44
241.896	100.44
242.13	98.44
242.363	105.44
242.597	101.44
242.83	102.44
243.064	99.44
243.298	113.44
243.531	117.44
243.765	97.44
243.998	106.44
244.232	101.44
244.465	105.44
244.699	103.44
244.932	108.44
245.166	102.44
245.399	115.44
245.633	118.44
245.866	97.44
246.099	109.44
246.333	93.44
246.566	104.44
246.8	109.44
247.033	100.44
247.266	99.44
247.5	124.44
247.733	118.44
247.966	124.44
248.2	124.44
248.433	96.44
248.666	110.44
248.899	120.44
249.133	105.44
249.366	116.44
249.599	119.44
249.832	119.44
250.066	100.44
250.299	112.44
250.532	116.44
250.765	124.44
250.998	123.44
251.231	128.44
251.465	123.44
251.698	114.44
251.931	116.44
252.164	100.44
252.397	115.44
252.63	121.44
252.863	114.44
253.096	110.44
253.329	116.44
253.562	122.44
253.795	125.44
254.028	132.44
254.261	112.44
254.494	107.44
254.727	126.44
254.96	109.44
255.193	118.44
255.426	141.44
255.659	125.44
255.892	128.44
256.124	139.44
256.357	134.44
256.59	125.44
256.823	122.44
257.056	125.44
257.289	140.44
257.521	139.44
257.754	127.44
257.987	139.44
258.22	158.44
258.452	116.44
258.685	112.44
258.918	131.44
259.151	127.44
259.383	138.44
259.616	121.44
259.849	136.44
260.081	127.44
260.314	127.44
260.547	142.44
260.779	126.44
261.012	140.44
261.244	128.44
261.477	157.44
261.71	134.44
261.942	140.44
262.175	143.44
262.407	137.44
262.64	156.44
262.872	139.44
263.105	136.44
263.337	142.44
263.57	138.44
263.802	137.44
264.035	134.44
264.267	154.44
264.499	152.44
264.732	152.44
264.964	148.44
265.197	150.44
265.429	152.44
265.661	140.44
265.894	150.44
266.126	157.44
266.358	137.44
266.591	138.44
266.823	143.44
267.055	123.44
267.287	148.44
267.52	145.44
267.752	136.44
267.984	139.44
268.216	156.44
268.448	140.44
268.681	160.44
268.913	130.44
269.145	156.44
269.377	152.44
269.609	142.44
269.841	133.44
270.073	150.44
270.306	149.44
270.538	158.44
270.77	137.44
271.002	150.44
271.234	148.44
271.466	148.44
271.698	152.44
271.93	154.44
272.162	157.44
272.394	143.44
272.626	149.44
272.858	174.44
273.09	165.44
273.322	148.44
273.553	153.44
273.785	162.44
274.017	168.44
274.249	164.44
274.481	159.44
274.713	136.44
274.945	158.44
275.176	156.44
275.408	156.44
275.64	157.44
275.872	160.44
276.104	170.44
276.335	159.44
276.567	157.44
276.799	164.44
277.031	166.44
277.262	167.44
277.494	170.44
277.726	162.44
277.957	158.44
278.189	178.44
278.421	173.44
278.652	158.44
278.884	189.44
279.115	172.44
279.347	170.44
279.579	166.44
279.81	162.44
280.042	177.44
280.273	161.44
280.505	171.44
280.736	178.44
280.968	175.44
281.199	152.44
281.431	180.44
281.662	172.44
281.894	192.44
282.125	177.44
282.356	188.44
282.588	187.44
282.819	173.44
283.051	172.44
283.282	170.44
283.513	175.44
283.745	182.44
283.976	194.44
284.207	179.44
284.439	178.44
284.67	175.44
284.901	184.44
285.132	186.44
285.364	176.44
285.595	164.44
285.826	166.44
286.057	187.44
286.288	181.44
286.52	171.44
286.751	168.44
286.982	179.44
287.213	193.44
287.444	186.44
287.675	174.44
287.906	186.44
288.138	180.44
288.369	188.44
288.6	195.44
288.831	203.44
289.062	188.44
289.293	184.44
289.524	183.44
289.755	178.44
289.986	179.44
290.217	192.44
290.448	209.44
290.679	192.44
290.91	189.44
291.141	212.44
291.371	190.44
291.602	188.44
291.833	200.44
292.064	198.44
292.295	178.44
292.526	192.44
292.757	199.44
292.987	174.44
293.218	186.44
293.449	196.44
293.68	189.44
293.91	188.44
294.141	189.44
294.372	178.44
294.603	197.44
294.833	178.44
295.064	187.44
295.295	191.44
295.525	180.44
295.756	176.44
295.987	203.44
296.217	211.44
296.448	195.44
296.679	210.44
296.909	199.44
297.14	196.44
297.37	208.44
297.601	206.44
297.831	194.44
298.062	189.44
298.292	199.44
298.523	226.44
298.753	202.44
298.984	214.44
299.214	188.44
299.445	206.44
299.675	193.44
299.905	200.44
300.136	189.44
300.366	211.44
300.597	215.44
300.827	210.44
301.057	219.44
301.288	203.44
301.518	205.44
301.748	212.44
301.979	211.44
302.209	224.44
302.439	215.44
302.669	220.44
302.9	212.44
303.13	228.44
303.36	213.44
303.59	217.44
303.82	213.44
304.051	215.44
304.281	219.44
304.511	212.44
304.741	212.44
304.971	217.44
305.201	233.44
305.431	221.44
305.661	229.44
305.891	232.44
306.121	231.44
306.352	186.44
306.582	202.44
306.812	229.44
307.042	206.44
307.272	209.44
307.502	214.44
307.731	226.44
307.961	219.44
308.191	193.44
308.421	209.44
308.651	205.44
308.881	205.44
309.111	206.44
309.341	219.44
309.571	210.44
309.8	209.44
310.03	217.44
310.26	218.44
310.49	210.44
310.72	219.44
310.949	223.44
311.179	215.44
311.409	205.44
311.639	214.44
311.868	221.44
312.098	222.44
312.328	224.44
312.557	212.44
312.787	225.44
313.017	217.44
313.246	226.44
313.476	243.44
313.706	220.44
313.935	221.44
314.165	236.44
314.394	216.44
314.624	220.44
314.853	242.44
315.083	237.44
315.312	217.44
315.542	228.44
315.771	230.44
316.001	212.44
316.23	224.44
316.46	227.44
316.689	244.44
316.919	229.44
317.148	232.44
317.377	237.44
317.607	222.44
317.836	215.44
318.065	214.44
318.295	225.44
318.524	217.44
318.753	218.44
318.983	218.44
319.212	227.44
319.441	212.44
319.67	220.44
319.9	232.44
320.129	221.44
320.358	226.44
320.587	226.44
320.816	221.44
321.046	202.44
321.275	234.44
321.504	228.44
321.733	226.44
321.962	232.44
322.191	235.44
322.42	236.44
322.649	228.44
322.878	231.44
323.108	236.44
323.337	238.44
323.566	223.44
323.795	238.44
324.024	231.44
324.253	212.44
324.482	220.44
324.71	229.44
324.939	242.44
325.168	244.44
325.397	236.44
325.626	237.44
325.855	227.44
326.084	226.44
326.313	242.44
326.542	247.44
326.77	261.44
326.999	259.44
327.228	249.44
327.457	259.44
327.686	247.44
327.914	232.44
328.143	261.44
328.372	254.44
328.6	246.44
328.829	248.44
329.058	225.44
329.287	244.44
329.515	255.44
329.744	235.44
329.972	269.44
330.201	252.44
330.43	232.44
330.658	243.44
330.887	234.44
331.115	256.44
331.344	261.44
331.572	278.44
331.801	258.44
332.03	260.44
332.258	274.44
332.486	252.44
332.715	264.44
332.943	291.44
333.172	295.44
333.4	294.44
333.629	301.44
333.857	280.44
334.085	295.44
334.314	304.44
334.542	309.44
334.771	301.44
334.999	287.44
335.227	300.44
335.455	292.44
335.684	296.44
335.912	283.44
336.14	290.44
336.369	274.44
336.597	286.44
336.825	283.44
337.053	268.44
337.281	281.44
337.51	272.44
337.738	263.44
337.966	268.44
338.194	269.44
338.422	280.44
338.65	261.44
338.878	268.44
339.106	257.44
339.334	270.44
339.562	267.44
339.79	263.44
340.018	269.44
340.246	271.44
340.474	254.44
340.702	247.44
340.93	276.44
341.158	237.44
341.386	256.44
341.614	242.44
341.842	260.44
342.07	254.44
342.298	264.44
342.526	251.44
342.754	242.44
342.981	268.44
343.209	268.44
343.437	269.44
343.665	284.44
343.893	286.44
344.12	290.44
344.348	285.44
344.576	292.44
344.804	276.44
345.031	275.44
345.259	274.44
345.487	268.44
345.714	262.44
345.942	269.44
346.17	241.44
346.397	240.44
346.625	242.44
346.853	246.44
347.08	268.44
347.308	279.44
347.535	253.44
347.763	260.44
347.99	264.44
348.218	264.44
348.445	259.44
348.673	252.44
348.9	267.44
349.128	260.44
349.355	259.44
349.583	268.44
349.81	248.44
350.037	255.44
350.265	239.44
350.492	225.44
350.72	247.44
350.947	246.44
351.174	268.44
351.402	233.44
351.629	261.44
351.856	260.44
352.083	248.44
352.311	256.44
352.538	260.44
352.765	249.44
352.992	252.44
353.22	253.44
353.447	239.44
353.674	245.44
353.901	252.44
354.128	249.44
354.355	264.44
354.583	238.44
354.81	237.44
355.037	247.44
355.264	258.44
355.491	270.44
355.718	271.44
355.945	247.44
356.172	250.44
356.399	235.44
356.626	250.44
356.853	247.44
357.08	247.44
357.307	235.44
357.534	247.44
357.761	261.44
357.988	252.44
358.215	255.44
358.441	252.44
358.668	254.44
358.895	249.44
359.122	261.44
359.349	269.44
359.576	244.44
359.802	244.44
360.029	266.44
360.256	244.44
360.483	268.44
360.709	245.44
360.936	246.44
361.163	247.44
361.39	248.44
361.616	256.44
361.843	257.44
362.07	250.44
362.296	247.44
362.523	253.44
362.749	229.44
362.976	256.44
363.203	265.44
363.429	267.44
363.656	236.44
363.882	246.44
364.109	262.44
364.335	240.44
364.562	244.44
364.788	259.44
365.015	256.44
365.241	256.44
365.468	236.44
365.694	248.44
365.92	249.44
366.147	249.44
366.373	264.44
366.599	249.44
366.826	235.44
367.052	254.44
367.278	260.44
367.505	261.44
367.731	261.44
367.957	241.44
368.184	259.44
368.41	260.44
368.636	255.44
368.862	278.44
369.089	251.44
369.315	265.44
369.541	260.44
369.767	267.44
369.993	273.44
370.219	265.44
370.445	267.44
370.672	257.44
370.898	275.44
371.124	244.44
371.35	257.44
371.576	281.44
371.802	278.44
372.028	267.44
372.254	278.44
372.48	273.44
372.706	296.44
372.932	269.44
373.158	284.44
373.384	282.44
373.61	291.44
373.835	290.44
374.061	270.44
374.287	281.44
374.513	264.44
374.739	281.44
374.965	276.44
375.191	296.44
375.416	289.44
375.642	279.44
375.868	274.44
376.094	274.44
376.319	270.44
376.545	264.44
376.771	278.44
376.997	274.44
377.222	289.44
377.448	262.44
377.674	265.44
377.899	262.44
378.125	269.44
378.35	266.44
378.576	278.44
378.802	273.44
379.027	292.44
379.253	264.44
379.478	265.44
379.704	280.44
379.929	268.44
380.155	280.44
380.38	280.44
380.606	261.44
380.831	281.44
381.057	277.44
381.282	268.44
381.507	260.44
381.733	296.44
381.958	279.44
382.184	275.44
382.409	271.44
382.634	274.44
382.86	287.44
383.085	287.44
383.31	262.44
383.535	308.44
383.761	294.44
383.986	304.44
384.211	292.44
384.436	304.44
384.662	303.44
384.887	304.44
385.112	316.44
385.337	322.44
385.562	340.44
385.787	329.44
386.013	323.44
386.238	314.44
386.463	324.44
386.688	322.44
386.913	314.44
387.138	323.44
387.363	326.44
387.588	327.44
387.813	314.44
388.038	316.44
388.263	312.44
388.488	313.44
388.713	306.44
388.938	309.44
389.163	304.44
389.387	316.44
389.612	304.44
389.837	323.44
390.062	318.44
390.287	317.44
390.512	318.44
390.736	313.44
390.961	315.44
391.186	332.44
391.411	332.44
391.636	342.44
391.86	351.44
392.085	349.44
392.31	336.44
392.534	355.44
392.759	353.44
392.984	334.44
393.208	358.44
393.433	329.44
393.658	329.44
393.882	324.44
394.107	332.44
394.331	316.44
394.556	314.44
394.78	333.44
395.005	330.44
395.229	344.44
395.454	340.44
395.678	342.44
395.903	344.44
396.127	347.44
396.352	353.44
396.576	327.44
396.801	338.44
397.025	341.44
397.249	345.44
397.474	359.44
397.698	370.44
397.922	354.44
398.147	362.44
398.371	364.44
398.595	366.44
398.82	384.44
399.044	421.44
399.268	444.44
399.492	475.44
399.717	503.44
399.941	512.44
400.165	480.44
400.389	437.44
400.613	410.44
400.837	407.44
401.062	393.44
401.286	406.44
401.51	397.44
401.734	393.44
401.958	391.44
402.182	376.44
402.406	397.44
402.63	398.44
402.854	391.44
403.078	392.44
403.302	393.44
403.526	416.44
403.75	405.44
403.974	423.44
404.198	415.44
404.422	407.44
404.645	416.44
404.869	416.44
405.093	414.44
405.317	408.44
405.541	409.44
405.765	397.44
405.988	393.44
406.212	420.44
406.436	410.44
406.66	406.44
406.883	418.44
407.107	430.44
407.331	455.44
407.555	470.44
407.778	452.44
408.002	442.44
408.226	452.44
408.449	444.44
408.673	417.44
408.896	411.44
409.12	419.44
409.344	411.44
409.567	417.44
409.791	415.44
410.014	417.44
410.238	383.44
410.461	404.44
410.685	404.44
410.908	397.44
411.132	408.44
411.355	402.44
411.578	390.44
411.802	394.44
412.025	387.44
412.249	388.44
412.472	379.44
412.695	379.44
412.919	399.44
413.142	390.44
413.365	389.44
413.589	383.44
413.812	383.44
414.035	380.44
414.258	390.44
414.482	388.44
414.705	384.44
414.928	382.44
415.151	374.44
415.374	379.44
415.597	364.44
415.821	376.44
416.044	355.44
416.267	384.44
416.49	386.44
416.713	361.44
416.936	390.44
417.159	392.44
417.382	357.44
417.605	372.44
417.828	358.44
418.051	374.44
418.274	365.44
418.497	370.44
418.72	379.44
418.943	383.44
419.166	393.44
419.389	410.44
419.611	408.44
419.834	397.44
420.057	378.44
420.28	382.44
420.503	363.44
420.726	377.44
420.948	360.44
421.171	362.44
421.394	361.44
421.617	373.44
421.839	382.44
422.062	370.44
422.285	374.44
422.507	391.44
422.73	362.44
422.953	378.44
423.175	379.44
423.398	395.44
423.621	379.44
423.843	369.44
424.066	392.44
424.288	380.44
424.511	382.44
424.733	384.44
424.956	376.44
425.178	372.44
425.401	362.44
425.623	384.44
425.846	386.44
426.068	355.44
426.291	371.44
426.513	347.44
426.735	364.44
426.958	334.44
427.18	347.44
427.402	338.44
427.625	331.44
427.847	354.44
428.069	340.44
428.292	333.44
428.514	354.44
428.736	332.44
428.958	328.44
429.181	338.44
429.403	332.44
429.625	349.44
429.847	320.44
430.069	336.44
430.292	350.44
430.514	338.44
430.736	332.44
430.958	329.44
431.18	336.44
431.402	338.44
431.624	321.44
431.846	339.44
432.068	336.44
432.29	333.44
432.512	328.44
432.734	349.44
432.956	326.44
433.178	345.44
433.4	316.44
433.622	341.44
433.844	333.44
434.066	360.44
434.287	345.44
434.509	351.44
434.731	369.44
434.953	354.44
435.175	368.44
435.397	368.44
435.618	356.44
435.84	360.44
436.062	344.44
436.284	341.44
436.505	325.44
436.727	332.44
436.949	335.44
437.17	353.44
437.392	337.44
437.614	341.44
437.835	324.44
438.057	330.44
438.278	312.44
438.5	333.44
438.721	329.44
438.943	326.44
439.165	325.44
439.386	344.44
439.608	338.44
439.829	360.44
440.05	354.44
440.272	332.44
440.493	330.44
440.715	347.44
440.936	346.44
441.158	345.44
441.379	369.44
441.6	376.44
441.822	348.44
442.043	359.44
442.264	366.44
442.486	358.44
442.707	348.44
442.928	344.44
443.149	371.44
443.371	355.44
443.592	346.44
443.813	363.44
444.034	361.44
444.255	387.44
444.476	402.44
444.698	395.44
444.919	398.44
445.14	505.44
445.361	421.44
445.582	355.44
445.803	353.44
446.024	365.44
446.245	365.44
446.466	377.44
446.687	336.44
446.908	332.44
447.129	320.44
447.35	336.44
447.571	326.44
447.792	320.44
448.013	344.44
448.234	347.44
448.455	311.44
448.675	322.44
448.896	338.44
449.117	315.44
449.338	314.44
449.559	312.44
449.779	292.44
450	324.44
450.221	316.44
450.442	342.44
450.662	319.44
450.883	307.44
451.104	324.44
451.324	313.44
451.545	310.44
451.766	313.44
451.986	317.44
452.207	322.44
452.428	296.44
452.648	299.44
452.869	319.44
453.089	310.44
453.31	308.44
453.53	304.44
453.751	313.44
453.971	302.44
454.192	308.44
454.412	300.44
454.633	297.44
454.853	300.44
455.073	300.44
455.294	305.44
455.514	288.44
455.734	302.44
455.955	307.44
456.175	310.44
456.395	299.44
456.616	285.44
456.836	309.44
457.056	306.44
457.276	310.44
457.497	285.44
457.717	300.44
457.937	295.44
458.157	308.44
458.377	307.44
458.598	316.44
458.818	320.44
459.038	327.44
459.258	333.44
459.478	327.44
459.698	348.44
459.918	354.44
460.138	356.44
460.358	361.44
460.578	386.44
460.798	382.44
461.018	390.44
461.238	366.44
461.458	370.44
461.678	384.44
461.898	393.44
462.118	404.44
462.338	419.44
462.558	395.44
462.777	428.44
462.997	448.44
463.217	454.44
463.437	455.44
463.657	439.44
463.876	423.44
464.096	439.44
464.316	429.44
464.536	413.44
464.755	430.44
464.975	403.44
465.195	380.44
465.414	364.44
465.634	359.44
465.854	368.44
466.073	327.44
466.293	322.44
466.512	334.44
466.732	324.44
466.951	336.44
467.171	331.44
467.391	321.44
467.61	320.44
467.829	321.44
468.049	332.44
468.268	328.44
468.488	328.44
468.707	305.44
468.927	325.44
469.146	331.44
469.365	318.44
469.585	316.44
469.804	337.44
470.023	333.44
470.243	342.44
470.462	339.44
470.681	335.44
470.901	331.44
471.12	333.44
471.339	312.44
471.558	320.44
471.777	316.44
471.997	322.44
472.216	333.44
472.435	317.44
472.654	325.44
472.873	328.44
473.092	333.44
473.311	327.44
473.53	322.44
473.749	300.44
473.968	320.44
474.187	306.44
474.406	305.44
474.625	318.44
474.844	317.44
475.063	328.44
475.282	319.44
475.501	331.44
475.72	334.44
475.939	318.44
476.158	337.44
476.377	329.44
476.596	324.44
476.814	328.44
477.033	326.44
477.252	337.44
477.471	328.44
477.69	372.44
477.908	359.44
478.127	342.44
478.346	373.44
478.564	360.44
478.783	375.44
479.002	368.44
479.22	358.44
479.439	376.44
479.658	380.44
479.876	370.44
480.095	369.44
480.313	370.44
480.532	379.44
480.751	398.44
480.969	387.44
481.188	381.44
481.406	363.44
481.624	368.44
481.843	360.44
482.061	354.44
482.28	365.44
482.498	349.44
482.717	355.44
482.935	350.44
483.153	349.44
483.372	353.44
483.59	357.44
483.808	362.44
484.027	354.44
484.245	353.44
484.463	374.44
484.681	355.44
484.9	342.44
485.118	352.44
485.336	356.44
485.554	356.44
485.772	369.44
485.99	368.44
486.209	374.44
486.427	364.44
486.645	357.44
486.863	342.44
487.081	373.44
487.299	367.44
487.517	350.44
487.735	349.44
487.953	364.44
488.171	361.44
488.389	356.44
488.607	359.44
488.825	370.44
489.043	357.44
489.261	362.44
489.479	362.44
489.696	380.44
489.914	337.44
490.132	368.44
490.35	354.44
490.568	368.44
490.786	358.44
491.003	380.44
491.221	354.44
491.439	374.44
491.657	361.44
491.874	377.44
492.092	356.44
492.31	370.44
492.527	360.44
492.745	381.44
492.963	384.44
493.18	372.44
493.398	394.44
493.615	370.44
493.833	375.44
494.05	382.44
494.268	399.44
494.485	384.44
494.703	380.44
494.92	390.44
495.138	381.44
495.355	391.44
495.573	395.44
495.79	397.44
496.008	394.44
496.225	409.44
496.442	388.44
496.66	404.44
496.877	397.44
497.094	418.44
497.312	410.44
497.529	433.44
497.746	422.44
497.963	473.44
498.181	472.44
498.398	481.44
498.615	507.44
498.832	542.44
499.049	544.44
499.267	625.44
499.484	628.44
499.701	681.44
499.918	732.44
500.135	808.44
500.352	875.44
500.569	880.44
500.786	894.44
501.003	854.44
501.22	767.44
501.437	748.44
501.654	679.44
501.871	601.44
502.088	569.44
