Data from Fe(NO3)3@0.0125M.TitratingCurve.Agarose3%dH2O.NegLispCup.LampEnergy10.LIBS07252019_HRD10591_16-58-57-337.txt Node
Date: Thu Jul 25 16:58:57 EDT 2019
User: cochatt
Spectrometer: HR+D1059
Trigger mode: 1
Integration Time (sec): 1.000000E-1
Scans to average: 1
Electric dark correction enabled: true
Nonlinearity correction enabled: false
Boxcar width: 0
XAxis mode: Wavelengths
Number of Pixels in Spectrum: 2048
>>>>>Begin Spectral Data<<<<<
223.165	-8.62
223.4	-8.62
223.635	-8.62
223.869	-1.62
224.104	-13.62
224.338	-18.62
224.573	-11.62
224.808	-21.62
225.042	-14.62
225.277	-13.62
225.511	1.38
225.746	-7.62
225.98	8.38
226.215	27.38
226.449	9.38
226.683	20.38
226.918	16.38
227.152	28.38
227.387	43.38
227.621	40.38
227.856	36.38
228.09	44.38
228.324	54.38
228.559	51.38
228.793	85.38
229.027	99.38
229.262	123.38
229.496	109.38
229.73	119.38
229.964	140.38
230.199	128.38
230.433	123.38
230.667	134.38
230.901	130.38
231.136	124.38
231.37	126.38
231.604	142.38
231.838	124.38
232.072	154.38
232.306	136.38
232.541	145.38
232.775	151.38
233.009	152.38
233.243	152.38
233.477	155.38
233.711	148.38
233.945	145.38
234.179	150.38
234.413	146.38
234.647	140.38
234.881	160.38
235.115	170.38
235.349	155.38
235.583	162.38
235.817	144.38
236.051	148.38
236.285	168.38
236.519	165.38
236.753	150.38
236.987	145.38
237.221	167.38
237.455	162.38
237.689	162.38
237.922	178.38
238.156	172.38
238.39	170.38
238.624	182.38
238.858	184.38
239.091	177.38
239.325	173.38
239.559	180.38
239.793	186.38
240.027	210.38
240.26	189.38
240.494	166.38
240.728	190.38
240.961	193.38
241.195	184.38
241.429	189.38
241.662	194.38
241.896	192.38
242.13	210.38
242.363	196.38
242.597	211.38
242.83	208.38
243.064	199.38
243.298	189.38
243.531	201.38
243.765	205.38
243.998	215.38
244.232	216.38
244.465	219.38
244.699	209.38
244.932	204.38
245.166	227.38
245.399	214.38
245.633	226.38
245.866	208.38
246.099	214.38
246.333	211.38
246.566	236.38
246.8	230.38
247.033	233.38
247.266	242.38
247.5	229.38
247.733	238.38
247.966	236.38
248.2	244.38
248.433	258.38
248.666	246.38
248.899	237.38
249.133	242.38
249.366	242.38
249.599	251.38
249.832	264.38
250.066	238.38
250.299	250.38
250.532	246.38
250.765	250.38
250.998	256.38
251.231	236.38
251.465	271.38
251.698	267.38
251.931	258.38
252.164	261.38
252.397	283.38
252.63	264.38
252.863	275.38
253.096	287.38
253.329	273.38
253.562	279.38
253.795	296.38
254.028	307.38
254.261	286.38
254.494	288.38
254.727	269.38
254.96	304.38
255.193	304.38
255.426	286.38
255.659	280.38
255.892	303.38
256.124	282.38
256.357	298.38
256.59	309.38
256.823	314.38
257.056	326.38
257.289	307.38
257.521	290.38
257.754	306.38
257.987	304.38
258.22	313.38
258.452	317.38
258.685	306.38
258.918	323.38
259.151	328.38
259.383	331.38
259.616	337.38
259.849	330.38
260.081	363.38
260.314	358.38
260.547	355.38
260.779	347.38
261.012	357.38
261.244	333.38
261.477	361.38
261.71	357.38
261.942	334.38
262.175	331.38
262.407	342.38
262.64	355.38
262.872	353.38
263.105	357.38
263.337	378.38
263.57	372.38
263.802	353.38
264.035	353.38
264.267	341.38
264.499	354.38
264.732	344.38
264.964	342.38
265.197	370.38
265.429	365.38
265.661	357.38
265.894	341.38
266.126	354.38
266.358	368.38
266.591	360.38
266.823	380.38
267.055	360.38
267.287	396.38
267.52	383.38
267.752	384.38
267.984	362.38
268.216	394.38
268.448	374.38
268.681	402.38
268.913	388.38
269.145	394.38
269.377	374.38
269.609	419.38
269.841	394.38
270.073	396.38
270.306	382.38
270.538	385.38
270.77	418.38
271.002	388.38
271.234	396.38
271.466	421.38
271.698	403.38
271.93	409.38
272.162	406.38
272.394	415.38
272.626	414.38
272.858	434.38
273.09	425.38
273.322	433.38
273.553	411.38
273.785	419.38
274.017	445.38
274.249	461.38
274.481	468.38
274.713	461.38
274.945	476.38
275.176	460.38
275.408	466.38
275.64	474.38
275.872	484.38
276.104	486.38
276.335	445.38
276.567	440.38
276.799	447.38
277.031	468.38
277.262	470.38
277.494	458.38
277.726	444.38
277.957	457.38
278.189	464.38
278.421	484.38
278.652	470.38
278.884	492.38
279.115	473.38
279.347	477.38
279.579	482.38
279.81	469.38
280.042	476.38
280.273	489.38
280.505	492.38
280.736	482.38
280.968	493.38
281.199	484.38
281.431	485.38
281.662	512.38
281.894	486.38
282.125	500.38
282.356	500.38
282.588	510.38
282.819	506.38
283.051	513.38
283.282	520.38
283.513	515.38
283.745	497.38
283.976	515.38
284.207	518.38
284.439	509.38
284.67	531.38
284.901	512.38
285.132	520.38
285.364	554.38
285.595	526.38
285.826	519.38
286.057	532.38
286.288	525.38
286.52	533.38
286.751	513.38
286.982	520.38
287.213	544.38
287.444	540.38
287.675	537.38
287.906	571.38
288.138	547.38
288.369	559.38
288.6	562.38
288.831	553.38
289.062	542.38
289.293	529.38
289.524	535.38
289.755	552.38
289.986	547.38
290.217	553.38
290.448	569.38
290.679	566.38
290.91	539.38
291.141	562.38
291.371	546.38
291.602	560.38
291.833	557.38
292.064	566.38
292.295	563.38
292.526	593.38
292.757	570.38
292.987	558.38
293.218	563.38
293.449	581.38
293.68	598.38
293.91	588.38
294.141	572.38
294.372	566.38
294.603	589.38
294.833	590.38
295.064	584.38
295.295	605.38
295.525	562.38
295.756	561.38
295.987	575.38
296.217	585.38
296.448	595.38
296.679	597.38
296.909	620.38
297.14	601.38
297.37	618.38
297.601	611.38
297.831	597.38
298.062	636.38
298.292	604.38
298.523	630.38
298.753	638.38
298.984	616.38
299.214	632.38
299.445	636.38
299.675	629.38
299.905	617.38
300.136	633.38
300.366	618.38
300.597	627.38
300.827	640.38
301.057	625.38
301.288	649.38
301.518	631.38
301.748	657.38
301.979	660.38
302.209	650.38
302.439	645.38
302.669	650.38
302.9	638.38
303.13	649.38
303.36	651.38
303.59	676.38
303.82	664.38
304.051	657.38
304.281	666.38
304.511	661.38
304.741	668.38
304.971	679.38
305.201	690.38
305.431	686.38
305.661	661.38
305.891	667.38
306.121	673.38
306.352	668.38
306.582	660.38
306.812	668.38
307.042	667.38
307.272	714.38
307.502	681.38
307.731	660.38
307.961	665.38
308.191	712.38
308.421	697.38
308.651	692.38
308.881	683.38
309.111	689.38
309.341	658.38
309.571	705.38
309.8	674.38
310.03	696.38
310.26	690.38
310.49	683.38
310.72	712.38
310.949	694.38
311.179	713.38
311.409	712.38
311.639	722.38
311.868	701.38
312.098	708.38
312.328	718.38
312.557	727.38
312.787	685.38
313.017	710.38
313.246	729.38
313.476	730.38
313.706	746.38
313.935	727.38
314.165	753.38
314.394	758.38
314.624	752.38
314.853	730.38
315.083	730.38
315.312	754.38
315.542	733.38
315.771	736.38
316.001	758.38
316.23	768.38
316.46	726.38
316.689	733.38
316.919	754.38
317.148	754.38
317.377	745.38
317.607	770.38
317.836	755.38
318.065	772.38
318.295	771.38
318.524	778.38
318.753	790.38
318.983	770.38
319.212	754.38
319.441	785.38
319.67	782.38
319.9	783.38
320.129	770.38
320.358	756.38
320.587	816.38
320.816	813.38
321.046	808.38
321.275	784.38
321.504	788.38
321.733	776.38
321.962	788.38
322.191	803.38
322.42	791.38
322.649	786.38
322.878	778.38
323.108	822.38
323.337	795.38
323.566	793.38
323.795	807.38
324.024	808.38
324.253	817.38
324.482	797.38
324.71	806.38
324.939	796.38
325.168	854.38
325.397	838.38
325.626	841.38
325.855	841.38
326.084	840.38
326.313	842.38
326.542	822.38
326.77	833.38
326.999	820.38
327.228	830.38
327.457	838.38
327.686	851.38
327.914	833.38
328.143	834.38
328.372	822.38
328.6	846.38
328.829	858.38
329.058	833.38
329.287	845.38
329.515	841.38
329.744	833.38
329.972	836.38
330.201	846.38
330.43	837.38
330.658	866.38
330.887	860.38
331.115	866.38
331.344	875.38
331.572	867.38
331.801	879.38
332.03	874.38
332.258	887.38
332.486	859.38
332.715	877.38
332.943	864.38
333.172	858.38
333.4	877.38
333.629	882.38
333.857	928.38
334.085	894.38
334.314	893.38
334.542	920.38
334.771	940.38
334.999	904.38
335.227	930.38
335.455	907.38
335.684	931.38
335.912	917.38
336.14	941.38
336.369	914.38
336.597	925.38
336.825	923.38
337.053	928.38
337.281	889.38
337.51	928.38
337.738	907.38
337.966	911.38
338.194	920.38
338.422	890.38
338.65	925.38
338.878	898.38
339.106	918.38
339.334	903.38
339.562	902.38
339.79	899.38
340.018	906.38
340.246	913.38
340.474	883.38
340.702	922.38
340.93	900.38
341.158	891.38
341.386	906.38
341.614	928.38
341.842	896.38
342.07	875.38
342.298	906.38
342.526	867.38
342.754	892.38
342.981	866.38
343.209	865.38
343.437	911.38
343.665	930.38
343.893	920.38
344.12	939.38
344.348	903.38
344.576	889.38
344.804	938.38
345.031	898.38
345.259	893.38
345.487	894.38
345.714	906.38
345.942	924.38
346.17	895.38
346.397	857.38
346.625	898.38
346.853	893.38
347.08	889.38
347.308	874.38
347.535	883.38
347.763	894.38
347.99	883.38
348.218	873.38
348.445	891.38
348.673	866.38
348.9	906.38
349.128	845.38
349.355	884.38
349.583	869.38
349.81	852.38
350.037	849.38
350.265	875.38
350.492	870.38
350.72	862.38
350.947	856.38
351.174	871.38
351.402	851.38
351.629	868.38
351.856	849.38
352.083	853.38
352.311	866.38
352.538	882.38
352.765	881.38
352.992	877.38
353.22	857.38
353.447	865.38
353.674	895.38
353.901	909.38
354.128	851.38
354.355	870.38
354.583	868.38
354.81	850.38
355.037	868.38
355.264	857.38
355.491	863.38
355.718	846.38
355.945	864.38
356.172	862.38
356.399	880.38
356.626	868.38
356.853	880.38
357.08	856.38
357.307	868.38
357.534	868.38
357.761	874.38
357.988	907.38
358.215	890.38
358.441	869.38
358.668	873.38
358.895	886.38
359.122	888.38
359.349	884.38
359.576	897.38
359.802	900.38
360.029	859.38
360.256	856.38
360.483	896.38
360.709	890.38
360.936	867.38
361.163	870.38
361.39	875.38
361.616	876.38
361.843	888.38
362.07	858.38
362.296	877.38
362.523	892.38
362.749	900.38
362.976	868.38
363.203	855.38
363.429	896.38
363.656	917.38
363.882	902.38
364.109	897.38
364.335	858.38
364.562	901.38
364.788	870.38
365.015	920.38
365.241	890.38
365.468	886.38
365.694	913.38
365.92	918.38
366.147	896.38
366.373	916.38
366.599	886.38
366.826	896.38
367.052	894.38
367.278	911.38
367.505	883.38
367.731	890.38
367.957	895.38
368.184	909.38
368.41	934.38
368.636	935.38
368.862	929.38
369.089	932.38
369.315	927.38
369.541	907.38
369.767	917.38
369.993	897.38
370.219	931.38
370.445	920.38
370.672	924.38
370.898	929.38
371.124	925.38
371.35	946.38
371.576	928.38
371.802	913.38
372.028	940.38
372.254	936.38
372.48	943.38
372.706	939.38
372.932	950.38
373.158	970.38
373.384	937.38
373.61	925.38
373.835	950.38
374.061	925.38
374.287	948.38
374.513	922.38
374.739	980.38
374.965	962.38
375.191	949.38
375.416	953.38
375.642	938.38
375.868	936.38
376.094	946.38
376.319	957.38
376.545	935.38
376.771	922.38
376.997	965.38
377.222	928.38
377.448	964.38
377.674	926.38
377.899	930.38
378.125	938.38
378.35	927.38
378.576	930.38
378.802	913.38
379.027	940.38
379.253	929.38
379.478	964.38
379.704	924.38
379.929	937.38
380.155	929.38
380.38	930.38
380.606	920.38
380.831	942.38
381.057	942.38
381.282	934.38
381.507	909.38
381.733	955.38
381.958	955.38
382.184	946.38
382.409	959.38
382.634	967.38
382.86	941.38
383.085	967.38
383.31	961.38
383.535	988.38
383.761	965.38
383.986	961.38
384.211	982.38
384.436	993.38
384.662	1000.38
384.887	981.38
385.112	997.38
385.337	984.38
385.562	996.38
385.787	965.38
386.013	981.38
386.238	1002.38
386.463	995.38
386.688	996.38
386.913	1003.38
387.138	1002.38
387.363	1008.38
387.588	998.38
387.813	1026.38
388.038	1034.38
388.263	981.38
388.488	1009.38
388.713	1043.38
388.938	1033.38
389.163	1009.38
389.387	994.38
389.612	1032.38
389.837	1010.38
390.062	1029.38
390.287	1058.38
390.512	1021.38
390.736	990.38
390.961	1034.38
391.186	1004.38
391.411	1039.38
391.636	1056.38
391.86	1050.38
392.085	1046.38
392.31	1047.38
392.534	1046.38
392.759	1059.38
392.984	1038.38
393.208	1050.38
393.433	1054.38
393.658	1030.38
393.882	1025.38
394.107	1039.38
394.331	1044.38
394.556	1033.38
394.78	1078.38
395.005	1049.38
395.229	1068.38
395.454	1057.38
395.678	1064.38
395.903	1038.38
396.127	1035.38
396.352	1051.38
396.576	1060.38
396.801	1073.38
397.025	1068.38
397.249	1079.38
397.474	1088.38
397.698	1090.38
397.922	1090.38
398.147	1126.38
398.371	1120.38
398.595	1121.38
398.82	1146.38
399.044	1125.38
399.268	1140.38
399.492	1162.38
399.717	1188.38
399.941	1161.38
400.165	1194.38
400.389	1193.38
400.613	1182.38
400.837	1146.38
401.062	1116.38
401.286	1125.38
401.51	1125.38
401.734	1129.38
401.958	1146.38
402.182	1115.38
402.406	1133.38
402.63	1106.38
402.854	1143.38
403.078	1131.38
403.302	1110.38
403.526	1114.38
403.75	1129.38
403.974	1137.38
404.198	1136.38
404.422	1157.38
404.645	1102.38
404.869	1114.38
405.093	1130.38
405.317	1120.38
405.541	1146.38
405.765	1174.38
405.988	1177.38
406.212	1147.38
406.436	1189.38
406.66	1187.38
406.883	1196.38
407.107	1218.38
407.331	1203.38
407.555	1224.38
407.778	1218.38
408.002	1247.38
408.226	1219.38
408.449	1237.38
408.673	1192.38
408.896	1170.38
409.12	1154.38
409.344	1176.38
409.567	1128.38
409.791	1177.38
410.014	1183.38
410.238	1148.38
410.461	1180.38
410.685	1131.38
410.908	1148.38
411.132	1140.38
411.355	1125.38
411.578	1145.38
411.802	1145.38
412.025	1131.38
412.249	1116.38
412.472	1153.38
412.695	1140.38
412.919	1102.38
413.142	1123.38
413.365	1132.38
413.589	1138.38
413.812	1117.38
414.035	1092.38
414.258	1094.38
414.482	1125.38
414.705	1117.38
414.928	1128.38
415.151	1112.38
415.374	1096.38
415.597	1114.38
415.821	1111.38
416.044	1089.38
416.267	1080.38
416.49	1076.38
416.713	1107.38
416.936	1108.38
417.159	1068.38
417.382	1028.38
417.605	1060.38
417.828	1093.38
418.051	1077.38
418.274	1072.38
418.497	1073.38
418.72	1051.38
418.943	1060.38
419.166	1101.38
419.389	1156.38
419.611	1120.38
419.834	1107.38
420.057	1107.38
420.28	1069.38
420.503	1024.38
420.726	1051.38
420.948	1029.38
421.171	1024.38
421.394	1056.38
421.617	1027.38
421.839	1060.38
422.062	1047.38
422.285	1015.38
422.507	1030.38
422.73	1038.38
422.953	1063.38
423.175	1040.38
423.398	1081.38
423.621	1031.38
423.843	1045.38
424.066	1055.38
424.288	1028.38
424.511	1031.38
424.733	1049.38
424.956	1028.38
425.178	1024.38
425.401	1045.38
425.623	1052.38
425.846	1028.38
426.068	1037.38
426.291	1035.38
426.513	1033.38
426.735	1036.38
426.958	1051.38
427.18	1003.38
427.402	1038.38
427.625	1049.38
427.847	1021.38
428.069	1024.38
428.292	1048.38
428.514	1004.38
428.736	1021.38
428.958	1072.38
429.181	1035.38
429.403	989.38
429.625	1011.38
429.847	1002.38
430.069	1025.38
430.292	1064.38
430.514	1021.38
430.736	1050.38
430.958	1044.38
431.18	1011.38
431.402	1015.38
431.624	1018.38
431.846	994.38
432.068	1019.38
432.29	996.38
432.512	1034.38
432.734	1026.38
432.956	1017.38
433.178	1014.38
433.4	1033.38
433.622	1051.38
433.844	1029.38
434.066	1015.38
434.287	1051.38
434.509	1043.38
434.731	1045.38
434.953	1042.38
435.175	1052.38
435.397	1043.38
435.618	1004.38
435.84	994.38
436.062	1003.38
436.284	1004.38
436.505	1033.38
436.727	1008.38
436.949	987.38
437.17	1016.38
437.392	1037.38
437.614	997.38
437.835	980.38
438.057	996.38
438.278	989.38
438.5	983.38
438.721	1000.38
438.943	1000.38
439.165	984.38
439.386	985.38
439.608	999.38
439.829	975.38
440.05	989.38
440.272	982.38
440.493	986.38
440.715	973.38
440.936	1016.38
441.158	980.38
441.379	1004.38
441.6	1015.38
441.822	1028.38
442.043	1001.38
442.264	1008.38
442.486	991.38
442.707	1006.38
442.928	1016.38
443.149	1012.38
443.371	1010.38
443.592	1018.38
443.813	1005.38
444.034	1001.38
444.255	1031.38
444.476	1041.38
444.698	1023.38
444.919	1026.38
445.14	1111.38
445.361	1032.38
445.582	995.38
445.803	1019.38
446.024	1001.38
446.245	1012.38
446.466	995.38
446.687	960.38
446.908	971.38
447.129	967.38
447.35	967.38
447.571	974.38
447.792	955.38
448.013	940.38
448.234	942.38
448.455	949.38
448.675	946.38
448.896	952.38
449.117	949.38
449.338	963.38
449.559	939.38
449.779	952.38
450	925.38
450.221	925.38
450.442	948.38
450.662	932.38
450.883	954.38
451.104	950.38
451.324	932.38
451.545	906.38
451.766	942.38
451.986	925.38
452.207	939.38
452.428	945.38
452.648	922.38
452.869	884.38
453.089	926.38
453.31	912.38
453.53	939.38
453.751	906.38
453.971	902.38
454.192	903.38
454.412	898.38
454.633	897.38
454.853	926.38
455.073	904.38
455.294	914.38
455.514	909.38
455.734	891.38
455.955	884.38
456.175	880.38
456.395	896.38
456.616	884.38
456.836	896.38
457.056	900.38
457.276	896.38
457.497	918.38
457.717	909.38
457.937	906.38
458.157	931.38
458.377	937.38
458.598	929.38
458.818	949.38
459.038	944.38
459.258	980.38
459.478	948.38
459.698	955.38
459.918	962.38
460.138	995.38
460.358	972.38
460.578	1004.38
460.798	1001.38
461.018	1024.38
461.238	1032.38
461.458	1011.38
461.678	987.38
461.898	1041.38
462.118	996.38
462.338	1064.38
462.558	1056.38
462.777	1062.38
462.997	1064.38
463.217	1063.38
463.437	1093.38
463.657	1097.38
463.876	1057.38
464.096	1058.38
464.316	1048.38
464.536	1068.38
464.755	1047.38
464.975	1053.38
465.195	1063.38
465.414	1031.38
465.634	1013.38
465.854	1011.38
466.073	1016.38
466.293	988.38
466.512	971.38
466.732	971.38
466.951	966.38
467.171	945.38
467.391	980.38
467.61	968.38
467.829	981.38
468.049	981.38
468.268	982.38
468.488	978.38
468.707	979.38
468.927	980.38
469.146	998.38
469.365	971.38
469.585	956.38
469.804	986.38
470.023	990.38
470.243	1002.38
470.462	984.38
470.681	985.38
470.901	1005.38
471.12	1017.38
471.339	996.38
471.558	995.38
471.777	981.38
471.997	972.38
472.216	992.38
472.435	1002.38
472.654	1004.38
472.873	970.38
473.092	979.38
473.311	1010.38
473.53	1002.38
473.749	1022.38
473.968	1028.38
474.187	1035.38
474.406	979.38
474.625	994.38
474.844	1024.38
475.063	1026.38
475.282	1026.38
475.501	1043.38
475.72	1072.38
475.939	1073.38
476.158	1066.38
476.377	1067.38
476.596	1081.38
476.814	1112.38
477.033	1061.38
477.252	1119.38
477.471	1102.38
477.69	1108.38
477.908	1130.38
478.127	1121.38
478.346	1144.38
478.564	1176.38
478.783	1112.38
479.002	1129.38
479.22	1163.38
479.439	1185.38
479.658	1142.38
479.876	1157.38
480.095	1205.38
480.313	1177.38
480.532	1189.38
480.751	1198.38
480.969	1179.38
481.188	1180.38
481.406	1172.38
481.624	1182.38
481.843	1156.38
482.061	1185.38
482.28	1208.38
482.498	1223.38
482.717	1199.38
482.935	1208.38
483.153	1187.38
483.372	1193.38
483.59	1210.38
483.808	1195.38
484.027	1211.38
484.245	1202.38
484.463	1188.38
484.681	1193.38
484.9	1225.38
485.118	1251.38
485.336	1210.38
485.554	1254.38
485.772	1227.38
485.99	1195.38
486.209	1246.38
486.427	1213.38
486.645	1218.38
486.863	1232.38
487.081	1244.38
487.299	1216.38
487.517	1243.38
487.735	1204.38
487.953	1206.38
488.171	1253.38
488.389	1240.38
488.607	1241.38
488.825	1259.38
489.043	1234.38
489.261	1248.38
489.479	1230.38
489.696	1224.38
489.914	1244.38
490.132	1256.38
490.35	1235.38
490.568	1261.38
490.786	1251.38
491.003	1266.38
491.221	1266.38
491.439	1271.38
491.657	1238.38
491.874	1269.38
492.092	1256.38
492.31	1282.38
492.527	1245.38
492.745	1280.38
492.963	1280.38
493.18	1243.38
493.398	1268.38
493.615	1271.38
493.833	1258.38
494.05	1257.38
494.268	1258.38
494.485	1280.38
494.703	1268.38
494.92	1312.38
495.138	1320.38
495.355	1266.38
495.573	1297.38
495.79	1337.38
496.008	1325.38
496.225	1304.38
496.442	1334.38
