Data from Fe(NO3)3@0.05M.TitratingCurve.Agarose3%dH2O.NegLispCup.LampEnergy10.LIBS07252019_HRD10591_16-47-56-335.txt Node
Date: Thu Jul 25 16:47:56 EDT 2019
User: cochatt
Spectrometer: HR+D1059
Trigger mode: 1
Integration Time (sec): 1.000000E-1
Scans to average: 1
Electric dark correction enabled: true
Nonlinearity correction enabled: false
Boxcar width: 0
XAxis mode: Wavelengths
Number of Pixels in Spectrum: 2048
>>>>>Begin Spectral Data<<<<<
223.165	-10.12
223.4	-10.12
223.635	-10.12
223.869	-20.12
224.104	-21.12
224.338	-6.12
224.573	-4.12
224.808	-11.12
225.042	-1.12
225.277	-6.12
225.511	-4.12
225.746	8.88
225.98	6.88
226.215	-0.12
226.449	16.88
226.683	11.88
226.918	24.88
227.152	14.88
227.387	29.88
227.621	19.88
227.856	39.88
228.09	36.88
228.324	51.88
228.559	55.88
228.793	53.88
229.027	75.88
229.262	48.88
229.496	68.88
229.73	81.88
229.964	75.88
230.199	75.88
230.433	67.88
230.667	91.88
230.901	89.88
231.136	86.88
231.37	68.88
231.604	78.88
231.838	89.88
232.072	74.88
232.306	86.88
232.541	89.88
232.775	82.88
233.009	76.88
233.243	92.88
233.477	93.88
233.711	76.88
233.945	85.88
234.179	89.88
234.413	94.88
234.647	91.88
234.881	91.88
235.115	81.88
235.349	96.88
235.583	63.88
235.817	83.88
236.051	79.88
236.285	82.88
236.519	73.88
236.753	80.88
236.987	85.88
237.221	83.88
237.455	70.88
237.689	87.88
237.922	81.88
238.156	82.88
238.39	84.88
238.624	93.88
238.858	98.88
239.091	89.88
239.325	88.88
239.559	99.88
239.793	91.88
240.027	95.88
240.26	91.88
240.494	89.88
240.728	98.88
240.961	102.88
241.195	92.88
241.429	87.88
241.662	111.88
241.896	81.88
242.13	72.88
242.363	90.88
242.597	88.88
242.83	82.88
243.064	89.88
243.298	101.88
243.531	77.88
243.765	101.88
243.998	93.88
244.232	97.88
244.465	89.88
244.699	74.88
244.932	90.88
245.166	110.88
245.399	83.88
245.633	87.88
245.866	99.88
246.099	99.88
246.333	104.88
246.566	110.88
246.8	87.88
247.033	95.88
247.266	83.88
247.5	94.88
247.733	99.88
247.966	87.88
248.2	97.88
248.433	95.88
248.666	86.88
248.899	102.88
249.133	101.88
249.366	109.88
249.599	82.88
249.832	90.88
250.066	88.88
250.299	84.88
250.532	88.88
250.765	106.88
250.998	90.88
251.231	85.88
251.465	94.88
251.698	98.88
251.931	104.88
252.164	100.88
252.397	96.88
252.63	103.88
252.863	100.88
253.096	103.88
253.329	103.88
253.562	97.88
253.795	111.88
254.028	105.88
254.261	107.88
254.494	105.88
254.727	108.88
254.96	90.88
255.193	85.88
255.426	114.88
255.659	92.88
255.892	94.88
256.124	94.88
256.357	103.88
256.59	102.88
256.823	95.88
257.056	111.88
257.289	108.88
257.521	111.88
257.754	120.88
257.987	100.88
258.22	85.88
258.452	88.88
258.685	106.88
258.918	96.88
259.151	102.88
259.383	109.88
259.616	113.88
259.849	119.88
260.081	118.88
260.314	136.88
260.547	126.88
260.779	103.88
261.012	115.88
261.244	104.88
261.477	129.88
261.71	110.88
261.942	120.88
262.175	104.88
262.407	92.88
262.64	109.88
262.872	106.88
263.105	123.88
263.337	132.88
263.57	109.88
263.802	102.88
264.035	89.88
264.267	121.88
264.499	94.88
264.732	88.88
264.964	113.88
265.197	108.88
265.429	115.88
265.661	87.88
265.894	103.88
266.126	105.88
266.358	100.88
266.591	102.88
266.823	94.88
267.055	106.88
267.287	114.88
267.52	104.88
267.752	109.88
267.984	107.88
268.216	104.88
268.448	105.88
268.681	106.88
268.913	109.88
269.145	97.88
269.377	114.88
269.609	119.88
269.841	123.88
270.073	97.88
270.306	125.88
270.538	107.88
270.77	93.88
271.002	116.88
271.234	113.88
271.466	123.88
271.698	114.88
271.93	104.88
272.162	115.88
272.394	119.88
272.626	119.88
272.858	125.88
273.09	111.88
273.322	122.88
273.553	103.88
273.785	116.88
274.017	125.88
274.249	138.88
274.481	145.88
274.713	139.88
274.945	157.88
275.176	151.88
275.408	152.88
275.64	140.88
275.872	142.88
276.104	135.88
276.335	121.88
276.567	118.88
276.799	120.88
277.031	119.88
277.262	113.88
277.494	113.88
277.726	114.88
277.957	112.88
278.189	129.88
278.421	119.88
278.652	115.88
278.884	112.88
279.115	135.88
279.347	121.88
279.579	129.88
279.81	120.88
280.042	116.88
280.273	126.88
280.505	109.88
280.736	114.88
280.968	110.88
281.199	123.88
281.431	122.88
281.662	126.88
281.894	122.88
282.125	122.88
282.356	121.88
282.588	119.88
282.819	110.88
283.051	112.88
283.282	104.88
283.513	123.88
283.745	125.88
283.976	111.88
284.207	131.88
284.439	111.88
284.67	133.88
284.901	129.88
285.132	127.88
285.364	122.88
285.595	121.88
285.826	131.88
286.057	127.88
286.288	124.88
286.52	121.88
286.751	132.88
286.982	127.88
287.213	117.88
287.444	126.88
287.675	106.88
287.906	116.88
288.138	115.88
288.369	129.88
288.6	124.88
288.831	122.88
289.062	128.88
289.293	121.88
289.524	113.88
289.755	125.88
289.986	137.88
290.217	115.88
290.448	140.88
290.679	135.88
290.91	129.88
291.141	117.88
291.371	131.88
291.602	125.88
291.833	123.88
292.064	127.88
292.295	133.88
292.526	121.88
292.757	127.88
292.987	125.88
293.218	124.88
293.449	135.88
293.68	126.88
293.91	128.88
294.141	139.88
294.372	132.88
294.603	129.88
294.833	124.88
295.064	139.88
295.295	127.88
295.525	133.88
295.756	120.88
295.987	120.88
296.217	152.88
296.448	142.88
296.679	119.88
296.909	137.88
297.14	130.88
297.37	136.88
297.601	123.88
297.831	133.88
298.062	137.88
298.292	142.88
298.523	137.88
298.753	135.88
298.984	133.88
299.214	137.88
299.445	143.88
299.675	139.88
299.905	126.88
300.136	139.88
300.366	139.88
300.597	131.88
300.827	137.88
301.057	127.88
301.288	133.88
301.518	101.88
301.748	133.88
301.979	138.88
302.209	134.88
302.439	146.88
302.669	154.88
302.9	128.88
303.13	128.88
303.36	138.88
303.59	131.88
303.82	141.88
304.051	133.88
304.281	137.88
304.511	149.88
304.741	129.88
304.971	131.88
305.201	136.88
305.431	138.88
305.661	149.88
305.891	148.88
306.121	146.88
306.352	147.88
306.582	141.88
306.812	126.88
307.042	143.88
307.272	143.88
307.502	127.88
307.731	133.88
307.961	139.88
308.191	136.88
308.421	136.88
308.651	145.88
308.881	136.88
309.111	145.88
309.341	151.88
309.571	160.88
309.8	143.88
310.03	142.88
310.26	135.88
310.49	150.88
310.72	139.88
310.949	128.88
311.179	146.88
311.409	137.88
311.639	139.88
311.868	125.88
312.098	130.88
312.328	148.88
312.557	145.88
312.787	146.88
313.017	154.88
313.246	143.88
313.476	134.88
313.706	151.88
313.935	148.88
314.165	147.88
314.394	138.88
314.624	157.88
314.853	149.88
315.083	138.88
315.312	148.88
315.542	129.88
315.771	145.88
316.001	147.88
316.23	149.88
316.46	162.88
316.689	162.88
316.919	153.88
317.148	145.88
317.377	153.88
317.607	135.88
317.836	132.88
318.065	135.88
318.295	142.88
318.524	141.88
318.753	138.88
318.983	143.88
319.212	154.88
319.441	135.88
319.67	143.88
319.9	132.88
320.129	143.88
320.358	149.88
320.587	157.88
320.816	151.88
321.046	143.88
321.275	166.88
321.504	151.88
321.733	142.88
321.962	133.88
322.191	154.88
322.42	158.88
322.649	155.88
322.878	155.88
323.108	155.88
323.337	163.88
323.566	164.88
323.795	149.88
324.024	157.88
324.253	136.88
324.482	158.88
324.71	157.88
324.939	141.88
325.168	157.88
325.397	154.88
325.626	154.88
325.855	161.88
326.084	152.88
326.313	151.88
326.542	145.88
326.77	149.88
326.999	166.88
327.228	165.88
327.457	153.88
327.686	160.88
327.914	140.88
328.143	150.88
328.372	166.88
328.6	152.88
328.829	161.88
329.058	151.88
329.287	145.88
329.515	166.88
329.744	176.88
329.972	160.88
330.201	154.88
330.43	139.88
330.658	146.88
330.887	153.88
331.115	169.88
331.344	153.88
331.572	167.88
331.801	155.88
332.03	153.88
332.258	139.88
332.486	162.88
332.715	163.88
332.943	161.88
333.172	150.88
333.4	158.88
333.629	173.88
333.857	169.88
334.085	168.88
334.314	175.88
334.542	184.88
334.771	167.88
334.999	174.88
335.227	161.88
335.455	173.88
335.684	186.88
335.912	183.88
336.14	176.88
336.369	171.88
336.597	159.88
336.825	175.88
337.053	170.88
337.281	169.88
337.51	160.88
337.738	169.88
337.966	165.88
338.194	185.88
338.422	153.88
338.65	151.88
338.878	151.88
339.106	171.88
339.334	161.88
339.562	156.88
339.79	155.88
340.018	153.88
340.246	159.88
340.474	164.88
340.702	159.88
340.93	148.88
341.158	169.88
341.386	150.88
341.614	183.88
341.842	161.88
342.07	150.88
342.298	169.88
342.526	162.88
342.754	180.88
342.981	173.88
343.209	170.88
343.437	166.88
343.665	190.88
343.893	167.88
344.12	186.88
344.348	195.88
344.576	163.88
344.804	160.88
345.031	177.88
345.259	163.88
345.487	152.88
345.714	168.88
345.942	149.88
346.17	179.88
346.397	148.88
346.625	149.88
346.853	173.88
347.08	166.88
347.308	158.88
347.535	168.88
347.763	166.88
347.99	166.88
348.218	167.88
348.445	165.88
348.673	159.88
348.9	163.88
349.128	170.88
349.355	162.88
349.583	151.88
349.81	168.88
350.037	160.88
350.265	171.88
350.492	162.88
350.72	171.88
350.947	160.88
351.174	160.88
351.402	154.88
351.629	168.88
351.856	163.88
352.083	164.88
352.311	178.88
352.538	153.88
352.765	167.88
352.992	159.88
353.22	164.88
353.447	165.88
353.674	172.88
353.901	168.88
354.128	178.88
354.355	165.88
354.583	146.88
354.81	172.88
355.037	174.88
355.264	172.88
355.491	154.88
355.718	175.88
355.945	162.88
356.172	169.88
356.399	175.88
356.626	165.88
356.853	163.88
357.08	193.88
357.307	178.88
357.534	189.88
357.761	177.88
357.988	178.88
358.215	184.88
358.441	183.88
358.668	164.88
358.895	173.88
359.122	167.88
359.349	183.88
359.576	157.88
359.802	167.88
360.029	171.88
360.256	167.88
360.483	167.88
360.709	154.88
360.936	175.88
361.163	186.88
361.39	171.88
361.616	173.88
361.843	182.88
362.07	176.88
362.296	160.88
362.523	145.88
362.749	170.88
362.976	173.88
363.203	173.88
363.429	180.88
363.656	162.88
363.882	186.88
364.109	173.88
364.335	166.88
364.562	167.88
364.788	175.88
365.015	163.88
365.241	179.88
365.468	177.88
365.694	171.88
365.92	178.88
366.147	168.88
366.373	167.88
366.599	162.88
366.826	186.88
367.052	166.88
367.278	175.88
367.505	181.88
367.731	181.88
367.957	174.88
368.184	192.88
368.41	177.88
368.636	170.88
368.862	177.88
369.089	185.88
369.315	193.88
369.541	185.88
369.767	194.88
369.993	181.88
370.219	181.88
370.445	170.88
370.672	189.88
370.898	174.88
371.124	169.88
371.35	178.88
371.576	176.88
371.802	184.88
372.028	197.88
372.254	208.88
372.48	189.88
372.706	200.88
372.932	203.88
373.158	181.88
373.384	201.88
373.61	203.88
373.835	221.88
374.061	185.88
374.287	194.88
374.513	199.88
374.739	197.88
374.965	200.88
375.191	206.88
375.416	206.88
375.642	199.88
375.868	200.88
376.094	198.88
376.319	194.88
376.545	203.88
376.771	213.88
376.997	187.88
377.222	179.88
377.448	184.88
377.674	194.88
377.899	197.88
378.125	203.88
378.35	192.88
378.576	185.88
378.802	199.88
379.027	201.88
379.253	198.88
379.478	187.88
379.704	200.88
379.929	208.88
380.155	193.88
380.38	193.88
380.606	208.88
380.831	207.88
381.057	194.88
381.282	197.88
381.507	226.88
381.733	209.88
381.958	223.88
382.184	204.88
382.409	221.88
382.634	213.88
382.86	229.88
383.085	221.88
383.31	223.88
383.535	216.88
383.761	234.88
383.986	231.88
384.211	234.88
384.436	220.88
384.662	232.88
384.887	220.88
385.112	232.88
385.337	239.88
385.562	249.88
385.787	239.88
386.013	227.88
386.238	226.88
386.463	231.88
386.688	233.88
386.913	223.88
387.138	204.88
387.363	219.88
387.588	251.88
387.813	232.88
388.038	231.88
388.263	217.88
388.488	231.88
388.713	231.88
388.938	242.88
389.163	225.88
389.387	249.88
389.612	228.88
389.837	247.88
390.062	225.88
390.287	247.88
390.512	245.88
390.736	235.88
390.961	252.88
391.186	243.88
391.411	249.88
391.636	247.88
391.86	252.88
392.085	251.88
392.31	259.88
392.534	249.88
392.759	247.88
392.984	250.88
393.208	240.88
393.433	234.88
393.658	251.88
393.882	243.88
394.107	257.88
394.331	257.88
394.556	240.88
394.78	237.88
395.005	264.88
395.229	237.88
395.454	265.88
395.678	253.88
395.903	245.88
396.127	242.88
396.352	232.88
396.576	283.88
396.801	259.88
397.025	271.88
397.249	265.88
397.474	255.88
397.698	257.88
397.922	256.88
398.147	271.88
398.371	271.88
398.595	270.88
398.82	264.88
399.044	279.88
399.268	292.88
399.492	320.88
399.717	333.88
399.941	327.88
400.165	307.88
400.389	306.88
400.613	306.88
400.837	273.88
401.062	283.88
401.286	297.88
401.51	290.88
401.734	281.88
401.958	284.88
402.182	273.88
402.406	277.88
402.63	273.88
402.854	295.88
403.078	284.88
403.302	288.88
403.526	310.88
403.75	281.88
403.974	287.88
404.198	291.88
404.422	294.88
404.645	288.88
404.869	297.88
405.093	281.88
405.317	281.88
405.541	283.88
405.765	299.88
405.988	293.88
406.212	294.88
406.436	314.88
406.66	307.88
406.883	309.88
407.107	320.88
407.331	330.88
407.555	329.88
407.778	318.88
408.002	327.88
408.226	319.88
408.449	316.88
408.673	318.88
408.896	303.88
409.12	319.88
409.344	329.88
409.567	312.88
409.791	306.88
410.014	316.88
410.238	312.88
410.461	323.88
410.685	291.88
410.908	304.88
411.132	316.88
411.355	310.88
411.578	306.88
411.802	306.88
412.025	307.88
412.249	319.88
412.472	314.88
412.695	305.88
412.919	305.88
413.142	293.88
413.365	315.88
413.589	299.88
413.812	291.88
414.035	301.88
414.258	296.88
414.482	289.88
414.705	303.88
414.928	299.88
415.151	297.88
415.374	302.88
415.597	296.88
415.821	303.88
416.044	293.88
416.267	285.88
416.49	286.88
416.713	296.88
416.936	289.88
417.159	292.88
417.382	306.88
417.605	297.88
417.828	279.88
418.051	277.88
418.274	297.88
418.497	295.88
418.72	294.88
418.943	307.88
419.166	305.88
419.389	289.88
419.611	299.88
419.834	312.88
420.057	312.88
420.28	303.88
420.503	307.88
420.726	310.88
420.948	291.88
421.171	290.88
421.394	310.88
421.617	290.88
421.839	301.88
422.062	294.88
422.285	296.88
422.507	306.88
422.73	307.88
422.953	316.88
423.175	302.88
423.398	301.88
423.621	283.88
423.843	315.88
424.066	311.88
424.288	314.88
424.511	306.88
424.733	298.88
424.956	310.88
425.178	302.88
425.401	314.88
425.623	301.88
425.846	302.88
426.068	301.88
426.291	309.88
426.513	285.88
426.735	277.88
426.958	291.88
427.18	288.88
427.402	308.88
427.625	285.88
427.847	301.88
428.069	302.88
428.292	291.88
428.514	303.88
428.736	289.88
428.958	311.88
429.181	313.88
429.403	293.88
429.625	303.88
429.847	305.88
430.069	297.88
430.292	311.88
430.514	295.88
430.736	313.88
430.958	292.88
431.18	309.88
431.402	312.88
431.624	289.88
431.846	286.88
432.068	279.88
432.29	299.88
432.512	298.88
432.734	302.88
432.956	318.88
433.178	326.88
433.4	315.88
433.622	312.88
433.844	304.88
434.066	319.88
434.287	314.88
434.509	308.88
434.731	318.88
434.953	319.88
435.175	330.88
435.397	321.88
435.618	320.88
435.84	302.88
436.062	314.88
436.284	330.88
436.505	327.88
436.727	312.88
436.949	309.88
437.17	313.88
437.392	319.88
437.614	306.88
437.835	296.88
438.057	282.88
438.278	279.88
438.5	298.88
438.721	315.88
438.943	290.88
439.165	303.88
439.386	313.88
439.608	319.88
439.829	301.88
440.05	320.88
440.272	311.88
440.493	321.88
440.715	345.88
440.936	325.88
441.158	330.88
441.379	341.88
441.6	321.88
441.822	346.88
442.043	350.88
442.264	325.88
442.486	306.88
442.707	337.88
442.928	333.88
443.149	324.88
443.371	339.88
443.592	349.88
443.813	331.88
444.034	336.88
444.255	352.88
444.476	346.88
444.698	350.88
444.919	347.88
445.14	461.88
445.361	413.88
445.582	349.88
445.803	323.88
446.024	332.88
446.245	341.88
446.466	341.88
446.687	321.88
446.908	321.88
447.129	310.88
447.35	322.88
447.571	317.88
447.792	312.88
448.013	291.88
448.234	314.88
448.455	307.88
448.675	303.88
448.896	310.88
449.117	307.88
449.338	304.88
449.559	303.88
449.779	283.88
450	297.88
450.221	296.88
450.442	309.88
450.662	310.88
450.883	303.88
451.104	295.88
451.324	301.88
451.545	313.88
451.766	298.88
451.986	294.88
452.207	298.88
452.428	314.88
452.648	299.88
452.869	288.88
453.089	273.88
453.31	293.88
453.53	285.88
453.751	295.88
453.971	278.88
454.192	282.88
454.412	271.88
454.633	277.88
454.853	282.88
455.073	295.88
455.294	269.88
455.514	279.88
455.734	272.88
455.955	269.88
456.175	263.88
456.395	280.88
456.616	289.88
456.836	293.88
457.056	311.88
457.276	268.88
457.497	281.88
457.717	280.88
457.937	305.88
458.157	290.88
458.377	281.88
458.598	295.88
458.818	302.88
459.038	304.88
459.258	310.88
459.478	302.88
459.698	307.88
459.918	305.88
460.138	324.88
460.358	339.88
460.578	337.88
460.798	338.88
461.018	347.88
461.238	339.88
461.458	338.88
461.678	334.88
461.898	352.88
462.118	339.88
462.338	347.88
462.558	374.88
462.777	368.88
462.997	370.88
463.217	390.88
463.437	401.88
463.657	375.88
463.876	365.88
464.096	382.88
464.316	363.88
464.536	354.88
464.755	370.88
464.975	342.88
465.195	341.88
465.414	326.88
465.634	333.88
465.854	329.88
466.073	352.88
466.293	344.88
466.512	332.88
466.732	332.88
466.951	327.88
467.171	334.88
467.391	316.88
467.61	318.88
467.829	316.88
468.049	312.88
468.268	321.88
468.488	322.88
468.707	315.88
468.927	333.88
469.146	326.88
469.365	338.88
469.585	320.88
469.804	336.88
470.023	338.88
470.243	323.88
470.462	330.88
470.681	310.88
470.901	335.88
471.12	329.88
471.339	317.88
471.558	308.88
471.777	327.88
471.997	329.88
472.216	337.88
472.435	327.88
472.654	319.88
472.873	304.88
473.092	327.88
473.311	322.88
473.53	320.88
473.749	322.88
473.968	319.88
474.187	336.88
474.406	320.88
474.625	341.88
474.844	319.88
475.063	330.88
475.282	335.88
475.501	313.88
475.72	328.88
475.939	331.88
476.158	355.88
476.377	354.88
476.596	350.88
476.814	338.88
477.033	342.88
477.252	338.88
477.471	350.88
477.69	347.88
477.908	368.88
478.127	373.88
478.346	379.88
478.564	365.88
478.783	375.88
479.002	384.88
479.22	395.88
479.439	381.88
479.658	392.88
479.876	366.88
480.095	381.88
480.313	405.88
480.532	394.88
480.751	386.88
480.969	373.88
481.188	376.88
481.406	393.88
481.624	387.88
481.843	377.88
482.061	368.88
482.28	391.88
482.498	393.88
482.717	404.88
482.935	401.88
483.153	411.88
483.372	410.88
483.59	400.88
483.808	410.88
484.027	421.88
484.245	413.88
484.463	384.88
484.681	409.88
484.9	383.88
485.118	389.88
485.336	401.88
485.554	397.88
485.772	407.88
485.99	391.88
486.209	411.88
486.427	392.88
486.645	408.88
486.863	416.88
487.081	401.88
487.299	397.88
487.517	401.88
487.735	403.88
487.953	425.88
488.171	448.88
488.389	407.88
488.607	412.88
488.825	418.88
489.043	393.88
489.261	399.88
489.479	412.88
489.696	393.88
489.914	385.88
490.132	429.88
490.35	387.88
490.568	403.88
490.786	423.88
491.003	412.88
491.221	432.88
491.439	419.88
491.657	400.88
491.874	413.88
492.092	431.88
492.31	433.88
492.527	412.88
492.745	425.88
492.963	419.88
493.18	446.88
493.398	421.88
493.615	417.88
493.833	402.88
494.05	424.88
494.268	433.88
494.485	415.88
494.703	409.88
494.92	425.88
495.138	402.88
495.355	423.88
495.573	415.88
495.79	431.88
496.008	425.88
496.225	420.88
496.442	409.88
496.66	424.88
496.877	431.88
497.094	419.88
497.312	429.88
497.529	428.88
497.746	446.88
497.963	419.88
498.181	456.88
498.398	455.88
498.615	486.88
498.832	481.88
499.049	485.88
499.267	500.88
499.484	537.88
499.701	561.88
499.918	569.88
500.135	591.88
500.352	606.88
500.569	619.88
500.786	658.88
501.003	610.88
501.22	597.88
501.437	569.88
501.654	534.88
501.871	505.88
502.088	495.88
502.305	485.88
502.522	459.88
502.739	462.88
502.956	454.88
