Data from Fe(NO3)3@0.05M.TitratingCurve.Agarose3%dH2O.NegLispCup.LampEnergy10.LIBS07252019_HRD10591_16-48-08-334.txt Node
Date: Thu Jul 25 16:48:08 EDT 2019
User: cochatt
Spectrometer: HR+D1059
Trigger mode: 1
Integration Time (sec): 1.000000E-1
Scans to average: 1
Electric dark correction enabled: true
Nonlinearity correction enabled: false
Boxcar width: 0
XAxis mode: Wavelengths
Number of Pixels in Spectrum: 2048
>>>>>Begin Spectral Data<<<<<
223.165	-24.69
223.4	-24.69
223.635	-24.69
223.869	-16.69
224.104	-21.69
224.338	-14.69
224.573	-6.69
224.808	-13.69
225.042	-8.69
225.277	-2.69
225.511	0.31
225.746	3.31
225.98	7.31
226.215	6.31
226.449	22.31
226.683	7.31
226.918	29.31
227.152	33.31
227.387	29.31
227.621	47.31
227.856	47.31
228.09	33.31
228.324	53.31
228.559	58.31
228.793	59.31
229.027	73.31
229.262	56.31
229.496	72.31
229.73	83.31
229.964	93.31
230.199	71.31
230.433	72.31
230.667	87.31
230.901	89.31
231.136	94.31
231.37	101.31
231.604	102.31
231.838	96.31
232.072	93.31
232.306	89.31
232.541	95.31
232.775	98.31
233.009	83.31
233.243	112.31
233.477	106.31
233.711	106.31
233.945	104.31
234.179	113.31
234.413	94.31
234.647	79.31
234.881	105.31
235.115	88.31
235.349	85.31
235.583	98.31
235.817	91.31
236.051	104.31
236.285	101.31
236.519	93.31
236.753	98.31
236.987	83.31
237.221	104.31
237.455	94.31
237.689	88.31
237.922	99.31
238.156	114.31
238.39	115.31
238.624	104.31
238.858	104.31
239.091	120.31
239.325	122.31
239.559	98.31
239.793	95.31
240.027	103.31
240.26	99.31
240.494	108.31
240.728	95.31
240.961	106.31
241.195	120.31
241.429	106.31
241.662	112.31
241.896	102.31
242.13	105.31
242.363	114.31
242.597	113.31
242.83	114.31
243.064	111.31
243.298	107.31
243.531	117.31
243.765	105.31
243.998	111.31
244.232	114.31
244.465	121.31
244.699	124.31
244.932	113.31
245.166	117.31
245.399	119.31
245.633	117.31
245.866	114.31
246.099	112.31
246.333	121.31
246.566	120.31
246.8	123.31
247.033	101.31
247.266	101.31
247.5	121.31
247.733	102.31
247.966	121.31
248.2	135.31
248.433	123.31
248.666	129.31
248.899	125.31
249.133	133.31
249.366	123.31
249.599	136.31
249.832	115.31
250.066	125.31
250.299	130.31
250.532	133.31
250.765	105.31
250.998	125.31
251.231	119.31
251.465	116.31
251.698	127.31
251.931	114.31
252.164	120.31
252.397	137.31
252.63	135.31
252.863	126.31
253.096	147.31
253.329	137.31
253.562	149.31
253.795	129.31
254.028	145.31
254.261	132.31
254.494	140.31
254.727	126.31
254.96	109.31
255.193	147.31
255.426	117.31
255.659	143.31
255.892	142.31
256.124	133.31
256.357	147.31
256.59	165.31
256.823	137.31
257.056	142.31
257.289	137.31
257.521	137.31
257.754	138.31
257.987	123.31
258.22	133.31
258.452	145.31
258.685	138.31
258.918	157.31
259.151	149.31
259.383	160.31
259.616	140.31
259.849	150.31
260.081	154.31
260.314	158.31
260.547	151.31
260.779	150.31
261.012	156.31
261.244	149.31
261.477	158.31
261.71	159.31
261.942	133.31
262.175	150.31
262.407	154.31
262.64	148.31
262.872	165.31
263.105	151.31
263.337	161.31
263.57	162.31
263.802	150.31
264.035	154.31
264.267	150.31
264.499	146.31
264.732	152.31
264.964	167.31
265.197	161.31
265.429	142.31
265.661	139.31
265.894	159.31
266.126	148.31
266.358	148.31
266.591	147.31
266.823	169.31
267.055	153.31
267.287	159.31
267.52	166.31
267.752	165.31
267.984	142.31
268.216	140.31
268.448	169.31
268.681	153.31
268.913	147.31
269.145	157.31
269.377	173.31
269.609	159.31
269.841	159.31
270.073	169.31
270.306	181.31
270.538	166.31
270.77	163.31
271.002	154.31
271.234	174.31
271.466	166.31
271.698	169.31
271.93	169.31
272.162	176.31
272.394	176.31
272.626	177.31
272.858	165.31
273.09	161.31
273.322	179.31
273.553	169.31
273.785	179.31
274.017	192.31
274.249	193.31
274.481	191.31
274.713	191.31
274.945	200.31
275.176	202.31
275.408	193.31
275.64	206.31
275.872	186.31
276.104	170.31
276.335	174.31
276.567	185.31
276.799	193.31
277.031	187.31
277.262	177.31
277.494	167.31
277.726	182.31
277.957	177.31
278.189	194.31
278.421	163.31
278.652	170.31
278.884	203.31
279.115	181.31
279.347	207.31
279.579	184.31
279.81	193.31
280.042	170.31
280.273	175.31
280.505	176.31
280.736	185.31
280.968	182.31
281.199	189.31
281.431	184.31
281.662	181.31
281.894	182.31
282.125	190.31
282.356	185.31
282.588	197.31
282.819	203.31
283.051	195.31
283.282	191.31
283.513	194.31
283.745	198.31
283.976	197.31
284.207	193.31
284.439	183.31
284.67	182.31
284.901	186.31
285.132	198.31
285.364	206.31
285.595	199.31
285.826	183.31
286.057	208.31
286.288	199.31
286.52	205.31
286.751	211.31
286.982	188.31
287.213	189.31
287.444	213.31
287.675	212.31
287.906	219.31
288.138	196.31
288.369	208.31
288.6	201.31
288.831	212.31
289.062	208.31
289.293	187.31
289.524	204.31
289.755	201.31
289.986	206.31
290.217	200.31
290.448	203.31
290.679	206.31
290.91	206.31
291.141	201.31
291.371	218.31
291.602	209.31
291.833	217.31
292.064	211.31
292.295	215.31
292.526	213.31
292.757	190.31
292.987	198.31
293.218	200.31
293.449	196.31
293.68	211.31
293.91	214.31
294.141	206.31
294.372	208.31
294.603	209.31
294.833	215.31
295.064	208.31
295.295	186.31
295.525	210.31
295.756	209.31
295.987	209.31
296.217	213.31
296.448	225.31
296.679	219.31
296.909	205.31
297.14	211.31
297.37	207.31
297.601	214.31
297.831	214.31
298.062	226.31
298.292	217.31
298.523	210.31
298.753	225.31
298.984	210.31
299.214	215.31
299.445	229.31
299.675	210.31
299.905	224.31
300.136	234.31
300.366	227.31
300.597	214.31
300.827	221.31
301.057	237.31
301.288	249.31
301.518	211.31
301.748	219.31
301.979	224.31
302.209	255.31
302.439	241.31
302.669	228.31
302.9	244.31
303.13	243.31
303.36	222.31
303.59	235.31
303.82	231.31
304.051	230.31
304.281	232.31
304.511	215.31
304.741	228.31
304.971	231.31
305.201	243.31
305.431	231.31
305.661	219.31
305.891	227.31
306.121	227.31
306.352	233.31
306.582	223.31
306.812	225.31
307.042	230.31
307.272	217.31
307.502	226.31
307.731	231.31
307.961	239.31
308.191	224.31
308.421	233.31
308.651	235.31
308.881	238.31
309.111	242.31
309.341	219.31
309.571	243.31
309.8	242.31
310.03	246.31
310.26	225.31
310.49	241.31
310.72	229.31
310.949	241.31
311.179	243.31
311.409	244.31
311.639	245.31
311.868	235.31
312.098	236.31
312.328	229.31
312.557	250.31
312.787	243.31
313.017	245.31
313.246	257.31
313.476	253.31
313.706	261.31
313.935	243.31
314.165	260.31
314.394	262.31
314.624	251.31
314.853	248.31
315.083	237.31
315.312	250.31
315.542	237.31
315.771	232.31
316.001	253.31
316.23	273.31
316.46	256.31
316.689	243.31
316.919	235.31
317.148	269.31
317.377	242.31
317.607	241.31
317.836	242.31
318.065	253.31
318.295	231.31
318.524	240.31
318.753	237.31
318.983	276.31
319.212	257.31
319.441	233.31
319.67	248.31
319.9	251.31
320.129	235.31
320.358	260.31
320.587	216.31
320.816	243.31
321.046	244.31
321.275	249.31
321.504	241.31
321.733	254.31
321.962	219.31
322.191	247.31
322.42	263.31
322.649	258.31
322.878	253.31
323.108	251.31
323.337	270.31
323.566	254.31
323.795	264.31
324.024	264.31
324.253	252.31
324.482	264.31
324.71	250.31
324.939	251.31
325.168	258.31
325.397	261.31
325.626	270.31
325.855	273.31
326.084	263.31
326.313	268.31
326.542	258.31
326.77	255.31
326.999	253.31
327.228	261.31
327.457	238.31
327.686	276.31
327.914	282.31
328.143	264.31
328.372	269.31
328.6	279.31
328.829	283.31
329.058	287.31
329.287	281.31
329.515	272.31
329.744	281.31
329.972	272.31
330.201	278.31
330.43	289.31
330.658	269.31
330.887	265.31
331.115	266.31
331.344	283.31
331.572	289.31
331.801	265.31
332.03	282.31
332.258	296.31
332.486	290.31
332.715	294.31
332.943	321.31
333.172	296.31
333.4	313.31
333.629	330.31
333.857	339.31
334.085	328.31
334.314	315.31
334.542	321.31
334.771	335.31
334.999	306.31
335.227	310.31
335.455	314.31
335.684	325.31
335.912	283.31
336.14	295.31
336.369	290.31
336.597	292.31
336.825	309.31
337.053	305.31
337.281	301.31
337.51	297.31
337.738	298.31
337.966	291.31
338.194	283.31
338.422	277.31
338.65	281.31
338.878	274.31
339.106	296.31
339.334	295.31
339.562	272.31
339.79	272.31
340.018	275.31
340.246	287.31
340.474	281.31
340.702	305.31
340.93	267.31
341.158	270.31
341.386	261.31
341.614	302.31
341.842	288.31
342.07	282.31
342.298	282.31
342.526	292.31
342.754	290.31
342.981	277.31
343.209	290.31
343.437	308.31
343.665	292.31
343.893	323.31
344.12	315.31
344.348	320.31
344.576	313.31
344.804	298.31
345.031	324.31
345.259	284.31
345.487	281.31
345.714	274.31
345.942	271.31
346.17	275.31
346.397	287.31
346.625	269.31
346.853	279.31
347.08	264.31
347.308	271.31
347.535	271.31
347.763	284.31
347.99	275.31
348.218	277.31
348.445	277.31
348.673	275.31
348.9	279.31
349.128	291.31
349.355	279.31
349.583	270.31
349.81	275.31
350.037	270.31
350.265	268.31
350.492	271.31
350.72	260.31
350.947	261.31
351.174	272.31
351.402	276.31
351.629	267.31
351.856	251.31
352.083	261.31
352.311	271.31
352.538	281.31
352.765	277.31
352.992	271.31
353.22	269.31
353.447	287.31
353.674	268.31
353.901	278.31
354.128	271.31
354.355	287.31
354.583	262.31
354.81	275.31
355.037	265.31
355.264	278.31
355.491	257.31
355.718	262.31
355.945	272.31
356.172	288.31
356.399	274.31
356.626	289.31
356.853	283.31
357.08	287.31
357.307	280.31
357.534	279.31
357.761	261.31
357.988	262.31
358.215	295.31
358.441	277.31
358.668	269.31
358.895	279.31
359.122	280.31
359.349	282.31
359.576	280.31
359.802	294.31
360.029	292.31
360.256	285.31
360.483	263.31
360.709	284.31
360.936	288.31
361.163	282.31
361.39	278.31
361.616	266.31
361.843	276.31
362.07	270.31
362.296	259.31
362.523	263.31
362.749	281.31
362.976	285.31
363.203	281.31
363.429	301.31
363.656	271.31
363.882	282.31
364.109	277.31
364.335	277.31
364.562	286.31
364.788	270.31
365.015	294.31
365.241	279.31
365.468	287.31
365.694	260.31
365.92	271.31
366.147	277.31
366.373	281.31
366.599	292.31
366.826	277.31
367.052	294.31
367.278	278.31
367.505	263.31
367.731	293.31
367.957	288.31
368.184	284.31
368.41	280.31
368.636	282.31
368.862	305.31
369.089	308.31
369.315	296.31
369.541	293.31
369.767	295.31
369.993	294.31
370.219	290.31
370.445	294.31
370.672	298.31
370.898	311.31
371.124	310.31
371.35	299.31
371.576	297.31
371.802	310.31
372.028	320.31
372.254	324.31
372.48	314.31
372.706	282.31
372.932	315.31
373.158	326.31
373.384	327.31
373.61	332.31
373.835	314.31
374.061	311.31
374.287	308.31
374.513	311.31
374.739	341.31
374.965	344.31
375.191	334.31
375.416	322.31
375.642	322.31
375.868	334.31
376.094	292.31
376.319	324.31
376.545	312.31
376.771	313.31
376.997	301.31
377.222	306.31
377.448	312.31
377.674	307.31
377.899	321.31
378.125	313.31
378.35	305.31
378.576	295.31
378.802	311.31
379.027	309.31
379.253	325.31
379.478	307.31
379.704	316.31
379.929	313.31
380.155	327.31
380.38	303.31
380.606	311.31
380.831	313.31
381.057	315.31
381.282	326.31
381.507	320.31
381.733	314.31
381.958	338.31
382.184	323.31
382.409	339.31
382.634	349.31
382.86	320.31
383.085	358.31
383.31	326.31
383.535	342.31
383.761	334.31
383.986	362.31
384.211	330.31
384.436	339.31
384.662	359.31
384.887	347.31
385.112	373.31
385.337	371.31
385.562	374.31
385.787	360.31
386.013	353.31
386.238	356.31
386.463	370.31
386.688	369.31
386.913	358.31
387.138	356.31
387.363	358.31
387.588	329.31
387.813	353.31
388.038	362.31
388.263	359.31
388.488	382.31
388.713	362.31
388.938	374.31
389.163	373.31
389.387	355.31
389.612	363.31
389.837	352.31
390.062	383.31
390.287	371.31
390.512	352.31
390.736	365.31
390.961	354.31
391.186	372.31
391.411	391.31
391.636	371.31
391.86	379.31
392.085	386.31
392.31	385.31
392.534	381.31
392.759	390.31
392.984	373.31
393.208	393.31
393.433	366.31
393.658	379.31
393.882	393.31
394.107	395.31
394.331	381.31
394.556	362.31
394.78	383.31
395.005	385.31
395.229	390.31
395.454	394.31
395.678	412.31
395.903	390.31
396.127	401.31
396.352	385.31
396.576	390.31
396.801	400.31
397.025	415.31
397.249	402.31
397.474	401.31
397.698	413.31
397.922	395.31
398.147	419.31
398.371	407.31
398.595	430.31
398.82	433.31
399.044	458.31
399.268	475.31
399.492	543.31
399.717	570.31
399.941	577.31
400.165	526.31
400.389	505.31
400.613	502.31
400.837	465.31
401.062	442.31
401.286	431.31
401.51	450.31
401.734	431.31
401.958	445.31
402.182	423.31
402.406	426.31
402.63	435.31
402.854	462.31
403.078	457.31
403.302	450.31
403.526	484.31
403.75	478.31
403.974	486.31
404.198	477.31
404.422	476.31
404.645	513.31
404.869	501.31
405.093	496.31
405.317	439.31
405.541	486.31
405.765	461.31
405.988	493.31
406.212	484.31
406.436	483.31
406.66	479.31
406.883	479.31
407.107	517.31
407.331	518.31
407.555	515.31
407.778	521.31
408.002	491.31
408.226	490.31
408.449	513.31
408.673	477.31
408.896	497.31
409.12	478.31
409.344	488.31
409.567	487.31
409.791	474.31
410.014	470.31
410.238	484.31
410.461	472.31
410.685	470.31
410.908	470.31
411.132	478.31
411.355	443.31
411.578	471.31
411.802	450.31
412.025	464.31
412.249	469.31
412.472	449.31
412.695	443.31
412.919	450.31
413.142	468.31
413.365	444.31
413.589	458.31
413.812	434.31
414.035	433.31
414.258	437.31
414.482	472.31
414.705	477.31
414.928	465.31
415.151	459.31
415.374	443.31
415.597	444.31
415.821	426.31
416.044	459.31
416.267	452.31
416.49	445.31
416.713	425.31
416.936	429.31
417.159	448.31
417.382	459.31
417.605	455.31
417.828	441.31
418.051	470.31
418.274	456.31
418.497	463.31
418.72	448.31
418.943	433.31
419.166	452.31
419.389	485.31
419.611	460.31
419.834	461.31
420.057	463.31
420.28	440.31
420.503	448.31
420.726	447.31
420.948	458.31
421.171	457.31
421.394	469.31
421.617	446.31
421.839	437.31
422.062	452.31
422.285	453.31
422.507	464.31
422.73	446.31
422.953	433.31
423.175	452.31
423.398	459.31
423.621	459.31
423.843	460.31
424.066	479.31
424.288	461.31
424.511	458.31
424.733	449.31
424.956	462.31
425.178	454.31
425.401	441.31
425.623	459.31
425.846	440.31
426.068	433.31
426.291	443.31
426.513	438.31
426.735	428.31
426.958	439.31
427.18	410.31
427.402	452.31
427.625	415.31
427.847	387.31
428.069	430.31
428.292	420.31
428.514	415.31
428.736	414.31
428.958	441.31
429.181	407.31
429.403	391.31
429.625	376.31
429.847	425.31
430.069	416.31
430.292	412.31
430.514	409.31
430.736	411.31
430.958	439.31
431.18	415.31
431.402	417.31
431.624	411.31
431.846	431.31
432.068	424.31
432.29	423.31
432.512	425.31
432.734	398.31
432.956	445.31
433.178	423.31
433.4	447.31
433.622	422.31
433.844	460.31
434.066	429.31
434.287	440.31
434.509	439.31
434.731	439.31
434.953	443.31
435.175	465.31
435.397	458.31
435.618	430.31
435.84	429.31
436.062	442.31
436.284	424.31
436.505	437.31
436.727	425.31
436.949	415.31
437.17	409.31
437.392	417.31
437.614	427.31
437.835	425.31
438.057	418.31
438.278	410.31
438.5	428.31
438.721	421.31
438.943	427.31
439.165	409.31
439.386	438.31
439.608	441.31
439.829	433.31
440.05	423.31
440.272	423.31
440.493	441.31
440.715	441.31
440.936	446.31
441.158	457.31
441.379	448.31
441.6	463.31
441.822	451.31
442.043	459.31
442.264	469.31
442.486	470.31
442.707	465.31
442.928	442.31
443.149	443.31
443.371	447.31
443.592	469.31
443.813	477.31
444.034	449.31
444.255	477.31
444.476	495.31
444.698	489.31
444.919	527.31
445.14	627.31
445.361	537.31
445.582	477.31
445.803	468.31
446.024	463.31
446.245	471.31
446.466	442.31
446.687	451.31
446.908	441.31
447.129	424.31
447.35	439.31
447.571	434.31
447.792	436.31
448.013	431.31
448.234	424.31
448.455	420.31
448.675	415.31
448.896	418.31
449.117	407.31
449.338	387.31
449.559	397.31
449.779	408.31
450	401.31
450.221	421.31
450.442	424.31
450.662	404.31
450.883	408.31
451.104	415.31
451.324	408.31
451.545	425.31
451.766	415.31
451.986	395.31
452.207	422.31
452.428	397.31
452.648	400.31
452.869	398.31
453.089	375.31
453.31	385.31
453.53	363.31
453.751	381.31
453.971	391.31
454.192	387.31
454.412	388.31
454.633	357.31
454.853	383.31
455.073	381.31
455.294	371.31
455.514	391.31
455.734	383.31
455.955	384.31
456.175	399.31
456.395	379.31
456.616	378.31
456.836	392.31
457.056	377.31
457.276	381.31
457.497	393.31
457.717	395.31
457.937	390.31
458.157	403.31
458.377	394.31
458.598	383.31
458.818	392.31
459.038	385.31
459.258	416.31
459.478	419.31
459.698	431.31
459.918	444.31
460.138	447.31
460.358	441.31
460.578	457.31
460.798	478.31
461.018	483.31
461.238	470.31
461.458	477.31
461.678	483.31
461.898	496.31
462.118	495.31
462.338	504.31
462.558	518.31
462.777	534.31
462.997	582.31
463.217	591.31
463.437	592.31
463.657	532.31
463.876	522.31
464.096	538.31
464.316	521.31
464.536	536.31
464.755	515.31
464.975	503.31
465.195	483.31
465.414	479.31
465.634	467.31
465.854	460.31
466.073	441.31
466.293	426.31
466.512	425.31
466.732	434.31
466.951	433.31
467.171	432.31
467.391	408.31
467.61	407.31
467.829	421.31
468.049	445.31
468.268	399.31
468.488	400.31
468.707	430.31
468.927	421.31
469.146	424.31
469.365	431.31
469.585	443.31
469.804	430.31
470.023	437.31
470.243	435.31
470.462	440.31
470.681	442.31
470.901	446.31
471.12	434.31
471.339	411.31
471.558	419.31
471.777	420.31
471.997	417.31
472.216	406.31
472.435	403.31
472.654	419.31
472.873	407.31
473.092	415.31
473.311	413.31
473.53	416.31
473.749	429.31
473.968	403.31
474.187	403.31
474.406	402.31
474.625	416.31
474.844	418.31
475.063	410.31
475.282	424.31
475.501	415.31
475.72	426.31
475.939	435.31
476.158	413.31
476.377	432.31
476.596	417.31
476.814	431.31
477.033	425.31
477.252	436.31
477.471	440.31
477.69	466.31
477.908	464.31
478.127	462.31
478.346	471.31
478.564	472.31
478.783	479.31
479.002	495.31
479.22	489.31
479.439	485.31
479.658	483.31
479.876	483.31
480.095	495.31
480.313	498.31
480.532	511.31
480.751	494.31
480.969	497.31
481.188	479.31
481.406	477.31
481.624	458.31
481.843	467.31
482.061	480.31
482.28	453.31
482.498	454.31
482.717	441.31
482.935	463.31
483.153	475.31
483.372	475.31
483.59	463.31
483.808	481.31
484.027	463.31
484.245	458.31
484.463	489.31
484.681	496.31
484.9	493.31
485.118	469.31
485.336	463.31
485.554	474.31
485.772	477.31
485.99	481.31
486.209	485.31
486.427	471.31
486.645	507.31
486.863	496.31
487.081	473.31
487.299	514.31
487.517	481.31
487.735	483.31
487.953	499.31
488.171	493.31
488.389	476.31
488.607	476.31
488.825	468.31
489.043	483.31
489.261	506.31
489.479	482.31
489.696	487.31
489.914	480.31
490.132	493.31
490.35	501.31
490.568	479.31
490.786	498.31
491.003	487.31
491.221	496.31
491.439	509.31
491.657	501.31
491.874	546.31
492.092	501.31
492.31	516.31
492.527	521.31
492.745	494.31
492.963	492.31
493.18	507.31
493.398	513.31
493.615	514.31
493.833	516.31
494.05	507.31
494.268	505.31
494.485	493.31
494.703	502.31
494.92	507.31
495.138	523.31
495.355	517.31
495.573	530.31
495.79	512.31
496.008	515.31
496.225	517.31
496.442	522.31
496.66	538.31
496.877	526.31
497.094	534.31
497.312	547.31
497.529	542.31
497.746	570.31
497.963	565.31
498.181	574.31
498.398	607.31
498.615	641.31
498.832	663.31
499.049	678.31
499.267	709.31
499.484	777.31
499.701	820.31
499.918	878.31
500.135	953.31
500.352	1031.31
500.569	1077.31
500.786	1062.31
501.003	996.31
501.22	946.31
501.437	871.31
501.654	795.31
501.871	738.31
502.088	710.31
