Data from Fe(NO3)3@0.025M.TitratingCurve.Agarose3%dH2O.NegLispCup.LampEnergy10.LIBS07252019_HRD10591_16-53-59-336.txt Node
Date: Thu Jul 25 16:53:59 EDT 2019
User: cochatt
Spectrometer: HR+D1059
Trigger mode: 1
Integration Time (sec): 1.000000E-1
Scans to average: 1
Electric dark correction enabled: true
Nonlinearity correction enabled: false
Boxcar width: 0
XAxis mode: Wavelengths
Number of Pixels in Spectrum: 2048
>>>>>Begin Spectral Data<<<<<
223.165	-9.06
223.4	-9.06
223.635	-9.06
223.869	-19.06
224.104	-12.06
224.338	-25.06
224.573	-18.06
224.808	-19.06
225.042	-22.06
225.277	-5.06
225.511	3.94
225.746	4.94
225.98	-1.06
226.215	11.94
226.449	13.94
226.683	15.94
226.918	41.94
227.152	37.94
227.387	36.94
227.621	32.94
227.856	57.94
228.09	24.94
228.324	49.94
228.559	55.94
228.793	59.94
229.027	73.94
229.262	80.94
229.496	64.94
229.73	76.94
229.964	77.94
230.199	73.94
230.433	74.94
230.667	87.94
230.901	75.94
231.136	89.94
231.37	67.94
231.604	78.94
231.838	72.94
232.072	86.94
232.306	76.94
232.541	86.94
232.775	71.94
233.009	91.94
233.243	92.94
233.477	98.94
233.711	94.94
233.945	92.94
234.179	90.94
234.413	86.94
234.647	91.94
234.881	98.94
235.115	85.94
235.349	90.94
235.583	97.94
235.817	84.94
236.051	86.94
236.285	88.94
236.519	92.94
236.753	85.94
236.987	81.94
237.221	78.94
237.455	80.94
237.689	87.94
237.922	98.94
238.156	76.94
238.39	91.94
238.624	90.94
238.858	89.94
239.091	91.94
239.325	86.94
239.559	77.94
239.793	88.94
240.027	87.94
240.26	83.94
240.494	97.94
240.728	78.94
240.961	97.94
241.195	97.94
241.429	101.94
241.662	97.94
241.896	85.94
242.13	96.94
242.363	65.94
242.597	86.94
242.83	97.94
243.064	100.94
243.298	82.94
243.531	93.94
243.765	87.94
243.998	85.94
244.232	89.94
244.465	97.94
244.699	85.94
244.932	91.94
245.166	94.94
245.399	102.94
245.633	100.94
245.866	96.94
246.099	91.94
246.333	98.94
246.566	94.94
246.8	83.94
247.033	85.94
247.266	86.94
247.5	107.94
247.733	75.94
247.966	91.94
248.2	92.94
248.433	94.94
248.666	102.94
248.899	94.94
249.133	103.94
249.366	92.94
249.599	117.94
249.832	108.94
250.066	106.94
250.299	94.94
250.532	96.94
250.765	85.94
250.998	103.94
251.231	87.94
251.465	93.94
251.698	103.94
251.931	107.94
252.164	80.94
252.397	91.94
252.63	99.94
252.863	104.94
253.096	105.94
253.329	98.94
253.562	106.94
253.795	101.94
254.028	113.94
254.261	99.94
254.494	114.94
254.727	107.94
254.96	114.94
255.193	93.94
255.426	107.94
255.659	105.94
255.892	105.94
256.124	112.94
256.357	113.94
256.59	84.94
256.823	114.94
257.056	103.94
257.289	96.94
257.521	105.94
257.754	106.94
257.987	101.94
258.22	103.94
258.452	113.94
258.685	104.94
258.918	96.94
259.151	118.94
259.383	104.94
259.616	96.94
259.849	109.94
260.081	109.94
260.314	123.94
260.547	115.94
260.779	98.94
261.012	116.94
261.244	113.94
261.477	116.94
261.71	118.94
261.942	110.94
262.175	104.94
262.407	105.94
262.64	122.94
262.872	126.94
263.105	121.94
263.337	116.94
263.57	102.94
263.802	114.94
264.035	122.94
264.267	112.94
264.499	106.94
264.732	108.94
264.964	116.94
265.197	113.94
265.429	109.94
265.661	123.94
265.894	116.94
266.126	131.94
266.358	109.94
266.591	123.94
266.823	117.94
267.055	102.94
267.287	132.94
267.52	119.94
267.752	124.94
267.984	106.94
268.216	124.94
268.448	132.94
268.681	107.94
268.913	122.94
269.145	117.94
269.377	116.94
269.609	120.94
269.841	118.94
270.073	112.94
270.306	118.94
270.538	124.94
270.77	116.94
271.002	119.94
271.234	127.94
271.466	116.94
271.698	127.94
271.93	117.94
272.162	122.94
272.394	128.94
272.626	136.94
272.858	110.94
273.09	118.94
273.322	135.94
273.553	105.94
273.785	126.94
274.017	120.94
274.249	139.94
274.481	129.94
274.713	120.94
274.945	129.94
275.176	140.94
275.408	138.94
275.64	135.94
275.872	141.94
276.104	124.94
276.335	128.94
276.567	132.94
276.799	113.94
277.031	141.94
277.262	137.94
277.494	124.94
277.726	119.94
277.957	136.94
278.189	132.94
278.421	118.94
278.652	126.94
278.884	136.94
279.115	124.94
279.347	124.94
279.579	145.94
279.81	124.94
280.042	126.94
280.273	126.94
280.505	132.94
280.736	131.94
280.968	142.94
281.199	142.94
281.431	137.94
281.662	126.94
281.894	130.94
282.125	129.94
282.356	130.94
282.588	136.94
282.819	125.94
283.051	138.94
283.282	150.94
283.513	141.94
283.745	153.94
283.976	144.94
284.207	137.94
284.439	133.94
284.67	134.94
284.901	144.94
285.132	151.94
285.364	142.94
285.595	148.94
285.826	140.94
286.057	142.94
286.288	138.94
286.52	147.94
286.751	143.94
286.982	146.94
287.213	153.94
287.444	153.94
287.675	126.94
287.906	148.94
288.138	138.94
288.369	139.94
288.6	159.94
288.831	142.94
289.062	142.94
289.293	142.94
289.524	150.94
289.755	146.94
289.986	164.94
290.217	156.94
290.448	156.94
290.679	165.94
290.91	138.94
291.141	160.94
291.371	166.94
291.602	147.94
291.833	156.94
292.064	138.94
292.295	147.94
292.526	146.94
292.757	144.94
292.987	156.94
293.218	156.94
293.449	156.94
293.68	167.94
293.91	154.94
294.141	159.94
294.372	155.94
294.603	149.94
294.833	150.94
295.064	146.94
295.295	148.94
295.525	145.94
295.756	148.94
295.987	164.94
296.217	154.94
296.448	160.94
296.679	170.94
296.909	141.94
297.14	165.94
297.37	160.94
297.601	168.94
297.831	160.94
298.062	148.94
298.292	166.94
298.523	160.94
298.753	165.94
298.984	176.94
299.214	165.94
299.445	176.94
299.675	173.94
299.905	164.94
300.136	164.94
300.366	174.94
300.597	161.94
300.827	158.94
301.057	156.94
301.288	173.94
301.518	150.94
301.748	166.94
301.979	177.94
302.209	154.94
302.439	177.94
302.669	166.94
302.9	184.94
303.13	155.94
303.36	180.94
303.59	164.94
303.82	176.94
304.051	167.94
304.281	183.94
304.511	161.94
304.741	161.94
304.971	171.94
305.201	168.94
305.431	180.94
305.661	169.94
305.891	178.94
306.121	165.94
306.352	169.94
306.582	166.94
306.812	173.94
307.042	178.94
307.272	178.94
307.502	168.94
307.731	165.94
307.961	180.94
308.191	167.94
308.421	180.94
308.651	160.94
308.881	161.94
309.111	169.94
309.341	186.94
309.571	187.94
309.8	169.94
310.03	172.94
310.26	181.94
310.49	180.94
310.72	190.94
310.949	166.94
311.179	181.94
311.409	176.94
311.639	176.94
311.868	180.94
312.098	181.94
312.328	188.94
312.557	182.94
312.787	178.94
313.017	182.94
313.246	173.94
313.476	180.94
313.706	182.94
313.935	197.94
314.165	192.94
314.394	158.94
314.624	195.94
314.853	183.94
315.083	188.94
315.312	197.94
315.542	196.94
315.771	174.94
316.001	187.94
316.23	184.94
316.46	200.94
316.689	185.94
316.919	186.94
317.148	174.94
317.377	184.94
317.607	203.94
317.836	188.94
318.065	183.94
318.295	186.94
318.524	189.94
318.753	182.94
318.983	181.94
319.212	187.94
319.441	186.94
319.67	192.94
319.9	201.94
320.129	206.94
320.358	188.94
320.587	184.94
320.816	190.94
321.046	200.94
321.275	190.94
321.504	199.94
321.733	204.94
321.962	200.94
322.191	197.94
322.42	194.94
322.649	203.94
322.878	190.94
323.108	199.94
323.337	176.94
323.566	184.94
323.795	198.94
324.024	201.94
324.253	203.94
324.482	196.94
324.71	196.94
324.939	201.94
325.168	209.94
325.397	184.94
325.626	183.94
325.855	189.94
326.084	208.94
326.313	208.94
326.542	190.94
326.77	203.94
326.999	199.94
327.228	193.94
327.457	187.94
327.686	226.94
327.914	202.94
328.143	219.94
328.372	203.94
328.6	200.94
328.829	195.94
329.058	205.94
329.287	194.94
329.515	217.94
329.744	200.94
329.972	212.94
330.201	218.94
330.43	200.94
330.658	205.94
330.887	221.94
331.115	214.94
331.344	217.94
331.572	204.94
331.801	205.94
332.03	200.94
332.258	208.94
332.486	205.94
332.715	217.94
332.943	212.94
333.172	214.94
333.4	218.94
333.629	212.94
333.857	221.94
334.085	235.94
334.314	227.94
334.542	226.94
334.771	225.94
334.999	234.94
335.227	231.94
335.455	221.94
335.684	234.94
335.912	213.94
336.14	216.94
336.369	205.94
336.597	227.94
336.825	226.94
337.053	217.94
337.281	206.94
337.51	216.94
337.738	236.94
337.966	220.94
338.194	218.94
338.422	220.94
338.65	234.94
338.878	227.94
339.106	223.94
339.334	226.94
339.562	217.94
339.79	208.94
340.018	214.94
340.246	225.94
340.474	247.94
340.702	220.94
340.93	204.94
341.158	227.94
341.386	211.94
341.614	232.94
341.842	216.94
342.07	221.94
342.298	214.94
342.526	221.94
342.754	223.94
342.981	218.94
343.209	219.94
343.437	220.94
343.665	222.94
343.893	240.94
344.12	242.94
344.348	240.94
344.576	227.94
344.804	244.94
345.031	225.94
345.259	214.94
345.487	237.94
345.714	231.94
345.942	220.94
346.17	231.94
346.397	194.94
346.625	216.94
346.853	209.94
347.08	197.94
347.308	196.94
347.535	217.94
347.763	224.94
347.99	210.94
348.218	203.94
348.445	225.94
348.673	232.94
348.9	207.94
349.128	203.94
349.355	213.94
349.583	214.94
349.81	221.94
350.037	210.94
350.265	210.94
350.492	203.94
350.72	207.94
350.947	204.94
351.174	210.94
351.402	226.94
351.629	198.94
351.856	210.94
352.083	214.94
352.311	205.94
352.538	210.94
352.765	226.94
352.992	210.94
353.22	211.94
353.447	206.94
353.674	208.94
353.901	222.94
354.128	197.94
354.355	213.94
354.583	211.94
354.81	217.94
355.037	215.94
355.264	197.94
355.491	206.94
355.718	203.94
355.945	225.94
356.172	208.94
356.399	225.94
356.626	225.94
356.853	213.94
357.08	210.94
357.307	212.94
357.534	219.94
357.761	229.94
357.988	200.94
358.215	222.94
358.441	228.94
358.668	216.94
358.895	236.94
359.122	217.94
359.349	226.94
359.576	210.94
359.802	215.94
360.029	220.94
360.256	225.94
360.483	211.94
360.709	208.94
360.936	215.94
361.163	235.94
361.39	219.94
361.616	213.94
361.843	232.94
362.07	207.94
362.296	220.94
362.523	214.94
362.749	227.94
362.976	222.94
363.203	213.94
363.429	227.94
363.656	214.94
363.882	244.94
364.109	225.94
364.335	230.94
364.562	213.94
364.788	225.94
365.015	235.94
365.241	221.94
365.468	253.94
365.694	230.94
365.92	228.94
366.147	216.94
366.373	219.94
366.599	239.94
366.826	234.94
367.052	222.94
367.278	233.94
367.505	225.94
367.731	242.94
367.957	240.94
368.184	233.94
368.41	226.94
368.636	220.94
368.862	226.94
369.089	225.94
369.315	231.94
369.541	231.94
369.767	220.94
369.993	209.94
370.219	224.94
370.445	220.94
370.672	222.94
370.898	245.94
371.124	221.94
371.35	229.94
371.576	240.94
371.802	226.94
372.028	229.94
372.254	235.94
372.48	224.94
372.706	232.94
372.932	236.94
373.158	216.94
373.384	246.94
373.61	227.94
373.835	233.94
374.061	223.94
374.287	232.94
374.513	238.94
374.739	221.94
374.965	245.94
375.191	251.94
375.416	231.94
375.642	244.94
375.868	250.94
376.094	235.94
376.319	240.94
376.545	242.94
376.771	222.94
376.997	231.94
377.222	236.94
377.448	247.94
377.674	230.94
377.899	231.94
378.125	229.94
378.35	242.94
378.576	234.94
378.802	214.94
379.027	227.94
379.253	236.94
379.478	231.94
379.704	230.94
379.929	245.94
380.155	229.94
380.38	244.94
380.606	229.94
380.831	227.94
381.057	232.94
381.282	229.94
381.507	256.94
381.733	244.94
381.958	218.94
382.184	242.94
382.409	260.94
382.634	245.94
382.86	246.94
383.085	235.94
383.31	264.94
383.535	227.94
383.761	239.94
383.986	234.94
384.211	241.94
384.436	237.94
384.662	227.94
384.887	234.94
385.112	250.94
385.337	263.94
385.562	262.94
385.787	263.94
386.013	253.94
386.238	256.94
386.463	250.94
386.688	248.94
386.913	260.94
387.138	254.94
387.363	271.94
387.588	261.94
387.813	249.94
388.038	254.94
388.263	264.94
388.488	252.94
388.713	274.94
388.938	282.94
389.163	270.94
389.387	277.94
389.612	274.94
389.837	254.94
390.062	265.94
390.287	274.94
390.512	238.94
390.736	264.94
390.961	250.94
391.186	270.94
391.411	260.94
391.636	285.94
391.86	268.94
392.085	290.94
392.31	284.94
392.534	294.94
392.759	278.94
392.984	270.94
393.208	260.94
393.433	275.94
393.658	283.94
393.882	270.94
394.107	266.94
394.331	280.94
394.556	272.94
394.78	283.94
395.005	262.94
395.229	284.94
395.454	298.94
395.678	273.94
395.903	271.94
396.127	286.94
396.352	298.94
396.576	273.94
396.801	281.94
397.025	307.94
397.249	290.94
397.474	289.94
397.698	286.94
397.922	285.94
398.147	261.94
398.371	310.94
398.595	295.94
398.82	308.94
399.044	297.94
399.268	304.94
399.492	339.94
399.717	336.94
399.941	333.94
400.165	330.94
400.389	330.94
400.613	320.94
400.837	308.94
401.062	317.94
401.286	294.94
401.51	325.94
401.734	304.94
401.958	300.94
402.182	312.94
402.406	296.94
402.63	313.94
402.854	308.94
403.078	313.94
403.302	305.94
403.526	316.94
403.75	297.94
403.974	284.94
404.198	306.94
404.422	303.94
404.645	306.94
404.869	296.94
405.093	316.94
405.317	309.94
405.541	321.94
405.765	309.94
405.988	297.94
406.212	318.94
406.436	313.94
406.66	320.94
406.883	308.94
407.107	310.94
407.331	333.94
407.555	351.94
407.778	325.94
408.002	335.94
408.226	340.94
408.449	327.94
408.673	310.94
408.896	325.94
409.12	330.94
409.344	320.94
409.567	333.94
409.791	317.94
410.014	320.94
410.238	324.94
410.461	322.94
410.685	310.94
410.908	317.94
411.132	307.94
411.355	271.94
411.578	311.94
411.802	299.94
412.025	314.94
412.249	310.94
412.472	293.94
412.695	293.94
412.919	309.94
413.142	313.94
413.365	291.94
413.589	298.94
413.812	293.94
414.035	304.94
414.258	293.94
414.482	311.94
414.705	308.94
414.928	284.94
415.151	298.94
415.374	304.94
415.597	290.94
415.821	297.94
416.044	271.94
416.267	280.94
416.49	285.94
416.713	307.94
416.936	295.94
417.159	292.94
417.382	293.94
417.605	287.94
417.828	272.94
418.051	276.94
418.274	275.94
418.497	282.94
418.72	286.94
418.943	293.94
419.166	306.94
419.389	318.94
419.611	307.94
419.834	320.94
420.057	302.94
420.28	285.94
420.503	283.94
420.726	275.94
420.948	281.94
421.171	281.94
421.394	285.94
421.617	296.94
421.839	289.94
422.062	283.94
422.285	278.94
422.507	276.94
422.73	285.94
422.953	285.94
423.175	280.94
423.398	295.94
423.621	284.94
423.843	268.94
424.066	296.94
424.288	292.94
424.511	301.94
424.733	292.94
424.956	281.94
425.178	286.94
425.401	277.94
425.623	270.94
425.846	280.94
426.068	274.94
426.291	284.94
426.513	293.94
426.735	281.94
426.958	287.94
427.18	279.94
427.402	285.94
427.625	295.94
427.847	271.94
428.069	262.94
428.292	299.94
428.514	308.94
428.736	296.94
428.958	302.94
429.181	284.94
429.403	276.94
429.625	276.94
429.847	274.94
430.069	274.94
430.292	286.94
430.514	278.94
430.736	282.94
430.958	284.94
431.18	280.94
431.402	271.94
431.624	297.94
431.846	290.94
432.068	284.94
432.29	276.94
432.512	278.94
432.734	263.94
432.956	283.94
433.178	279.94
433.4	272.94
433.622	291.94
433.844	295.94
434.066	297.94
434.287	302.94
434.509	290.94
434.731	281.94
434.953	289.94
435.175	290.94
435.397	305.94
435.618	285.94
435.84	273.94
436.062	279.94
436.284	268.94
436.505	288.94
436.727	288.94
436.949	270.94
437.17	286.94
437.392	276.94
437.614	288.94
437.835	278.94
438.057	269.94
438.278	258.94
438.5	280.94
438.721	261.94
438.943	260.94
439.165	277.94
439.386	257.94
439.608	282.94
439.829	285.94
440.05	284.94
440.272	273.94
440.493	273.94
440.715	282.94
440.936	258.94
441.158	287.94
441.379	264.94
441.6	284.94
441.822	288.94
442.043	297.94
442.264	276.94
442.486	279.94
442.707	281.94
442.928	274.94
443.149	291.94
443.371	295.94
443.592	296.94
443.813	293.94
444.034	300.94
444.255	289.94
444.476	303.94
444.698	306.94
444.919	281.94
445.14	405.94
445.361	335.94
445.582	310.94
445.803	285.94
446.024	288.94
446.245	284.94
446.466	280.94
446.687	268.94
446.908	283.94
447.129	286.94
447.35	277.94
447.571	261.94
447.792	258.94
448.013	260.94
448.234	261.94
448.455	253.94
448.675	254.94
448.896	273.94
449.117	252.94
449.338	262.94
449.559	266.94
449.779	256.94
450	261.94
450.221	256.94
450.442	280.94
450.662	268.94
450.883	231.94
451.104	258.94
451.324	242.94
451.545	266.94
451.766	259.94
451.986	268.94
452.207	248.94
452.428	244.94
452.648	262.94
452.869	259.94
453.089	229.94
453.31	242.94
453.53	252.94
453.751	255.94
453.971	276.94
454.192	246.94
454.412	237.94
454.633	253.94
454.853	244.94
455.073	256.94
455.294	244.94
455.514	262.94
455.734	259.94
455.955	245.94
456.175	247.94
456.395	249.94
456.616	253.94
456.836	242.94
457.056	264.94
457.276	274.94
457.497	269.94
457.717	255.94
457.937	253.94
458.157	247.94
458.377	246.94
458.598	278.94
458.818	262.94
459.038	294.94
459.258	287.94
459.478	286.94
459.698	268.94
459.918	265.94
460.138	293.94
460.358	292.94
460.578	290.94
460.798	290.94
461.018	300.94
461.238	290.94
461.458	301.94
461.678	313.94
461.898	285.94
462.118	297.94
462.338	322.94
462.558	327.94
462.777	320.94
462.997	332.94
463.217	341.94
463.437	320.94
463.657	332.94
463.876	335.94
464.096	320.94
464.316	316.94
464.536	304.94
464.755	326.94
464.975	298.94
465.195	304.94
465.414	296.94
465.634	299.94
465.854	309.94
466.073	288.94
466.293	289.94
466.512	268.94
466.732	288.94
466.951	284.94
467.171	291.94
467.391	271.94
467.61	290.94
467.829	284.94
468.049	275.94
468.268	301.94
468.488	246.94
468.707	275.94
468.927	277.94
469.146	274.94
469.365	267.94
469.585	285.94
469.804	290.94
470.023	308.94
470.243	286.94
470.462	274.94
470.681	280.94
470.901	297.94
471.12	266.94
471.339	279.94
471.558	295.94
471.777	275.94
471.997	285.94
472.216	288.94
472.435	282.94
472.654	285.94
472.873	295.94
473.092	285.94
473.311	278.94
473.53	277.94
473.749	279.94
473.968	291.94
474.187	275.94
474.406	285.94
474.625	272.94
474.844	295.94
475.063	292.94
475.282	285.94
475.501	297.94
475.72	291.94
475.939	307.94
476.158	298.94
476.377	298.94
476.596	307.94
476.814	306.94
477.033	289.94
477.252	304.94
477.471	322.94
477.69	302.94
477.908	305.94
478.127	326.94
478.346	349.94
478.564	305.94
478.783	313.94
479.002	312.94
479.22	336.94
479.439	338.94
479.658	308.94
479.876	336.94
480.095	340.94
480.313	333.94
480.532	336.94
480.751	325.94
480.969	339.94
481.188	323.94
481.406	329.94
481.624	309.94
481.843	338.94
482.061	312.94
482.28	354.94
482.498	330.94
482.717	325.94
482.935	333.94
483.153	336.94
483.372	320.94
483.59	338.94
483.808	342.94
484.027	345.94
484.245	316.94
484.463	339.94
484.681	328.94
484.9	350.94
485.118	321.94
485.336	328.94
485.554	319.94
485.772	320.94
485.99	324.94
486.209	339.94
486.427	334.94
486.645	339.94
486.863	324.94
487.081	333.94
487.299	322.94
487.517	334.94
487.735	318.94
487.953	344.94
488.171	334.94
488.389	346.94
488.607	336.94
488.825	330.94
489.043	336.94
489.261	332.94
489.479	354.94
489.696	344.94
489.914	327.94
490.132	339.94
490.35	321.94
490.568	328.94
490.786	339.94
491.003	341.94
491.221	337.94
491.439	347.94
491.657	348.94
491.874	337.94
492.092	340.94
492.31	344.94
492.527	339.94
492.745	340.94
492.963	356.94
493.18	365.94
493.398	356.94
493.615	377.94
493.833	352.94
494.05	348.94
494.268	362.94
494.485	345.94
494.703	368.94
494.92	360.94
495.138	363.94
495.355	382.94
495.573	362.94
495.79	362.94
496.008	386.94
496.225	386.94
496.442	380.94
496.66	377.94
496.877	377.94
497.094	377.94
497.312	377.94
497.529	386.94
497.746	391.94
497.963	400.94
498.181	413.94
498.398	421.94
498.615	410.94
498.832	446.94
499.049	447.94
499.267	459.94
499.484	477.94
499.701	493.94
499.918	484.94
500.135	494.94
500.352	485.94
500.569	516.94
500.786	526.94
501.003	541.94
501.22	520.94
501.437	514.94
501.654	492.94
501.871	468.94
502.088	452.94
502.305	452.94
502.522	439.94
502.739	424.94
502.956	418.94
