Data from Fe(NO3)3@0.025M.TitratingCurve.Agarose3%dH2O.NegLispCup.LampEnergy10.LIBS07252019_HRD10591_16-56-01-335.txt Node
Date: Thu Jul 25 16:56:01 EDT 2019
User: cochatt
Spectrometer: HR+D1059
Trigger mode: 1
Integration Time (sec): 1.000000E-1
Scans to average: 1
Electric dark correction enabled: true
Nonlinearity correction enabled: false
Boxcar width: 0
XAxis mode: Wavelengths
Number of Pixels in Spectrum: 2048
>>>>>Begin Spectral Data<<<<<
223.165	-26.5
223.4	-26.5
223.635	-26.5
223.869	-10.5
224.104	-19.5
224.338	-18.5
224.573	-12.5
224.808	-6.5
225.042	-20.5
225.277	-2.5
225.511	6.5
225.746	-3.5
225.98	15.5
226.215	21.5
226.449	11.5
226.683	27.5
226.918	21.5
227.152	16.5
227.387	24.5
227.621	34.5
227.856	52.5
228.09	45.5
228.324	36.5
228.559	64.5
228.793	60.5
229.027	67.5
229.262	62.5
229.496	72.5
229.73	82.5
229.964	70.5
230.199	82.5
230.433	93.5
230.667	89.5
230.901	95.5
231.136	87.5
231.37	101.5
231.604	89.5
231.838	96.5
232.072	97.5
232.306	111.5
232.541	99.5
232.775	111.5
233.009	84.5
233.243	87.5
233.477	110.5
233.711	93.5
233.945	96.5
234.179	97.5
234.413	99.5
234.647	111.5
234.881	92.5
235.115	97.5
235.349	96.5
235.583	97.5
235.817	99.5
236.051	100.5
236.285	106.5
236.519	96.5
236.753	101.5
236.987	101.5
237.221	99.5
237.455	105.5
237.689	100.5
237.922	90.5
238.156	95.5
238.39	104.5
238.624	96.5
238.858	90.5
239.091	87.5
239.325	102.5
239.559	105.5
239.793	103.5
240.027	95.5
240.26	101.5
240.494	99.5
240.728	102.5
240.961	94.5
241.195	105.5
241.429	101.5
241.662	95.5
241.896	90.5
242.13	104.5
242.363	112.5
242.597	122.5
242.83	98.5
243.064	100.5
243.298	113.5
243.531	107.5
243.765	117.5
243.998	105.5
244.232	131.5
244.465	122.5
244.699	117.5
244.932	106.5
245.166	127.5
245.399	118.5
245.633	103.5
245.866	115.5
246.099	111.5
246.333	122.5
246.566	119.5
246.8	107.5
247.033	117.5
247.266	131.5
247.5	114.5
247.733	124.5
247.966	122.5
248.2	120.5
248.433	123.5
248.666	129.5
248.899	115.5
249.133	127.5
249.366	129.5
249.599	139.5
249.832	105.5
250.066	121.5
250.299	123.5
250.532	122.5
250.765	125.5
250.998	121.5
251.231	122.5
251.465	121.5
251.698	123.5
251.931	123.5
252.164	133.5
252.397	113.5
252.63	124.5
252.863	125.5
253.096	135.5
253.329	128.5
253.562	127.5
253.795	136.5
254.028	146.5
254.261	153.5
254.494	145.5
254.727	135.5
254.96	140.5
255.193	124.5
255.426	137.5
255.659	139.5
255.892	139.5
256.124	140.5
256.357	127.5
256.59	125.5
256.823	138.5
257.056	148.5
257.289	150.5
257.521	152.5
257.754	122.5
257.987	137.5
258.22	155.5
258.452	123.5
258.685	144.5
258.918	143.5
259.151	141.5
259.383	132.5
259.616	132.5
259.849	151.5
260.081	157.5
260.314	163.5
260.547	147.5
260.779	138.5
261.012	141.5
261.244	136.5
261.477	155.5
261.71	151.5
261.942	157.5
262.175	147.5
262.407	142.5
262.64	147.5
262.872	148.5
263.105	136.5
263.337	153.5
263.57	126.5
263.802	134.5
264.035	164.5
264.267	153.5
264.499	143.5
264.732	143.5
264.964	149.5
265.197	150.5
265.429	144.5
265.661	162.5
265.894	155.5
266.126	150.5
266.358	147.5
266.591	165.5
266.823	144.5
267.055	166.5
267.287	155.5
267.52	153.5
267.752	168.5
267.984	173.5
268.216	137.5
268.448	155.5
268.681	150.5
268.913	162.5
269.145	167.5
269.377	154.5
269.609	140.5
269.841	150.5
270.073	159.5
270.306	152.5
270.538	161.5
270.77	162.5
271.002	165.5
271.234	159.5
271.466	173.5
271.698	179.5
271.93	175.5
272.162	170.5
272.394	151.5
272.626	167.5
272.858	147.5
273.09	181.5
273.322	171.5
273.553	161.5
273.785	173.5
274.017	191.5
274.249	175.5
274.481	181.5
274.713	188.5
274.945	171.5
275.176	179.5
275.408	180.5
275.64	188.5
275.872	176.5
276.104	185.5
276.335	184.5
276.567	176.5
276.799	184.5
277.031	171.5
277.262	191.5
277.494	172.5
277.726	186.5
277.957	179.5
278.189	191.5
278.421	182.5
278.652	183.5
278.884	197.5
279.115	165.5
279.347	180.5
279.579	193.5
279.81	196.5
280.042	181.5
280.273	180.5
280.505	180.5
280.736	195.5
280.968	187.5
281.199	191.5
281.431	179.5
281.662	195.5
281.894	177.5
282.125	188.5
282.356	204.5
282.588	196.5
282.819	202.5
283.051	199.5
283.282	201.5
283.513	199.5
283.745	187.5
283.976	208.5
284.207	190.5
284.439	207.5
284.67	203.5
284.901	204.5
285.132	207.5
285.364	203.5
285.595	200.5
285.826	200.5
286.057	203.5
286.288	180.5
286.52	201.5
286.751	219.5
286.982	193.5
287.213	211.5
287.444	216.5
287.675	207.5
287.906	212.5
288.138	209.5
288.369	215.5
288.6	203.5
288.831	207.5
289.062	225.5
289.293	232.5
289.524	214.5
289.755	203.5
289.986	213.5
290.217	207.5
290.448	226.5
290.679	213.5
290.91	216.5
291.141	213.5
291.371	222.5
291.602	212.5
291.833	210.5
292.064	227.5
292.295	221.5
292.526	205.5
292.757	211.5
292.987	211.5
293.218	217.5
293.449	235.5
293.68	225.5
293.91	225.5
294.141	235.5
294.372	226.5
294.603	241.5
294.833	207.5
295.064	211.5
295.295	241.5
295.525	230.5
295.756	228.5
295.987	230.5
296.217	236.5
296.448	218.5
296.679	230.5
296.909	234.5
297.14	225.5
297.37	232.5
297.601	223.5
297.831	230.5
298.062	241.5
298.292	241.5
298.523	232.5
298.753	257.5
298.984	230.5
299.214	236.5
299.445	235.5
299.675	237.5
299.905	239.5
300.136	237.5
300.366	244.5
300.597	246.5
300.827	236.5
301.057	244.5
301.288	236.5
301.518	242.5
301.748	251.5
301.979	239.5
302.209	257.5
302.439	244.5
302.669	241.5
302.9	254.5
303.13	252.5
303.36	236.5
303.59	253.5
303.82	235.5
304.051	257.5
304.281	253.5
304.511	244.5
304.741	255.5
304.971	266.5
305.201	250.5
305.431	261.5
305.661	263.5
305.891	266.5
306.121	257.5
306.352	266.5
306.582	253.5
306.812	259.5
307.042	263.5
307.272	259.5
307.502	279.5
307.731	268.5
307.961	264.5
308.191	250.5
308.421	258.5
308.651	263.5
308.881	257.5
309.111	239.5
309.341	241.5
309.571	265.5
309.8	245.5
310.03	246.5
310.26	275.5
310.49	267.5
310.72	266.5
310.949	250.5
311.179	275.5
311.409	269.5
311.639	254.5
311.868	271.5
312.098	278.5
312.328	271.5
312.557	265.5
312.787	268.5
313.017	262.5
313.246	257.5
313.476	247.5
313.706	263.5
313.935	275.5
314.165	286.5
314.394	276.5
314.624	277.5
314.853	275.5
315.083	274.5
315.312	281.5
315.542	271.5
315.771	267.5
316.001	291.5
316.23	273.5
316.46	273.5
316.689	273.5
316.919	288.5
317.148	272.5
317.377	280.5
317.607	295.5
317.836	268.5
318.065	273.5
318.295	292.5
318.524	272.5
318.753	279.5
318.983	286.5
319.212	273.5
319.441	293.5
319.67	299.5
319.9	277.5
320.129	293.5
320.358	298.5
320.587	275.5
320.816	293.5
321.046	290.5
321.275	298.5
321.504	299.5
321.733	290.5
321.962	287.5
322.191	310.5
322.42	289.5
322.649	291.5
322.878	285.5
323.108	283.5
323.337	287.5
323.566	293.5
323.795	290.5
324.024	307.5
324.253	277.5
324.482	294.5
324.71	293.5
324.939	311.5
325.168	319.5
325.397	294.5
325.626	296.5
325.855	286.5
326.084	314.5
326.313	313.5
326.542	313.5
326.77	291.5
326.999	296.5
327.228	280.5
327.457	303.5
327.686	303.5
327.914	304.5
328.143	307.5
328.372	304.5
328.6	319.5
328.829	310.5
329.058	309.5
329.287	317.5
329.515	327.5
329.744	313.5
329.972	313.5
330.201	316.5
330.43	323.5
330.658	329.5
330.887	328.5
331.115	331.5
331.344	314.5
331.572	327.5
331.801	336.5
332.03	338.5
332.258	335.5
332.486	326.5
332.715	354.5
332.943	335.5
333.172	347.5
333.4	351.5
333.629	346.5
333.857	371.5
334.085	381.5
334.314	366.5
334.542	360.5
334.771	371.5
334.999	355.5
335.227	352.5
335.455	351.5
335.684	360.5
335.912	393.5
336.14	367.5
336.369	348.5
336.597	347.5
336.825	355.5
337.053	363.5
337.281	354.5
337.51	344.5
337.738	342.5
337.966	346.5
338.194	346.5
338.422	334.5
338.65	348.5
338.878	347.5
339.106	333.5
339.334	340.5
339.562	351.5
339.79	330.5
340.018	322.5
340.246	343.5
340.474	339.5
340.702	333.5
340.93	321.5
341.158	351.5
341.386	325.5
341.614	318.5
341.842	336.5
342.07	337.5
342.298	323.5
342.526	325.5
342.754	340.5
342.981	333.5
343.209	337.5
343.437	348.5
343.665	351.5
343.893	361.5
344.12	372.5
344.348	362.5
344.576	352.5
344.804	347.5
345.031	344.5
345.259	333.5
345.487	319.5
345.714	324.5
345.942	322.5
346.17	330.5
346.397	321.5
346.625	334.5
346.853	325.5
347.08	323.5
347.308	329.5
347.535	317.5
347.763	317.5
347.99	324.5
348.218	303.5
348.445	325.5
348.673	338.5
348.9	317.5
349.128	323.5
349.355	319.5
349.583	319.5
349.81	316.5
350.037	329.5
350.265	308.5
350.492	326.5
350.72	329.5
350.947	330.5
351.174	321.5
351.402	343.5
351.629	338.5
351.856	316.5
352.083	324.5
352.311	338.5
352.538	325.5
352.765	315.5
352.992	315.5
353.22	294.5
353.447	332.5
353.674	335.5
353.901	302.5
354.128	306.5
354.355	310.5
354.583	340.5
354.81	300.5
355.037	315.5
355.264	306.5
355.491	321.5
355.718	315.5
355.945	316.5
356.172	325.5
356.399	340.5
356.626	306.5
356.853	307.5
357.08	328.5
357.307	323.5
357.534	331.5
357.761	346.5
357.988	332.5
358.215	345.5
358.441	335.5
358.668	313.5
358.895	320.5
359.122	343.5
359.349	340.5
359.576	324.5
359.802	327.5
360.029	315.5
360.256	346.5
360.483	334.5
360.709	306.5
360.936	336.5
361.163	316.5
361.39	300.5
361.616	324.5
361.843	329.5
362.07	329.5
362.296	336.5
362.523	319.5
362.749	332.5
362.976	331.5
363.203	325.5
363.429	335.5
363.656	337.5
363.882	323.5
364.109	323.5
364.335	327.5
364.562	336.5
364.788	314.5
365.015	312.5
365.241	335.5
365.468	338.5
365.694	336.5
365.92	319.5
366.147	327.5
366.373	331.5
366.599	347.5
366.826	326.5
367.052	328.5
367.278	347.5
367.505	342.5
367.731	332.5
367.957	351.5
368.184	347.5
368.41	335.5
368.636	342.5
368.862	359.5
369.089	354.5
369.315	337.5
369.541	327.5
369.767	351.5
369.993	326.5
370.219	327.5
370.445	337.5
370.672	360.5
370.898	336.5
371.124	346.5
371.35	362.5
371.576	340.5
371.802	342.5
372.028	346.5
372.254	367.5
372.48	367.5
372.706	353.5
372.932	371.5
373.158	369.5
373.384	360.5
373.61	370.5
373.835	368.5
374.061	370.5
374.287	375.5
374.513	372.5
374.739	381.5
374.965	379.5
375.191	371.5
375.416	369.5
375.642	351.5
375.868	369.5
376.094	359.5
376.319	365.5
376.545	352.5
376.771	374.5
376.997	377.5
377.222	344.5
377.448	361.5
377.674	350.5
377.899	354.5
378.125	348.5
378.35	356.5
378.576	362.5
378.802	345.5
379.027	352.5
379.253	364.5
379.478	351.5
379.704	361.5
379.929	344.5
380.155	343.5
380.38	352.5
380.606	372.5
380.831	371.5
381.057	357.5
381.282	367.5
381.507	355.5
381.733	350.5
381.958	347.5
382.184	356.5
382.409	402.5
382.634	387.5
382.86	377.5
383.085	376.5
383.31	380.5
383.535	388.5
383.761	360.5
383.986	407.5
384.211	381.5
384.436	412.5
384.662	395.5
384.887	405.5
385.112	405.5
385.337	396.5
385.562	412.5
385.787	398.5
386.013	396.5
386.238	389.5
386.463	408.5
386.688	418.5
386.913	408.5
387.138	404.5
387.363	435.5
387.588	413.5
387.813	420.5
388.038	431.5
388.263	411.5
388.488	417.5
388.713	393.5
388.938	418.5
389.163	377.5
389.387	401.5
389.612	413.5
389.837	413.5
390.062	401.5
390.287	415.5
390.512	414.5
390.736	408.5
390.961	418.5
391.186	435.5
391.411	433.5
391.636	448.5
391.86	437.5
392.085	433.5
392.31	425.5
392.534	445.5
392.759	418.5
392.984	413.5
393.208	420.5
393.433	432.5
393.658	417.5
393.882	426.5
394.107	430.5
394.331	412.5
394.556	443.5
394.78	435.5
395.005	437.5
395.229	436.5
395.454	451.5
395.678	463.5
395.903	452.5
396.127	447.5
396.352	444.5
396.576	447.5
396.801	444.5
397.025	455.5
397.249	449.5
397.474	458.5
397.698	450.5
397.922	472.5
398.147	481.5
398.371	469.5
398.595	485.5
398.82	503.5
399.044	517.5
399.268	561.5
399.492	588.5
399.717	596.5
399.941	594.5
400.165	588.5
400.389	564.5
400.613	535.5
400.837	504.5
401.062	515.5
401.286	497.5
401.51	506.5
401.734	512.5
401.958	504.5
402.182	491.5
402.406	507.5
402.63	493.5
402.854	487.5
403.078	467.5
403.302	492.5
403.526	526.5
403.75	525.5
403.974	538.5
404.198	505.5
404.422	523.5
404.645	507.5
404.869	498.5
405.093	488.5
405.317	481.5
405.541	486.5
405.765	506.5
405.988	517.5
406.212	529.5
406.436	516.5
406.66	529.5
406.883	547.5
407.107	536.5
407.331	576.5
407.555	565.5
407.778	548.5
408.002	569.5
408.226	565.5
408.449	556.5
408.673	558.5
408.896	521.5
409.12	533.5
409.344	546.5
409.567	507.5
409.791	493.5
410.014	519.5
410.238	529.5
410.461	510.5
410.685	525.5
410.908	513.5
411.132	488.5
411.355	492.5
411.578	499.5
411.802	504.5
412.025	505.5
412.249	508.5
412.472	491.5
412.695	506.5
412.919	508.5
413.142	490.5
413.365	482.5
413.589	505.5
413.812	497.5
414.035	491.5
414.258	476.5
414.482	488.5
414.705	518.5
414.928	498.5
415.151	488.5
415.374	500.5
415.597	483.5
415.821	455.5
416.044	445.5
416.267	478.5
416.49	473.5
416.713	467.5
416.936	466.5
417.159	473.5
417.382	474.5
417.605	460.5
417.828	468.5
418.051	461.5
418.274	481.5
418.497	454.5
418.72	478.5
418.943	480.5
419.166	503.5
419.389	508.5
419.611	483.5
419.834	485.5
420.057	479.5
420.28	489.5
420.503	467.5
420.726	457.5
420.948	448.5
421.171	479.5
421.394	469.5
421.617	478.5
421.839	475.5
422.062	469.5
422.285	458.5
422.507	471.5
422.73	460.5
422.953	489.5
423.175	452.5
423.398	491.5
423.621	463.5
423.843	461.5
424.066	457.5
424.288	489.5
424.511	477.5
424.733	464.5
424.956	475.5
425.178	467.5
425.401	470.5
425.623	468.5
425.846	446.5
426.068	475.5
426.291	455.5
426.513	445.5
426.735	453.5
426.958	456.5
427.18	446.5
427.402	433.5
427.625	435.5
427.847	445.5
428.069	443.5
428.292	443.5
428.514	443.5
428.736	433.5
428.958	404.5
429.181	428.5
429.403	439.5
429.625	431.5
429.847	432.5
430.069	428.5
430.292	459.5
430.514	435.5
430.736	445.5
430.958	438.5
431.18	439.5
431.402	440.5
431.624	442.5
431.846	447.5
432.068	436.5
432.29	442.5
432.512	443.5
432.734	449.5
432.956	429.5
433.178	461.5
433.4	439.5
433.622	419.5
433.844	423.5
434.066	437.5
434.287	448.5
434.509	466.5
434.731	447.5
434.953	451.5
435.175	455.5
435.397	468.5
435.618	437.5
435.84	417.5
436.062	433.5
436.284	443.5
436.505	451.5
436.727	445.5
436.949	445.5
437.17	422.5
437.392	417.5
437.614	429.5
437.835	425.5
438.057	412.5
438.278	409.5
438.5	422.5
438.721	409.5
438.943	429.5
439.165	436.5
439.386	425.5
439.608	412.5
439.829	412.5
440.05	411.5
440.272	401.5
440.493	434.5
440.715	423.5
440.936	457.5
441.158	457.5
441.379	445.5
441.6	455.5
441.822	457.5
442.043	455.5
442.264	433.5
442.486	441.5
442.707	468.5
442.928	455.5
443.149	463.5
443.371	456.5
443.592	473.5
443.813	450.5
444.034	446.5
444.255	464.5
444.476	457.5
444.698	481.5
444.919	486.5
445.14	566.5
445.361	521.5
445.582	454.5
445.803	432.5
446.024	468.5
446.245	437.5
446.466	456.5
446.687	420.5
446.908	413.5
447.129	421.5
447.35	429.5
447.571	431.5
447.792	389.5
448.013	390.5
448.234	404.5
448.455	401.5
448.675	411.5
448.896	413.5
449.117	391.5
449.338	413.5
449.559	385.5
449.779	413.5
450	395.5
450.221	381.5
450.442	387.5
450.662	372.5
450.883	375.5
451.104	392.5
451.324	391.5
451.545	389.5
451.766	400.5
451.986	390.5
452.207	386.5
452.428	400.5
452.648	397.5
452.869	387.5
453.089	387.5
453.31	383.5
453.53	385.5
453.751	396.5
453.971	379.5
454.192	393.5
454.412	373.5
454.633	370.5
454.853	387.5
455.073	379.5
455.294	381.5
455.514	364.5
455.734	380.5
455.955	373.5
456.175	377.5
456.395	381.5
456.616	373.5
456.836	389.5
457.056	404.5
457.276	364.5
457.497	389.5
457.717	403.5
457.937	379.5
458.157	387.5
458.377	386.5
458.598	422.5
458.818	409.5
459.038	412.5
459.258	425.5
459.478	418.5
459.698	440.5
459.918	442.5
460.138	461.5
460.358	437.5
460.578	455.5
460.798	459.5
461.018	478.5
461.238	460.5
461.458	466.5
461.678	469.5
461.898	494.5
462.118	499.5
462.338	480.5
462.558	505.5
462.777	495.5
462.997	556.5
463.217	538.5
463.437	563.5
463.657	525.5
463.876	507.5
464.096	537.5
464.316	515.5
464.536	504.5
464.755	515.5
464.975	481.5
465.195	486.5
465.414	476.5
465.634	424.5
465.854	442.5
466.073	444.5
466.293	442.5
466.512	443.5
466.732	410.5
466.951	431.5
467.171	415.5
467.391	419.5
467.61	422.5
467.829	412.5
468.049	436.5
468.268	403.5
468.488	402.5
468.707	429.5
468.927	412.5
469.146	399.5
469.365	430.5
469.585	413.5
469.804	418.5
470.023	433.5
470.243	415.5
470.462	413.5
470.681	419.5
470.901	408.5
471.12	446.5
471.339	431.5
471.558	402.5
471.777	417.5
471.997	413.5
472.216	417.5
472.435	406.5
472.654	421.5
472.873	398.5
473.092	422.5
473.311	436.5
473.53	418.5
473.749	431.5
473.968	406.5
474.187	412.5
474.406	396.5
474.625	418.5
474.844	421.5
475.063	401.5
475.282	424.5
475.501	437.5
475.72	433.5
475.939	427.5
476.158	423.5
476.377	428.5
476.596	434.5
476.814	443.5
477.033	443.5
477.252	457.5
477.471	456.5
477.69	455.5
477.908	461.5
478.127	474.5
478.346	459.5
478.564	491.5
478.783	472.5
479.002	492.5
479.22	491.5
479.439	508.5
479.658	489.5
479.876	511.5
480.095	518.5
480.313	533.5
480.532	523.5
480.751	508.5
480.969	499.5
481.188	503.5
481.406	483.5
481.624	503.5
481.843	495.5
482.061	499.5
482.28	509.5
482.498	496.5
482.717	500.5
482.935	495.5
483.153	477.5
483.372	485.5
483.59	480.5
483.808	510.5
484.027	490.5
484.245	513.5
484.463	477.5
484.681	495.5
484.9	490.5
485.118	501.5
485.336	509.5
485.554	485.5
485.772	512.5
485.99	506.5
486.209	547.5
486.427	482.5
486.645	517.5
486.863	487.5
487.081	491.5
487.299	499.5
487.517	500.5
487.735	501.5
487.953	492.5
488.171	499.5
488.389	517.5
488.607	492.5
488.825	488.5
489.043	501.5
489.261	497.5
489.479	490.5
489.696	503.5
489.914	499.5
490.132	515.5
490.35	510.5
490.568	499.5
490.786	491.5
491.003	513.5
491.221	502.5
491.439	501.5
491.657	499.5
491.874	521.5
492.092	497.5
492.31	507.5
492.527	515.5
492.745	510.5
492.963	530.5
493.18	536.5
493.398	524.5
493.615	521.5
493.833	527.5
494.05	524.5
494.268	540.5
494.485	542.5
494.703	512.5
494.92	560.5
495.138	534.5
495.355	533.5
495.573	521.5
495.79	528.5
496.008	549.5
496.225	520.5
496.442	533.5
496.66	567.5
496.877	582.5
497.094	581.5
497.312	578.5
497.529	581.5
497.746	611.5
497.963	638.5
498.181	623.5
498.398	648.5
498.615	695.5
498.832	704.5
499.049	733.5
499.267	792.5
499.484	803.5
499.701	845.5
499.918	867.5
500.135	944.5
500.352	981.5
500.569	992.5
500.786	981.5
501.003	926.5
501.22	893.5
501.437	848.5
501.654	800.5
501.871	787.5
502.088	739.5
502.305	724.5
502.522	683.5
502.739	667.5
502.956	640.5
503.172	627.5
503.389	622.5
503.606	628.5
503.823	612.5
504.04	588.5
504.256	596.5
504.473	564.5
504.69	564.5
504.907	571.5
505.123	547.5
505.34	531.5
505.557	513.5
505.773	529.5
505.99	499.5
506.207	520.5
506.423	499.5
506.64	498.5
506.856	495.5
507.073	490.5
507.289	469.5
507.506	497.5
507.722	473.5
507.939	467.5
508.155	470.5
508.372	472.5
508.588	448.5
508.805	448.5
509.021	467.5
509.238	452.5
509.454	435.5
509.67	417.5
509.887	459.5
510.103	454.5
510.319	431.5
510.536	435.5
510.752	422.5
510.968	431.5
511.184	434.5
511.401	459.5
511.617	438.5
511.833	432.5
512.049	420.5
512.265	442.5
512.481	413.5
512.698	451.5
512.914	427.5
513.13	411.5
513.346	417.5
513.562	428.5
513.778	431.5
513.994	437.5
514.21	433.5
514.426	437.5
514.642	452.5
514.858	455.5
515.074	439.5
515.29	449.5
515.506	462.5
515.721	462.5
515.937	467.5
516.153	480.5
516.369	471.5
516.585	470.5
516.801	490.5
517.016	507.5
517.232	520.5
517.448	519.5
517.664	523.5
517.879	518.5
518.095	515.5
518.311	507.5
518.527	493.5
518.742	476.5
518.958	462.5
519.173	455.5
519.389	474.5
519.605	440.5
519.82	443.5
520.036	456.5
