Data from Fe(NO3)3@0.05M.TitratingCurve.Agarose3%dH2O.NegLispCup.LampEnergy10.LIBS07252019_HRD10591_16-48-07-333.txt Node
Date: Thu Jul 25 16:48:07 EDT 2019
User: cochatt
Spectrometer: HR+D1059
Trigger mode: 1
Integration Time (sec): 1.000000E-1
Scans to average: 1
Electric dark correction enabled: true
Nonlinearity correction enabled: false
Boxcar width: 0
XAxis mode: Wavelengths
Number of Pixels in Spectrum: 2048
>>>>>Begin Spectral Data<<<<<
223.165	-20.94
223.4	-20.94
223.635	-20.94
223.869	-13.94
224.104	-14.94
224.338	-24.94
224.573	-15.94
224.808	-1.94
225.042	-14.94
225.277	-8.94
225.511	2.06
225.746	1.06
225.98	12.06
226.215	7.06
226.449	16.06
226.683	10.06
226.918	30.06
227.152	38.06
227.387	37.06
227.621	46.06
227.856	38.06
228.09	41.06
228.324	54.06
228.559	70.06
228.793	58.06
229.027	72.06
229.262	95.06
229.496	80.06
229.73	82.06
229.964	92.06
230.199	87.06
230.433	104.06
230.667	107.06
230.901	119.06
231.136	106.06
231.37	107.06
231.604	93.06
231.838	98.06
232.072	107.06
232.306	117.06
232.541	98.06
232.775	113.06
233.009	103.06
233.243	111.06
233.477	117.06
233.711	116.06
233.945	95.06
234.179	109.06
234.413	116.06
234.647	118.06
234.881	103.06
235.115	128.06
235.349	120.06
235.583	113.06
235.817	118.06
236.051	107.06
236.285	102.06
236.519	109.06
236.753	118.06
236.987	114.06
237.221	116.06
237.455	102.06
237.689	113.06
237.922	118.06
238.156	122.06
238.39	127.06
238.624	126.06
238.858	123.06
239.091	115.06
239.325	121.06
239.559	127.06
239.793	121.06
240.027	133.06
240.26	128.06
240.494	139.06
240.728	130.06
240.961	121.06
241.195	107.06
241.429	133.06
241.662	129.06
241.896	126.06
242.13	122.06
242.363	129.06
242.597	138.06
242.83	119.06
243.064	126.06
243.298	136.06
243.531	118.06
243.765	127.06
243.998	142.06
244.232	140.06
244.465	133.06
244.699	143.06
244.932	132.06
245.166	134.06
245.399	140.06
245.633	145.06
245.866	136.06
246.099	133.06
246.333	141.06
246.566	135.06
246.8	123.06
247.033	134.06
247.266	143.06
247.5	131.06
247.733	156.06
247.966	150.06
248.2	150.06
248.433	148.06
248.666	142.06
248.899	150.06
249.133	160.06
249.366	168.06
249.599	153.06
249.832	146.06
250.066	146.06
250.299	142.06
250.532	140.06
250.765	158.06
250.998	148.06
251.231	167.06
251.465	163.06
251.698	158.06
251.931	146.06
252.164	163.06
252.397	169.06
252.63	158.06
252.863	171.06
253.096	177.06
253.329	158.06
253.562	152.06
253.795	152.06
254.028	176.06
254.261	166.06
254.494	181.06
254.727	163.06
254.96	172.06
255.193	156.06
255.426	182.06
255.659	164.06
255.892	163.06
256.124	165.06
256.357	182.06
256.59	159.06
256.823	174.06
257.056	180.06
257.289	154.06
257.521	184.06
257.754	182.06
257.987	179.06
258.22	184.06
258.452	170.06
258.685	178.06
258.918	170.06
259.151	180.06
259.383	178.06
259.616	168.06
259.849	182.06
260.081	198.06
260.314	204.06
260.547	175.06
260.779	178.06
261.012	204.06
261.244	187.06
261.477	198.06
261.71	198.06
261.942	202.06
262.175	183.06
262.407	176.06
262.64	206.06
262.872	195.06
263.105	191.06
263.337	189.06
263.57	203.06
263.802	203.06
264.035	195.06
264.267	191.06
264.499	201.06
264.732	184.06
264.964	181.06
265.197	209.06
265.429	210.06
265.661	194.06
265.894	201.06
266.126	200.06
266.358	198.06
266.591	204.06
266.823	197.06
267.055	200.06
267.287	196.06
267.52	201.06
267.752	194.06
267.984	202.06
268.216	198.06
268.448	213.06
268.681	203.06
268.913	214.06
269.145	212.06
269.377	203.06
269.609	210.06
269.841	212.06
270.073	214.06
270.306	217.06
270.538	209.06
270.77	214.06
271.002	215.06
271.234	210.06
271.466	212.06
271.698	230.06
271.93	240.06
272.162	234.06
272.394	219.06
272.626	223.06
272.858	228.06
273.09	226.06
273.322	219.06
273.553	229.06
273.785	213.06
274.017	230.06
274.249	223.06
274.481	235.06
274.713	238.06
274.945	222.06
275.176	237.06
275.408	242.06
275.64	228.06
275.872	252.06
276.104	230.06
276.335	223.06
276.567	232.06
276.799	236.06
277.031	247.06
277.262	237.06
277.494	241.06
277.726	236.06
277.957	243.06
278.189	236.06
278.421	239.06
278.652	250.06
278.884	230.06
279.115	258.06
279.347	242.06
279.579	252.06
279.81	240.06
280.042	240.06
280.273	261.06
280.505	250.06
280.736	251.06
280.968	256.06
281.199	234.06
281.431	239.06
281.662	250.06
281.894	254.06
282.125	245.06
282.356	250.06
282.588	255.06
282.819	264.06
283.051	261.06
283.282	252.06
283.513	278.06
283.745	252.06
283.976	250.06
284.207	250.06
284.439	263.06
284.67	267.06
284.901	250.06
285.132	257.06
285.364	274.06
285.595	259.06
285.826	268.06
286.057	262.06
286.288	282.06
286.52	262.06
286.751	278.06
286.982	278.06
287.213	268.06
287.444	291.06
287.675	279.06
287.906	279.06
288.138	270.06
288.369	286.06
288.6	284.06
288.831	276.06
289.062	289.06
289.293	294.06
289.524	284.06
289.755	248.06
289.986	265.06
290.217	288.06
290.448	287.06
290.679	268.06
290.91	268.06
291.141	275.06
291.371	289.06
291.602	288.06
291.833	281.06
292.064	266.06
292.295	279.06
292.526	302.06
292.757	278.06
292.987	271.06
293.218	293.06
293.449	281.06
293.68	266.06
293.91	281.06
294.141	282.06
294.372	293.06
294.603	286.06
294.833	279.06
295.064	278.06
295.295	287.06
295.525	281.06
295.756	285.06
295.987	286.06
296.217	286.06
296.448	283.06
296.679	290.06
296.909	294.06
297.14	303.06
297.37	291.06
297.601	306.06
297.831	286.06
298.062	307.06
298.292	304.06
298.523	305.06
298.753	305.06
298.984	318.06
299.214	293.06
299.445	303.06
299.675	306.06
299.905	312.06
300.136	303.06
300.366	293.06
300.597	294.06
300.827	302.06
301.057	315.06
301.288	314.06
301.518	316.06
301.748	320.06
301.979	310.06
302.209	326.06
302.439	322.06
302.669	312.06
302.9	309.06
303.13	309.06
303.36	313.06
303.59	304.06
303.82	308.06
304.051	311.06
304.281	319.06
304.511	318.06
304.741	342.06
304.971	316.06
305.201	318.06
305.431	293.06
305.661	315.06
305.891	317.06
306.121	314.06
306.352	304.06
306.582	313.06
306.812	308.06
307.042	308.06
307.272	317.06
307.502	308.06
307.731	311.06
307.961	318.06
308.191	307.06
308.421	290.06
308.651	318.06
308.881	321.06
309.111	315.06
309.341	316.06
309.571	319.06
309.8	318.06
310.03	327.06
310.26	318.06
310.49	315.06
310.72	326.06
310.949	304.06
311.179	330.06
311.409	314.06
311.639	306.06
311.868	319.06
312.098	318.06
312.328	345.06
312.557	343.06
312.787	335.06
313.017	312.06
313.246	331.06
313.476	343.06
313.706	331.06
313.935	343.06
314.165	343.06
314.394	345.06
314.624	319.06
314.853	340.06
315.083	335.06
315.312	329.06
315.542	338.06
315.771	327.06
316.001	346.06
316.23	336.06
316.46	335.06
316.689	313.06
316.919	319.06
317.148	318.06
317.377	339.06
317.607	327.06
317.836	321.06
318.065	340.06
318.295	343.06
318.524	329.06
318.753	344.06
318.983	352.06
319.212	327.06
319.441	327.06
319.67	342.06
319.9	343.06
320.129	354.06
320.358	320.06
320.587	325.06
320.816	337.06
321.046	343.06
321.275	341.06
321.504	339.06
321.733	333.06
321.962	340.06
322.191	341.06
322.42	360.06
322.649	354.06
322.878	334.06
323.108	336.06
323.337	356.06
323.566	351.06
323.795	338.06
324.024	356.06
324.253	353.06
324.482	359.06
324.71	349.06
324.939	361.06
325.168	368.06
325.397	350.06
325.626	352.06
325.855	360.06
326.084	368.06
326.313	376.06
326.542	368.06
326.77	366.06
326.999	354.06
327.228	356.06
327.457	352.06
327.686	362.06
327.914	375.06
328.143	374.06
328.372	369.06
328.6	361.06
328.829	366.06
329.058	376.06
329.287	366.06
329.515	355.06
329.744	365.06
329.972	392.06
330.201	370.06
330.43	374.06
330.658	375.06
330.887	383.06
331.115	380.06
331.344	384.06
331.572	387.06
331.801	394.06
332.03	410.06
332.258	401.06
332.486	412.06
332.715	424.06
332.943	427.06
333.172	455.06
333.4	460.06
333.629	468.06
333.857	463.06
334.085	462.06
334.314	454.06
334.542	458.06
334.771	477.06
334.999	446.06
335.227	427.06
335.455	465.06
335.684	439.06
335.912	422.06
336.14	406.06
336.369	428.06
336.597	453.06
336.825	419.06
337.053	464.06
337.281	442.06
337.51	410.06
337.738	401.06
337.966	415.06
338.194	395.06
338.422	415.06
338.65	385.06
338.878	378.06
339.106	384.06
339.334	399.06
339.562	401.06
339.79	374.06
340.018	378.06
340.246	384.06
340.474	381.06
340.702	376.06
340.93	376.06
341.158	375.06
341.386	378.06
341.614	398.06
341.842	390.06
342.07	374.06
342.298	395.06
342.526	382.06
342.754	380.06
342.981	376.06
343.209	379.06
343.437	414.06
343.665	440.06
343.893	464.06
344.12	453.06
344.348	436.06
344.576	411.06
344.804	401.06
345.031	394.06
345.259	399.06
345.487	395.06
345.714	392.06
345.942	376.06
346.17	382.06
346.397	380.06
346.625	368.06
346.853	359.06
347.08	366.06
347.308	355.06
347.535	378.06
347.763	374.06
347.99	380.06
348.218	371.06
348.445	376.06
348.673	375.06
348.9	359.06
349.128	377.06
349.355	382.06
349.583	384.06
349.81	372.06
350.037	359.06
350.265	353.06
350.492	350.06
350.72	357.06
350.947	350.06
351.174	371.06
351.402	337.06
351.629	360.06
351.856	368.06
352.083	352.06
352.311	370.06
352.538	373.06
352.765	339.06
352.992	359.06
353.22	338.06
353.447	358.06
353.674	345.06
353.901	362.06
354.128	354.06
354.355	357.06
354.583	360.06
354.81	363.06
355.037	349.06
355.264	370.06
355.491	339.06
355.718	359.06
355.945	376.06
356.172	369.06
356.399	376.06
356.626	342.06
356.853	352.06
357.08	380.06
357.307	378.06
357.534	356.06
357.761	371.06
357.988	358.06
358.215	370.06
358.441	366.06
358.668	374.06
358.895	355.06
359.122	355.06
359.349	356.06
359.576	363.06
359.802	353.06
360.029	353.06
360.256	376.06
360.483	362.06
360.709	373.06
360.936	390.06
361.163	344.06
361.39	366.06
361.616	379.06
361.843	360.06
362.07	355.06
362.296	358.06
362.523	373.06
362.749	354.06
362.976	362.06
363.203	378.06
363.429	382.06
363.656	392.06
363.882	374.06
364.109	359.06
364.335	372.06
364.562	396.06
364.788	373.06
365.015	372.06
365.241	376.06
365.468	366.06
365.694	377.06
365.92	354.06
366.147	364.06
366.373	370.06
366.599	374.06
366.826	356.06
367.052	362.06
367.278	351.06
367.505	385.06
367.731	374.06
367.957	373.06
368.184	354.06
368.41	384.06
368.636	377.06
368.862	393.06
369.089	378.06
369.315	391.06
369.541	399.06
369.767	378.06
369.993	377.06
370.219	363.06
370.445	382.06
370.672	389.06
370.898	402.06
371.124	393.06
371.35	398.06
371.576	418.06
371.802	412.06
372.028	408.06
372.254	393.06
372.48	407.06
372.706	407.06
372.932	417.06
373.158	418.06
373.384	424.06
373.61	389.06
373.835	405.06
374.061	401.06
374.287	405.06
374.513	418.06
374.739	420.06
374.965	443.06
375.191	443.06
375.416	432.06
375.642	444.06
375.868	411.06
376.094	410.06
376.319	420.06
376.545	401.06
376.771	394.06
376.997	395.06
377.222	411.06
377.448	415.06
377.674	391.06
377.899	419.06
378.125	400.06
378.35	399.06
378.576	406.06
378.802	418.06
379.027	400.06
379.253	391.06
379.478	385.06
379.704	407.06
379.929	408.06
380.155	382.06
380.38	405.06
380.606	402.06
380.831	394.06
381.057	423.06
381.282	399.06
381.507	427.06
381.733	422.06
381.958	412.06
382.184	411.06
382.409	416.06
382.634	430.06
382.86	428.06
383.085	432.06
383.31	427.06
383.535	442.06
383.761	431.06
383.986	437.06
384.211	456.06
384.436	451.06
384.662	473.06
384.887	470.06
385.112	485.06
385.337	473.06
385.562	490.06
385.787	497.06
386.013	518.06
386.238	491.06
386.463	500.06
386.688	487.06
386.913	482.06
387.138	491.06
387.363	490.06
387.588	473.06
387.813	483.06
388.038	486.06
388.263	469.06
388.488	461.06
388.713	481.06
388.938	474.06
389.163	470.06
389.387	455.06
389.612	475.06
389.837	472.06
390.062	469.06
390.287	483.06
390.512	506.06
390.736	495.06
390.961	506.06
391.186	506.06
391.411	498.06
391.636	518.06
391.86	553.06
392.085	530.06
392.31	538.06
392.534	539.06
392.759	531.06
392.984	510.06
393.208	508.06
393.433	512.06
393.658	516.06
393.882	499.06
394.107	510.06
394.331	522.06
394.556	529.06
394.78	536.06
395.005	535.06
395.229	543.06
395.454	538.06
395.678	557.06
395.903	566.06
396.127	556.06
396.352	545.06
396.576	507.06
396.801	534.06
397.025	537.06
397.249	533.06
397.474	541.06
397.698	547.06
397.922	554.06
398.147	547.06
398.371	547.06
398.595	583.06
398.82	597.06
399.044	624.06
399.268	681.06
399.492	790.06
399.717	852.06
399.941	840.06
400.165	759.06
400.389	708.06
400.613	652.06
400.837	616.06
401.062	638.06
401.286	584.06
401.51	603.06
401.734	620.06
401.958	634.06
402.182	617.06
402.406	603.06
402.63	616.06
402.854	663.06
403.078	633.06
403.302	663.06
403.526	660.06
403.75	681.06
403.974	692.06
404.198	675.06
404.422	663.06
404.645	676.06
404.869	658.06
405.093	658.06
405.317	660.06
405.541	673.06
405.765	653.06
405.988	652.06
406.212	636.06
406.436	667.06
406.66	669.06
406.883	683.06
407.107	704.06
407.331	747.06
407.555	787.06
407.778	776.06
408.002	751.06
408.226	711.06
408.449	722.06
408.673	710.06
408.896	703.06
409.12	691.06
409.344	693.06
409.567	665.06
409.791	663.06
410.014	672.06
410.238	700.06
410.461	680.06
410.685	658.06
410.908	659.06
411.132	652.06
411.355	624.06
411.578	637.06
411.802	625.06
412.025	659.06
412.249	651.06
412.472	632.06
412.695	631.06
412.919	629.06
413.142	596.06
413.365	620.06
413.589	622.06
413.812	612.06
414.035	610.06
414.258	615.06
414.482	601.06
414.705	634.06
414.928	634.06
415.151	629.06
415.374	608.06
415.597	604.06
415.821	624.06
416.044	608.06
416.267	589.06
416.49	605.06
416.713	604.06
416.936	606.06
417.159	608.06
417.382	610.06
417.605	617.06
417.828	584.06
418.051	609.06
418.274	585.06
418.497	604.06
418.72	588.06
418.943	614.06
419.166	627.06
419.389	674.06
419.611	656.06
419.834	648.06
420.057	631.06
420.28	598.06
420.503	622.06
420.726	624.06
420.948	606.06
421.171	614.06
421.394	601.06
421.617	605.06
421.839	632.06
422.062	621.06
422.285	609.06
422.507	624.06
422.73	616.06
422.953	620.06
423.175	632.06
423.398	662.06
423.621	646.06
423.843	656.06
424.066	640.06
424.288	645.06
424.511	634.06
424.733	650.06
424.956	621.06
425.178	604.06
425.401	631.06
425.623	628.06
425.846	593.06
426.068	594.06
426.291	594.06
426.513	581.06
426.735	568.06
426.958	572.06
427.18	570.06
427.402	581.06
427.625	578.06
427.847	569.06
428.069	579.06
428.292	548.06
428.514	548.06
428.736	556.06
428.958	565.06
429.181	525.06
429.403	558.06
429.625	546.06
429.847	564.06
430.069	531.06
430.292	552.06
430.514	549.06
430.736	533.06
430.958	554.06
431.18	546.06
431.402	548.06
431.624	543.06
431.846	555.06
432.068	544.06
432.29	547.06
432.512	533.06
432.734	562.06
432.956	562.06
433.178	564.06
433.4	569.06
433.622	576.06
433.844	549.06
434.066	572.06
434.287	568.06
434.509	577.06
434.731	606.06
434.953	611.06
435.175	615.06
435.397	613.06
435.618	576.06
435.84	569.06
436.062	560.06
436.284	569.06
436.505	570.06
436.727	572.06
436.949	565.06
437.17	560.06
437.392	546.06
437.614	545.06
437.835	552.06
438.057	524.06
438.278	518.06
438.5	551.06
438.721	554.06
438.943	564.06
439.165	536.06
439.386	547.06
439.608	564.06
439.829	555.06
440.05	571.06
440.272	584.06
440.493	563.06
440.715	574.06
440.936	580.06
441.158	574.06
441.379	593.06
441.6	602.06
441.822	640.06
442.043	618.06
442.264	642.06
442.486	602.06
442.707	617.06
442.928	606.06
443.149	618.06
443.371	623.06
443.592	626.06
443.813	604.06
444.034	634.06
444.255	657.06
444.476	674.06
444.698	704.06
444.919	709.06
445.14	821.06
445.361	728.06
445.582	638.06
445.803	612.06
446.024	599.06
446.245	592.06
446.466	592.06
446.687	580.06
446.908	587.06
447.129	546.06
447.35	566.06
447.571	537.06
447.792	532.06
448.013	540.06
448.234	512.06
448.455	526.06
448.675	544.06
448.896	526.06
449.117	514.06
449.338	531.06
449.559	516.06
449.779	513.06
450	532.06
450.221	534.06
450.442	555.06
450.662	530.06
450.883	527.06
451.104	530.06
451.324	520.06
451.545	513.06
451.766	522.06
451.986	524.06
452.207	522.06
452.428	511.06
452.648	494.06
452.869	498.06
453.089	522.06
453.31	530.06
453.53	515.06
453.751	501.06
453.971	496.06
454.192	520.06
454.412	502.06
454.633	510.06
454.853	500.06
455.073	503.06
455.294	493.06
455.514	473.06
455.734	470.06
455.955	499.06
456.175	507.06
456.395	495.06
456.616	461.06
456.836	500.06
457.056	508.06
457.276	468.06
457.497	483.06
457.717	483.06
457.937	497.06
458.157	468.06
458.377	500.06
458.598	498.06
458.818	508.06
459.038	513.06
459.258	555.06
459.478	569.06
459.698	548.06
459.918	578.06
460.138	624.06
460.358	643.06
460.578	644.06
460.798	635.06
461.018	648.06
461.238	623.06
461.458	638.06
461.678	632.06
461.898	637.06
462.118	634.06
462.338	670.06
462.558	676.06
462.777	731.06
462.997	755.06
463.217	848.06
463.437	841.06
463.657	750.06
463.876	729.06
464.096	743.06
464.316	708.06
464.536	724.06
464.755	723.06
464.975	666.06
465.195	654.06
465.414	615.06
465.634	606.06
465.854	601.06
466.073	569.06
466.293	553.06
466.512	566.06
466.732	536.06
466.951	538.06
467.171	548.06
467.391	540.06
467.61	534.06
467.829	555.06
468.049	532.06
468.268	517.06
468.488	496.06
468.707	525.06
468.927	526.06
469.146	530.06
469.365	518.06
469.585	528.06
469.804	575.06
470.023	547.06
470.243	535.06
470.462	568.06
470.681	550.06
470.901	573.06
471.12	552.06
471.339	552.06
471.558	551.06
471.777	529.06
471.997	522.06
472.216	528.06
472.435	534.06
472.654	517.06
472.873	508.06
473.092	498.06
473.311	522.06
473.53	507.06
473.749	506.06
473.968	528.06
474.187	527.06
474.406	491.06
474.625	524.06
474.844	519.06
475.063	532.06
475.282	524.06
475.501	522.06
475.72	527.06
475.939	518.06
476.158	530.06
476.377	519.06
476.596	534.06
476.814	514.06
477.033	523.06
477.252	537.06
477.471	548.06
477.69	556.06
477.908	575.06
478.127	593.06
478.346	606.06
478.564	605.06
478.783	603.06
479.002	633.06
479.22	607.06
479.439	611.06
479.658	616.06
479.876	608.06
480.095	607.06
480.313	617.06
480.532	644.06
480.751	636.06
480.969	626.06
481.188	605.06
481.406	598.06
481.624	589.06
481.843	574.06
482.061	578.06
482.28	567.06
482.498	565.06
482.717	570.06
482.935	563.06
483.153	544.06
483.372	568.06
483.59	571.06
483.808	570.06
484.027	582.06
484.245	571.06
484.463	579.06
484.681	600.06
484.9	571.06
485.118	608.06
485.336	594.06
485.554	585.06
485.772	597.06
485.99	580.06
486.209	599.06
486.427	592.06
486.645	563.06
486.863	619.06
487.081	586.06
487.299	601.06
487.517	596.06
487.735	590.06
487.953	602.06
488.171	599.06
488.389	574.06
488.607	579.06
488.825	579.06
489.043	575.06
489.261	582.06
489.479	603.06
489.696	607.06
489.914	580.06
490.132	564.06
490.35	594.06
490.568	592.06
490.786	591.06
491.003	609.06
491.221	608.06
491.439	606.06
491.657	604.06
491.874	631.06
492.092	634.06
492.31	627.06
492.527	607.06
492.745	615.06
492.963	629.06
493.18	617.06
493.398	628.06
493.615	617.06
493.833	634.06
494.05	650.06
494.268	630.06
494.485	641.06
494.703	626.06
494.92	639.06
495.138	636.06
495.355	627.06
495.573	638.06
495.79	640.06
496.008	662.06
496.225	663.06
496.442	657.06
496.66	656.06
496.877	654.06
497.094	668.06
497.312	706.06
497.529	689.06
497.746	730.06
497.963	704.06
498.181	772.06
498.398	787.06
498.615	808.06
498.832	897.06
499.049	930.06
499.267	958.06
499.484	1075.06
499.701	1178.06
499.918	1272.06
500.135	1435.06
500.352	1600.06
500.569	1656.06
500.786	1641.06
501.003	1542.06
501.22	1411.06
501.437	1247.06
501.654	1135.06
