Data from Fe(NO3)3@0.025M.TitratingCurve.Agarose3%dH2O.NegLispCup.LampEnergy10.LIBS07252019_HRD10591_16-54-46-336.txt Node
Date: Thu Jul 25 16:54:46 EDT 2019
User: cochatt
Spectrometer: HR+D1059
Trigger mode: 1
Integration Time (sec): 1.000000E-1
Scans to average: 1
Electric dark correction enabled: true
Nonlinearity correction enabled: false
Boxcar width: 0
XAxis mode: Wavelengths
Number of Pixels in Spectrum: 2048
>>>>>Begin Spectral Data<<<<<
223.165	-23.5
223.4	-23.5
223.635	-23.5
223.869	-5.5
224.104	-22.5
224.338	-16.5
224.573	-10.5
224.808	-11.5
225.042	-4.5
225.277	-1.5
225.511	-4.5
225.746	-13.5
225.98	3.5
226.215	12.5
226.449	16.5
226.683	16.5
226.918	31.5
227.152	33.5
227.387	40.5
227.621	49.5
227.856	40.5
228.09	50.5
228.324	51.5
228.559	47.5
228.793	57.5
229.027	92.5
229.262	82.5
229.496	93.5
229.73	107.5
229.964	102.5
230.199	92.5
230.433	116.5
230.667	104.5
230.901	114.5
231.136	111.5
231.37	116.5
231.604	110.5
231.838	103.5
232.072	115.5
232.306	121.5
232.541	121.5
232.775	125.5
233.009	123.5
233.243	113.5
233.477	115.5
233.711	114.5
233.945	119.5
234.179	121.5
234.413	128.5
234.647	106.5
234.881	116.5
235.115	117.5
235.349	127.5
235.583	106.5
235.817	111.5
236.051	124.5
236.285	122.5
236.519	148.5
236.753	123.5
236.987	130.5
237.221	122.5
237.455	137.5
237.689	131.5
237.922	131.5
238.156	116.5
238.39	136.5
238.624	116.5
238.858	123.5
239.091	134.5
239.325	139.5
239.559	128.5
239.793	120.5
240.027	136.5
240.26	130.5
240.494	138.5
240.728	129.5
240.961	135.5
241.195	123.5
241.429	139.5
241.662	123.5
241.896	136.5
242.13	142.5
242.363	138.5
242.597	136.5
242.83	147.5
243.064	150.5
243.298	155.5
243.531	129.5
243.765	155.5
243.998	150.5
244.232	160.5
244.465	140.5
244.699	154.5
244.932	154.5
245.166	163.5
245.399	147.5
245.633	153.5
245.866	149.5
246.099	152.5
246.333	151.5
246.566	161.5
246.8	157.5
247.033	168.5
247.266	165.5
247.5	154.5
247.733	165.5
247.966	158.5
248.2	166.5
248.433	169.5
248.666	166.5
248.899	162.5
249.133	183.5
249.366	166.5
249.599	177.5
249.832	169.5
250.066	175.5
250.299	175.5
250.532	176.5
250.765	183.5
250.998	181.5
251.231	160.5
251.465	178.5
251.698	177.5
251.931	176.5
252.164	177.5
252.397	159.5
252.63	172.5
252.863	171.5
253.096	185.5
253.329	172.5
253.562	193.5
253.795	191.5
254.028	199.5
254.261	188.5
254.494	177.5
254.727	201.5
254.96	186.5
255.193	189.5
255.426	198.5
255.659	182.5
255.892	184.5
256.124	189.5
256.357	191.5
256.59	199.5
256.823	190.5
257.056	218.5
257.289	205.5
257.521	203.5
257.754	201.5
257.987	213.5
258.22	195.5
258.452	203.5
258.685	201.5
258.918	195.5
259.151	205.5
259.383	216.5
259.616	197.5
259.849	211.5
260.081	211.5
260.314	226.5
260.547	217.5
260.779	238.5
261.012	215.5
261.244	220.5
261.477	228.5
261.71	220.5
261.942	231.5
262.175	228.5
262.407	214.5
262.64	218.5
262.872	214.5
263.105	232.5
263.337	240.5
263.57	235.5
263.802	228.5
264.035	226.5
264.267	232.5
264.499	231.5
264.732	241.5
264.964	220.5
265.197	244.5
265.429	229.5
265.661	244.5
265.894	220.5
266.126	222.5
266.358	236.5
266.591	234.5
266.823	236.5
267.055	223.5
267.287	218.5
267.52	249.5
267.752	239.5
267.984	244.5
268.216	260.5
268.448	233.5
268.681	251.5
268.913	246.5
269.145	256.5
269.377	245.5
269.609	244.5
269.841	253.5
270.073	259.5
270.306	232.5
270.538	222.5
270.77	236.5
271.002	257.5
271.234	274.5
271.466	265.5
271.698	259.5
271.93	275.5
272.162	245.5
272.394	238.5
272.626	252.5
272.858	256.5
273.09	261.5
273.322	273.5
273.553	262.5
273.785	257.5
274.017	286.5
274.249	268.5
274.481	294.5
274.713	275.5
274.945	293.5
275.176	287.5
275.408	285.5
275.64	277.5
275.872	288.5
276.104	293.5
276.335	266.5
276.567	266.5
276.799	264.5
277.031	279.5
277.262	271.5
277.494	285.5
277.726	291.5
277.957	271.5
278.189	266.5
278.421	270.5
278.652	294.5
278.884	288.5
279.115	299.5
279.347	293.5
279.579	283.5
279.81	279.5
280.042	300.5
280.273	288.5
280.505	290.5
280.736	279.5
280.968	282.5
281.199	306.5
281.431	304.5
281.662	299.5
281.894	301.5
282.125	291.5
282.356	294.5
282.588	315.5
282.819	286.5
283.051	290.5
283.282	320.5
283.513	295.5
283.745	309.5
283.976	314.5
284.207	308.5
284.439	307.5
284.67	297.5
284.901	303.5
285.132	316.5
285.364	310.5
285.595	303.5
285.826	306.5
286.057	316.5
286.288	319.5
286.52	318.5
286.751	311.5
286.982	325.5
287.213	325.5
287.444	330.5
287.675	323.5
287.906	316.5
288.138	319.5
288.369	314.5
288.6	321.5
288.831	321.5
289.062	312.5
289.293	326.5
289.524	325.5
289.755	330.5
289.986	322.5
290.217	319.5
290.448	317.5
290.679	338.5
290.91	335.5
291.141	325.5
291.371	322.5
291.602	329.5
291.833	339.5
292.064	336.5
292.295	332.5
292.526	327.5
292.757	335.5
292.987	325.5
293.218	327.5
293.449	330.5
293.68	344.5
293.91	341.5
294.141	319.5
294.372	345.5
294.603	337.5
294.833	312.5
295.064	333.5
295.295	325.5
295.525	351.5
295.756	333.5
295.987	341.5
296.217	339.5
296.448	325.5
296.679	324.5
296.909	355.5
297.14	343.5
297.37	347.5
297.601	352.5
297.831	361.5
298.062	359.5
298.292	338.5
298.523	353.5
298.753	359.5
298.984	344.5
299.214	351.5
299.445	347.5
299.675	345.5
299.905	369.5
300.136	347.5
300.366	369.5
300.597	369.5
300.827	373.5
301.057	379.5
301.288	372.5
301.518	375.5
301.748	364.5
301.979	371.5
302.209	373.5
302.439	372.5
302.669	374.5
302.9	378.5
303.13	369.5
303.36	375.5
303.59	386.5
303.82	372.5
304.051	385.5
304.281	379.5
304.511	379.5
304.741	367.5
304.971	374.5
305.201	397.5
305.431	373.5
305.661	383.5
305.891	385.5
306.121	365.5
306.352	376.5
306.582	370.5
306.812	380.5
307.042	399.5
307.272	388.5
307.502	371.5
307.731	357.5
307.961	370.5
308.191	369.5
308.421	374.5
308.651	391.5
308.881	363.5
309.111	367.5
309.341	367.5
309.571	373.5
309.8	387.5
310.03	372.5
310.26	371.5
310.49	372.5
310.72	352.5
310.949	369.5
311.179	386.5
311.409	385.5
311.639	382.5
311.868	369.5
312.098	387.5
312.328	376.5
312.557	402.5
312.787	387.5
313.017	405.5
313.246	405.5
313.476	390.5
313.706	392.5
313.935	416.5
314.165	412.5
314.394	405.5
314.624	401.5
314.853	404.5
315.083	416.5
315.312	392.5
315.542	409.5
315.771	396.5
316.001	411.5
316.23	396.5
316.46	391.5
316.689	393.5
316.919	415.5
317.148	403.5
317.377	397.5
317.607	409.5
317.836	396.5
318.065	397.5
318.295	400.5
318.524	403.5
318.753	394.5
318.983	409.5
319.212	404.5
319.441	411.5
319.67	415.5
319.9	412.5
320.129	413.5
320.358	426.5
320.587	397.5
320.816	412.5
321.046	406.5
321.275	431.5
321.504	402.5
321.733	413.5
321.962	403.5
322.191	428.5
322.42	439.5
322.649	412.5
322.878	433.5
323.108	412.5
323.337	413.5
323.566	415.5
323.795	417.5
324.024	413.5
324.253	415.5
324.482	437.5
324.71	421.5
324.939	420.5
325.168	443.5
325.397	438.5
325.626	426.5
325.855	424.5
326.084	433.5
326.313	439.5
326.542	426.5
326.77	447.5
326.999	436.5
327.228	427.5
327.457	440.5
327.686	435.5
327.914	437.5
328.143	433.5
328.372	435.5
328.6	434.5
328.829	423.5
329.058	455.5
329.287	439.5
329.515	443.5
329.744	439.5
329.972	440.5
330.201	460.5
330.43	471.5
330.658	450.5
330.887	449.5
331.115	433.5
331.344	466.5
331.572	467.5
331.801	452.5
332.03	465.5
332.258	473.5
332.486	488.5
332.715	476.5
332.943	493.5
333.172	497.5
333.4	511.5
333.629	498.5
333.857	532.5
334.085	531.5
334.314	531.5
334.542	516.5
334.771	538.5
334.999	519.5
335.227	545.5
335.455	523.5
335.684	533.5
335.912	537.5
336.14	529.5
336.369	511.5
336.597	516.5
336.825	512.5
337.053	520.5
337.281	485.5
337.51	497.5
337.738	497.5
337.966	509.5
338.194	486.5
338.422	476.5
338.65	476.5
338.878	500.5
339.106	488.5
339.334	500.5
339.562	483.5
339.79	479.5
340.018	468.5
340.246	460.5
340.474	474.5
340.702	484.5
340.93	482.5
341.158	482.5
341.386	481.5
341.614	465.5
341.842	488.5
342.07	467.5
342.298	477.5
342.526	454.5
342.754	459.5
342.981	495.5
343.209	468.5
343.437	491.5
343.665	487.5
343.893	508.5
344.12	519.5
344.348	543.5
344.576	507.5
344.804	484.5
345.031	488.5
345.259	488.5
345.487	480.5
345.714	477.5
345.942	475.5
346.17	463.5
346.397	449.5
346.625	462.5
346.853	463.5
347.08	458.5
347.308	467.5
347.535	466.5
347.763	460.5
347.99	451.5
348.218	467.5
348.445	449.5
348.673	444.5
348.9	429.5
349.128	427.5
349.355	438.5
349.583	443.5
349.81	458.5
350.037	457.5
350.265	427.5
350.492	447.5
350.72	463.5
350.947	441.5
351.174	440.5
351.402	454.5
351.629	439.5
351.856	440.5
352.083	436.5
352.311	443.5
352.538	434.5
352.765	447.5
352.992	421.5
353.22	425.5
353.447	440.5
353.674	441.5
353.901	450.5
354.128	450.5
354.355	422.5
354.583	422.5
354.81	428.5
355.037	451.5
355.264	437.5
355.491	455.5
355.718	447.5
355.945	433.5
356.172	453.5
356.399	444.5
356.626	460.5
356.853	461.5
357.08	446.5
357.307	439.5
357.534	469.5
357.761	456.5
357.988	465.5
358.215	459.5
358.441	433.5
358.668	452.5
358.895	456.5
359.122	455.5
359.349	452.5
359.576	444.5
359.802	440.5
360.029	452.5
360.256	445.5
360.483	433.5
360.709	446.5
360.936	443.5
361.163	456.5
361.39	449.5
361.616	441.5
361.843	445.5
362.07	434.5
362.296	453.5
362.523	434.5
362.749	466.5
362.976	438.5
363.203	457.5
363.429	448.5
363.656	463.5
363.882	460.5
364.109	449.5
364.335	427.5
364.562	455.5
364.788	450.5
365.015	451.5
365.241	437.5
365.468	447.5
365.694	443.5
365.92	456.5
366.147	458.5
366.373	447.5
366.599	459.5
366.826	443.5
367.052	454.5
367.278	455.5
367.505	420.5
367.731	449.5
367.957	434.5
368.184	448.5
368.41	455.5
368.636	455.5
368.862	460.5
369.089	453.5
369.315	456.5
369.541	470.5
369.767	469.5
369.993	466.5
370.219	447.5
370.445	460.5
370.672	483.5
370.898	466.5
371.124	487.5
371.35	467.5
371.576	476.5
371.802	497.5
372.028	476.5
372.254	476.5
372.48	491.5
372.706	506.5
372.932	486.5
373.158	485.5
373.384	490.5
373.61	505.5
373.835	491.5
374.061	488.5
374.287	486.5
374.513	499.5
374.739	523.5
374.965	495.5
375.191	537.5
375.416	533.5
375.642	511.5
375.868	499.5
376.094	505.5
376.319	497.5
376.545	485.5
376.771	468.5
376.997	485.5
377.222	488.5
377.448	476.5
377.674	501.5
377.899	488.5
378.125	478.5
378.35	481.5
378.576	486.5
378.802	477.5
379.027	490.5
379.253	464.5
379.478	478.5
379.704	470.5
379.929	477.5
380.155	473.5
380.38	468.5
380.606	489.5
380.831	482.5
381.057	488.5
381.282	474.5
381.507	480.5
381.733	477.5
381.958	487.5
382.184	491.5
382.409	516.5
382.634	488.5
382.86	489.5
383.085	512.5
383.31	513.5
383.535	512.5
383.761	531.5
383.986	519.5
384.211	543.5
384.436	531.5
384.662	536.5
384.887	547.5
385.112	561.5
385.337	552.5
385.562	559.5
385.787	554.5
386.013	553.5
386.238	564.5
386.463	556.5
386.688	568.5
386.913	571.5
387.138	549.5
387.363	543.5
387.588	552.5
387.813	559.5
388.038	580.5
388.263	554.5
388.488	564.5
388.713	566.5
388.938	553.5
389.163	556.5
389.387	561.5
389.612	544.5
389.837	559.5
390.062	572.5
390.287	551.5
390.512	576.5
390.736	575.5
390.961	589.5
391.186	579.5
391.411	593.5
391.636	597.5
391.86	615.5
392.085	615.5
392.31	621.5
392.534	596.5
392.759	625.5
392.984	601.5
393.208	608.5
393.433	585.5
393.658	587.5
393.882	602.5
394.107	593.5
394.331	605.5
394.556	592.5
394.78	620.5
395.005	599.5
395.229	621.5
395.454	618.5
395.678	617.5
395.903	611.5
396.127	606.5
396.352	611.5
396.576	623.5
396.801	603.5
397.025	626.5
397.249	623.5
397.474	622.5
397.698	624.5
397.922	667.5
398.147	635.5
398.371	639.5
398.595	653.5
398.82	715.5
399.044	716.5
399.268	765.5
399.492	819.5
399.717	837.5
399.941	836.5
400.165	829.5
400.389	772.5
400.613	777.5
400.837	724.5
401.062	715.5
401.286	714.5
401.51	689.5
401.734	674.5
401.958	707.5
402.182	685.5
402.406	678.5
402.63	682.5
402.854	700.5
403.078	700.5
403.302	706.5
403.526	711.5
403.75	731.5
403.974	716.5
404.198	704.5
404.422	716.5
404.645	705.5
404.869	733.5
405.093	763.5
405.317	711.5
405.541	723.5
405.765	747.5
405.988	721.5
406.212	738.5
406.436	761.5
406.66	767.5
406.883	743.5
407.107	759.5
407.331	809.5
407.555	829.5
407.778	833.5
408.002	774.5
408.226	756.5
408.449	780.5
408.673	784.5
408.896	764.5
409.12	728.5
409.344	743.5
409.567	741.5
409.791	763.5
410.014	742.5
410.238	736.5
410.461	733.5
410.685	706.5
410.908	716.5
411.132	712.5
411.355	705.5
411.578	698.5
411.802	719.5
412.025	714.5
412.249	720.5
412.472	697.5
412.695	700.5
412.919	694.5
413.142	674.5
413.365	684.5
413.589	681.5
413.812	679.5
414.035	676.5
414.258	657.5
414.482	673.5
414.705	668.5
414.928	685.5
415.151	685.5
415.374	684.5
415.597	668.5
415.821	677.5
416.044	673.5
416.267	650.5
416.49	639.5
416.713	668.5
416.936	657.5
417.159	665.5
417.382	657.5
417.605	665.5
417.828	650.5
418.051	650.5
418.274	636.5
418.497	666.5
418.72	652.5
418.943	674.5
419.166	697.5
419.389	740.5
419.611	722.5
419.834	706.5
420.057	681.5
420.28	673.5
420.503	645.5
420.726	620.5
420.948	654.5
421.171	645.5
421.394	654.5
421.617	647.5
421.839	653.5
422.062	629.5
422.285	617.5
422.507	641.5
422.73	645.5
422.953	638.5
423.175	639.5
423.398	649.5
423.621	644.5
423.843	673.5
424.066	667.5
424.288	656.5
424.511	657.5
424.733	629.5
424.956	668.5
425.178	643.5
425.401	659.5
425.623	631.5
425.846	638.5
426.068	617.5
426.291	644.5
426.513	621.5
426.735	616.5
426.958	645.5
427.18	614.5
427.402	621.5
427.625	625.5
427.847	597.5
428.069	588.5
428.292	639.5
428.514	619.5
428.736	612.5
428.958	598.5
429.181	595.5
429.403	615.5
429.625	581.5
429.847	602.5
430.069	599.5
430.292	606.5
430.514	602.5
430.736	603.5
430.958	592.5
431.18	582.5
431.402	610.5
431.624	575.5
431.846	581.5
432.068	612.5
432.29	604.5
432.512	650.5
432.734	598.5
432.956	617.5
433.178	607.5
433.4	598.5
433.622	608.5
433.844	619.5
434.066	626.5
434.287	627.5
434.509	633.5
434.731	623.5
434.953	633.5
435.175	619.5
435.397	626.5
435.618	637.5
435.84	609.5
436.062	607.5
436.284	577.5
436.505	575.5
436.727	587.5
436.949	620.5
437.17	582.5
437.392	598.5
437.614	565.5
437.835	589.5
438.057	567.5
438.278	573.5
438.5	590.5
438.721	597.5
438.943	576.5
439.165	570.5
439.386	588.5
439.608	575.5
439.829	589.5
440.05	577.5
440.272	588.5
440.493	589.5
440.715	610.5
440.936	600.5
441.158	589.5
441.379	638.5
441.6	644.5
441.822	652.5
442.043	614.5
442.264	639.5
442.486	640.5
442.707	630.5
442.928	608.5
443.149	604.5
443.371	627.5
443.592	618.5
443.813	624.5
444.034	633.5
444.255	653.5
444.476	638.5
444.698	691.5
444.919	712.5
445.14	779.5
445.361	738.5
445.582	655.5
445.803	639.5
446.024	585.5
446.245	623.5
446.466	634.5
446.687	602.5
446.908	579.5
447.129	583.5
447.35	573.5
447.571	588.5
447.792	569.5
448.013	573.5
448.234	549.5
448.455	554.5
448.675	579.5
448.896	571.5
449.117	553.5
449.338	526.5
449.559	547.5
449.779	531.5
450	564.5
450.221	553.5
450.442	543.5
450.662	535.5
450.883	545.5
451.104	541.5
451.324	521.5
451.545	548.5
451.766	528.5
451.986	524.5
452.207	542.5
452.428	534.5
452.648	547.5
452.869	523.5
453.089	548.5
453.31	542.5
453.53	534.5
453.751	523.5
453.971	531.5
454.192	513.5
454.412	524.5
454.633	525.5
454.853	521.5
455.073	517.5
455.294	550.5
455.514	499.5
455.734	515.5
455.955	498.5
456.175	506.5
456.395	495.5
456.616	529.5
456.836	527.5
457.056	494.5
457.276	531.5
457.497	514.5
457.717	517.5
457.937	554.5
458.157	526.5
458.377	552.5
458.598	576.5
458.818	565.5
459.038	567.5
459.258	589.5
459.478	581.5
459.698	615.5
459.918	619.5
460.138	637.5
460.358	636.5
460.578	656.5
460.798	675.5
461.018	656.5
461.238	679.5
461.458	662.5
461.678	644.5
461.898	694.5
462.118	691.5
462.338	715.5
462.558	719.5
462.777	714.5
462.997	744.5
463.217	783.5
463.437	813.5
463.657	771.5
463.876	732.5
464.096	714.5
464.316	728.5
464.536	699.5
464.755	697.5
464.975	695.5
465.195	655.5
465.414	645.5
465.634	620.5
465.854	620.5
466.073	598.5
466.293	588.5
466.512	608.5
466.732	597.5
466.951	580.5
467.171	593.5
467.391	579.5
467.61	562.5
467.829	567.5
468.049	573.5
468.268	573.5
468.488	553.5
468.707	544.5
468.927	559.5
469.146	536.5
469.365	586.5
469.585	571.5
469.804	580.5
470.023	576.5
470.243	587.5
470.462	567.5
470.681	578.5
470.901	577.5
471.12	580.5
471.339	569.5
471.558	559.5
471.777	559.5
471.997	575.5
472.216	578.5
472.435	551.5
472.654	543.5
472.873	567.5
473.092	559.5
473.311	561.5
473.53	547.5
473.749	555.5
473.968	574.5
474.187	551.5
474.406	530.5
474.625	559.5
474.844	532.5
475.063	569.5
475.282	556.5
475.501	558.5
475.72	583.5
475.939	575.5
476.158	557.5
476.377	547.5
476.596	572.5
476.814	617.5
477.033	583.5
477.252	616.5
477.471	583.5
477.69	634.5
477.908	629.5
478.127	638.5
478.346	643.5
478.564	642.5
478.783	662.5
479.002	648.5
479.22	656.5
479.439	665.5
479.658	677.5
479.876	667.5
480.095	678.5
480.313	669.5
480.532	681.5
480.751	683.5
480.969	672.5
481.188	657.5
481.406	690.5
481.624	678.5
481.843	633.5
482.061	664.5
482.28	666.5
482.498	642.5
482.717	625.5
482.935	637.5
483.153	652.5
483.372	654.5
483.59	644.5
483.808	641.5
484.027	653.5
484.245	648.5
484.463	643.5
484.681	642.5
484.9	662.5
485.118	643.5
485.336	652.5
485.554	654.5
485.772	659.5
485.99	641.5
486.209	649.5
486.427	660.5
486.645	657.5
486.863	639.5
487.081	663.5
487.299	664.5
487.517	673.5
487.735	653.5
487.953	673.5
488.171	659.5
488.389	657.5
488.607	676.5
488.825	659.5
489.043	640.5
489.261	667.5
489.479	643.5
489.696	650.5
489.914	657.5
490.132	669.5
490.35	670.5
490.568	647.5
490.786	661.5
491.003	663.5
491.221	689.5
491.439	661.5
491.657	651.5
491.874	673.5
492.092	666.5
492.31	655.5
492.527	680.5
492.745	691.5
492.963	673.5
493.18	683.5
493.398	685.5
493.615	674.5
493.833	689.5
494.05	685.5
494.268	704.5
494.485	692.5
494.703	699.5
494.92	691.5
495.138	700.5
495.355	706.5
495.573	689.5
495.79	718.5
496.008	720.5
496.225	705.5
496.442	734.5
496.66	736.5
496.877	746.5
497.094	769.5
497.312	791.5
497.529	796.5
497.746	799.5
497.963	835.5
498.181	880.5
498.398	888.5
498.615	933.5
498.832	963.5
499.049	996.5
499.267	1032.5
499.484	1115.5
499.701	1180.5
499.918	1272.5
500.135	1355.5
500.352	1403.5
500.569	1415.5
500.786	1441.5
501.003	1401.5
501.22	1335.5
501.437	1268.5
501.654	1155.5
501.871	1103.5
502.088	1033.5
502.305	1002.5
502.522	965.5
502.739	916.5
502.956	893.5
503.172	870.5
503.389	812.5
503.606	808.5
503.823	809.5
504.04	784.5
504.256	795.5
504.473	789.5
504.69	769.5
504.907	767.5
505.123	723.5
505.34	720.5
505.557	714.5
505.773	693.5
505.99	681.5
506.207	677.5
506.423	655.5
506.64	663.5
506.856	637.5
507.073	663.5
507.289	637.5
507.506	630.5
507.722	621.5
507.939	609.5
508.155	613.5
508.372	616.5
508.588	591.5
508.805	619.5
509.021	584.5
509.238	629.5
509.454	579.5
509.67	563.5
509.887	583.5
510.103	573.5
510.319	548.5
510.536	574.5
510.752	583.5
510.968	549.5
511.184	577.5
511.401	583.5
511.617	588.5
511.833	577.5
512.049	576.5
512.265	569.5
512.481	584.5
512.698	557.5
512.914	574.5
513.13	574.5
513.346	578.5
513.562	589.5
513.778	595.5
513.994	593.5
514.21	594.5
514.426	598.5
514.642	584.5
514.858	582.5
515.074	575.5
515.29	590.5
515.506	576.5
515.721	604.5
515.937	614.5
516.153	620.5
516.369	620.5
516.585	620.5
516.801	620.5
517.016	656.5
517.232	667.5
517.448	670.5
517.664	732.5
517.879	679.5
518.095	691.5
518.311	677.5
518.527	680.5
518.742	681.5
518.958	626.5
519.173	636.5
