Data from Fe(NO3)3@0.05M.TitratingCurve.Agarose3%dH2O.NegLispCup.LampEnergy10.LIBS07252019_HRD10591_16-48-00-334.txt Node
Date: Thu Jul 25 16:48:00 EDT 2019
User: cochatt
Spectrometer: HR+D1059
Trigger mode: 1
Integration Time (sec): 1.000000E-1
Scans to average: 1
Electric dark correction enabled: true
Nonlinearity correction enabled: false
Boxcar width: 0
XAxis mode: Wavelengths
Number of Pixels in Spectrum: 2048
>>>>>Begin Spectral Data<<<<<
223.165	-8.06
223.4	-8.06
223.635	-8.06
223.869	-19.06
224.104	-11.06
224.338	-30.06
224.573	-14.06
224.808	-6.06
225.042	-2.06
225.277	3.94
225.511	3.94
225.746	6.94
225.98	-5.06
226.215	4.94
226.449	-0.06
226.683	9.94
226.918	19.94
227.152	45.94
227.387	33.94
227.621	35.94
227.856	51.94
228.09	44.94
228.324	36.94
228.559	51.94
228.793	56.94
229.027	61.94
229.262	76.94
229.496	55.94
229.73	77.94
229.964	90.94
230.199	92.94
230.433	74.94
230.667	81.94
230.901	89.94
231.136	92.94
231.37	93.94
231.604	98.94
231.838	85.94
232.072	81.94
232.306	95.94
232.541	87.94
232.775	93.94
233.009	97.94
233.243	77.94
233.477	95.94
233.711	87.94
233.945	94.94
234.179	91.94
234.413	86.94
234.647	101.94
234.881	77.94
235.115	92.94
235.349	90.94
235.583	90.94
235.817	86.94
236.051	99.94
236.285	88.94
236.519	78.94
236.753	82.94
236.987	77.94
237.221	95.94
237.455	88.94
237.689	82.94
237.922	86.94
238.156	96.94
238.39	99.94
238.624	96.94
238.858	92.94
239.091	83.94
239.325	88.94
239.559	103.94
239.793	99.94
240.027	89.94
240.26	94.94
240.494	75.94
240.728	92.94
240.961	98.94
241.195	99.94
241.429	104.94
241.662	107.94
241.896	90.94
242.13	96.94
242.363	99.94
242.597	86.94
242.83	107.94
243.064	90.94
243.298	97.94
243.531	115.94
243.765	93.94
243.998	109.94
244.232	97.94
244.465	105.94
244.699	93.94
244.932	120.94
245.166	90.94
245.399	93.94
245.633	96.94
245.866	105.94
246.099	104.94
246.333	107.94
246.566	83.94
246.8	99.94
247.033	114.94
247.266	106.94
247.5	100.94
247.733	94.94
247.966	93.94
248.2	96.94
248.433	112.94
248.666	82.94
248.899	112.94
249.133	115.94
249.366	107.94
249.599	101.94
249.832	98.94
250.066	101.94
250.299	111.94
250.532	101.94
250.765	84.94
250.998	95.94
251.231	104.94
251.465	100.94
251.698	116.94
251.931	105.94
252.164	103.94
252.397	105.94
252.63	122.94
252.863	113.94
253.096	116.94
253.329	123.94
253.562	94.94
253.795	119.94
254.028	107.94
254.261	100.94
254.494	121.94
254.727	121.94
254.96	94.94
255.193	98.94
255.426	104.94
255.659	110.94
255.892	112.94
256.124	104.94
256.357	127.94
256.59	113.94
256.823	124.94
257.056	121.94
257.289	104.94
257.521	123.94
257.754	117.94
257.987	107.94
258.22	116.94
258.452	125.94
258.685	124.94
258.918	117.94
259.151	123.94
259.383	111.94
259.616	119.94
259.849	130.94
260.081	136.94
260.314	138.94
260.547	117.94
260.779	131.94
261.012	126.94
261.244	111.94
261.477	141.94
261.71	124.94
261.942	132.94
262.175	122.94
262.407	124.94
262.64	135.94
262.872	126.94
263.105	120.94
263.337	132.94
263.57	109.94
263.802	130.94
264.035	115.94
264.267	122.94
264.499	121.94
264.732	120.94
264.964	139.94
265.197	124.94
265.429	111.94
265.661	112.94
265.894	121.94
266.126	118.94
266.358	117.94
266.591	121.94
266.823	119.94
267.055	124.94
267.287	130.94
267.52	126.94
267.752	128.94
267.984	123.94
268.216	126.94
268.448	123.94
268.681	129.94
268.913	124.94
269.145	118.94
269.377	137.94
269.609	122.94
269.841	111.94
270.073	118.94
270.306	124.94
270.538	135.94
270.77	134.94
271.002	121.94
271.234	135.94
271.466	132.94
271.698	139.94
271.93	129.94
272.162	134.94
272.394	144.94
272.626	141.94
272.858	127.94
273.09	138.94
273.322	135.94
273.553	129.94
273.785	136.94
274.017	142.94
274.249	149.94
274.481	154.94
274.713	147.94
274.945	165.94
275.176	153.94
275.408	149.94
275.64	140.94
275.872	145.94
276.104	141.94
276.335	152.94
276.567	137.94
276.799	135.94
277.031	145.94
277.262	135.94
277.494	147.94
277.726	145.94
277.957	139.94
278.189	140.94
278.421	137.94
278.652	133.94
278.884	150.94
279.115	139.94
279.347	149.94
279.579	153.94
279.81	135.94
280.042	145.94
280.273	138.94
280.505	155.94
280.736	143.94
280.968	147.94
281.199	147.94
281.431	155.94
281.662	130.94
281.894	155.94
282.125	155.94
282.356	144.94
282.588	140.94
282.819	143.94
283.051	136.94
283.282	135.94
283.513	147.94
283.745	155.94
283.976	155.94
284.207	140.94
284.439	144.94
284.67	142.94
284.901	170.94
285.132	155.94
285.364	140.94
285.595	149.94
285.826	127.94
286.057	145.94
286.288	158.94
286.52	152.94
286.751	165.94
286.982	146.94
287.213	156.94
287.444	161.94
287.675	144.94
287.906	152.94
288.138	143.94
288.369	158.94
288.6	149.94
288.831	147.94
289.062	151.94
289.293	163.94
289.524	160.94
289.755	147.94
289.986	154.94
290.217	157.94
290.448	151.94
290.679	152.94
290.91	163.94
291.141	165.94
291.371	159.94
291.602	145.94
291.833	168.94
292.064	156.94
292.295	157.94
292.526	156.94
292.757	160.94
292.987	165.94
293.218	148.94
293.449	157.94
293.68	160.94
293.91	159.94
294.141	140.94
294.372	166.94
294.603	144.94
294.833	155.94
295.064	175.94
295.295	178.94
295.525	161.94
295.756	159.94
295.987	170.94
296.217	143.94
296.448	166.94
296.679	166.94
296.909	151.94
297.14	170.94
297.37	167.94
297.601	176.94
297.831	156.94
298.062	164.94
298.292	150.94
298.523	164.94
298.753	175.94
298.984	157.94
299.214	185.94
299.445	159.94
299.675	160.94
299.905	163.94
300.136	169.94
300.366	161.94
300.597	175.94
300.827	164.94
301.057	166.94
301.288	165.94
301.518	167.94
301.748	170.94
301.979	175.94
302.209	168.94
302.439	164.94
302.669	171.94
302.9	166.94
303.13	175.94
303.36	164.94
303.59	172.94
303.82	174.94
304.051	167.94
304.281	165.94
304.511	181.94
304.741	165.94
304.971	163.94
305.201	162.94
305.431	171.94
305.661	167.94
305.891	179.94
306.121	153.94
306.352	174.94
306.582	159.94
306.812	174.94
307.042	163.94
307.272	180.94
307.502	161.94
307.731	165.94
307.961	169.94
308.191	165.94
308.421	183.94
308.651	165.94
308.881	161.94
309.111	158.94
309.341	168.94
309.571	178.94
309.8	169.94
310.03	173.94
310.26	168.94
310.49	176.94
310.72	161.94
310.949	163.94
311.179	145.94
311.409	182.94
311.639	175.94
311.868	179.94
312.098	175.94
312.328	181.94
312.557	170.94
312.787	187.94
313.017	167.94
313.246	168.94
313.476	183.94
313.706	169.94
313.935	185.94
314.165	175.94
314.394	168.94
314.624	179.94
314.853	175.94
315.083	181.94
315.312	172.94
315.542	175.94
315.771	164.94
316.001	163.94
316.23	189.94
316.46	163.94
316.689	168.94
316.919	189.94
317.148	179.94
317.377	179.94
317.607	176.94
317.836	179.94
318.065	191.94
318.295	188.94
318.524	172.94
318.753	175.94
318.983	171.94
319.212	168.94
319.441	196.94
319.67	179.94
319.9	194.94
320.129	187.94
320.358	164.94
320.587	168.94
320.816	186.94
321.046	169.94
321.275	182.94
321.504	177.94
321.733	167.94
321.962	182.94
322.191	183.94
322.42	187.94
322.649	170.94
322.878	172.94
323.108	194.94
323.337	201.94
323.566	184.94
323.795	169.94
324.024	179.94
324.253	179.94
324.482	191.94
324.71	188.94
324.939	182.94
325.168	189.94
325.397	178.94
325.626	183.94
325.855	191.94
326.084	192.94
326.313	184.94
326.542	193.94
326.77	199.94
326.999	194.94
327.228	190.94
327.457	197.94
327.686	185.94
327.914	202.94
328.143	197.94
328.372	192.94
328.6	188.94
328.829	190.94
329.058	179.94
329.287	180.94
329.515	179.94
329.744	194.94
329.972	192.94
330.201	208.94
330.43	193.94
330.658	180.94
330.887	197.94
331.115	213.94
331.344	191.94
331.572	199.94
331.801	188.94
332.03	203.94
332.258	205.94
332.486	207.94
332.715	206.94
332.943	193.94
333.172	202.94
333.4	231.94
333.629	231.94
333.857	235.94
334.085	216.94
334.314	211.94
334.542	211.94
334.771	219.94
334.999	232.94
335.227	216.94
335.455	214.94
335.684	216.94
335.912	216.94
336.14	205.94
336.369	218.94
336.597	222.94
336.825	215.94
337.053	223.94
337.281	207.94
337.51	201.94
337.738	214.94
337.966	196.94
338.194	203.94
338.422	197.94
338.65	194.94
338.878	209.94
339.106	187.94
339.334	205.94
339.562	210.94
339.79	195.94
340.018	199.94
340.246	196.94
340.474	193.94
340.702	187.94
340.93	216.94
341.158	220.94
341.386	203.94
341.614	195.94
341.842	190.94
342.07	187.94
342.298	191.94
342.526	212.94
342.754	197.94
342.981	206.94
343.209	193.94
343.437	209.94
343.665	215.94
343.893	235.94
344.12	213.94
344.348	217.94
344.576	218.94
344.804	229.94
345.031	203.94
345.259	199.94
345.487	212.94
345.714	214.94
345.942	197.94
346.17	194.94
346.397	183.94
346.625	199.94
346.853	205.94
347.08	169.94
347.308	185.94
347.535	187.94
347.763	191.94
347.99	189.94
348.218	200.94
348.445	184.94
348.673	187.94
348.9	203.94
349.128	196.94
349.355	184.94
349.583	182.94
349.81	195.94
350.037	194.94
350.265	199.94
350.492	188.94
350.72	194.94
350.947	180.94
351.174	193.94
351.402	183.94
351.629	191.94
351.856	195.94
352.083	194.94
352.311	206.94
352.538	203.94
352.765	203.94
352.992	195.94
353.22	191.94
353.447	210.94
353.674	202.94
353.901	206.94
354.128	220.94
354.355	190.94
354.583	208.94
354.81	189.94
355.037	204.94
355.264	207.94
355.491	192.94
355.718	200.94
355.945	195.94
356.172	203.94
356.399	183.94
356.626	180.94
356.853	203.94
357.08	193.94
357.307	205.94
357.534	196.94
357.761	198.94
357.988	203.94
358.215	217.94
358.441	224.94
358.668	213.94
358.895	207.94
359.122	201.94
359.349	200.94
359.576	209.94
359.802	207.94
360.029	187.94
360.256	195.94
360.483	184.94
360.709	188.94
360.936	200.94
361.163	218.94
361.39	195.94
361.616	193.94
361.843	211.94
362.07	198.94
362.296	196.94
362.523	194.94
362.749	192.94
362.976	195.94
363.203	205.94
363.429	193.94
363.656	198.94
363.882	211.94
364.109	208.94
364.335	197.94
364.562	199.94
364.788	191.94
365.015	194.94
365.241	208.94
365.468	194.94
365.694	208.94
365.92	203.94
366.147	212.94
366.373	203.94
366.599	201.94
366.826	204.94
367.052	195.94
367.278	196.94
367.505	204.94
367.731	209.94
367.957	213.94
368.184	204.94
368.41	207.94
368.636	209.94
368.862	208.94
369.089	227.94
369.315	218.94
369.541	212.94
369.767	217.94
369.993	210.94
370.219	214.94
370.445	205.94
370.672	213.94
370.898	208.94
371.124	206.94
371.35	230.94
371.576	217.94
371.802	219.94
372.028	218.94
372.254	219.94
372.48	218.94
372.706	221.94
372.932	227.94
373.158	217.94
373.384	212.94
373.61	250.94
373.835	222.94
374.061	216.94
374.287	241.94
374.513	227.94
374.739	219.94
374.965	248.94
375.191	245.94
375.416	223.94
375.642	235.94
375.868	229.94
376.094	230.94
376.319	241.94
376.545	221.94
376.771	237.94
376.997	233.94
377.222	203.94
377.448	212.94
377.674	215.94
377.899	226.94
378.125	208.94
378.35	214.94
378.576	220.94
378.802	210.94
379.027	216.94
379.253	237.94
379.478	201.94
379.704	233.94
379.929	233.94
380.155	230.94
380.38	231.94
380.606	227.94
380.831	220.94
381.057	233.94
381.282	219.94
381.507	230.94
381.733	249.94
381.958	252.94
382.184	261.94
382.409	239.94
382.634	257.94
382.86	226.94
383.085	239.94
383.31	243.94
383.535	241.94
383.761	230.94
383.986	241.94
384.211	245.94
384.436	257.94
384.662	254.94
384.887	240.94
385.112	243.94
385.337	253.94
385.562	262.94
385.787	265.94
386.013	283.94
386.238	270.94
386.463	261.94
386.688	265.94
386.913	267.94
387.138	257.94
387.363	279.94
387.588	277.94
387.813	256.94
388.038	265.94
388.263	279.94
388.488	265.94
388.713	267.94
388.938	273.94
389.163	240.94
389.387	273.94
389.612	269.94
389.837	270.94
390.062	263.94
390.287	264.94
390.512	258.94
390.736	273.94
390.961	277.94
391.186	289.94
391.411	283.94
391.636	295.94
391.86	271.94
392.085	289.94
392.31	279.94
392.534	295.94
392.759	298.94
392.984	279.94
393.208	276.94
393.433	277.94
393.658	282.94
393.882	300.94
394.107	283.94
394.331	273.94
394.556	268.94
394.78	284.94
395.005	288.94
395.229	275.94
395.454	295.94
395.678	299.94
395.903	287.94
396.127	290.94
396.352	289.94
396.576	280.94
396.801	292.94
397.025	291.94
397.249	287.94
397.474	291.94
397.698	287.94
397.922	302.94
398.147	289.94
398.371	288.94
398.595	303.94
398.82	307.94
399.044	327.94
399.268	354.94
399.492	404.94
399.717	421.94
399.941	395.94
400.165	392.94
400.389	369.94
400.613	342.94
400.837	331.94
401.062	320.94
401.286	326.94
401.51	320.94
401.734	324.94
401.958	330.94
402.182	327.94
402.406	322.94
402.63	330.94
402.854	315.94
403.078	327.94
403.302	315.94
403.526	343.94
403.75	331.94
403.974	318.94
404.198	343.94
404.422	351.94
404.645	342.94
404.869	332.94
405.093	347.94
405.317	331.94
405.541	341.94
405.765	343.94
405.988	334.94
406.212	347.94
406.436	334.94
406.66	355.94
406.883	356.94
407.107	374.94
407.331	367.94
407.555	379.94
407.778	393.94
408.002	387.94
408.226	362.94
408.449	373.94
408.673	362.94
408.896	357.94
409.12	351.94
409.344	349.94
409.567	346.94
409.791	346.94
410.014	343.94
410.238	335.94
410.461	359.94
410.685	346.94
410.908	331.94
411.132	328.94
411.355	327.94
411.578	339.94
411.802	348.94
412.025	324.94
412.249	333.94
412.472	339.94
412.695	333.94
412.919	332.94
413.142	343.94
413.365	329.94
413.589	332.94
413.812	341.94
414.035	320.94
414.258	335.94
414.482	351.94
414.705	336.94
414.928	339.94
415.151	337.94
415.374	329.94
415.597	338.94
415.821	320.94
416.044	315.94
416.267	319.94
416.49	324.94
416.713	315.94
416.936	317.94
417.159	329.94
417.382	307.94
417.605	332.94
417.828	330.94
418.051	335.94
418.274	343.94
418.497	329.94
418.72	326.94
418.943	329.94
419.166	351.94
419.389	355.94
419.611	359.94
419.834	331.94
420.057	341.94
420.28	330.94
420.503	301.94
420.726	315.94
420.948	324.94
421.171	329.94
421.394	326.94
421.617	319.94
421.839	321.94
422.062	352.94
422.285	318.94
422.507	328.94
422.73	325.94
422.953	329.94
423.175	324.94
423.398	337.94
423.621	320.94
423.843	347.94
424.066	348.94
424.288	344.94
424.511	339.94
424.733	336.94
424.956	323.94
425.178	328.94
425.401	328.94
425.623	326.94
425.846	347.94
426.068	353.94
426.291	340.94
426.513	308.94
426.735	310.94
426.958	325.94
427.18	337.94
427.402	315.94
427.625	313.94
427.847	317.94
428.069	315.94
428.292	319.94
428.514	329.94
428.736	320.94
428.958	326.94
429.181	318.94
429.403	312.94
429.625	298.94
429.847	315.94
430.069	305.94
430.292	309.94
430.514	296.94
430.736	294.94
430.958	324.94
431.18	291.94
431.402	322.94
431.624	297.94
431.846	316.94
432.068	315.94
432.29	312.94
432.512	313.94
432.734	323.94
432.956	340.94
433.178	337.94
433.4	317.94
433.622	309.94
433.844	317.94
434.066	316.94
434.287	332.94
434.509	317.94
434.731	330.94
434.953	327.94
435.175	356.94
435.397	321.94
435.618	321.94
435.84	333.94
436.062	327.94
436.284	312.94
436.505	315.94
436.727	331.94
436.949	330.94
437.17	331.94
437.392	329.94
437.614	321.94
437.835	309.94
438.057	313.94
438.278	313.94
438.5	328.94
438.721	312.94
438.943	324.94
439.165	296.94
439.386	329.94
439.608	311.94
439.829	337.94
440.05	331.94
440.272	330.94
440.493	338.94
440.715	342.94
440.936	338.94
441.158	342.94
441.379	344.94
441.6	348.94
441.822	353.94
442.043	354.94
442.264	360.94
442.486	347.94
442.707	331.94
442.928	342.94
443.149	349.94
443.371	349.94
443.592	330.94
443.813	339.94
444.034	362.94
444.255	361.94
444.476	347.94
444.698	383.94
444.919	377.94
445.14	495.94
445.361	425.94
445.582	373.94
445.803	357.94
446.024	345.94
446.245	340.94
446.466	343.94
446.687	335.94
446.908	333.94
447.129	334.94
447.35	338.94
447.571	345.94
447.792	328.94
448.013	320.94
448.234	342.94
448.455	309.94
448.675	295.94
448.896	315.94
449.117	300.94
449.338	316.94
449.559	322.94
449.779	319.94
450	324.94
450.221	311.94
450.442	317.94
450.662	305.94
450.883	298.94
451.104	287.94
451.324	316.94
451.545	317.94
451.766	305.94
451.986	299.94
452.207	305.94
452.428	307.94
452.648	314.94
452.869	291.94
453.089	307.94
453.31	301.94
453.53	284.94
453.751	293.94
453.971	293.94
454.192	297.94
454.412	276.94
454.633	308.94
454.853	299.94
455.073	276.94
455.294	283.94
455.514	299.94
455.734	294.94
455.955	281.94
456.175	298.94
456.395	293.94
456.616	292.94
456.836	302.94
457.056	301.94
457.276	310.94
457.497	307.94
457.717	285.94
457.937	292.94
458.157	299.94
458.377	314.94
458.598	303.94
458.818	312.94
459.038	315.94
459.258	295.94
459.478	324.94
459.698	335.94
459.918	345.94
460.138	336.94
460.358	354.94
460.578	355.94
460.798	355.94
461.018	358.94
461.238	362.94
461.458	373.94
461.678	349.94
461.898	368.94
462.118	375.94
462.338	379.94
462.558	360.94
462.777	389.94
462.997	399.94
463.217	431.94
463.437	410.94
463.657	401.94
463.876	404.94
464.096	416.94
464.316	394.94
464.536	399.94
464.755	396.94
464.975	380.94
465.195	361.94
465.414	361.94
465.634	343.94
465.854	343.94
466.073	341.94
466.293	331.94
466.512	343.94
466.732	327.94
466.951	336.94
467.171	325.94
467.391	326.94
467.61	327.94
467.829	315.94
468.049	322.94
468.268	311.94
468.488	324.94
468.707	309.94
468.927	320.94
469.146	328.94
469.365	330.94
469.585	319.94
469.804	328.94
470.023	333.94
470.243	336.94
470.462	355.94
470.681	333.94
470.901	347.94
471.12	322.94
471.339	326.94
471.558	343.94
471.777	329.94
471.997	322.94
472.216	327.94
472.435	309.94
472.654	319.94
472.873	308.94
473.092	320.94
473.311	312.94
473.53	322.94
473.749	324.94
473.968	335.94
474.187	315.94
474.406	321.94
474.625	330.94
474.844	339.94
475.063	321.94
475.282	316.94
475.501	315.94
475.72	327.94
475.939	313.94
476.158	324.94
476.377	321.94
476.596	352.94
476.814	337.94
477.033	331.94
477.252	343.94
477.471	342.94
477.69	340.94
477.908	367.94
478.127	372.94
478.346	357.94
478.564	360.94
478.783	371.94
479.002	357.94
479.22	389.94
479.439	387.94
479.658	373.94
479.876	372.94
480.095	375.94
480.313	371.94
480.532	376.94
480.751	371.94
480.969	375.94
481.188	376.94
481.406	357.94
481.624	347.94
481.843	361.94
482.061	363.94
482.28	330.94
482.498	362.94
482.717	368.94
482.935	344.94
483.153	356.94
483.372	375.94
483.59	367.94
483.808	347.94
484.027	365.94
484.245	380.94
484.463	377.94
484.681	380.94
484.9	351.94
485.118	375.94
485.336	371.94
485.554	363.94
485.772	361.94
485.99	362.94
486.209	357.94
486.427	371.94
486.645	350.94
486.863	364.94
487.081	373.94
487.299	345.94
487.517	355.94
487.735	370.94
487.953	394.94
488.171	364.94
488.389	392.94
488.607	369.94
488.825	360.94
489.043	381.94
489.261	391.94
489.479	379.94
489.696	384.94
489.914	356.94
490.132	343.94
490.35	379.94
490.568	373.94
490.786	357.94
491.003	395.94
491.221	373.94
491.439	406.94
491.657	384.94
491.874	399.94
492.092	391.94
492.31	409.94
492.527	416.94
492.745	381.94
492.963	378.94
493.18	406.94
493.398	380.94
493.615	380.94
493.833	390.94
494.05	392.94
494.268	397.94
494.485	390.94
494.703	407.94
494.92	399.94
495.138	400.94
495.355	392.94
495.573	411.94
495.79	413.94
496.008	389.94
496.225	417.94
496.442	422.94
496.66	404.94
496.877	420.94
497.094	422.94
497.312	417.94
497.529	428.94
497.746	428.94
497.963	457.94
498.181	449.94
498.398	457.94
498.615	451.94
498.832	508.94
499.049	517.94
499.267	547.94
499.484	567.94
499.701	613.94
499.918	641.94
500.135	663.94
500.352	735.94
500.569	733.94
500.786	740.94
501.003	716.94
501.22	667.94
501.437	637.94
501.654	575.94
501.871	550.94
502.088	541.94
502.305	499.94
502.522	479.94
502.739	496.94
