Data from Fe(NO3)3@0.1M.TitratingCurve.Agarose3%dH2O.NegLispCup.LampEnergy10.LIBS07252019_HRD10591_16-39-32-332.txt Node
Date: Thu Jul 25 16:39:32 EDT 2019
User: cochatt
Spectrometer: HR+D1059
Trigger mode: 1
Integration Time (sec): 1.000000E-1
Scans to average: 1
Electric dark correction enabled: true
Nonlinearity correction enabled: false
Boxcar width: 0
XAxis mode: Wavelengths
Number of Pixels in Spectrum: 2048
>>>>>Begin Spectral Data<<<<<
223.165	-22.88
223.4	-22.88
223.635	-22.88
223.869	-20.88
224.104	-27.88
224.338	-12.88
224.573	-11.88
224.808	-22.88
225.042	0.12
225.277	0.12
225.511	9.12
225.746	0.12
225.98	12.12
226.215	24.12
226.449	9.12
226.683	19.12
226.918	15.12
227.152	30.12
227.387	27.12
227.621	33.12
227.856	48.12
228.09	51.12
228.324	37.12
228.559	56.12
228.793	60.12
229.027	83.12
229.262	95.12
229.496	86.12
229.73	86.12
229.964	81.12
230.199	99.12
230.433	100.12
230.667	98.12
230.901	96.12
231.136	80.12
231.37	100.12
231.604	120.12
231.838	115.12
232.072	104.12
232.306	112.12
232.541	120.12
232.775	107.12
233.009	106.12
233.243	107.12
233.477	102.12
233.711	105.12
233.945	115.12
234.179	98.12
234.413	120.12
234.647	114.12
234.881	109.12
235.115	115.12
235.349	96.12
235.583	116.12
235.817	94.12
236.051	122.12
236.285	109.12
236.519	100.12
236.753	111.12
236.987	105.12
237.221	112.12
237.455	124.12
237.689	109.12
237.922	112.12
238.156	114.12
238.39	109.12
238.624	110.12
238.858	117.12
239.091	114.12
239.325	127.12
239.559	123.12
239.793	116.12
240.027	108.12
240.26	129.12
240.494	109.12
240.728	112.12
240.961	129.12
241.195	136.12
241.429	127.12
241.662	113.12
241.896	132.12
242.13	123.12
242.363	122.12
242.597	128.12
242.83	148.12
243.064	128.12
243.298	133.12
243.531	140.12
243.765	137.12
243.998	134.12
244.232	126.12
244.465	131.12
244.699	126.12
244.932	124.12
245.166	152.12
245.399	134.12
245.633	131.12
245.866	147.12
246.099	135.12
246.333	143.12
246.566	146.12
246.8	136.12
247.033	147.12
247.266	155.12
247.5	146.12
247.733	138.12
247.966	160.12
248.2	147.12
248.433	160.12
248.666	144.12
248.899	149.12
249.133	136.12
249.366	150.12
249.599	169.12
249.832	156.12
250.066	146.12
250.299	150.12
250.532	156.12
250.765	161.12
250.998	155.12
251.231	147.12
251.465	161.12
251.698	154.12
251.931	143.12
252.164	156.12
252.397	151.12
252.63	162.12
252.863	157.12
253.096	189.12
253.329	169.12
253.562	163.12
253.795	157.12
254.028	152.12
254.261	160.12
254.494	173.12
254.727	163.12
254.96	173.12
255.193	144.12
255.426	172.12
255.659	167.12
255.892	166.12
256.124	168.12
256.357	172.12
256.59	173.12
256.823	177.12
257.056	164.12
257.289	178.12
257.521	173.12
257.754	174.12
257.987	169.12
258.22	187.12
258.452	180.12
258.685	178.12
258.918	181.12
259.151	157.12
259.383	204.12
259.616	162.12
259.849	181.12
260.081	172.12
260.314	193.12
260.547	190.12
260.779	179.12
261.012	188.12
261.244	182.12
261.477	178.12
261.71	190.12
261.942	171.12
262.175	184.12
262.407	199.12
262.64	180.12
262.872	192.12
263.105	197.12
263.337	195.12
263.57	182.12
263.802	203.12
264.035	200.12
264.267	206.12
264.499	194.12
264.732	206.12
264.964	213.12
265.197	183.12
265.429	188.12
265.661	205.12
265.894	209.12
266.126	208.12
266.358	198.12
266.591	194.12
266.823	192.12
267.055	208.12
267.287	211.12
267.52	204.12
267.752	203.12
267.984	200.12
268.216	212.12
268.448	201.12
268.681	228.12
268.913	216.12
269.145	213.12
269.377	205.12
269.609	197.12
269.841	217.12
270.073	201.12
270.306	200.12
270.538	190.12
270.77	199.12
271.002	198.12
271.234	213.12
271.466	196.12
271.698	198.12
271.93	211.12
272.162	211.12
272.394	221.12
272.626	226.12
272.858	232.12
273.09	222.12
273.322	216.12
273.553	233.12
273.785	220.12
274.017	216.12
274.249	220.12
274.481	219.12
274.713	219.12
274.945	236.12
275.176	229.12
275.408	236.12
275.64	243.12
275.872	228.12
276.104	244.12
276.335	227.12
276.567	246.12
276.799	228.12
277.031	228.12
277.262	219.12
277.494	236.12
277.726	239.12
277.957	221.12
278.189	218.12
278.421	224.12
278.652	222.12
278.884	243.12
279.115	248.12
279.347	232.12
279.579	229.12
279.81	242.12
280.042	248.12
280.273	242.12
280.505	233.12
280.736	244.12
280.968	239.12
281.199	257.12
281.431	247.12
281.662	242.12
281.894	227.12
282.125	234.12
282.356	244.12
282.588	250.12
282.819	256.12
283.051	252.12
283.282	254.12
283.513	254.12
283.745	254.12
283.976	275.12
284.207	262.12
284.439	250.12
284.67	268.12
284.901	270.12
285.132	267.12
285.364	263.12
285.595	243.12
285.826	263.12
286.057	266.12
286.288	246.12
286.52	259.12
286.751	283.12
286.982	277.12
287.213	261.12
287.444	281.12
287.675	261.12
287.906	284.12
288.138	279.12
288.369	275.12
288.6	268.12
288.831	252.12
289.062	267.12
289.293	251.12
289.524	276.12
289.755	257.12
289.986	276.12
290.217	287.12
290.448	285.12
290.679	280.12
290.91	281.12
291.141	262.12
291.371	273.12
291.602	294.12
291.833	292.12
292.064	286.12
292.295	296.12
292.526	289.12
292.757	281.12
292.987	284.12
293.218	277.12
293.449	278.12
293.68	280.12
293.91	279.12
294.141	279.12
294.372	285.12
294.603	274.12
294.833	279.12
295.064	284.12
295.295	280.12
295.525	282.12
295.756	296.12
295.987	271.12
296.217	290.12
296.448	295.12
296.679	280.12
296.909	281.12
297.14	277.12
297.37	300.12
297.601	298.12
297.831	296.12
298.062	280.12
298.292	308.12
298.523	299.12
298.753	292.12
298.984	301.12
299.214	296.12
299.445	312.12
299.675	285.12
299.905	308.12
300.136	299.12
300.366	286.12
300.597	301.12
300.827	300.12
301.057	286.12
301.288	317.12
301.518	293.12
301.748	308.12
301.979	320.12
302.209	296.12
302.439	301.12
302.669	317.12
302.9	304.12
303.13	290.12
303.36	306.12
303.59	311.12
303.82	315.12
304.051	313.12
304.281	306.12
304.511	301.12
304.741	340.12
304.971	301.12
305.201	315.12
305.431	313.12
305.661	301.12
305.891	302.12
306.121	308.12
306.352	296.12
306.582	300.12
306.812	301.12
307.042	316.12
307.272	307.12
307.502	302.12
307.731	306.12
307.961	301.12
308.191	305.12
308.421	286.12
308.651	306.12
308.881	300.12
309.111	314.12
309.341	328.12
309.571	322.12
309.8	321.12
310.03	306.12
310.26	299.12
310.49	306.12
310.72	304.12
310.949	301.12
311.179	328.12
311.409	333.12
311.639	320.12
311.868	318.12
312.098	316.12
312.328	320.12
312.557	319.12
312.787	330.12
313.017	319.12
313.246	341.12
313.476	329.12
313.706	323.12
313.935	344.12
314.165	345.12
314.394	322.12
314.624	317.12
314.853	322.12
315.083	322.12
315.312	331.12
315.542	334.12
315.771	314.12
316.001	334.12
316.23	315.12
316.46	333.12
316.689	325.12
316.919	322.12
317.148	326.12
317.377	329.12
317.607	327.12
317.836	327.12
318.065	330.12
318.295	332.12
318.524	330.12
318.753	341.12
318.983	341.12
319.212	322.12
319.441	329.12
319.67	325.12
319.9	307.12
320.129	330.12
320.358	331.12
320.587	325.12
320.816	325.12
321.046	324.12
321.275	345.12
321.504	331.12
321.733	336.12
321.962	356.12
322.191	331.12
322.42	320.12
322.649	333.12
322.878	339.12
323.108	313.12
323.337	326.12
323.566	318.12
323.795	335.12
324.024	330.12
324.253	335.12
324.482	368.12
324.71	351.12
324.939	334.12
325.168	332.12
325.397	336.12
325.626	357.12
325.855	351.12
326.084	372.12
326.313	366.12
326.542	349.12
326.77	362.12
326.999	355.12
327.228	335.12
327.457	359.12
327.686	352.12
327.914	340.12
328.143	354.12
328.372	366.12
328.6	351.12
328.829	359.12
329.058	376.12
329.287	348.12
329.515	359.12
329.744	349.12
329.972	382.12
330.201	370.12
330.43	358.12
330.658	356.12
330.887	354.12
331.115	376.12
331.344	386.12
331.572	384.12
331.801	402.12
332.03	399.12
332.258	411.12
332.486	399.12
332.715	413.12
332.943	426.12
333.172	434.12
333.4	444.12
333.629	459.12
333.857	465.12
334.085	463.12
334.314	460.12
334.542	434.12
334.771	438.12
334.999	452.12
335.227	450.12
335.455	434.12
335.684	439.12
335.912	448.12
336.14	436.12
336.369	427.12
336.597	442.12
336.825	432.12
337.053	423.12
337.281	437.12
337.51	406.12
337.738	422.12
337.966	405.12
338.194	380.12
338.422	402.12
338.65	390.12
338.878	395.12
339.106	388.12
339.334	385.12
339.562	382.12
339.79	377.12
340.018	376.12
340.246	382.12
340.474	380.12
340.702	365.12
340.93	372.12
341.158	364.12
341.386	362.12
341.614	376.12
341.842	359.12
342.07	377.12
342.298	367.12
342.526	371.12
342.754	389.12
342.981	376.12
343.209	387.12
343.437	396.12
343.665	402.12
343.893	436.12
344.12	458.12
344.348	452.12
344.576	429.12
344.804	401.12
345.031	393.12
345.259	384.12
345.487	386.12
345.714	379.12
345.942	360.12
346.17	351.12
346.397	382.12
346.625	352.12
346.853	358.12
347.08	369.12
347.308	359.12
347.535	368.12
347.763	368.12
347.99	371.12
348.218	370.12
348.445	375.12
348.673	363.12
348.9	354.12
349.128	347.12
349.355	363.12
349.583	360.12
349.81	363.12
350.037	353.12
350.265	361.12
350.492	371.12
350.72	350.12
350.947	358.12
351.174	350.12
351.402	358.12
351.629	332.12
351.856	345.12
352.083	359.12
352.311	356.12
352.538	362.12
352.765	353.12
352.992	326.12
353.22	356.12
353.447	339.12
353.674	365.12
353.901	354.12
354.128	347.12
354.355	342.12
354.583	348.12
354.81	356.12
355.037	341.12
355.264	350.12
355.491	339.12
355.718	356.12
355.945	350.12
356.172	363.12
356.399	373.12
356.626	361.12
356.853	369.12
357.08	347.12
357.307	351.12
357.534	350.12
357.761	353.12
357.988	356.12
358.215	361.12
358.441	349.12
358.668	357.12
358.895	340.12
359.122	358.12
359.349	367.12
359.576	350.12
359.802	360.12
360.029	364.12
360.256	377.12
360.483	374.12
360.709	355.12
360.936	372.12
361.163	368.12
361.39	344.12
361.616	361.12
361.843	346.12
362.07	371.12
362.296	365.12
362.523	341.12
362.749	356.12
362.976	340.12
363.203	370.12
363.429	353.12
363.656	362.12
363.882	347.12
364.109	353.12
364.335	355.12
364.562	372.12
364.788	355.12
365.015	374.12
365.241	346.12
365.468	370.12
365.694	356.12
365.92	344.12
366.147	358.12
366.373	363.12
366.599	353.12
366.826	361.12
367.052	364.12
367.278	357.12
367.505	348.12
367.731	358.12
367.957	366.12
368.184	358.12
368.41	358.12
368.636	374.12
368.862	372.12
369.089	370.12
369.315	350.12
369.541	386.12
369.767	374.12
369.993	372.12
370.219	381.12
370.445	384.12
370.672	393.12
370.898	377.12
371.124	372.12
371.35	386.12
371.576	383.12
371.802	378.12
372.028	405.12
372.254	389.12
372.48	392.12
372.706	396.12
372.932	385.12
373.158	393.12
373.384	385.12
373.61	385.12
373.835	398.12
374.061	375.12
374.287	393.12
374.513	387.12
374.739	414.12
374.965	406.12
375.191	423.12
375.416	426.12
375.642	435.12
375.868	424.12
376.094	416.12
376.319	421.12
376.545	391.12
376.771	398.12
376.997	379.12
377.222	384.12
377.448	406.12
377.674	399.12
377.899	390.12
378.125	404.12
378.35	386.12
378.576	382.12
378.802	360.12
379.027	374.12
379.253	390.12
379.478	377.12
379.704	409.12
379.929	394.12
380.155	378.12
380.38	399.12
380.606	406.12
380.831	391.12
381.057	409.12
381.282	393.12
381.507	396.12
381.733	402.12
381.958	398.12
382.184	392.12
382.409	399.12
382.634	391.12
382.86	405.12
383.085	419.12
383.31	408.12
383.535	443.12
383.761	406.12
383.986	442.12
384.211	437.12
384.436	443.12
384.662	450.12
384.887	450.12
385.112	435.12
385.337	449.12
385.562	450.12
385.787	485.12
386.013	492.12
386.238	466.12
386.463	465.12
386.688	481.12
386.913	461.12
387.138	448.12
387.363	473.12
387.588	466.12
387.813	475.12
388.038	452.12
388.263	468.12
388.488	463.12
388.713	466.12
388.938	467.12
389.163	452.12
389.387	465.12
389.612	465.12
389.837	462.12
390.062	462.12
390.287	457.12
390.512	444.12
390.736	460.12
390.961	472.12
391.186	499.12
391.411	502.12
391.636	498.12
391.86	505.12
392.085	537.12
392.31	516.12
392.534	510.12
392.759	514.12
392.984	490.12
393.208	486.12
393.433	512.12
393.658	504.12
393.882	495.12
394.107	525.12
394.331	494.12
394.556	520.12
394.78	530.12
395.005	501.12
395.229	481.12
395.454	530.12
395.678	539.12
395.903	536.12
396.127	493.12
396.352	514.12
396.576	491.12
396.801	484.12
397.025	506.12
397.249	513.12
397.474	527.12
397.698	534.12
397.922	539.12
398.147	546.12
398.371	564.12
398.595	564.12
398.82	562.12
399.044	610.12
399.268	655.12
399.492	733.12
399.717	806.12
399.941	822.12
400.165	713.12
400.389	668.12
400.613	647.12
400.837	601.12
401.062	575.12
401.286	583.12
401.51	565.12
401.734	585.12
401.958	590.12
402.182	597.12
402.406	578.12
402.63	606.12
402.854	598.12
403.078	641.12
403.302	625.12
403.526	654.12
403.75	628.12
403.974	653.12
404.198	672.12
404.422	654.12
404.645	649.12
404.869	652.12
405.093	636.12
405.317	637.12
405.541	635.12
405.765	628.12
405.988	620.12
406.212	648.12
406.436	638.12
406.66	648.12
406.883	677.12
407.107	688.12
407.331	712.12
407.555	747.12
407.778	715.12
408.002	737.12
408.226	717.12
408.449	695.12
408.673	676.12
408.896	657.12
409.12	662.12
409.344	666.12
409.567	647.12
409.791	690.12
410.014	660.12
410.238	663.12
410.461	662.12
410.685	665.12
410.908	658.12
411.132	630.12
411.355	601.12
411.578	624.12
411.802	625.12
412.025	606.12
412.249	640.12
412.472	621.12
412.695	611.12
412.919	587.12
413.142	601.12
413.365	593.12
413.589	606.12
413.812	602.12
414.035	606.12
414.258	603.12
414.482	604.12
414.705	598.12
414.928	624.12
415.151	588.12
415.374	599.12
415.597	579.12
415.821	598.12
416.044	582.12
416.267	579.12
416.49	578.12
416.713	589.12
416.936	576.12
417.159	588.12
417.382	577.12
417.605	566.12
417.828	588.12
418.051	583.12
418.274	598.12
418.497	596.12
418.72	626.12
418.943	608.12
419.166	633.12
419.389	696.12
419.611	677.12
419.834	637.12
420.057	614.12
420.28	594.12
420.503	582.12
420.726	589.12
420.948	589.12
421.171	596.12
421.394	608.12
421.617	577.12
421.839	579.12
422.062	598.12
422.285	589.12
422.507	618.12
422.73	588.12
422.953	602.12
423.175	612.12
423.398	604.12
423.621	610.12
423.843	606.12
424.066	590.12
424.288	625.12
424.511	610.12
424.733	604.12
424.956	574.12
425.178	593.12
425.401	580.12
425.623	585.12
425.846	560.12
426.068	595.12
426.291	562.12
426.513	557.12
426.735	533.12
426.958	554.12
427.18	553.12
427.402	555.12
427.625	527.12
427.847	529.12
428.069	566.12
428.292	544.12
428.514	527.12
428.736	546.12
428.958	534.12
429.181	525.12
429.403	516.12
429.625	538.12
429.847	516.12
430.069	523.12
430.292	517.12
430.514	508.12
430.736	521.12
430.958	534.12
431.18	540.12
431.402	536.12
431.624	526.12
431.846	533.12
432.068	550.12
432.29	546.12
432.512	520.12
432.734	546.12
432.956	543.12
433.178	552.12
433.4	506.12
433.622	567.12
433.844	546.12
434.066	568.12
434.287	576.12
434.509	570.12
434.731	587.12
434.953	597.12
435.175	596.12
435.397	587.12
435.618	560.12
435.84	551.12
436.062	545.12
436.284	543.12
436.505	531.12
436.727	534.12
436.949	568.12
437.17	538.12
437.392	536.12
437.614	534.12
437.835	517.12
438.057	521.12
438.278	499.12
438.5	516.12
438.721	531.12
438.943	529.12
439.165	539.12
439.386	531.12
439.608	561.12
439.829	538.12
440.05	517.12
440.272	555.12
440.493	534.12
440.715	564.12
440.936	557.12
441.158	572.12
441.379	587.12
441.6	583.12
441.822	590.12
442.043	618.12
442.264	597.12
442.486	577.12
442.707	571.12
442.928	593.12
443.149	620.12
443.371	586.12
443.592	603.12
443.813	593.12
444.034	600.12
444.255	622.12
444.476	640.12
444.698	668.12
444.919	683.12
445.14	786.12
445.361	681.12
445.582	602.12
445.803	590.12
446.024	581.12
446.245	582.12
446.466	566.12
446.687	565.12
446.908	560.12
447.129	551.12
447.35	542.12
447.571	538.12
447.792	519.12
448.013	518.12
448.234	522.12
448.455	527.12
448.675	538.12
448.896	522.12
449.117	491.12
449.338	496.12
449.559	506.12
449.779	502.12
450	505.12
450.221	500.12
450.442	507.12
450.662	511.12
450.883	512.12
451.104	513.12
451.324	496.12
451.545	527.12
451.766	493.12
451.986	498.12
452.207	504.12
452.428	479.12
452.648	478.12
452.869	481.12
453.089	490.12
453.31	481.12
453.53	483.12
453.751	480.12
453.971	472.12
454.192	458.12
454.412	473.12
454.633	467.12
454.853	475.12
455.073	467.12
455.294	468.12
455.514	477.12
455.734	476.12
455.955	459.12
456.175	462.12
456.395	449.12
456.616	451.12
456.836	457.12
457.056	474.12
457.276	439.12
457.497	472.12
457.717	450.12
457.937	479.12
458.157	453.12
458.377	498.12
458.598	484.12
458.818	496.12
459.038	499.12
459.258	529.12
459.478	514.12
459.698	548.12
459.918	587.12
460.138	588.12
460.358	589.12
460.578	611.12
460.798	617.12
461.018	642.12
461.238	637.12
461.458	615.12
461.678	618.12
461.898	605.12
462.118	640.12
462.338	647.12
462.558	644.12
462.777	695.12
462.997	736.12
463.217	771.12
463.437	786.12
463.657	743.12
463.876	702.12
464.096	698.12
464.316	707.12
464.536	705.12
464.755	703.12
464.975	682.12
465.195	626.12
465.414	604.12
465.634	585.12
465.854	546.12
466.073	548.12
466.293	550.12
466.512	533.12
466.732	522.12
466.951	525.12
467.171	514.12
467.391	498.12
467.61	514.12
467.829	516.12
468.049	498.12
468.268	512.12
468.488	494.12
468.707	487.12
468.927	497.12
469.146	482.12
469.365	509.12
469.585	504.12
469.804	511.12
470.023	532.12
470.243	520.12
470.462	542.12
470.681	540.12
470.901	514.12
471.12	512.12
471.339	500.12
471.558	493.12
471.777	504.12
471.997	498.12
472.216	508.12
472.435	480.12
472.654	470.12
472.873	470.12
473.092	493.12
473.311	470.12
473.53	478.12
473.749	508.12
473.968	493.12
474.187	479.12
474.406	496.12
474.625	490.12
474.844	480.12
475.063	472.12
475.282	494.12
475.501	490.12
475.72	492.12
475.939	509.12
476.158	514.12
476.377	511.12
476.596	476.12
476.814	499.12
477.033	511.12
477.252	512.12
477.471	524.12
477.69	523.12
477.908	552.12
478.127	547.12
478.346	545.12
478.564	585.12
478.783	560.12
479.002	606.12
479.22	586.12
479.439	616.12
479.658	563.12
479.876	580.12
480.095	570.12
480.313	595.12
480.532	616.12
480.751	636.12
480.969	578.12
481.188	562.12
481.406	586.12
481.624	554.12
481.843	557.12
482.061	529.12
482.28	553.12
482.498	536.12
482.717	538.12
482.935	548.12
483.153	554.12
483.372	532.12
483.59	534.12
483.808	520.12
484.027	548.12
484.245	546.12
484.463	554.12
484.681	547.12
484.9	560.12
485.118	548.12
485.336	563.12
485.554	571.12
485.772	579.12
485.99	576.12
486.209	554.12
486.427	557.12
486.645	549.12
486.863	568.12
487.081	577.12
487.299	553.12
487.517	552.12
487.735	576.12
487.953	560.12
488.171	584.12
488.389	578.12
488.607	565.12
488.825	547.12
489.043	542.12
489.261	560.12
489.479	568.12
489.696	548.12
489.914	562.12
490.132	573.12
490.35	578.12
490.568	562.12
490.786	543.12
491.003	564.12
491.221	564.12
491.439	584.12
491.657	578.12
491.874	564.12
492.092	581.12
492.31	567.12
492.527	604.12
492.745	604.12
492.963	570.12
493.18	594.12
493.398	572.12
493.615	601.12
493.833	558.12
494.05	591.12
494.268	589.12
494.485	588.12
494.703	587.12
494.92	616.12
495.138	613.12
495.355	623.12
495.573	597.12
495.79	603.12
496.008	631.12
496.225	599.12
496.442	605.12
496.66	621.12
496.877	644.12
497.094	648.12
497.312	638.12
497.529	644.12
497.746	671.12
497.963	710.12
498.181	712.12
498.398	722.12
498.615	798.12
498.832	834.12
499.049	864.12
499.267	965.12
499.484	997.12
499.701	1133.12
499.918	1234.12
500.135	1381.12
500.352	1534.12
500.569	1568.12
500.786	1555.12
501.003	1492.12
501.22	1352.12
501.437	1219.12
501.654	1082.12
