Data from Fe(NO3)3@0.0125M.TitratingCurve.Agarose3%dH2O.NegLispCup.LampEnergy10.LIBS07252019_HRD10591_16-59-09-340.txt Node
Date: Thu Jul 25 16:59:09 EDT 2019
User: cochatt
Spectrometer: HR+D1059
Trigger mode: 1
Integration Time (sec): 1.000000E-1
Scans to average: 1
Electric dark correction enabled: true
Nonlinearity correction enabled: false
Boxcar width: 0
XAxis mode: Wavelengths
Number of Pixels in Spectrum: 2048
>>>>>Begin Spectral Data<<<<<
223.165	-15.69
223.4	-15.69
223.635	-15.69
223.869	-17.69
224.104	-24.69
224.338	-21.69
224.573	-7.69
224.808	-6.69
225.042	-8.69
225.277	10.31
225.511	-11.69
225.746	-3.69
225.98	5.31
226.215	6.31
226.449	15.31
226.683	23.31
226.918	22.31
227.152	35.31
227.387	34.31
227.621	56.31
227.856	55.31
228.09	65.31
228.324	49.31
228.559	57.31
228.793	68.31
229.027	96.31
229.262	114.31
229.496	88.31
229.73	101.31
229.964	116.31
230.199	108.31
230.433	99.31
230.667	113.31
230.901	107.31
231.136	135.31
231.37	124.31
231.604	126.31
231.838	119.31
232.072	129.31
232.306	128.31
232.541	136.31
232.775	129.31
233.009	127.31
233.243	138.31
233.477	137.31
233.711	132.31
233.945	149.31
234.179	144.31
234.413	137.31
234.647	142.31
234.881	137.31
235.115	135.31
235.349	133.31
235.583	134.31
235.817	151.31
236.051	156.31
236.285	124.31
236.519	137.31
236.753	144.31
236.987	148.31
237.221	146.31
237.455	154.31
237.689	134.31
237.922	147.31
238.156	143.31
238.39	144.31
238.624	167.31
238.858	162.31
239.091	158.31
239.325	159.31
239.559	153.31
239.793	169.31
240.027	180.31
240.26	159.31
240.494	162.31
240.728	153.31
240.961	157.31
241.195	153.31
241.429	174.31
241.662	153.31
241.896	181.31
242.13	161.31
242.363	180.31
242.597	164.31
242.83	177.31
243.064	165.31
243.298	162.31
243.531	160.31
243.765	188.31
243.998	183.31
244.232	189.31
244.465	189.31
244.699	177.31
244.932	202.31
245.166	182.31
245.399	181.31
245.633	195.31
245.866	192.31
246.099	198.31
246.333	191.31
246.566	185.31
246.8	181.31
247.033	200.31
247.266	211.31
247.5	196.31
247.733	201.31
247.966	197.31
248.2	185.31
248.433	220.31
248.666	193.31
248.899	188.31
249.133	201.31
249.366	209.31
249.599	213.31
249.832	214.31
250.066	219.31
250.299	194.31
250.532	206.31
250.765	218.31
250.998	216.31
251.231	232.31
251.465	222.31
251.698	229.31
251.931	223.31
252.164	224.31
252.397	224.31
252.63	226.31
252.863	229.31
253.096	243.31
253.329	228.31
253.562	232.31
253.795	236.31
254.028	246.31
254.261	241.31
254.494	253.31
254.727	235.31
254.96	236.31
255.193	249.31
255.426	245.31
255.659	247.31
255.892	253.31
256.124	261.31
256.357	243.31
256.59	243.31
256.823	269.31
257.056	254.31
257.289	259.31
257.521	250.31
257.754	236.31
257.987	241.31
258.22	261.31
258.452	269.31
258.685	263.31
258.918	264.31
259.151	274.31
259.383	268.31
259.616	263.31
259.849	263.31
260.081	275.31
260.314	300.31
260.547	289.31
260.779	283.31
261.012	279.31
261.244	270.31
261.477	306.31
261.71	285.31
261.942	294.31
262.175	283.31
262.407	294.31
262.64	284.31
262.872	302.31
263.105	303.31
263.337	295.31
263.57	316.31
263.802	302.31
264.035	305.31
264.267	289.31
264.499	319.31
264.732	299.31
264.964	293.31
265.197	282.31
265.429	292.31
265.661	306.31
265.894	308.31
266.126	302.31
266.358	305.31
266.591	298.31
266.823	311.31
267.055	313.31
267.287	311.31
267.52	314.31
267.752	313.31
267.984	298.31
268.216	307.31
268.448	325.31
268.681	314.31
268.913	333.31
269.145	327.31
269.377	316.31
269.609	322.31
269.841	334.31
270.073	322.31
270.306	326.31
270.538	338.31
270.77	321.31
271.002	342.31
271.234	331.31
271.466	337.31
271.698	352.31
271.93	353.31
272.162	361.31
272.394	354.31
272.626	366.31
272.858	356.31
273.09	347.31
273.322	365.31
273.553	355.31
273.785	351.31
274.017	378.31
274.249	357.31
274.481	387.31
274.713	393.31
274.945	406.31
275.176	407.31
275.408	393.31
275.64	370.31
275.872	389.31
276.104	371.31
276.335	364.31
276.567	393.31
276.799	380.31
277.031	380.31
277.262	393.31
277.494	398.31
277.726	406.31
277.957	393.31
278.189	391.31
278.421	375.31
278.652	374.31
278.884	398.31
279.115	408.31
279.347	413.31
279.579	397.31
279.81	395.31
280.042	409.31
280.273	397.31
280.505	395.31
280.736	399.31
280.968	415.31
281.199	416.31
281.431	428.31
281.662	407.31
281.894	407.31
282.125	404.31
282.356	414.31
282.588	437.31
282.819	430.31
283.051	413.31
283.282	433.31
283.513	417.31
283.745	425.31
283.976	420.31
284.207	435.31
284.439	446.31
284.67	427.31
284.901	436.31
285.132	460.31
285.364	434.31
285.595	449.31
285.826	439.31
286.057	445.31
286.288	476.31
286.52	457.31
286.751	464.31
286.982	465.31
287.213	462.31
287.444	461.31
287.675	450.31
287.906	452.31
288.138	456.31
288.369	446.31
288.6	472.31
288.831	461.31
289.062	474.31
289.293	453.31
289.524	470.31
289.755	479.31
289.986	470.31
290.217	477.31
290.448	449.31
290.679	463.31
290.91	476.31
291.141	458.31
291.371	469.31
291.602	476.31
291.833	485.31
292.064	461.31
292.295	484.31
292.526	475.31
292.757	486.31
292.987	499.31
293.218	472.31
293.449	493.31
293.68	479.31
293.91	503.31
294.141	487.31
294.372	473.31
294.603	503.31
294.833	507.31
295.064	507.31
295.295	470.31
295.525	493.31
295.756	501.31
295.987	485.31
296.217	515.31
296.448	494.31
296.679	519.31
296.909	524.31
297.14	499.31
297.37	503.31
297.601	533.31
297.831	523.31
298.062	523.31
298.292	510.31
298.523	523.31
298.753	525.31
298.984	523.31
299.214	539.31
299.445	540.31
299.675	532.31
299.905	534.31
300.136	531.31
300.366	529.31
300.597	531.31
300.827	545.31
301.057	542.31
301.288	548.31
301.518	545.31
301.748	551.31
301.979	564.31
302.209	556.31
302.439	545.31
302.669	545.31
302.9	551.31
303.13	553.31
303.36	565.31
303.59	561.31
303.82	576.31
304.051	585.31
304.281	565.31
304.511	571.31
304.741	582.31
304.971	597.31
305.201	557.31
305.431	590.31
305.661	594.31
305.891	581.31
306.121	569.31
306.352	589.31
306.582	542.31
306.812	580.31
307.042	582.31
307.272	596.31
307.502	583.31
307.731	572.31
307.961	586.31
308.191	583.31
308.421	553.31
308.651	577.31
308.881	581.31
309.111	582.31
309.341	589.31
309.571	596.31
309.8	582.31
310.03	594.31
310.26	591.31
310.49	602.31
310.72	591.31
310.949	616.31
311.179	603.31
311.409	601.31
311.639	606.31
311.868	598.31
312.098	612.31
312.328	606.31
312.557	584.31
312.787	643.31
313.017	636.31
313.246	635.31
313.476	615.31
313.706	641.31
313.935	631.31
314.165	637.31
314.394	637.31
314.624	629.31
314.853	651.31
315.083	633.31
315.312	636.31
315.542	623.31
315.771	647.31
316.001	636.31
316.23	662.31
316.46	650.31
316.689	664.31
316.919	642.31
317.148	645.31
317.377	669.31
317.607	672.31
317.836	629.31
318.065	649.31
318.295	672.31
318.524	659.31
318.753	665.31
318.983	661.31
319.212	649.31
319.441	651.31
319.67	673.31
319.9	656.31
320.129	671.31
320.358	654.31
320.587	676.31
320.816	667.31
321.046	673.31
321.275	691.31
321.504	669.31
321.733	682.31
321.962	697.31
322.191	663.31
322.42	678.31
322.649	694.31
322.878	680.31
323.108	684.31
323.337	693.31
323.566	689.31
323.795	686.31
324.024	689.31
324.253	711.31
324.482	686.31
324.71	707.31
324.939	710.31
325.168	681.31
325.397	716.31
325.626	691.31
325.855	663.31
326.084	710.31
326.313	733.31
326.542	716.31
326.77	716.31
326.999	718.31
327.228	702.31
327.457	723.31
327.686	717.31
327.914	723.31
328.143	742.31
328.372	709.31
328.6	741.31
328.829	729.31
329.058	714.31
329.287	730.31
329.515	748.31
329.744	738.31
329.972	726.31
330.201	751.31
330.43	750.31
330.658	740.31
330.887	755.31
331.115	729.31
331.344	735.31
331.572	744.31
331.801	741.31
332.03	743.31
332.258	770.31
332.486	748.31
332.715	775.31
332.943	773.31
333.172	738.31
333.4	745.31
333.629	796.31
333.857	769.31
334.085	787.31
334.314	794.31
334.542	773.31
334.771	750.31
334.999	767.31
335.227	784.31
335.455	782.31
335.684	804.31
335.912	792.31
336.14	779.31
336.369	769.31
336.597	794.31
336.825	782.31
337.053	792.31
337.281	783.31
337.51	793.31
337.738	791.31
337.966	798.31
338.194	799.31
338.422	783.31
338.65	797.31
338.878	797.31
339.106	791.31
339.334	788.31
339.562	782.31
339.79	781.31
340.018	797.31
340.246	796.31
340.474	786.31
340.702	781.31
340.93	727.31
341.158	803.31
341.386	776.31
341.614	803.31
341.842	795.31
342.07	774.31
342.298	755.31
342.526	785.31
342.754	777.31
342.981	766.31
343.209	787.31
343.437	791.31
343.665	794.31
343.893	811.31
344.12	796.31
344.348	802.31
344.576	790.31
344.804	822.31
345.031	780.31
345.259	781.31
345.487	768.31
345.714	773.31
345.942	790.31
346.17	780.31
346.397	768.31
346.625	767.31
346.853	784.31
347.08	783.31
347.308	764.31
347.535	767.31
347.763	765.31
347.99	772.31
348.218	772.31
348.445	758.31
348.673	765.31
348.9	781.31
349.128	771.31
349.355	769.31
349.583	789.31
349.81	743.31
350.037	766.31
350.265	759.31
350.492	769.31
350.72	748.31
350.947	762.31
351.174	759.31
351.402	777.31
351.629	777.31
351.856	770.31
352.083	752.31
352.311	763.31
352.538	763.31
352.765	758.31
352.992	773.31
353.22	754.31
353.447	761.31
353.674	783.31
353.901	774.31
354.128	775.31
354.355	753.31
354.583	741.31
354.81	749.31
355.037	763.31
355.264	758.31
355.491	740.31
355.718	768.31
355.945	765.31
356.172	778.31
356.399	753.31
356.626	769.31
356.853	761.31
357.08	768.31
357.307	755.31
357.534	748.31
357.761	759.31
357.988	757.31
358.215	788.31
358.441	771.31
358.668	759.31
358.895	758.31
359.122	769.31
359.349	763.31
359.576	733.31
359.802	763.31
360.029	793.31
360.256	782.31
360.483	782.31
360.709	774.31
360.936	775.31
361.163	789.31
361.39	805.31
361.616	781.31
361.843	771.31
362.07	758.31
362.296	788.31
362.523	767.31
362.749	794.31
362.976	805.31
363.203	773.31
363.429	780.31
363.656	776.31
363.882	783.31
364.109	784.31
364.335	784.31
364.562	786.31
364.788	775.31
365.015	789.31
365.241	781.31
365.468	819.31
365.694	773.31
365.92	802.31
366.147	806.31
366.373	777.31
366.599	791.31
366.826	780.31
367.052	793.31
367.278	803.31
367.505	811.31
367.731	822.31
367.957	807.31
368.184	815.31
368.41	829.31
368.636	787.31
368.862	803.31
369.089	794.31
369.315	814.31
369.541	828.31
369.767	836.31
369.993	813.31
370.219	797.31
370.445	812.31
370.672	823.31
370.898	803.31
371.124	833.31
371.35	848.31
371.576	812.31
371.802	808.31
372.028	826.31
372.254	825.31
372.48	816.31
372.706	812.31
372.932	863.31
373.158	855.31
373.384	817.31
373.61	855.31
373.835	856.31
374.061	840.31
374.287	834.31
374.513	839.31
374.739	833.31
374.965	847.31
375.191	837.31
375.416	847.31
375.642	844.31
375.868	853.31
376.094	872.31
376.319	859.31
376.545	818.31
376.771	825.31
376.997	817.31
377.222	829.31
377.448	825.31
377.674	834.31
377.899	829.31
378.125	811.31
378.35	810.31
378.576	815.31
378.802	823.31
379.027	798.31
379.253	814.31
379.478	830.31
379.704	821.31
379.929	829.31
380.155	835.31
380.38	819.31
380.606	845.31
380.831	813.31
381.057	812.31
381.282	850.31
381.507	848.31
381.733	829.31
381.958	846.31
382.184	859.31
382.409	850.31
382.634	853.31
382.86	854.31
383.085	880.31
383.31	897.31
383.535	859.31
383.761	870.31
383.986	855.31
384.211	893.31
384.436	883.31
384.662	873.31
384.887	877.31
385.112	885.31
385.337	872.31
385.562	888.31
385.787	881.31
386.013	875.31
386.238	895.31
386.463	903.31
386.688	878.31
386.913	875.31
387.138	882.31
387.363	907.31
387.588	912.31
387.813	905.31
388.038	919.31
388.263	923.31
388.488	888.31
388.713	891.31
388.938	899.31
389.163	892.31
389.387	914.31
389.612	889.31
389.837	905.31
390.062	907.31
390.287	907.31
390.512	890.31
390.736	901.31
390.961	913.31
391.186	873.31
391.411	925.31
391.636	914.31
391.86	906.31
392.085	931.31
392.31	926.31
392.534	906.31
392.759	946.31
392.984	919.31
393.208	938.31
393.433	921.31
393.658	908.31
393.882	933.31
394.107	885.31
394.331	902.31
394.556	899.31
394.78	935.31
395.005	911.31
395.229	925.31
395.454	918.31
395.678	946.31
395.903	926.31
396.127	935.31
396.352	907.31
396.576	942.31
396.801	937.31
397.025	934.31
397.249	951.31
397.474	924.31
397.698	947.31
397.922	986.31
398.147	954.31
398.371	951.31
398.595	946.31
398.82	962.31
399.044	957.31
399.268	998.31
399.492	1043.31
399.717	1010.31
399.941	1009.31
400.165	1018.31
400.389	1018.31
400.613	1001.31
400.837	979.31
401.062	1028.31
401.286	994.31
401.51	961.31
401.734	993.31
401.958	986.31
402.182	989.31
402.406	993.31
402.63	962.31
402.854	993.31
403.078	963.31
403.302	958.31
403.526	983.31
403.75	972.31
403.974	998.31
404.198	985.31
404.422	1004.31
404.645	982.31
404.869	1010.31
405.093	997.31
405.317	990.31
405.541	1023.31
405.765	1026.31
405.988	1003.31
406.212	1040.31
406.436	1049.31
406.66	1033.31
406.883	1021.31
407.107	1014.31
407.331	1039.31
407.555	1083.31
407.778	1033.31
408.002	1021.31
408.226	1045.31
408.449	1055.31
408.673	1044.31
408.896	1025.31
409.12	1030.31
409.344	1065.31
409.567	1022.31
409.791	1029.31
410.014	1012.31
410.238	1010.31
410.461	1009.31
410.685	1014.31
410.908	1029.31
411.132	982.31
411.355	976.31
411.578	1014.31
411.802	990.31
412.025	1009.31
412.249	1007.31
412.472	984.31
412.695	972.31
412.919	1020.31
413.142	998.31
413.365	972.31
413.589	981.31
413.812	984.31
414.035	962.31
414.258	965.31
414.482	977.31
414.705	988.31
414.928	977.31
415.151	971.31
415.374	973.31
415.597	956.31
415.821	946.31
416.044	951.31
416.267	935.31
416.49	943.31
416.713	938.31
416.936	933.31
417.159	942.31
417.382	958.31
417.605	929.31
417.828	942.31
418.051	965.31
418.274	970.31
418.497	925.31
418.72	923.31
418.943	886.31
419.166	942.31
419.389	1012.31
419.611	1012.31
419.834	958.31
420.057	949.31
420.28	940.31
420.503	943.31
420.726	925.31
420.948	923.31
421.171	915.31
421.394	918.31
421.617	944.31
421.839	929.31
422.062	928.31
422.285	934.31
422.507	953.31
422.73	907.31
422.953	932.31
423.175	929.31
423.398	952.31
423.621	923.31
423.843	922.31
424.066	905.31
424.288	921.31
424.511	905.31
424.733	925.31
424.956	912.31
425.178	911.31
425.401	947.31
425.623	925.31
425.846	921.31
426.068	924.31
426.291	910.31
426.513	907.31
426.735	924.31
426.958	934.31
427.18	904.31
427.402	911.31
427.625	921.31
427.847	916.31
428.069	917.31
428.292	925.31
428.514	911.31
428.736	903.31
428.958	943.31
429.181	917.31
429.403	907.31
429.625	921.31
429.847	923.31
430.069	947.31
430.292	900.31
430.514	889.31
430.736	910.31
430.958	924.31
431.18	901.31
431.402	900.31
431.624	885.31
431.846	922.31
432.068	927.31
432.29	926.31
432.512	885.31
432.734	902.31
432.956	901.31
433.178	904.31
433.4	894.31
433.622	911.31
433.844	910.31
434.066	920.31
434.287	920.31
434.509	879.31
434.731	892.31
434.953	889.31
435.175	925.31
435.397	937.31
435.618	860.31
435.84	929.31
436.062	911.31
436.284	889.31
436.505	890.31
436.727	922.31
436.949	891.31
437.17	913.31
437.392	913.31
437.614	915.31
437.835	908.31
438.057	889.31
438.278	879.31
438.5	892.31
438.721	881.31
438.943	869.31
439.165	903.31
439.386	907.31
439.608	902.31
439.829	892.31
440.05	893.31
440.272	911.31
440.493	898.31
440.715	886.31
440.936	925.31
441.158	909.31
441.379	910.31
441.6	905.31
441.822	885.31
442.043	910.31
442.264	889.31
442.486	882.31
442.707	901.31
442.928	881.31
443.149	881.31
443.371	876.31
443.592	892.31
443.813	893.31
444.034	881.31
444.255	898.31
444.476	881.31
444.698	886.31
444.919	905.31
445.14	1029.31
445.361	940.31
445.582	890.31
445.803	861.31
446.024	886.31
446.245	908.31
446.466	894.31
446.687	858.31
446.908	876.31
447.129	861.31
447.35	859.31
447.571	865.31
447.792	859.31
448.013	866.31
448.234	852.31
448.455	833.31
448.675	859.31
448.896	858.31
449.117	858.31
449.338	854.31
449.559	837.31
449.779	836.31
450	850.31
450.221	843.31
450.442	805.31
450.662	837.31
450.883	825.31
451.104	853.31
451.324	833.31
451.545	822.31
451.766	802.31
451.986	829.31
452.207	839.31
452.428	844.31
452.648	841.31
452.869	822.31
453.089	806.31
453.31	870.31
453.53	824.31
453.751	825.31
453.971	806.31
454.192	815.31
454.412	825.31
454.633	831.31
454.853	821.31
455.073	826.31
455.294	814.31
455.514	829.31
455.734	823.31
455.955	818.31
456.175	819.31
456.395	791.31
456.616	833.31
456.836	845.31
457.056	810.31
457.276	829.31
457.497	829.31
457.717	832.31
457.937	829.31
458.157	819.31
458.377	830.31
458.598	836.31
458.818	838.31
459.038	839.31
459.258	851.31
459.478	870.31
459.698	851.31
459.918	886.31
460.138	865.31
460.358	854.31
460.578	884.31
460.798	888.31
461.018	885.31
461.238	870.31
461.458	893.31
461.678	895.31
461.898	951.31
462.118	901.31
462.338	928.31
462.558	935.31
462.777	941.31
462.997	934.31
463.217	948.31
463.437	949.31
463.657	918.31
463.876	937.31
464.096	913.31
464.316	922.31
464.536	961.31
464.755	931.31
464.975	940.31
465.195	925.31
465.414	912.31
465.634	893.31
465.854	878.31
466.073	882.31
466.293	911.31
466.512	898.31
466.732	886.31
466.951	908.31
467.171	907.31
467.391	885.31
467.61	899.31
467.829	865.31
468.049	885.31
468.268	868.31
468.488	863.31
468.707	873.31
468.927	868.31
469.146	867.31
469.365	894.31
469.585	860.31
469.804	879.31
470.023	912.31
470.243	880.31
470.462	875.31
470.681	905.31
470.901	884.31
471.12	913.31
471.339	903.31
471.558	872.31
471.777	889.31
471.997	893.31
472.216	901.31
472.435	894.31
472.654	910.31
472.873	891.31
473.092	914.31
473.311	931.31
473.53	914.31
473.749	917.31
473.968	899.31
474.187	909.31
474.406	918.31
474.625	930.31
474.844	909.31
475.063	949.31
475.282	967.31
475.501	943.31
475.72	957.31
475.939	933.31
476.158	955.31
476.377	957.31
476.596	977.31
476.814	981.31
477.033	1005.31
477.252	996.31
477.471	968.31
477.69	1017.31
477.908	993.31
478.127	1002.31
478.346	1010.31
478.564	1061.31
478.783	1053.31
479.002	1029.31
479.22	1041.31
479.439	1064.31
479.658	1058.31
479.876	1061.31
480.095	1061.31
480.313	1032.31
480.532	1054.31
480.751	1058.31
480.969	1085.31
481.188	1061.31
481.406	1083.31
481.624	1084.31
481.843	1051.31
482.061	1078.31
482.28	1057.31
482.498	1061.31
482.717	1096.31
482.935	1117.31
483.153	1094.31
483.372	1085.31
483.59	1077.31
483.808	1082.31
484.027	1097.31
484.245	1122.31
484.463	1132.31
484.681	1122.31
484.9	1096.31
485.118	1129.31
485.336	1115.31
485.554	1122.31
485.772	1137.31
485.99	1142.31
486.209	1115.31
486.427	1151.31
486.645	1145.31
486.863	1111.31
487.081	1101.31
487.299	1128.31
487.517	1149.31
487.735	1107.31
487.953	1133.31
488.171	1142.31
488.389	1142.31
488.607	1141.31
488.825	1134.31
489.043	1153.31
489.261	1142.31
489.479	1145.31
489.696	1139.31
489.914	1140.31
490.132	1127.31
490.35	1177.31
490.568	1139.31
490.786	1143.31
491.003	1145.31
491.221	1148.31
491.439	1145.31
491.657	1153.31
491.874	1177.31
492.092	1167.31
492.31	1184.31
492.527	1133.31
492.745	1149.31
492.963	1181.31
493.18	1171.31
493.398	1135.31
493.615	1155.31
493.833	1166.31
494.05	1174.31
494.268	1204.31
494.485	1179.31
494.703	1162.31
494.92	1164.31
495.138	1196.31
495.355	1188.31
495.573	1177.31
495.79	1229.31
496.008	1207.31
496.225	1239.31
496.442	1212.31
496.66	1231.31
496.877	1189.31
497.094	1213.31
497.312	1222.31
497.529	1207.31
497.746	1215.31
497.963	1227.31
498.181	1273.31
498.398	1265.31
498.615	1258.31
498.832	1319.31
499.049	1333.31
499.267	1332.31
499.484	1363.31
499.701	1380.31
