Data from Fe(NO3)3@0.0125M.TitratingCurve.Agarose3%dH2O.NegLispCup.LampEnergy10.LIBS07252019_HRD10591_16-59-21-336.txt Node
Date: Thu Jul 25 16:59:21 EDT 2019
User: cochatt
Spectrometer: HR+D1059
Trigger mode: 1
Integration Time (sec): 1.000000E-1
Scans to average: 1
Electric dark correction enabled: true
Nonlinearity correction enabled: false
Boxcar width: 0
XAxis mode: Wavelengths
Number of Pixels in Spectrum: 2048
>>>>>Begin Spectral Data<<<<<
223.165	-23.75
223.4	-23.75
223.635	-23.75
223.869	-11.75
224.104	-28.75
224.338	-14.75
224.573	-25.75
224.808	-8.75
225.042	-4.75
225.277	-9.75
225.511	3.25
225.746	5.25
225.98	12.25
226.215	23.25
226.449	6.25
226.683	14.25
226.918	25.25
227.152	38.25
227.387	37.25
227.621	29.25
227.856	42.25
228.09	51.25
228.324	51.25
228.559	46.25
228.793	79.25
229.027	94.25
229.262	86.25
229.496	93.25
229.73	66.25
229.964	89.25
230.199	106.25
230.433	99.25
230.667	93.25
230.901	87.25
231.136	111.25
231.37	98.25
231.604	117.25
231.838	97.25
232.072	119.25
232.306	115.25
232.541	97.25
232.775	102.25
233.009	99.25
233.243	123.25
233.477	113.25
233.711	113.25
233.945	100.25
234.179	101.25
234.413	106.25
234.647	113.25
234.881	121.25
235.115	119.25
235.349	117.25
235.583	120.25
235.817	123.25
236.051	115.25
236.285	120.25
236.519	117.25
236.753	122.25
236.987	105.25
237.221	105.25
237.455	118.25
237.689	108.25
237.922	126.25
238.156	126.25
238.39	117.25
238.624	120.25
238.858	117.25
239.091	129.25
239.325	123.25
239.559	129.25
239.793	119.25
240.027	128.25
240.26	115.25
240.494	119.25
240.728	124.25
240.961	117.25
241.195	122.25
241.429	132.25
241.662	129.25
241.896	133.25
242.13	126.25
242.363	118.25
242.597	116.25
242.83	127.25
243.064	145.25
243.298	143.25
243.531	137.25
243.765	135.25
243.998	141.25
244.232	135.25
244.465	150.25
244.699	134.25
244.932	142.25
245.166	137.25
245.399	131.25
245.633	132.25
245.866	147.25
246.099	128.25
246.333	147.25
246.566	147.25
246.8	143.25
247.033	147.25
247.266	144.25
247.5	141.25
247.733	150.25
247.966	161.25
248.2	136.25
248.433	143.25
248.666	151.25
248.899	142.25
249.133	142.25
249.366	148.25
249.599	131.25
249.832	164.25
250.066	152.25
250.299	153.25
250.532	144.25
250.765	157.25
250.998	151.25
251.231	152.25
251.465	151.25
251.698	156.25
251.931	157.25
252.164	166.25
252.397	153.25
252.63	154.25
252.863	147.25
253.096	159.25
253.329	162.25
253.562	158.25
253.795	155.25
254.028	155.25
254.261	170.25
254.494	169.25
254.727	170.25
254.96	161.25
255.193	177.25
255.426	161.25
255.659	187.25
255.892	177.25
256.124	173.25
256.357	167.25
256.59	189.25
256.823	183.25
257.056	169.25
257.289	171.25
257.521	182.25
257.754	171.25
257.987	173.25
258.22	181.25
258.452	183.25
258.685	198.25
258.918	190.25
259.151	173.25
259.383	171.25
259.616	189.25
259.849	201.25
260.081	196.25
260.314	198.25
260.547	205.25
260.779	188.25
261.012	188.25
261.244	195.25
261.477	204.25
261.71	182.25
261.942	208.25
262.175	197.25
262.407	211.25
262.64	202.25
262.872	217.25
263.105	191.25
263.337	204.25
263.57	201.25
263.802	187.25
264.035	190.25
264.267	212.25
264.499	202.25
264.732	207.25
264.964	204.25
265.197	211.25
265.429	216.25
265.661	202.25
265.894	214.25
266.126	192.25
266.358	208.25
266.591	211.25
266.823	232.25
267.055	214.25
267.287	222.25
267.52	206.25
267.752	225.25
267.984	231.25
268.216	219.25
268.448	214.25
268.681	225.25
268.913	226.25
269.145	206.25
269.377	205.25
269.609	211.25
269.841	229.25
270.073	223.25
270.306	229.25
270.538	236.25
270.77	233.25
271.002	225.25
271.234	238.25
271.466	249.25
271.698	235.25
271.93	241.25
272.162	232.25
272.394	248.25
272.626	237.25
272.858	238.25
273.09	233.25
273.322	238.25
273.553	240.25
273.785	246.25
274.017	255.25
274.249	263.25
274.481	280.25
274.713	259.25
274.945	275.25
275.176	278.25
275.408	264.25
275.64	263.25
275.872	269.25
276.104	274.25
276.335	269.25
276.567	259.25
276.799	269.25
277.031	258.25
277.262	262.25
277.494	266.25
277.726	253.25
277.957	263.25
278.189	265.25
278.421	260.25
278.652	284.25
278.884	275.25
279.115	260.25
279.347	281.25
279.579	263.25
279.81	263.25
280.042	293.25
280.273	274.25
280.505	289.25
280.736	289.25
280.968	276.25
281.199	293.25
281.431	291.25
281.662	299.25
281.894	286.25
282.125	283.25
282.356	305.25
282.588	279.25
282.819	295.25
283.051	287.25
283.282	289.25
283.513	312.25
283.745	298.25
283.976	302.25
284.207	321.25
284.439	316.25
284.67	305.25
284.901	299.25
285.132	298.25
285.364	307.25
285.595	317.25
285.826	311.25
286.057	315.25
286.288	323.25
286.52	316.25
286.751	319.25
286.982	341.25
287.213	327.25
287.444	317.25
287.675	338.25
287.906	310.25
288.138	297.25
288.369	334.25
288.6	324.25
288.831	334.25
289.062	348.25
289.293	317.25
289.524	345.25
289.755	323.25
289.986	334.25
290.217	325.25
290.448	341.25
290.679	329.25
290.91	331.25
291.141	327.25
291.371	337.25
291.602	323.25
291.833	334.25
292.064	348.25
292.295	333.25
292.526	343.25
292.757	339.25
292.987	339.25
293.218	342.25
293.449	349.25
293.68	340.25
293.91	341.25
294.141	344.25
294.372	357.25
294.603	369.25
294.833	344.25
295.064	348.25
295.295	342.25
295.525	362.25
295.756	337.25
295.987	343.25
296.217	365.25
296.448	374.25
296.679	364.25
296.909	359.25
297.14	372.25
297.37	369.25
297.601	348.25
297.831	351.25
298.062	360.25
298.292	358.25
298.523	380.25
298.753	381.25
298.984	377.25
299.214	380.25
299.445	377.25
299.675	381.25
299.905	376.25
300.136	379.25
300.366	374.25
300.597	375.25
300.827	398.25
301.057	382.25
301.288	378.25
301.518	367.25
301.748	397.25
301.979	395.25
302.209	371.25
302.439	386.25
302.669	382.25
302.9	399.25
303.13	401.25
303.36	401.25
303.59	407.25
303.82	409.25
304.051	399.25
304.281	410.25
304.511	405.25
304.741	390.25
304.971	393.25
305.201	403.25
305.431	402.25
305.661	413.25
305.891	409.25
306.121	424.25
306.352	411.25
306.582	412.25
306.812	399.25
307.042	387.25
307.272	407.25
307.502	419.25
307.731	400.25
307.961	411.25
308.191	375.25
308.421	425.25
308.651	412.25
308.881	397.25
309.111	436.25
309.341	416.25
309.571	398.25
309.8	416.25
310.03	395.25
310.26	410.25
310.49	425.25
310.72	451.25
310.949	421.25
311.179	442.25
311.409	437.25
311.639	421.25
311.868	419.25
312.098	428.25
312.328	439.25
312.557	433.25
312.787	422.25
313.017	431.25
313.246	428.25
313.476	454.25
313.706	446.25
313.935	452.25
314.165	439.25
314.394	460.25
314.624	463.25
314.853	469.25
315.083	447.25
315.312	461.25
315.542	467.25
315.771	446.25
316.001	455.25
316.23	455.25
316.46	474.25
316.689	467.25
316.919	462.25
317.148	490.25
317.377	481.25
317.607	470.25
317.836	468.25
318.065	463.25
318.295	479.25
318.524	478.25
318.753	473.25
318.983	482.25
319.212	476.25
319.441	467.25
319.67	470.25
319.9	480.25
320.129	479.25
320.358	482.25
320.587	483.25
320.816	500.25
321.046	511.25
321.275	471.25
321.504	482.25
321.733	503.25
321.962	481.25
322.191	482.25
322.42	497.25
322.649	494.25
322.878	508.25
323.108	498.25
323.337	498.25
323.566	515.25
323.795	477.25
324.024	491.25
324.253	513.25
324.482	511.25
324.71	503.25
324.939	499.25
325.168	506.25
325.397	489.25
325.626	545.25
325.855	493.25
326.084	518.25
326.313	531.25
326.542	509.25
326.77	519.25
326.999	507.25
327.228	518.25
327.457	520.25
327.686	523.25
327.914	531.25
328.143	519.25
328.372	527.25
328.6	518.25
328.829	511.25
329.058	518.25
329.287	514.25
329.515	546.25
329.744	517.25
329.972	515.25
330.201	543.25
330.43	525.25
330.658	518.25
330.887	525.25
331.115	529.25
331.344	521.25
331.572	536.25
331.801	543.25
332.03	540.25
332.258	533.25
332.486	535.25
332.715	539.25
332.943	530.25
333.172	559.25
333.4	555.25
333.629	556.25
333.857	554.25
334.085	551.25
334.314	551.25
334.542	543.25
334.771	546.25
334.999	559.25
335.227	549.25
335.455	572.25
335.684	558.25
335.912	562.25
336.14	571.25
336.369	577.25
336.597	565.25
336.825	545.25
337.053	545.25
337.281	566.25
337.51	570.25
337.738	569.25
337.966	565.25
338.194	554.25
338.422	561.25
338.65	551.25
338.878	552.25
339.106	565.25
339.334	590.25
339.562	571.25
339.79	565.25
340.018	580.25
340.246	539.25
340.474	551.25
340.702	561.25
340.93	547.25
341.158	558.25
341.386	546.25
341.614	557.25
341.842	578.25
342.07	561.25
342.298	563.25
342.526	564.25
342.754	582.25
342.981	585.25
343.209	561.25
343.437	562.25
343.665	584.25
343.893	572.25
344.12	601.25
344.348	569.25
344.576	589.25
344.804	574.25
345.031	583.25
345.259	582.25
345.487	583.25
345.714	555.25
345.942	561.25
346.17	579.25
346.397	578.25
346.625	571.25
346.853	549.25
347.08	576.25
347.308	550.25
347.535	549.25
347.763	573.25
347.99	549.25
348.218	542.25
348.445	552.25
348.673	577.25
348.9	573.25
349.128	549.25
349.355	558.25
349.583	562.25
349.81	541.25
350.037	571.25
350.265	543.25
350.492	539.25
350.72	545.25
350.947	565.25
351.174	566.25
351.402	569.25
351.629	561.25
351.856	548.25
352.083	552.25
352.311	549.25
352.538	563.25
352.765	543.25
352.992	546.25
353.22	575.25
353.447	551.25
353.674	527.25
353.901	562.25
354.128	548.25
354.355	565.25
354.583	564.25
354.81	558.25
355.037	552.25
355.264	581.25
355.491	555.25
355.718	557.25
355.945	569.25
356.172	580.25
356.399	571.25
356.626	583.25
356.853	573.25
357.08	537.25
357.307	555.25
357.534	555.25
357.761	567.25
357.988	575.25
358.215	563.25
358.441	586.25
358.668	580.25
358.895	563.25
359.122	562.25
359.349	556.25
359.576	564.25
359.802	559.25
360.029	561.25
360.256	573.25
360.483	586.25
360.709	574.25
360.936	568.25
361.163	581.25
361.39	580.25
361.616	569.25
361.843	581.25
362.07	577.25
362.296	567.25
362.523	573.25
362.749	586.25
362.976	579.25
363.203	589.25
363.429	583.25
363.656	586.25
363.882	585.25
364.109	567.25
364.335	581.25
364.562	603.25
364.788	590.25
365.015	570.25
365.241	590.25
365.468	613.25
365.694	573.25
365.92	572.25
366.147	583.25
366.373	570.25
366.599	602.25
366.826	587.25
367.052	568.25
367.278	594.25
367.505	586.25
367.731	597.25
367.957	595.25
368.184	613.25
368.41	588.25
368.636	585.25
368.862	596.25
369.089	618.25
369.315	604.25
369.541	582.25
369.767	605.25
369.993	604.25
370.219	616.25
370.445	587.25
370.672	618.25
370.898	595.25
371.124	601.25
371.35	602.25
371.576	610.25
371.802	629.25
372.028	627.25
372.254	604.25
372.48	589.25
372.706	603.25
372.932	597.25
373.158	620.25
373.384	629.25
373.61	611.25
373.835	625.25
374.061	593.25
374.287	615.25
374.513	604.25
374.739	617.25
374.965	618.25
375.191	632.25
375.416	629.25
375.642	595.25
375.868	617.25
376.094	628.25
376.319	605.25
376.545	617.25
376.771	627.25
376.997	607.25
377.222	587.25
377.448	608.25
377.674	615.25
377.899	611.25
378.125	604.25
378.35	597.25
378.576	619.25
378.802	630.25
379.027	613.25
379.253	579.25
379.478	592.25
379.704	619.25
379.929	613.25
380.155	613.25
380.38	611.25
380.606	591.25
380.831	588.25
381.057	602.25
381.282	626.25
381.507	606.25
381.733	639.25
381.958	604.25
382.184	608.25
382.409	631.25
382.634	626.25
382.86	635.25
383.085	605.25
383.31	666.25
383.535	627.25
383.761	611.25
383.986	637.25
384.211	651.25
384.436	635.25
384.662	635.25
384.887	636.25
385.112	649.25
385.337	632.25
385.562	647.25
385.787	645.25
386.013	666.25
386.238	677.25
386.463	671.25
386.688	678.25
386.913	647.25
387.138	629.25
387.363	663.25
387.588	654.25
387.813	654.25
388.038	665.25
388.263	651.25
388.488	642.25
388.713	654.25
388.938	643.25
389.163	645.25
389.387	658.25
389.612	645.25
389.837	675.25
390.062	648.25
390.287	660.25
390.512	643.25
390.736	647.25
390.961	636.25
391.186	667.25
391.411	664.25
391.636	667.25
391.86	675.25
392.085	675.25
392.31	673.25
392.534	668.25
392.759	681.25
392.984	690.25
393.208	687.25
393.433	672.25
393.658	645.25
393.882	668.25
394.107	643.25
394.331	687.25
394.556	673.25
394.78	659.25
395.005	664.25
395.229	660.25
395.454	697.25
395.678	666.25
395.903	663.25
396.127	671.25
396.352	661.25
396.576	683.25
396.801	697.25
397.025	681.25
397.249	679.25
397.474	687.25
397.698	677.25
397.922	685.25
398.147	684.25
398.371	690.25
398.595	693.25
398.82	710.25
399.044	705.25
399.268	699.25
399.492	718.25
399.717	711.25
399.941	718.25
400.165	732.25
400.389	734.25
400.613	732.25
400.837	723.25
401.062	698.25
401.286	708.25
401.51	711.25
401.734	714.25
401.958	726.25
402.182	689.25
402.406	712.25
402.63	716.25
402.854	715.25
403.078	721.25
403.302	716.25
403.526	723.25
403.75	716.25
403.974	680.25
404.198	713.25
404.422	697.25
404.645	716.25
404.869	717.25
405.093	715.25
405.317	714.25
405.541	698.25
405.765	714.25
405.988	705.25
406.212	716.25
406.436	721.25
406.66	748.25
406.883	743.25
407.107	743.25
407.331	719.25
407.555	747.25
407.778	740.25
408.002	750.25
408.226	743.25
408.449	738.25
408.673	750.25
408.896	743.25
409.12	762.25
409.344	721.25
409.567	725.25
409.791	728.25
410.014	736.25
410.238	744.25
410.461	748.25
410.685	748.25
410.908	713.25
411.132	716.25
411.355	734.25
411.578	731.25
411.802	725.25
412.025	709.25
412.249	725.25
412.472	720.25
412.695	728.25
412.919	715.25
413.142	713.25
413.365	710.25
413.589	731.25
413.812	705.25
414.035	687.25
414.258	710.25
414.482	689.25
414.705	705.25
414.928	734.25
415.151	685.25
415.374	704.25
415.597	712.25
415.821	713.25
416.044	708.25
416.267	709.25
416.49	710.25
416.713	691.25
416.936	694.25
417.159	687.25
417.382	691.25
417.605	689.25
417.828	676.25
418.051	676.25
418.274	673.25
418.497	671.25
418.72	676.25
418.943	659.25
419.166	681.25
419.389	743.25
419.611	734.25
419.834	692.25
420.057	708.25
420.28	692.25
420.503	651.25
420.726	665.25
420.948	673.25
421.171	647.25
421.394	669.25
421.617	666.25
421.839	671.25
422.062	644.25
422.285	673.25
422.507	683.25
422.73	668.25
422.953	693.25
423.175	667.25
423.398	667.25
423.621	678.25
423.843	682.25
424.066	669.25
424.288	663.25
424.511	664.25
424.733	659.25
424.956	657.25
425.178	669.25
425.401	654.25
425.623	674.25
425.846	675.25
426.068	692.25
426.291	656.25
426.513	667.25
426.735	650.25
426.958	678.25
427.18	683.25
427.402	670.25
427.625	676.25
427.847	663.25
428.069	668.25
428.292	681.25
428.514	654.25
428.736	687.25
428.958	675.25
429.181	676.25
429.403	661.25
429.625	672.25
429.847	661.25
430.069	663.25
430.292	669.25
430.514	649.25
430.736	687.25
430.958	662.25
431.18	673.25
431.402	679.25
431.624	667.25
431.846	655.25
432.068	634.25
432.29	674.25
432.512	670.25
432.734	691.25
432.956	678.25
433.178	672.25
433.4	677.25
433.622	665.25
433.844	661.25
434.066	655.25
434.287	679.25
434.509	687.25
434.731	645.25
434.953	654.25
435.175	669.25
435.397	662.25
435.618	690.25
435.84	668.25
436.062	655.25
436.284	661.25
436.505	652.25
436.727	657.25
436.949	661.25
437.17	673.25
437.392	647.25
437.614	650.25
437.835	654.25
438.057	648.25
438.278	654.25
438.5	636.25
438.721	637.25
438.943	672.25
439.165	673.25
439.386	635.25
439.608	664.25
439.829	671.25
440.05	659.25
440.272	677.25
440.493	653.25
440.715	664.25
440.936	646.25
441.158	650.25
441.379	653.25
441.6	665.25
441.822	670.25
442.043	644.25
442.264	652.25
442.486	655.25
442.707	651.25
442.928	674.25
443.149	668.25
443.371	643.25
443.592	649.25
443.813	658.25
444.034	631.25
444.255	671.25
444.476	676.25
444.698	660.25
444.919	655.25
445.14	775.25
445.361	701.25
445.582	669.25
445.803	655.25
446.024	649.25
446.245	673.25
446.466	645.25
446.687	658.25
446.908	653.25
447.129	637.25
447.35	640.25
447.571	651.25
447.792	652.25
448.013	647.25
448.234	634.25
448.455	605.25
448.675	633.25
448.896	603.25
449.117	617.25
449.338	622.25
449.559	621.25
449.779	625.25
450	620.25
450.221	635.25
450.442	598.25
450.662	607.25
450.883	627.25
451.104	631.25
451.324	636.25
451.545	627.25
451.766	626.25
451.986	619.25
452.207	621.25
452.428	619.25
452.648	610.25
452.869	610.25
453.089	591.25
453.31	629.25
453.53	625.25
453.751	616.25
453.971	635.25
454.192	612.25
454.412	607.25
454.633	605.25
454.853	610.25
455.073	594.25
455.294	596.25
455.514	630.25
455.734	616.25
455.955	618.25
456.175	612.25
456.395	608.25
456.616	578.25
456.836	626.25
457.056	617.25
457.276	608.25
457.497	601.25
457.717	617.25
457.937	599.25
458.157	604.25
458.377	629.25
458.598	627.25
458.818	639.25
459.038	623.25
459.258	635.25
459.478	631.25
459.698	636.25
459.918	645.25
460.138	629.25
460.358	639.25
460.578	638.25
460.798	661.25
461.018	672.25
461.238	651.25
461.458	656.25
461.678	659.25
461.898	651.25
462.118	665.25
462.338	633.25
462.558	665.25
462.777	653.25
462.997	659.25
463.217	683.25
463.437	694.25
463.657	684.25
463.876	661.25
464.096	676.25
464.316	674.25
464.536	673.25
464.755	669.25
464.975	671.25
465.195	665.25
465.414	650.25
465.634	651.25
465.854	665.25
466.073	651.25
466.293	649.25
466.512	664.25
466.732	632.25
466.951	645.25
467.171	644.25
467.391	649.25
467.61	661.25
467.829	689.25
468.049	646.25
468.268	634.25
468.488	655.25
468.707	655.25
468.927	676.25
469.146	647.25
469.365	662.25
469.585	628.25
469.804	641.25
470.023	670.25
470.243	635.25
470.462	661.25
470.681	667.25
470.901	662.25
471.12	675.25
471.339	648.25
471.558	644.25
471.777	651.25
471.997	676.25
472.216	692.25
472.435	684.25
472.654	692.25
472.873	656.25
473.092	684.25
473.311	689.25
473.53	693.25
473.749	691.25
473.968	693.25
474.187	694.25
474.406	674.25
474.625	695.25
474.844	723.25
475.063	700.25
475.282	717.25
475.501	699.25
475.72	717.25
475.939	733.25
476.158	717.25
476.377	715.25
476.596	735.25
476.814	729.25
477.033	747.25
477.252	762.25
477.471	737.25
477.69	734.25
477.908	746.25
478.127	756.25
478.346	768.25
478.564	750.25
478.783	759.25
479.002	754.25
479.22	759.25
479.439	782.25
479.658	786.25
479.876	781.25
480.095	785.25
480.313	802.25
480.532	812.25
480.751	798.25
480.969	797.25
481.188	810.25
481.406	809.25
481.624	813.25
481.843	835.25
482.061	812.25
482.28	811.25
482.498	782.25
482.717	814.25
482.935	821.25
483.153	787.25
483.372	805.25
483.59	817.25
483.808	832.25
484.027	815.25
484.245	811.25
484.463	830.25
484.681	834.25
484.9	837.25
485.118	844.25
485.336	846.25
485.554	846.25
485.772	826.25
485.99	838.25
486.209	845.25
486.427	818.25
486.645	839.25
486.863	843.25
487.081	840.25
487.299	844.25
487.517	845.25
487.735	860.25
487.953	853.25
488.171	843.25
488.389	858.25
488.607	862.25
488.825	839.25
489.043	858.25
489.261	861.25
489.479	853.25
489.696	868.25
489.914	871.25
490.132	867.25
490.35	866.25
490.568	878.25
490.786	879.25
491.003	868.25
491.221	848.25
491.439	859.25
491.657	847.25
491.874	891.25
492.092	871.25
492.31	872.25
492.527	888.25
492.745	858.25
492.963	875.25
493.18	851.25
493.398	869.25
493.615	880.25
493.833	867.25
494.05	878.25
494.268	887.25
494.485	863.25
494.703	879.25
494.92	876.25
495.138	867.25
495.355	878.25
495.573	890.25
495.79	870.25
496.008	905.25
496.225	909.25
496.442	938.25
496.66	905.25
496.877	909.25
497.094	922.25
497.312	912.25
497.529	894.25
497.746	919.25
497.963	914.25
498.181	910.25
498.398	924.25
498.615	933.25
498.832	957.25
499.049	965.25
499.267	968.25
499.484	942.25
499.701	931.25
499.918	981.25
500.135	979.25
500.352	1002.25
500.569	966.25
500.786	995.25
501.003	997.25
501.22	972.25
501.437	972.25
501.654	970.25
