Data from Fe(NO3)3@0.1M.TitratingCurve.Agarose3%dH2O.NegLispCup.LampEnergy10.LIBS07252019_HRD10591_16-40-25-332.txt Node
Date: Thu Jul 25 16:40:25 EDT 2019
User: cochatt
Spectrometer: HR+D1059
Trigger mode: 1
Integration Time (sec): 1.000000E-1
Scans to average: 1
Electric dark correction enabled: true
Nonlinearity correction enabled: false
Boxcar width: 0
XAxis mode: Wavelengths
Number of Pixels in Spectrum: 2048
>>>>>Begin Spectral Data<<<<<
223.165	-2.62
223.4	-2.62
223.635	-2.62
223.869	-18.62
224.104	-25.62
224.338	-18.62
224.573	-11.62
224.808	-13.62
225.042	-11.62
225.277	4.38
225.511	-13.62
225.746	5.38
225.98	15.38
226.215	6.38
226.449	11.38
226.683	25.38
226.918	18.38
227.152	29.38
227.387	29.38
227.621	45.38
227.856	37.38
228.09	41.38
228.324	46.38
228.559	58.38
228.793	58.38
229.027	77.38
229.262	69.38
229.496	83.38
229.73	94.38
229.964	85.38
230.199	78.38
230.433	94.38
230.667	86.38
230.901	93.38
231.136	90.38
231.37	99.38
231.604	92.38
231.838	89.38
232.072	100.38
232.306	91.38
232.541	92.38
232.775	87.38
233.009	100.38
233.243	99.38
233.477	100.38
233.711	106.38
233.945	85.38
234.179	94.38
234.413	102.38
234.647	94.38
234.881	82.38
235.115	90.38
235.349	98.38
235.583	108.38
235.817	90.38
236.051	91.38
236.285	105.38
236.519	93.38
236.753	90.38
236.987	102.38
237.221	101.38
237.455	100.38
237.689	99.38
237.922	101.38
238.156	111.38
238.39	98.38
238.624	110.38
238.858	97.38
239.091	104.38
239.325	111.38
239.559	113.38
239.793	94.38
240.027	113.38
240.26	107.38
240.494	107.38
240.728	102.38
240.961	90.38
241.195	99.38
241.429	109.38
241.662	93.38
241.896	100.38
242.13	100.38
242.363	105.38
242.597	98.38
242.83	104.38
243.064	113.38
243.298	121.38
243.531	97.38
243.765	115.38
243.998	123.38
244.232	111.38
244.465	111.38
244.699	106.38
244.932	121.38
245.166	102.38
245.399	119.38
245.633	115.38
245.866	113.38
246.099	96.38
246.333	118.38
246.566	119.38
246.8	107.38
247.033	122.38
247.266	109.38
247.5	110.38
247.733	109.38
247.966	114.38
248.2	116.38
248.433	118.38
248.666	124.38
248.899	121.38
249.133	126.38
249.366	138.38
249.599	122.38
249.832	117.38
250.066	114.38
250.299	99.38
250.532	118.38
250.765	123.38
250.998	121.38
251.231	122.38
251.465	122.38
251.698	111.38
251.931	121.38
252.164	127.38
252.397	108.38
252.63	135.38
252.863	117.38
253.096	127.38
253.329	129.38
253.562	127.38
253.795	119.38
254.028	137.38
254.261	129.38
254.494	114.38
254.727	113.38
254.96	124.38
255.193	122.38
255.426	127.38
255.659	134.38
255.892	132.38
256.124	144.38
256.357	135.38
256.59	123.38
256.823	121.38
257.056	149.38
257.289	131.38
257.521	126.38
257.754	108.38
257.987	139.38
258.22	127.38
258.452	125.38
258.685	139.38
258.918	139.38
259.151	127.38
259.383	145.38
259.616	125.38
259.849	152.38
260.081	137.38
260.314	145.38
260.547	147.38
260.779	155.38
261.012	133.38
261.244	142.38
261.477	145.38
261.71	145.38
261.942	144.38
262.175	123.38
262.407	132.38
262.64	133.38
262.872	138.38
263.105	152.38
263.337	142.38
263.57	142.38
263.802	135.38
264.035	127.38
264.267	157.38
264.499	154.38
264.732	153.38
264.964	142.38
265.197	133.38
265.429	149.38
265.661	138.38
265.894	148.38
266.126	143.38
266.358	149.38
266.591	149.38
266.823	161.38
267.055	161.38
267.287	162.38
267.52	139.38
267.752	157.38
267.984	156.38
268.216	143.38
268.448	144.38
268.681	147.38
268.913	163.38
269.145	140.38
269.377	151.38
269.609	151.38
269.841	166.38
270.073	143.38
270.306	161.38
270.538	138.38
270.77	154.38
271.002	160.38
271.234	148.38
271.466	160.38
271.698	144.38
271.93	143.38
272.162	157.38
272.394	164.38
272.626	160.38
272.858	154.38
273.09	146.38
273.322	154.38
273.553	162.38
273.785	164.38
274.017	166.38
274.249	156.38
274.481	144.38
274.713	154.38
274.945	156.38
275.176	169.38
275.408	171.38
275.64	158.38
275.872	177.38
276.104	155.38
276.335	155.38
276.567	158.38
276.799	177.38
277.031	156.38
277.262	163.38
277.494	147.38
277.726	184.38
277.957	157.38
278.189	180.38
278.421	161.38
278.652	177.38
278.884	158.38
279.115	167.38
279.347	170.38
279.579	165.38
279.81	159.38
280.042	177.38
280.273	177.38
280.505	167.38
280.736	175.38
280.968	174.38
281.199	172.38
281.431	188.38
281.662	189.38
281.894	195.38
282.125	193.38
282.356	186.38
282.588	179.38
282.819	177.38
283.051	179.38
283.282	174.38
283.513	181.38
283.745	187.38
283.976	186.38
284.207	198.38
284.439	178.38
284.67	191.38
284.901	168.38
285.132	181.38
285.364	191.38
285.595	187.38
285.826	188.38
286.057	194.38
286.288	186.38
286.52	171.38
286.751	182.38
286.982	186.38
287.213	181.38
287.444	188.38
287.675	188.38
287.906	193.38
288.138	189.38
288.369	196.38
288.6	185.38
288.831	202.38
289.062	179.38
289.293	197.38
289.524	178.38
289.755	186.38
289.986	191.38
290.217	192.38
290.448	188.38
290.679	203.38
290.91	194.38
291.141	184.38
291.371	193.38
291.602	197.38
291.833	184.38
292.064	196.38
292.295	174.38
292.526	195.38
292.757	197.38
292.987	205.38
293.218	185.38
293.449	200.38
293.68	185.38
293.91	193.38
294.141	197.38
294.372	197.38
294.603	205.38
294.833	207.38
295.064	187.38
295.295	200.38
295.525	193.38
295.756	194.38
295.987	205.38
296.217	201.38
296.448	199.38
296.679	212.38
296.909	198.38
297.14	189.38
297.37	205.38
297.601	202.38
297.831	202.38
298.062	209.38
298.292	211.38
298.523	220.38
298.753	209.38
298.984	207.38
299.214	225.38
299.445	203.38
299.675	201.38
299.905	198.38
300.136	217.38
300.366	219.38
300.597	211.38
300.827	217.38
301.057	200.38
301.288	236.38
301.518	230.38
301.748	231.38
301.979	221.38
302.209	234.38
302.439	232.38
302.669	239.38
302.9	216.38
303.13	225.38
303.36	216.38
303.59	222.38
303.82	222.38
304.051	220.38
304.281	217.38
304.511	219.38
304.741	221.38
304.971	220.38
305.201	233.38
305.431	210.38
305.661	203.38
305.891	210.38
306.121	206.38
306.352	233.38
306.582	240.38
306.812	206.38
307.042	206.38
307.272	218.38
307.502	206.38
307.731	217.38
307.961	210.38
308.191	221.38
308.421	223.38
308.651	224.38
308.881	229.38
309.111	222.38
309.341	203.38
309.571	224.38
309.8	212.38
310.03	223.38
310.26	212.38
310.49	241.38
310.72	210.38
310.949	210.38
311.179	238.38
311.409	227.38
311.639	228.38
311.868	234.38
312.098	221.38
312.328	232.38
312.557	243.38
312.787	216.38
313.017	235.38
313.246	230.38
313.476	246.38
313.706	244.38
313.935	217.38
314.165	235.38
314.394	238.38
314.624	231.38
314.853	232.38
315.083	232.38
315.312	228.38
315.542	228.38
315.771	246.38
316.001	230.38
316.23	217.38
316.46	233.38
316.689	226.38
316.919	215.38
317.148	223.38
317.377	236.38
317.607	226.38
317.836	246.38
318.065	241.38
318.295	248.38
318.524	242.38
318.753	236.38
318.983	243.38
319.212	228.38
319.441	226.38
319.67	216.38
319.9	247.38
320.129	233.38
320.358	246.38
320.587	244.38
320.816	227.38
321.046	231.38
321.275	250.38
321.504	232.38
321.733	261.38
321.962	243.38
322.191	232.38
322.42	244.38
322.649	242.38
322.878	243.38
323.108	224.38
323.337	261.38
323.566	225.38
323.795	220.38
324.024	230.38
324.253	245.38
324.482	233.38
324.71	245.38
324.939	244.38
325.168	231.38
325.397	240.38
325.626	251.38
325.855	252.38
326.084	241.38
326.313	248.38
326.542	242.38
326.77	267.38
326.999	264.38
327.228	251.38
327.457	258.38
327.686	242.38
327.914	265.38
328.143	249.38
328.372	262.38
328.6	263.38
328.829	278.38
329.058	261.38
329.287	259.38
329.515	262.38
329.744	267.38
329.972	253.38
330.201	268.38
330.43	271.38
330.658	267.38
330.887	283.38
331.115	265.38
331.344	252.38
331.572	260.38
331.801	274.38
332.03	272.38
332.258	289.38
332.486	298.38
332.715	303.38
332.943	312.38
333.172	308.38
333.4	299.38
333.629	322.38
333.857	307.38
334.085	326.38
334.314	327.38
334.542	319.38
334.771	323.38
334.999	303.38
335.227	311.38
335.455	305.38
335.684	307.38
335.912	310.38
336.14	308.38
336.369	295.38
336.597	304.38
336.825	305.38
337.053	282.38
337.281	301.38
337.51	291.38
337.738	293.38
337.966	279.38
338.194	276.38
338.422	268.38
338.65	289.38
338.878	279.38
339.106	281.38
339.334	290.38
339.562	250.38
339.79	248.38
340.018	278.38
340.246	273.38
340.474	258.38
340.702	277.38
340.93	281.38
341.158	284.38
341.386	263.38
341.614	279.38
341.842	274.38
342.07	271.38
342.298	259.38
342.526	260.38
342.754	289.38
342.981	265.38
343.209	256.38
343.437	286.38
343.665	298.38
343.893	319.38
344.12	321.38
344.348	307.38
344.576	321.38
344.804	283.38
345.031	289.38
345.259	267.38
345.487	282.38
345.714	278.38
345.942	265.38
346.17	263.38
346.397	276.38
346.625	263.38
346.853	259.38
347.08	262.38
347.308	262.38
347.535	271.38
347.763	247.38
347.99	272.38
348.218	254.38
348.445	268.38
348.673	271.38
348.9	261.38
349.128	284.38
349.355	279.38
349.583	278.38
349.81	248.38
350.037	245.38
350.265	257.38
350.492	249.38
350.72	242.38
350.947	246.38
351.174	276.38
351.402	250.38
351.629	258.38
351.856	255.38
352.083	248.38
352.311	263.38
352.538	266.38
352.765	257.38
352.992	282.38
353.22	259.38
353.447	242.38
353.674	252.38
353.901	270.38
354.128	244.38
354.355	247.38
354.583	249.38
354.81	259.38
355.037	284.38
355.264	271.38
355.491	250.38
355.718	250.38
355.945	266.38
356.172	247.38
356.399	259.38
356.626	253.38
356.853	274.38
357.08	261.38
357.307	257.38
357.534	261.38
357.761	265.38
357.988	262.38
358.215	256.38
358.441	261.38
358.668	252.38
358.895	255.38
359.122	260.38
359.349	261.38
359.576	246.38
359.802	250.38
360.029	263.38
360.256	269.38
360.483	254.38
360.709	259.38
360.936	269.38
361.163	267.38
361.39	272.38
361.616	249.38
361.843	265.38
362.07	266.38
362.296	276.38
362.523	268.38
362.749	259.38
362.976	284.38
363.203	259.38
363.429	273.38
363.656	262.38
363.882	253.38
364.109	264.38
364.335	258.38
364.562	260.38
364.788	253.38
365.015	275.38
365.241	273.38
365.468	269.38
365.694	271.38
365.92	277.38
366.147	265.38
366.373	271.38
366.599	270.38
366.826	285.38
367.052	286.38
367.278	270.38
367.505	259.38
367.731	253.38
367.957	274.38
368.184	269.38
368.41	279.38
368.636	260.38
368.862	283.38
369.089	276.38
369.315	254.38
369.541	271.38
369.767	281.38
369.993	272.38
370.219	257.38
370.445	272.38
370.672	280.38
370.898	290.38
371.124	268.38
371.35	268.38
371.576	308.38
371.802	305.38
372.028	265.38
372.254	289.38
372.48	289.38
372.706	292.38
372.932	290.38
373.158	321.38
373.384	273.38
373.61	288.38
373.835	301.38
374.061	288.38
374.287	291.38
374.513	293.38
374.739	295.38
374.965	320.38
375.191	311.38
375.416	312.38
375.642	299.38
375.868	299.38
376.094	289.38
376.319	288.38
376.545	285.38
376.771	285.38
376.997	286.38
377.222	297.38
377.448	285.38
377.674	269.38
377.899	286.38
378.125	300.38
378.35	274.38
378.576	267.38
378.802	281.38
379.027	294.38
379.253	279.38
379.478	277.38
379.704	284.38
379.929	284.38
380.155	289.38
380.38	289.38
380.606	294.38
380.831	293.38
381.057	283.38
381.282	274.38
381.507	282.38
381.733	300.38
381.958	320.38
382.184	306.38
382.409	299.38
382.634	323.38
382.86	312.38
383.085	306.38
383.31	311.38
383.535	298.38
383.761	317.38
383.986	307.38
384.211	324.38
384.436	325.38
384.662	330.38
384.887	340.38
385.112	327.38
385.337	329.38
385.562	340.38
385.787	343.38
386.013	367.38
386.238	344.38
386.463	339.38
386.688	330.38
386.913	338.38
387.138	332.38
387.363	325.38
387.588	324.38
387.813	350.38
388.038	323.38
388.263	326.38
388.488	321.38
388.713	354.38
388.938	319.38
389.163	321.38
389.387	334.38
389.612	315.38
389.837	328.38
390.062	325.38
390.287	334.38
390.512	338.38
390.736	336.38
390.961	314.38
391.186	337.38
391.411	368.38
391.636	350.38
391.86	351.38
392.085	361.38
392.31	363.38
392.534	367.38
392.759	367.38
392.984	357.38
393.208	370.38
393.433	358.38
393.658	357.38
393.882	347.38
394.107	349.38
394.331	358.38
394.556	326.38
394.78	351.38
395.005	343.38
395.229	367.38
395.454	377.38
395.678	365.38
395.903	369.38
396.127	375.38
396.352	345.38
396.576	355.38
396.801	378.38
397.025	364.38
397.249	352.38
397.474	372.38
397.698	373.38
397.922	370.38
398.147	377.38
398.371	384.38
398.595	398.38
398.82	416.38
399.044	440.38
399.268	477.38
399.492	534.38
399.717	575.38
399.941	531.38
400.165	495.38
400.389	475.38
400.613	436.38
400.837	414.38
401.062	429.38
401.286	426.38
401.51	415.38
401.734	397.38
401.958	415.38
402.182	420.38
402.406	399.38
402.63	413.38
402.854	424.38
403.078	442.38
403.302	441.38
403.526	445.38
403.75	430.38
403.974	431.38
404.198	439.38
404.422	454.38
404.645	429.38
404.869	416.38
405.093	451.38
405.317	426.38
405.541	431.38
405.765	449.38
405.988	441.38
406.212	436.38
406.436	435.38
406.66	457.38
406.883	494.38
407.107	486.38
407.331	510.38
407.555	506.38
407.778	497.38
408.002	486.38
408.226	457.38
408.449	475.38
408.673	456.38
408.896	457.38
409.12	446.38
409.344	453.38
409.567	451.38
409.791	458.38
410.014	447.38
410.238	451.38
410.461	449.38
410.685	445.38
410.908	447.38
411.132	452.38
411.355	422.38
411.578	421.38
411.802	409.38
412.025	415.38
412.249	405.38
412.472	451.38
412.695	417.38
412.919	419.38
413.142	400.38
413.365	418.38
413.589	425.38
413.812	419.38
414.035	403.38
414.258	427.38
414.482	424.38
414.705	425.38
414.928	415.38
415.151	421.38
415.374	409.38
415.597	422.38
415.821	406.38
416.044	422.38
416.267	421.38
416.49	407.38
416.713	402.38
416.936	413.38
417.159	399.38
417.382	422.38
417.605	395.38
417.828	419.38
418.051	401.38
418.274	413.38
418.497	426.38
418.72	445.38
418.943	401.38
419.166	419.38
419.389	469.38
419.611	417.38
419.834	411.38
420.057	423.38
420.28	420.38
420.503	396.38
420.726	395.38
420.948	415.38
421.171	393.38
421.394	408.38
421.617	403.38
421.839	413.38
422.062	421.38
422.285	391.38
422.507	423.38
422.73	403.38
422.953	417.38
423.175	419.38
423.398	420.38
423.621	414.38
423.843	425.38
424.066	418.38
424.288	404.38
424.511	411.38
424.733	428.38
424.956	397.38
425.178	402.38
425.401	417.38
425.623	406.38
425.846	403.38
426.068	397.38
426.291	410.38
426.513	402.38
426.735	379.38
426.958	389.38
427.18	403.38
427.402	381.38
427.625	386.38
427.847	392.38
428.069	354.38
428.292	391.38
428.514	385.38
428.736	377.38
428.958	384.38
429.181	364.38
429.403	371.38
429.625	381.38
429.847	382.38
430.069	375.38
430.292	381.38
430.514	373.38
430.736	366.38
430.958	360.38
431.18	374.38
431.402	361.38
431.624	377.38
431.846	362.38
432.068	380.38
432.29	370.38
432.512	381.38
432.734	396.38
432.956	388.38
433.178	396.38
433.4	386.38
433.622	395.38
433.844	376.38
434.066	375.38
434.287	379.38
434.509	389.38
434.731	408.38
434.953	417.38
435.175	431.38
435.397	410.38
435.618	387.38
435.84	376.38
436.062	394.38
436.284	399.38
436.505	384.38
436.727	396.38
436.949	390.38
437.17	394.38
437.392	366.38
437.614	373.38
437.835	383.38
438.057	372.38
438.278	356.38
438.5	369.38
438.721	365.38
438.943	387.38
439.165	381.38
439.386	404.38
439.608	385.38
439.829	389.38
440.05	392.38
440.272	389.38
440.493	369.38
440.715	383.38
440.936	398.38
441.158	387.38
441.379	401.38
441.6	434.38
441.822	433.38
442.043	419.38
442.264	419.38
442.486	417.38
442.707	431.38
442.928	404.38
443.149	411.38
443.371	419.38
443.592	410.38
443.813	438.38
444.034	426.38
444.255	437.38
444.476	463.38
444.698	487.38
444.919	459.38
445.14	557.38
445.361	514.38
445.582	428.38
445.803	429.38
446.024	389.38
446.245	413.38
446.466	402.38
446.687	385.38
446.908	398.38
447.129	391.38
447.35	382.38
447.571	395.38
447.792	374.38
448.013	377.38
448.234	378.38
448.455	359.38
448.675	385.38
448.896	388.38
449.117	355.38
449.338	365.38
449.559	365.38
449.779	383.38
450	347.38
450.221	377.38
450.442	366.38
450.662	371.38
450.883	373.38
451.104	368.38
451.324	371.38
451.545	353.38
451.766	361.38
451.986	364.38
452.207	365.38
452.428	365.38
452.648	338.38
452.869	382.38
453.089	342.38
453.31	348.38
453.53	347.38
453.751	339.38
453.971	333.38
454.192	345.38
454.412	344.38
454.633	323.38
454.853	350.38
455.073	332.38
455.294	351.38
455.514	335.38
455.734	347.38
455.955	335.38
456.175	340.38
456.395	352.38
456.616	336.38
456.836	346.38
457.056	322.38
457.276	344.38
457.497	348.38
457.717	344.38
457.937	357.38
458.157	345.38
458.377	349.38
458.598	361.38
458.818	356.38
459.038	367.38
459.258	385.38
459.478	364.38
459.698	393.38
459.918	389.38
460.138	421.38
460.358	437.38
460.578	428.38
460.798	433.38
461.018	442.38
461.238	421.38
461.458	437.38
461.678	435.38
461.898	430.38
462.118	457.38
462.338	451.38
462.558	467.38
462.777	492.38
462.997	499.38
463.217	546.38
463.437	515.38
463.657	497.38
463.876	499.38
464.096	487.38
464.316	471.38
464.536	480.38
464.755	459.38
464.975	458.38
465.195	446.38
465.414	433.38
465.634	408.38
465.854	402.38
466.073	399.38
466.293	389.38
466.512	376.38
466.732	377.38
466.951	388.38
467.171	375.38
467.391	386.38
467.61	381.38
467.829	376.38
468.049	371.38
468.268	363.38
468.488	366.38
468.707	378.38
468.927	357.38
469.146	365.38
469.365	384.38
469.585	373.38
469.804	403.38
470.023	362.38
470.243	387.38
470.462	379.38
470.681	392.38
470.901	398.38
471.12	391.38
471.339	369.38
471.558	378.38
471.777	374.38
471.997	371.38
472.216	361.38
472.435	373.38
472.654	348.38
472.873	355.38
473.092	353.38
473.311	347.38
473.53	369.38
473.749	348.38
473.968	337.38
474.187	364.38
474.406	355.38
474.625	359.38
474.844	335.38
475.063	358.38
475.282	357.38
475.501	366.38
475.72	377.38
475.939	377.38
476.158	382.38
476.377	391.38
476.596	367.38
476.814	361.38
477.033	373.38
477.252	372.38
477.471	388.38
477.69	382.38
477.908	383.38
478.127	412.38
478.346	391.38
478.564	409.38
478.783	422.38
479.002	418.38
479.22	404.38
479.439	429.38
479.658	404.38
479.876	434.38
480.095	431.38
480.313	422.38
480.532	441.38
480.751	413.38
480.969	423.38
481.188	391.38
481.406	398.38
481.624	402.38
481.843	390.38
482.061	391.38
482.28	404.38
482.498	381.38
482.717	400.38
482.935	403.38
483.153	421.38
483.372	402.38
483.59	395.38
483.808	399.38
484.027	396.38
484.245	409.38
484.463	414.38
484.681	411.38
484.9	409.38
485.118	390.38
485.336	409.38
485.554	427.38
485.772	400.38
485.99	413.38
486.209	389.38
486.427	412.38
486.645	419.38
486.863	421.38
487.081	401.38
487.299	420.38
487.517	417.38
487.735	415.38
487.953	415.38
488.171	441.38
488.389	411.38
488.607	394.38
488.825	386.38
489.043	384.38
489.261	397.38
489.479	398.38
489.696	385.38
489.914	416.38
490.132	417.38
490.35	415.38
490.568	410.38
490.786	409.38
491.003	416.38
491.221	434.38
491.439	423.38
491.657	407.38
491.874	421.38
492.092	427.38
492.31	438.38
492.527	422.38
492.745	426.38
492.963	414.38
493.18	429.38
493.398	419.38
493.615	407.38
493.833	439.38
494.05	414.38
494.268	421.38
494.485	437.38
494.703	424.38
494.92	443.38
495.138	424.38
495.355	435.38
495.573	435.38
495.79	430.38
496.008	446.38
496.225	445.38
496.442	447.38
496.66	443.38
496.877	455.38
497.094	471.38
497.312	480.38
497.529	475.38
497.746	480.38
497.963	477.38
498.181	497.38
498.398	537.38
498.615	539.38
498.832	578.38
499.049	607.38
499.267	639.38
499.484	687.38
499.701	767.38
499.918	817.38
500.135	921.38
500.352	1017.38
500.569	1016.38
500.786	975.38
501.003	919.38
501.22	863.38
501.437	789.38
501.654	701.38
501.871	651.38
502.088	629.38
