Data from Fe(NO3)3@0.1M.TitratingCurve.Agarose3%dH2O.NegLispCup.LampEnergy10.LIBS07252019_HRD10591_16-39-07-332.txt Node
Date: Thu Jul 25 16:39:07 EDT 2019
User: cochatt
Spectrometer: HR+D1059
Trigger mode: 1
Integration Time (sec): 1.000000E-1
Scans to average: 1
Electric dark correction enabled: true
Nonlinearity correction enabled: false
Boxcar width: 0
XAxis mode: Wavelengths
Number of Pixels in Spectrum: 2048
>>>>>Begin Spectral Data<<<<<
223.165	-19.12
223.4	-19.12
223.635	-19.12
223.869	-16.12
224.104	-21.12
224.338	-9.12
224.573	-4.12
224.808	-5.12
225.042	-1.12
225.277	-12.12
225.511	4.88
225.746	1.88
225.98	16.88
226.215	4.88
226.449	10.88
226.683	5.88
226.918	23.88
227.152	18.88
227.387	45.88
227.621	36.88
227.856	33.88
228.09	57.88
228.324	42.88
228.559	47.88
228.793	59.88
229.027	71.88
229.262	83.88
229.496	72.88
229.73	76.88
229.964	83.88
230.199	99.88
230.433	89.88
230.667	92.88
230.901	82.88
231.136	89.88
231.37	93.88
231.604	93.88
231.838	88.88
232.072	81.88
232.306	89.88
232.541	99.88
232.775	111.88
233.009	89.88
233.243	98.88
233.477	83.88
233.711	93.88
233.945	88.88
234.179	85.88
234.413	99.88
234.647	104.88
234.881	103.88
235.115	102.88
235.349	102.88
235.583	104.88
235.817	101.88
236.051	95.88
236.285	109.88
236.519	110.88
236.753	84.88
236.987	85.88
237.221	92.88
237.455	104.88
237.689	90.88
237.922	90.88
238.156	98.88
238.39	93.88
238.624	95.88
238.858	107.88
239.091	89.88
239.325	92.88
239.559	105.88
239.793	101.88
240.027	104.88
240.26	101.88
240.494	97.88
240.728	104.88
240.961	101.88
241.195	114.88
241.429	98.88
241.662	110.88
241.896	109.88
242.13	114.88
242.363	106.88
242.597	115.88
242.83	105.88
243.064	94.88
243.298	102.88
243.531	113.88
243.765	119.88
243.998	111.88
244.232	108.88
244.465	119.88
244.699	110.88
244.932	107.88
245.166	111.88
245.399	123.88
245.633	105.88
245.866	118.88
246.099	112.88
246.333	116.88
246.566	115.88
246.8	102.88
247.033	121.88
247.266	117.88
247.5	118.88
247.733	125.88
247.966	119.88
248.2	120.88
248.433	131.88
248.666	118.88
248.899	123.88
249.133	110.88
249.366	120.88
249.599	133.88
249.832	124.88
250.066	117.88
250.299	121.88
250.532	127.88
250.765	122.88
250.998	112.88
251.231	113.88
251.465	121.88
251.698	121.88
251.931	110.88
252.164	137.88
252.397	124.88
252.63	127.88
252.863	133.88
253.096	115.88
253.329	134.88
253.562	130.88
253.795	125.88
254.028	133.88
254.261	122.88
254.494	123.88
254.727	125.88
254.96	129.88
255.193	126.88
255.426	131.88
255.659	127.88
255.892	145.88
256.124	141.88
256.357	126.88
256.59	141.88
256.823	137.88
257.056	145.88
257.289	134.88
257.521	143.88
257.754	150.88
257.987	141.88
258.22	140.88
258.452	137.88
258.685	129.88
258.918	126.88
259.151	133.88
259.383	147.88
259.616	147.88
259.849	131.88
260.081	135.88
260.314	150.88
260.547	150.88
260.779	143.88
261.012	143.88
261.244	139.88
261.477	153.88
261.71	158.88
261.942	143.88
262.175	160.88
262.407	148.88
262.64	141.88
262.872	142.88
263.105	153.88
263.337	143.88
263.57	144.88
263.802	141.88
264.035	150.88
264.267	139.88
264.499	142.88
264.732	166.88
264.964	139.88
265.197	158.88
265.429	161.88
265.661	143.88
265.894	139.88
266.126	153.88
266.358	144.88
266.591	148.88
266.823	161.88
267.055	161.88
267.287	148.88
267.52	165.88
267.752	143.88
267.984	166.88
268.216	145.88
268.448	165.88
268.681	153.88
268.913	156.88
269.145	162.88
269.377	146.88
269.609	153.88
269.841	167.88
270.073	158.88
270.306	158.88
270.538	157.88
270.77	151.88
271.002	166.88
271.234	167.88
271.466	148.88
271.698	165.88
271.93	166.88
272.162	165.88
272.394	158.88
272.626	174.88
272.858	147.88
273.09	174.88
273.322	169.88
273.553	179.88
273.785	170.88
274.017	162.88
274.249	174.88
274.481	173.88
274.713	170.88
274.945	166.88
275.176	169.88
275.408	171.88
275.64	185.88
275.872	186.88
276.104	165.88
276.335	161.88
276.567	170.88
276.799	173.88
277.031	182.88
277.262	162.88
277.494	178.88
277.726	162.88
277.957	164.88
278.189	174.88
278.421	170.88
278.652	179.88
278.884	173.88
279.115	181.88
279.347	169.88
279.579	180.88
279.81	186.88
280.042	166.88
280.273	174.88
280.505	182.88
280.736	181.88
280.968	170.88
281.199	173.88
281.431	182.88
281.662	188.88
281.894	177.88
282.125	181.88
282.356	198.88
282.588	182.88
282.819	197.88
283.051	187.88
283.282	197.88
283.513	201.88
283.745	193.88
283.976	186.88
284.207	178.88
284.439	194.88
284.67	197.88
284.901	187.88
285.132	194.88
285.364	196.88
285.595	189.88
285.826	192.88
286.057	181.88
286.288	190.88
286.52	193.88
286.751	188.88
286.982	193.88
287.213	186.88
287.444	193.88
287.675	210.88
287.906	214.88
288.138	198.88
288.369	193.88
288.6	195.88
288.831	197.88
289.062	212.88
289.293	185.88
289.524	201.88
289.755	204.88
289.986	185.88
290.217	205.88
290.448	198.88
290.679	210.88
290.91	213.88
291.141	199.88
291.371	207.88
291.602	213.88
291.833	211.88
292.064	204.88
292.295	221.88
292.526	199.88
292.757	190.88
292.987	199.88
293.218	193.88
293.449	200.88
293.68	194.88
293.91	213.88
294.141	206.88
294.372	215.88
294.603	209.88
294.833	224.88
295.064	213.88
295.295	199.88
295.525	198.88
295.756	203.88
295.987	207.88
296.217	230.88
296.448	230.88
296.679	214.88
296.909	215.88
297.14	228.88
297.37	207.88
297.601	226.88
297.831	209.88
298.062	219.88
298.292	230.88
298.523	224.88
298.753	236.88
298.984	213.88
299.214	229.88
299.445	228.88
299.675	224.88
299.905	226.88
300.136	204.88
300.366	212.88
300.597	227.88
300.827	232.88
301.057	226.88
301.288	222.88
301.518	245.88
301.748	227.88
301.979	243.88
302.209	236.88
302.439	257.88
302.669	236.88
302.9	226.88
303.13	248.88
303.36	243.88
303.59	231.88
303.82	225.88
304.051	227.88
304.281	245.88
304.511	235.88
304.741	230.88
304.971	236.88
305.201	230.88
305.431	233.88
305.661	248.88
305.891	230.88
306.121	238.88
306.352	225.88
306.582	213.88
306.812	234.88
307.042	230.88
307.272	229.88
307.502	230.88
307.731	226.88
307.961	219.88
308.191	228.88
308.421	228.88
308.651	242.88
308.881	230.88
309.111	225.88
309.341	221.88
309.571	226.88
309.8	248.88
310.03	234.88
310.26	247.88
310.49	243.88
310.72	237.88
310.949	222.88
311.179	243.88
311.409	246.88
311.639	235.88
311.868	233.88
312.098	248.88
312.328	236.88
312.557	253.88
312.787	261.88
313.017	247.88
313.246	231.88
313.476	246.88
313.706	225.88
313.935	239.88
314.165	258.88
314.394	241.88
314.624	267.88
314.853	257.88
315.083	242.88
315.312	262.88
315.542	239.88
315.771	265.88
316.001	254.88
316.23	243.88
316.46	246.88
316.689	228.88
316.919	238.88
317.148	254.88
317.377	266.88
317.607	245.88
317.836	242.88
318.065	255.88
318.295	246.88
318.524	262.88
318.753	241.88
318.983	245.88
319.212	261.88
319.441	259.88
319.67	262.88
319.9	260.88
320.129	240.88
320.358	248.88
320.587	245.88
320.816	246.88
321.046	247.88
321.275	267.88
321.504	268.88
321.733	241.88
321.962	246.88
322.191	254.88
322.42	253.88
322.649	265.88
322.878	241.88
323.108	265.88
323.337	248.88
323.566	265.88
323.795	255.88
324.024	258.88
324.253	261.88
324.482	253.88
324.71	286.88
324.939	277.88
325.168	258.88
325.397	262.88
325.626	263.88
325.855	263.88
326.084	266.88
326.313	266.88
326.542	284.88
326.77	280.88
326.999	257.88
327.228	259.88
327.457	256.88
327.686	277.88
327.914	279.88
328.143	278.88
328.372	284.88
328.6	279.88
328.829	281.88
329.058	282.88
329.287	277.88
329.515	287.88
329.744	263.88
329.972	284.88
330.201	283.88
330.43	281.88
330.658	289.88
330.887	303.88
331.115	278.88
331.344	301.88
331.572	275.88
331.801	283.88
332.03	287.88
332.258	289.88
332.486	307.88
332.715	323.88
332.943	318.88
333.172	335.88
333.4	328.88
333.629	346.88
333.857	340.88
334.085	351.88
334.314	345.88
334.542	347.88
334.771	338.88
334.999	324.88
335.227	338.88
335.455	319.88
335.684	339.88
335.912	315.88
336.14	345.88
336.369	308.88
336.597	326.88
336.825	299.88
337.053	309.88
337.281	313.88
337.51	310.88
337.738	322.88
337.966	306.88
338.194	305.88
338.422	299.88
338.65	297.88
338.878	313.88
339.106	289.88
339.334	296.88
339.562	308.88
339.79	277.88
340.018	300.88
340.246	302.88
340.474	289.88
340.702	293.88
340.93	294.88
341.158	293.88
341.386	289.88
341.614	303.88
341.842	302.88
342.07	301.88
342.298	287.88
342.526	310.88
342.754	307.88
342.981	297.88
343.209	308.88
343.437	317.88
343.665	335.88
343.893	332.88
344.12	334.88
344.348	333.88
344.576	334.88
344.804	309.88
345.031	307.88
345.259	294.88
345.487	309.88
345.714	283.88
345.942	282.88
346.17	287.88
346.397	301.88
346.625	302.88
346.853	288.88
347.08	280.88
347.308	284.88
347.535	289.88
347.763	297.88
347.99	297.88
348.218	281.88
348.445	281.88
348.673	273.88
348.9	278.88
349.128	289.88
349.355	285.88
349.583	286.88
349.81	291.88
350.037	271.88
350.265	281.88
350.492	287.88
350.72	281.88
350.947	285.88
351.174	300.88
351.402	289.88
351.629	278.88
351.856	286.88
352.083	283.88
352.311	277.88
352.538	277.88
352.765	304.88
352.992	274.88
353.22	269.88
353.447	282.88
353.674	289.88
353.901	279.88
354.128	278.88
354.355	275.88
354.583	262.88
354.81	289.88
355.037	283.88
355.264	278.88
355.491	289.88
355.718	297.88
355.945	271.88
356.172	305.88
356.399	267.88
356.626	294.88
356.853	267.88
357.08	295.88
357.307	296.88
357.534	276.88
357.761	290.88
357.988	306.88
358.215	300.88
358.441	283.88
358.668	290.88
358.895	291.88
359.122	282.88
359.349	281.88
359.576	308.88
359.802	279.88
360.029	275.88
360.256	294.88
360.483	282.88
360.709	309.88
360.936	307.88
361.163	291.88
361.39	290.88
361.616	272.88
361.843	296.88
362.07	295.88
362.296	290.88
362.523	277.88
362.749	276.88
362.976	280.88
363.203	289.88
363.429	271.88
363.656	297.88
363.882	295.88
364.109	288.88
364.335	292.88
364.562	292.88
364.788	291.88
365.015	286.88
365.241	278.88
365.468	299.88
365.694	291.88
365.92	287.88
366.147	291.88
366.373	283.88
366.599	289.88
366.826	291.88
367.052	278.88
367.278	274.88
367.505	293.88
367.731	297.88
367.957	313.88
368.184	287.88
368.41	297.88
368.636	303.88
368.862	294.88
369.089	297.88
369.315	307.88
369.541	302.88
369.767	321.88
369.993	292.88
370.219	305.88
370.445	299.88
370.672	299.88
370.898	308.88
371.124	308.88
371.35	308.88
371.576	326.88
371.802	331.88
372.028	334.88
372.254	326.88
372.48	327.88
372.706	302.88
372.932	328.88
373.158	336.88
373.384	341.88
373.61	323.88
373.835	315.88
374.061	317.88
374.287	326.88
374.513	329.88
374.739	340.88
374.965	339.88
375.191	337.88
375.416	329.88
375.642	322.88
375.868	330.88
376.094	307.88
376.319	306.88
376.545	323.88
376.771	332.88
376.997	324.88
377.222	330.88
377.448	327.88
377.674	327.88
377.899	321.88
378.125	327.88
378.35	306.88
378.576	316.88
378.802	298.88
379.027	317.88
379.253	317.88
379.478	319.88
379.704	325.88
379.929	321.88
380.155	314.88
380.38	305.88
380.606	321.88
380.831	335.88
381.057	310.88
381.282	329.88
381.507	323.88
381.733	320.88
381.958	319.88
382.184	334.88
382.409	334.88
382.634	342.88
382.86	355.88
383.085	343.88
383.31	331.88
383.535	357.88
383.761	339.88
383.986	361.88
384.211	351.88
384.436	357.88
384.662	366.88
384.887	377.88
385.112	353.88
385.337	370.88
385.562	369.88
385.787	389.88
386.013	367.88
386.238	374.88
386.463	364.88
386.688	377.88
386.913	373.88
387.138	387.88
387.363	375.88
387.588	366.88
387.813	364.88
388.038	379.88
388.263	373.88
388.488	374.88
388.713	383.88
388.938	361.88
389.163	377.88
389.387	374.88
389.612	373.88
389.837	358.88
390.062	381.88
390.287	367.88
390.512	360.88
390.736	373.88
390.961	358.88
391.186	389.88
391.411	396.88
391.636	411.88
391.86	420.88
392.085	395.88
392.31	421.88
392.534	406.88
392.759	395.88
392.984	391.88
393.208	397.88
393.433	397.88
393.658	394.88
393.882	404.88
394.107	398.88
394.331	393.88
394.556	408.88
394.78	423.88
395.005	419.88
395.229	411.88
395.454	405.88
395.678	413.88
395.903	393.88
396.127	412.88
396.352	383.88
396.576	383.88
396.801	399.88
397.025	412.88
397.249	410.88
397.474	419.88
397.698	422.88
397.922	422.88
398.147	422.88
398.371	436.88
398.595	459.88
398.82	449.88
399.044	510.88
399.268	562.88
399.492	622.88
399.717	641.88
399.941	631.88
400.165	552.88
400.389	531.88
400.613	463.88
400.837	471.88
401.062	502.88
401.286	466.88
401.51	462.88
401.734	462.88
401.958	467.88
402.182	475.88
402.406	469.88
402.63	472.88
402.854	467.88
403.078	486.88
403.302	488.88
403.526	509.88
403.75	517.88
403.974	498.88
404.198	511.88
404.422	515.88
404.645	498.88
404.869	498.88
405.093	500.88
405.317	498.88
405.541	526.88
405.765	506.88
405.988	502.88
406.212	503.88
406.436	499.88
406.66	534.88
406.883	526.88
407.107	549.88
407.331	569.88
407.555	563.88
407.778	566.88
408.002	545.88
408.226	530.88
408.449	530.88
408.673	532.88
408.896	522.88
409.12	500.88
409.344	500.88
409.567	498.88
409.791	481.88
410.014	500.88
410.238	484.88
410.461	500.88
410.685	505.88
410.908	492.88
411.132	481.88
411.355	466.88
411.578	462.88
411.802	470.88
412.025	463.88
412.249	477.88
412.472	481.88
412.695	492.88
412.919	481.88
413.142	461.88
413.365	466.88
413.589	488.88
413.812	456.88
414.035	464.88
414.258	453.88
414.482	470.88
414.705	487.88
414.928	490.88
415.151	478.88
415.374	478.88
415.597	460.88
415.821	479.88
416.044	481.88
416.267	459.88
416.49	472.88
416.713	471.88
416.936	468.88
417.159	451.88
417.382	463.88
417.605	462.88
417.828	460.88
418.051	467.88
418.274	457.88
418.497	467.88
418.72	483.88
418.943	470.88
419.166	488.88
419.389	522.88
419.611	498.88
419.834	489.88
420.057	491.88
420.28	466.88
420.503	451.88
420.726	466.88
420.948	453.88
421.171	459.88
421.394	484.88
421.617	461.88
421.839	454.88
422.062	461.88
422.285	427.88
422.507	467.88
422.73	480.88
422.953	474.88
423.175	478.88
423.398	480.88
423.621	478.88
423.843	488.88
424.066	484.88
424.288	475.88
424.511	470.88
424.733	485.88
424.956	474.88
425.178	481.88
425.401	460.88
425.623	471.88
425.846	460.88
426.068	451.88
426.291	458.88
426.513	448.88
426.735	444.88
426.958	442.88
427.18	419.88
427.402	451.88
427.625	448.88
427.847	416.88
428.069	423.88
428.292	436.88
428.514	430.88
428.736	414.88
428.958	414.88
429.181	445.88
429.403	417.88
429.625	445.88
429.847	425.88
430.069	413.88
430.292	423.88
430.514	418.88
430.736	427.88
430.958	421.88
431.18	437.88
431.402	427.88
431.624	415.88
431.846	438.88
432.068	428.88
432.29	434.88
432.512	417.88
432.734	435.88
432.956	428.88
433.178	436.88
433.4	446.88
433.622	435.88
433.844	428.88
434.066	431.88
434.287	446.88
434.509	436.88
434.731	463.88
434.953	460.88
435.175	475.88
435.397	474.88
435.618	453.88
435.84	429.88
436.062	430.88
436.284	454.88
436.505	439.88
436.727	441.88
436.949	421.88
437.17	408.88
437.392	425.88
437.614	422.88
437.835	417.88
438.057	415.88
438.278	421.88
438.5	446.88
438.721	427.88
438.943	423.88
439.165	418.88
439.386	406.88
439.608	438.88
439.829	427.88
440.05	441.88
440.272	444.88
440.493	443.88
440.715	439.88
440.936	474.88
441.158	477.88
441.379	477.88
441.6	509.88
441.822	474.88
442.043	468.88
442.264	481.88
442.486	466.88
442.707	467.88
442.928	484.88
443.149	499.88
443.371	461.88
443.592	486.88
443.813	469.88
444.034	479.88
444.255	488.88
444.476	540.88
444.698	539.88
444.919	574.88
445.14	621.88
445.361	529.88
445.582	504.88
445.803	484.88
446.024	472.88
446.245	458.88
446.466	456.88
446.687	435.88
446.908	438.88
447.129	433.88
447.35	435.88
447.571	431.88
447.792	413.88
448.013	428.88
448.234	410.88
448.455	436.88
448.675	428.88
448.896	395.88
449.117	419.88
449.338	399.88
449.559	429.88
449.779	399.88
450	413.88
450.221	399.88
450.442	394.88
450.662	421.88
450.883	395.88
451.104	406.88
451.324	406.88
451.545	399.88
451.766	404.88
451.986	412.88
452.207	419.88
452.428	398.88
452.648	390.88
452.869	392.88
453.089	403.88
453.31	397.88
453.53	411.88
453.751	385.88
453.971	396.88
454.192	380.88
454.412	382.88
454.633	390.88
454.853	381.88
455.073	381.88
455.294	382.88
455.514	377.88
455.734	395.88
455.955	374.88
456.175	382.88
456.395	397.88
456.616	383.88
456.836	375.88
457.056	381.88
457.276	375.88
457.497	386.88
457.717	382.88
457.937	378.88
458.157	397.88
458.377	387.88
458.598	379.88
458.818	423.88
459.038	429.88
459.258	436.88
459.478	433.88
459.698	433.88
459.918	445.88
460.138	462.88
460.358	498.88
460.578	482.88
460.798	505.88
461.018	513.88
461.238	500.88
461.458	502.88
461.678	486.88
461.898	492.88
462.118	520.88
462.338	534.88
462.558	543.88
462.777	569.88
462.997	586.88
463.217	630.88
463.437	614.88
463.657	597.88
463.876	591.88
464.096	566.88
464.316	553.88
464.536	555.88
464.755	533.88
464.975	526.88
465.195	498.88
465.414	466.88
465.634	481.88
465.854	460.88
466.073	455.88
466.293	427.88
466.512	429.88
466.732	415.88
466.951	433.88
467.171	423.88
467.391	409.88
467.61	440.88
467.829	426.88
468.049	430.88
468.268	398.88
468.488	405.88
468.707	401.88
468.927	406.88
469.146	407.88
469.365	412.88
469.585	413.88
469.804	420.88
470.023	434.88
470.243	438.88
470.462	440.88
470.681	438.88
470.901	445.88
471.12	421.88
471.339	408.88
471.558	415.88
471.777	412.88
471.997	417.88
472.216	392.88
472.435	417.88
472.654	392.88
472.873	399.88
473.092	397.88
473.311	404.88
473.53	397.88
473.749	413.88
473.968	397.88
474.187	400.88
474.406	375.88
474.625	415.88
474.844	425.88
475.063	395.88
475.282	378.88
475.501	406.88
475.72	400.88
475.939	416.88
476.158	418.88
476.377	406.88
476.596	400.88
476.814	430.88
477.033	434.88
477.252	433.88
477.471	444.88
477.69	453.88
477.908	469.88
478.127	462.88
478.346	476.88
478.564	454.88
478.783	461.88
479.002	488.88
479.22	495.88
479.439	485.88
479.658	475.88
479.876	485.88
480.095	486.88
480.313	514.88
480.532	504.88
480.751	495.88
480.969	474.88
481.188	474.88
481.406	469.88
481.624	460.88
481.843	449.88
482.061	440.88
482.28	419.88
482.498	442.88
482.717	447.88
482.935	442.88
483.153	446.88
483.372	441.88
483.59	454.88
483.808	435.88
484.027	459.88
484.245	444.88
484.463	447.88
484.681	488.88
484.9	464.88
485.118	461.88
485.336	443.88
485.554	467.88
485.772	441.88
485.99	472.88
486.209	454.88
486.427	453.88
486.645	449.88
486.863	476.88
487.081	471.88
487.299	462.88
487.517	459.88
487.735	467.88
487.953	476.88
488.171	487.88
488.389	478.88
488.607	468.88
488.825	443.88
489.043	463.88
489.261	449.88
489.479	450.88
489.696	453.88
489.914	462.88
490.132	461.88
490.35	476.88
490.568	467.88
490.786	457.88
491.003	464.88
491.221	445.88
491.439	466.88
491.657	480.88
491.874	495.88
492.092	488.88
492.31	474.88
492.527	460.88
492.745	478.88
492.963	507.88
493.18	474.88
493.398	486.88
493.615	488.88
493.833	475.88
494.05	483.88
494.268	493.88
494.485	488.88
494.703	492.88
494.92	493.88
495.138	485.88
495.355	479.88
495.573	505.88
495.79	508.88
496.008	490.88
496.225	507.88
496.442	490.88
496.66	530.88
496.877	530.88
497.094	525.88
497.312	569.88
497.529	532.88
497.746	558.88
497.963	578.88
498.181	584.88
498.398	604.88
498.615	625.88
498.832	673.88
499.049	706.88
499.267	761.88
499.484	812.88
499.701	888.88
499.918	979.88
500.135	1071.88
500.352	1188.88
500.569	1189.88
500.786	1157.88
501.003	1105.88
501.22	1011.88
501.437	930.88
501.654	819.88
501.871	786.88
502.088	726.88
