Data from Fe(NO3)3@0.05M.TitratingCurve.Agarose3%dH2O.NegLispCup.LampEnergy10.LIBS07252019_HRD10591_16-48-26-334.txt Node
Date: Thu Jul 25 16:48:26 EDT 2019
User: cochatt
Spectrometer: HR+D1059
Trigger mode: 1
Integration Time (sec): 1.000000E-1
Scans to average: 1
Electric dark correction enabled: true
Nonlinearity correction enabled: false
Boxcar width: 0
XAxis mode: Wavelengths
Number of Pixels in Spectrum: 2048
>>>>>Begin Spectral Data<<<<<
223.165	-8.56
223.4	-8.56
223.635	-8.56
223.869	-23.56
224.104	-6.56
224.338	-6.56
224.573	-11.56
224.808	-8.56
225.042	-19.56
225.277	-8.56
225.511	5.44
225.746	6.44
225.98	6.44
226.215	9.44
226.449	18.44
226.683	10.44
226.918	15.44
227.152	21.44
227.387	43.44
227.621	39.44
227.856	41.44
228.09	44.44
228.324	45.44
228.559	64.44
228.793	69.44
229.027	72.44
229.262	74.44
229.496	84.44
229.73	73.44
229.964	71.44
230.199	74.44
230.433	83.44
230.667	81.44
230.901	89.44
231.136	85.44
231.37	90.44
231.604	94.44
231.838	79.44
232.072	97.44
232.306	79.44
232.541	89.44
232.775	97.44
233.009	76.44
233.243	92.44
233.477	87.44
233.711	85.44
233.945	83.44
234.179	98.44
234.413	90.44
234.647	98.44
234.881	85.44
235.115	83.44
235.349	92.44
235.583	93.44
235.817	88.44
236.051	85.44
236.285	86.44
236.519	93.44
236.753	105.44
236.987	107.44
237.221	100.44
237.455	97.44
237.689	103.44
237.922	99.44
238.156	98.44
238.39	100.44
238.624	90.44
238.858	98.44
239.091	92.44
239.325	99.44
239.559	105.44
239.793	88.44
240.027	91.44
240.26	102.44
240.494	76.44
240.728	91.44
240.961	92.44
241.195	102.44
241.429	97.44
241.662	104.44
241.896	93.44
242.13	94.44
242.363	95.44
242.597	95.44
242.83	98.44
243.064	90.44
243.298	95.44
243.531	103.44
243.765	87.44
243.998	107.44
244.232	99.44
244.465	97.44
244.699	92.44
244.932	101.44
245.166	111.44
245.399	101.44
245.633	90.44
245.866	122.44
246.099	100.44
246.333	98.44
246.566	110.44
246.8	105.44
247.033	113.44
247.266	97.44
247.5	105.44
247.733	96.44
247.966	105.44
248.2	100.44
248.433	104.44
248.666	106.44
248.899	112.44
249.133	109.44
249.366	125.44
249.599	107.44
249.832	117.44
250.066	116.44
250.299	111.44
250.532	106.44
250.765	104.44
250.998	115.44
251.231	116.44
251.465	105.44
251.698	116.44
251.931	118.44
252.164	107.44
252.397	113.44
252.63	113.44
252.863	117.44
253.096	122.44
253.329	113.44
253.562	122.44
253.795	112.44
254.028	117.44
254.261	95.44
254.494	111.44
254.727	118.44
254.96	116.44
255.193	126.44
255.426	113.44
255.659	100.44
255.892	131.44
256.124	113.44
256.357	113.44
256.59	126.44
256.823	118.44
257.056	107.44
257.289	115.44
257.521	115.44
257.754	137.44
257.987	105.44
258.22	126.44
258.452	126.44
258.685	113.44
258.918	131.44
259.151	125.44
259.383	117.44
259.616	124.44
259.849	110.44
260.081	128.44
260.314	121.44
260.547	125.44
260.779	118.44
261.012	117.44
261.244	126.44
261.477	134.44
261.71	133.44
261.942	125.44
262.175	115.44
262.407	114.44
262.64	122.44
262.872	129.44
263.105	124.44
263.337	115.44
263.57	122.44
263.802	127.44
264.035	124.44
264.267	128.44
264.499	127.44
264.732	133.44
264.964	113.44
265.197	123.44
265.429	125.44
265.661	135.44
265.894	139.44
266.126	132.44
266.358	115.44
266.591	133.44
266.823	131.44
267.055	114.44
267.287	137.44
267.52	123.44
267.752	123.44
267.984	126.44
268.216	138.44
268.448	135.44
268.681	120.44
268.913	109.44
269.145	134.44
269.377	121.44
269.609	128.44
269.841	121.44
270.073	128.44
270.306	125.44
270.538	151.44
270.77	136.44
271.002	125.44
271.234	130.44
271.466	122.44
271.698	127.44
271.93	142.44
272.162	134.44
272.394	141.44
272.626	135.44
272.858	135.44
273.09	142.44
273.322	127.44
273.553	136.44
273.785	128.44
274.017	140.44
274.249	155.44
274.481	141.44
274.713	138.44
274.945	153.44
275.176	148.44
275.408	151.44
275.64	137.44
275.872	126.44
276.104	136.44
276.335	149.44
276.567	134.44
276.799	151.44
277.031	147.44
277.262	149.44
277.494	141.44
277.726	147.44
277.957	154.44
278.189	142.44
278.421	148.44
278.652	137.44
278.884	152.44
279.115	136.44
279.347	131.44
279.579	141.44
279.81	139.44
280.042	147.44
280.273	134.44
280.505	129.44
280.736	150.44
280.968	149.44
281.199	141.44
281.431	136.44
281.662	150.44
281.894	147.44
282.125	149.44
282.356	159.44
282.588	157.44
282.819	154.44
283.051	154.44
283.282	148.44
283.513	150.44
283.745	147.44
283.976	149.44
284.207	140.44
284.439	150.44
284.67	166.44
284.901	147.44
285.132	149.44
285.364	148.44
285.595	146.44
285.826	140.44
286.057	160.44
286.288	147.44
286.52	153.44
286.751	143.44
286.982	135.44
287.213	148.44
287.444	161.44
287.675	153.44
287.906	140.44
288.138	149.44
288.369	146.44
288.6	143.44
288.831	162.44
289.062	160.44
289.293	150.44
289.524	143.44
289.755	162.44
289.986	166.44
290.217	157.44
290.448	147.44
290.679	152.44
290.91	161.44
291.141	153.44
291.371	156.44
291.602	155.44
291.833	146.44
292.064	150.44
292.295	149.44
292.526	135.44
292.757	157.44
292.987	164.44
293.218	163.44
293.449	167.44
293.68	157.44
293.91	158.44
294.141	163.44
294.372	156.44
294.603	149.44
294.833	171.44
295.064	157.44
295.295	172.44
295.525	172.44
295.756	153.44
295.987	171.44
296.217	141.44
296.448	153.44
296.679	164.44
296.909	163.44
297.14	163.44
297.37	167.44
297.601	155.44
297.831	174.44
298.062	161.44
298.292	166.44
298.523	155.44
298.753	169.44
298.984	174.44
299.214	162.44
299.445	165.44
299.675	162.44
299.905	167.44
300.136	166.44
300.366	161.44
300.597	159.44
300.827	160.44
301.057	159.44
301.288	157.44
301.518	172.44
301.748	149.44
301.979	183.44
302.209	169.44
302.439	169.44
302.669	155.44
302.9	165.44
303.13	176.44
303.36	165.44
303.59	164.44
303.82	164.44
304.051	166.44
304.281	177.44
304.511	164.44
304.741	157.44
304.971	171.44
305.201	170.44
305.431	170.44
305.661	172.44
305.891	167.44
306.121	175.44
306.352	173.44
306.582	161.44
306.812	173.44
307.042	174.44
307.272	162.44
307.502	181.44
307.731	173.44
307.961	158.44
308.191	172.44
308.421	166.44
308.651	172.44
308.881	165.44
309.111	161.44
309.341	148.44
309.571	175.44
309.8	168.44
310.03	155.44
310.26	166.44
310.49	158.44
310.72	180.44
310.949	168.44
311.179	173.44
311.409	177.44
311.639	158.44
311.868	172.44
312.098	173.44
312.328	184.44
312.557	191.44
312.787	188.44
313.017	183.44
313.246	177.44
313.476	176.44
313.706	189.44
313.935	173.44
314.165	178.44
314.394	169.44
314.624	165.44
314.853	180.44
315.083	174.44
315.312	188.44
315.542	177.44
315.771	173.44
316.001	179.44
316.23	182.44
316.46	174.44
316.689	197.44
316.919	174.44
317.148	175.44
317.377	171.44
317.607	181.44
317.836	165.44
318.065	172.44
318.295	183.44
318.524	175.44
318.753	174.44
318.983	188.44
319.212	192.44
319.441	183.44
319.67	185.44
319.9	193.44
320.129	184.44
320.358	177.44
320.587	170.44
320.816	188.44
321.046	177.44
321.275	170.44
321.504	183.44
321.733	189.44
321.962	185.44
322.191	191.44
322.42	189.44
322.649	163.44
322.878	185.44
323.108	177.44
323.337	186.44
323.566	178.44
323.795	179.44
324.024	182.44
324.253	190.44
324.482	186.44
324.71	188.44
324.939	177.44
325.168	190.44
325.397	191.44
325.626	207.44
325.855	199.44
326.084	189.44
326.313	194.44
326.542	198.44
326.77	214.44
326.999	189.44
327.228	188.44
327.457	191.44
327.686	185.44
327.914	181.44
328.143	187.44
328.372	189.44
328.6	191.44
328.829	191.44
329.058	203.44
329.287	187.44
329.515	192.44
329.744	206.44
329.972	201.44
330.201	191.44
330.43	193.44
330.658	199.44
330.887	163.44
331.115	186.44
331.344	206.44
331.572	187.44
331.801	211.44
332.03	197.44
332.258	215.44
332.486	211.44
332.715	227.44
332.943	214.44
333.172	214.44
333.4	212.44
333.629	215.44
333.857	224.44
334.085	221.44
334.314	219.44
334.542	214.44
334.771	231.44
334.999	230.44
335.227	222.44
335.455	211.44
335.684	244.44
335.912	225.44
336.14	228.44
336.369	218.44
336.597	205.44
336.825	202.44
337.053	199.44
337.281	197.44
337.51	203.44
337.738	221.44
337.966	203.44
338.194	204.44
338.422	198.44
338.65	187.44
338.878	206.44
339.106	204.44
339.334	203.44
339.562	210.44
339.79	206.44
340.018	185.44
340.246	215.44
340.474	200.44
340.702	209.44
340.93	210.44
341.158	202.44
341.386	204.44
341.614	190.44
341.842	202.44
342.07	188.44
342.298	203.44
342.526	197.44
342.754	210.44
342.981	196.44
343.209	199.44
343.437	202.44
343.665	225.44
343.893	208.44
344.12	227.44
344.348	221.44
344.576	202.44
344.804	198.44
345.031	195.44
345.259	206.44
345.487	211.44
345.714	199.44
345.942	200.44
346.17	199.44
346.397	193.44
346.625	206.44
346.853	193.44
347.08	173.44
347.308	195.44
347.535	181.44
347.763	197.44
347.99	207.44
348.218	194.44
348.445	182.44
348.673	217.44
348.9	202.44
349.128	189.44
349.355	205.44
349.583	200.44
349.81	205.44
350.037	190.44
350.265	205.44
350.492	209.44
350.72	193.44
350.947	202.44
351.174	213.44
351.402	195.44
351.629	196.44
351.856	191.44
352.083	207.44
352.311	181.44
352.538	185.44
352.765	196.44
352.992	208.44
353.22	211.44
353.447	191.44
353.674	213.44
353.901	207.44
354.128	201.44
354.355	197.44
354.583	191.44
354.81	202.44
355.037	193.44
355.264	187.44
355.491	195.44
355.718	204.44
355.945	194.44
356.172	206.44
356.399	190.44
356.626	205.44
356.853	193.44
357.08	190.44
357.307	208.44
357.534	185.44
357.761	188.44
357.988	188.44
358.215	195.44
358.441	195.44
358.668	207.44
358.895	198.44
359.122	187.44
359.349	186.44
359.576	193.44
359.802	203.44
360.029	200.44
360.256	189.44
360.483	208.44
360.709	199.44
360.936	215.44
361.163	185.44
361.39	199.44
361.616	187.44
361.843	185.44
362.07	198.44
362.296	187.44
362.523	193.44
362.749	202.44
362.976	194.44
363.203	206.44
363.429	198.44
363.656	195.44
363.882	195.44
364.109	191.44
364.335	209.44
364.562	208.44
364.788	211.44
365.015	206.44
365.241	185.44
365.468	177.44
365.694	202.44
365.92	215.44
366.147	211.44
366.373	188.44
366.599	190.44
366.826	211.44
367.052	196.44
367.278	196.44
367.505	203.44
367.731	202.44
367.957	200.44
368.184	197.44
368.41	201.44
368.636	206.44
368.862	205.44
369.089	218.44
369.315	199.44
369.541	185.44
369.767	201.44
369.993	202.44
370.219	205.44
370.445	206.44
370.672	197.44
370.898	212.44
371.124	204.44
371.35	216.44
371.576	207.44
371.802	218.44
372.028	208.44
372.254	223.44
372.48	200.44
372.706	214.44
372.932	210.44
373.158	210.44
373.384	204.44
373.61	234.44
373.835	210.44
374.061	213.44
374.287	232.44
374.513	243.44
374.739	217.44
374.965	217.44
375.191	233.44
375.416	217.44
375.642	220.44
375.868	214.44
376.094	219.44
376.319	220.44
376.545	226.44
376.771	225.44
376.997	226.44
377.222	215.44
377.448	213.44
377.674	214.44
377.899	214.44
378.125	223.44
378.35	228.44
378.576	228.44
378.802	230.44
379.027	212.44
379.253	211.44
379.478	205.44
379.704	235.44
379.929	224.44
380.155	223.44
380.38	228.44
380.606	225.44
380.831	215.44
381.057	212.44
381.282	216.44
381.507	217.44
381.733	243.44
381.958	229.44
382.184	242.44
382.409	228.44
382.634	251.44
382.86	252.44
383.085	219.44
383.31	234.44
383.535	241.44
383.761	242.44
383.986	250.44
384.211	253.44
384.436	236.44
384.662	235.44
384.887	258.44
385.112	236.44
385.337	257.44
385.562	242.44
385.787	249.44
386.013	257.44
386.238	255.44
386.463	234.44
386.688	265.44
386.913	234.44
387.138	259.44
387.363	239.44
387.588	258.44
387.813	243.44
388.038	261.44
388.263	265.44
388.488	259.44
388.713	254.44
388.938	261.44
389.163	257.44
389.387	259.44
389.612	262.44
389.837	253.44
390.062	267.44
390.287	259.44
390.512	256.44
390.736	255.44
390.961	257.44
391.186	262.44
391.411	277.44
391.636	263.44
391.86	271.44
392.085	262.44
392.31	278.44
392.534	266.44
392.759	252.44
392.984	253.44
393.208	245.44
393.433	247.44
393.658	260.44
393.882	261.44
394.107	278.44
394.331	259.44
394.556	251.44
394.78	264.44
395.005	270.44
395.229	254.44
395.454	289.44
395.678	277.44
395.903	298.44
396.127	273.44
396.352	249.44
396.576	275.44
396.801	270.44
397.025	277.44
397.249	267.44
397.474	271.44
397.698	286.44
397.922	285.44
398.147	307.44
398.371	276.44
398.595	293.44
398.82	311.44
399.044	316.44
399.268	333.44
399.492	368.44
399.717	388.44
399.941	391.44
400.165	349.44
400.389	324.44
400.613	306.44
400.837	317.44
401.062	302.44
401.286	295.44
401.51	315.44
401.734	311.44
401.958	297.44
402.182	299.44
402.406	302.44
402.63	295.44
402.854	319.44
403.078	314.44
403.302	308.44
403.526	317.44
403.75	311.44
403.974	313.44
404.198	317.44
404.422	332.44
404.645	315.44
404.869	325.44
405.093	330.44
405.317	326.44
405.541	310.44
405.765	332.44
405.988	306.44
406.212	345.44
406.436	324.44
406.66	316.44
406.883	319.44
407.107	355.44
407.331	341.44
407.555	360.44
407.778	362.44
408.002	342.44
408.226	353.44
408.449	340.44
408.673	331.44
408.896	345.44
409.12	331.44
409.344	357.44
409.567	330.44
409.791	329.44
410.014	329.44
410.238	320.44
410.461	331.44
410.685	311.44
410.908	319.44
411.132	333.44
411.355	323.44
411.578	321.44
411.802	318.44
412.025	321.44
412.249	317.44
412.472	314.44
412.695	295.44
412.919	305.44
413.142	325.44
413.365	312.44
413.589	319.44
413.812	311.44
414.035	313.44
414.258	311.44
414.482	324.44
414.705	314.44
414.928	299.44
415.151	305.44
415.374	315.44
415.597	326.44
415.821	313.44
416.044	325.44
416.267	315.44
416.49	297.44
416.713	300.44
416.936	295.44
417.159	299.44
417.382	290.44
417.605	324.44
417.828	317.44
418.051	301.44
418.274	305.44
418.497	307.44
418.72	310.44
418.943	289.44
419.166	328.44
419.389	327.44
419.611	333.44
419.834	329.44
420.057	317.44
420.28	313.44
420.503	295.44
420.726	311.44
420.948	310.44
421.171	313.44
421.394	277.44
421.617	310.44
421.839	306.44
422.062	318.44
422.285	289.44
422.507	324.44
422.73	314.44
422.953	316.44
423.175	312.44
423.398	315.44
423.621	314.44
423.843	325.44
424.066	317.44
424.288	307.44
424.511	329.44
424.733	319.44
424.956	315.44
425.178	322.44
425.401	313.44
425.623	298.44
425.846	315.44
426.068	313.44
426.291	308.44
426.513	308.44
426.735	308.44
426.958	311.44
427.18	302.44
427.402	296.44
427.625	309.44
427.847	294.44
428.069	278.44
428.292	301.44
428.514	296.44
428.736	295.44
428.958	278.44
429.181	295.44
429.403	302.44
429.625	281.44
429.847	296.44
430.069	286.44
430.292	269.44
430.514	293.44
430.736	291.44
430.958	281.44
431.18	297.44
431.402	305.44
431.624	285.44
431.846	297.44
432.068	289.44
432.29	279.44
432.512	288.44
432.734	302.44
432.956	290.44
433.178	315.44
433.4	299.44
433.622	301.44
433.844	297.44
434.066	314.44
434.287	302.44
434.509	317.44
434.731	319.44
434.953	321.44
435.175	317.44
435.397	329.44
435.618	301.44
435.84	322.44
436.062	301.44
436.284	303.44
436.505	314.44
436.727	300.44
436.949	307.44
437.17	287.44
437.392	316.44
437.614	295.44
437.835	294.44
438.057	286.44
438.278	305.44
438.5	299.44
438.721	289.44
438.943	297.44
439.165	306.44
439.386	293.44
439.608	293.44
439.829	306.44
440.05	325.44
440.272	312.44
440.493	301.44
440.715	301.44
440.936	301.44
441.158	301.44
441.379	326.44
441.6	323.44
441.822	318.44
442.043	321.44
442.264	337.44
442.486	330.44
442.707	320.44
442.928	331.44
443.149	325.44
443.371	313.44
443.592	325.44
443.813	325.44
444.034	321.44
444.255	341.44
444.476	349.44
444.698	348.44
444.919	349.44
445.14	469.44
445.361	408.44
445.582	350.44
445.803	339.44
446.024	321.44
446.245	312.44
446.466	300.44
446.687	330.44
446.908	321.44
447.129	306.44
447.35	313.44
447.571	309.44
447.792	291.44
448.013	298.44
448.234	290.44
448.455	309.44
448.675	289.44
448.896	282.44
449.117	282.44
449.338	277.44
449.559	298.44
449.779	287.44
450	297.44
450.221	310.44
450.442	297.44
450.662	296.44
450.883	281.44
451.104	289.44
451.324	324.44
451.545	302.44
451.766	288.44
451.986	285.44
452.207	284.44
452.428	290.44
452.648	289.44
452.869	277.44
453.089	270.44
453.31	288.44
453.53	301.44
453.751	285.44
453.971	270.44
454.192	277.44
454.412	268.44
454.633	271.44
454.853	275.44
455.073	274.44
455.294	275.44
455.514	270.44
455.734	278.44
455.955	290.44
456.175	269.44
456.395	285.44
456.616	264.44
456.836	276.44
457.056	278.44
457.276	287.44
457.497	272.44
457.717	266.44
457.937	273.44
458.157	271.44
458.377	281.44
458.598	299.44
458.818	299.44
459.038	301.44
459.258	282.44
459.478	282.44
459.698	307.44
459.918	315.44
460.138	313.44
460.358	341.44
460.578	323.44
460.798	325.44
461.018	338.44
461.238	336.44
461.458	336.44
461.678	331.44
461.898	335.44
462.118	348.44
462.338	333.44
462.558	356.44
462.777	361.44
462.997	374.44
463.217	401.44
463.437	391.44
463.657	373.44
463.876	372.44
464.096	366.44
464.316	374.44
464.536	362.44
464.755	367.44
464.975	345.44
465.195	339.44
465.414	338.44
465.634	309.44
465.854	316.44
466.073	315.44
466.293	300.44
466.512	301.44
466.732	308.44
466.951	317.44
467.171	314.44
467.391	307.44
467.61	306.44
467.829	295.44
468.049	309.44
468.268	306.44
468.488	292.44
468.707	311.44
468.927	319.44
469.146	311.44
469.365	278.44
469.585	295.44
469.804	305.44
470.023	326.44
470.243	315.44
470.462	288.44
470.681	318.44
470.901	321.44
471.12	325.44
471.339	300.44
471.558	300.44
471.777	296.44
471.997	301.44
472.216	300.44
472.435	285.44
472.654	298.44
472.873	280.44
473.092	289.44
473.311	285.44
473.53	295.44
473.749	299.44
473.968	323.44
474.187	286.44
474.406	267.44
474.625	295.44
474.844	294.44
475.063	297.44
475.282	298.44
475.501	303.44
475.72	295.44
475.939	301.44
476.158	285.44
476.377	289.44
476.596	297.44
476.814	317.44
477.033	310.44
477.252	323.44
477.471	310.44
477.69	315.44
477.908	343.44
478.127	311.44
478.346	326.44
478.564	321.44
478.783	321.44
479.002	345.44
479.22	343.44
479.439	321.44
479.658	335.44
479.876	338.44
480.095	334.44
480.313	334.44
480.532	356.44
480.751	343.44
480.969	339.44
481.188	336.44
481.406	342.44
481.624	332.44
481.843	325.44
482.061	324.44
482.28	336.44
482.498	322.44
482.717	328.44
482.935	334.44
483.153	329.44
483.372	329.44
483.59	334.44
483.808	338.44
484.027	311.44
484.245	331.44
484.463	337.44
484.681	332.44
484.9	335.44
485.118	345.44
485.336	339.44
485.554	351.44
485.772	336.44
485.99	330.44
486.209	347.44
486.427	343.44
486.645	324.44
486.863	339.44
487.081	347.44
487.299	335.44
487.517	335.44
487.735	341.44
487.953	359.44
488.171	358.44
488.389	343.44
488.607	335.44
488.825	333.44
489.043	341.44
489.261	331.44
489.479	337.44
489.696	334.44
489.914	334.44
490.132	346.44
490.35	358.44
490.568	351.44
490.786	352.44
491.003	347.44
491.221	345.44
491.439	358.44
491.657	360.44
491.874	363.44
492.092	368.44
492.31	366.44
492.527	369.44
492.745	345.44
492.963	353.44
493.18	357.44
493.398	358.44
493.615	371.44
493.833	353.44
494.05	362.44
494.268	373.44
494.485	360.44
494.703	366.44
494.92	366.44
495.138	358.44
495.355	356.44
495.573	358.44
495.79	357.44
496.008	370.44
496.225	359.44
496.442	369.44
496.66	363.44
496.877	385.44
497.094	389.44
497.312	356.44
497.529	381.44
497.746	403.44
497.963	405.44
498.181	406.44
498.398	399.44
498.615	424.44
498.832	437.44
499.049	451.44
499.267	476.44
499.484	502.44
499.701	555.44
499.918	603.44
500.135	633.44
500.352	669.44
500.569	678.44
500.786	691.44
501.003	653.44
501.22	619.44
501.437	580.44
501.654	546.44
501.871	489.44
502.088	475.44
502.305	467.44
502.522	422.44
