Data from Fe(NO3)3@0.05M.TitratingCurve.Agarose3%dH2O.NegLispCup.LampEnergy10.LIBS07252019_HRD10591_16-46-19-334.txt Node
Date: Thu Jul 25 16:46:19 EDT 2019
User: cochatt
Spectrometer: HR+D1059
Trigger mode: 1
Integration Time (sec): 1.000000E-1
Scans to average: 1
Electric dark correction enabled: true
Nonlinearity correction enabled: false
Boxcar width: 0
XAxis mode: Wavelengths
Number of Pixels in Spectrum: 2048
>>>>>Begin Spectral Data<<<<<
223.165	-16.81
223.4	-16.81
223.635	-16.81
223.869	-28.81
224.104	-16.81
224.338	-22.81
224.573	-8.81
224.808	1.19
225.042	3.19
225.277	-4.81
225.511	-5.81
225.746	3.19
225.98	-1.81
226.215	12.19
226.449	19.19
226.683	12.19
226.918	21.19
227.152	34.19
227.387	35.19
227.621	45.19
227.856	31.19
228.09	49.19
228.324	55.19
228.559	67.19
228.793	74.19
229.027	122.19
229.262	132.19
229.496	142.19
229.73	150.19
229.964	157.19
230.199	166.19
230.433	162.19
230.667	175.19
230.901	172.19
231.136	153.19
231.37	166.19
231.604	170.19
231.838	180.19
232.072	193.19
232.306	174.19
232.541	210.19
232.775	196.19
233.009	195.19
233.243	204.19
233.477	201.19
233.711	212.19
233.945	201.19
234.179	203.19
234.413	213.19
234.647	220.19
234.881	245.19
235.115	230.19
235.349	209.19
235.583	213.19
235.817	218.19
236.051	220.19
236.285	235.19
236.519	245.19
236.753	261.19
236.987	246.19
237.221	225.19
237.455	215.19
237.689	243.19
237.922	261.19
238.156	302.19
238.39	277.19
238.624	328.19
238.858	291.19
239.091	257.19
239.325	260.19
239.559	270.19
239.793	274.19
240.027	312.19
240.26	288.19
240.494	286.19
240.728	301.19
240.961	339.19
241.195	313.19
241.429	314.19
241.662	292.19
241.896	281.19
242.13	279.19
242.363	283.19
242.597	276.19
242.83	296.19
243.064	310.19
243.298	309.19
243.531	305.19
243.765	315.19
243.998	312.19
244.232	308.19
244.465	314.19
244.699	333.19
244.932	337.19
245.166	329.19
245.399	347.19
245.633	334.19
245.866	323.19
246.099	335.19
246.333	344.19
246.566	362.19
246.8	353.19
247.033	354.19
247.266	354.19
247.5	350.19
247.733	353.19
247.966	348.19
248.2	356.19
248.433	374.19
248.666	377.19
248.899	382.19
249.133	398.19
249.366	415.19
249.599	419.19
249.832	387.19
250.066	407.19
250.299	416.19
250.532	388.19
250.765	386.19
250.998	405.19
251.231	397.19
251.465	400.19
251.698	414.19
251.931	434.19
252.164	407.19
252.397	422.19
252.63	441.19
252.863	449.19
253.096	456.19
253.329	461.19
253.562	462.19
253.795	463.19
254.028	480.19
254.261	509.19
254.494	470.19
254.727	468.19
254.96	461.19
255.193	461.19
255.426	469.19
255.659	447.19
255.892	435.19
256.124	441.19
256.357	471.19
256.59	478.19
256.823	475.19
257.056	457.19
257.289	478.19
257.521	479.19
257.754	469.19
257.987	486.19
258.22	476.19
258.452	474.19
258.685	517.19
258.918	533.19
259.151	530.19
259.383	508.19
259.616	517.19
259.849	545.19
260.081	608.19
260.314	666.19
260.547	573.19
260.779	551.19
261.012	559.19
261.244	568.19
261.477	597.19
261.71	582.19
261.942	550.19
262.175	549.19
262.407	537.19
262.64	535.19
262.872	584.19
263.105	612.19
263.337	623.19
263.57	641.19
263.802	558.19
264.035	529.19
264.267	513.19
264.499	540.19
264.732	523.19
264.964	554.19
265.197	539.19
265.429	514.19
265.661	526.19
265.894	539.19
266.126	559.19
266.358	565.19
266.591	538.19
266.823	584.19
267.055	590.19
267.287	558.19
267.52	578.19
267.752	546.19
267.984	542.19
268.216	559.19
268.448	574.19
268.681	585.19
268.913	581.19
269.145	589.19
269.377	585.19
269.609	590.19
269.841	608.19
270.073	620.19
270.306	604.19
270.538	605.19
270.77	598.19
271.002	613.19
271.234	614.19
271.466	615.19
271.698	618.19
271.93	623.19
272.162	630.19
272.394	643.19
272.626	635.19
272.858	644.19
273.09	645.19
273.322	639.19
273.553	668.19
273.785	697.19
274.017	707.19
274.249	792.19
274.481	785.19
274.713	783.19
274.945	857.19
275.176	883.19
275.408	805.19
275.64	796.19
275.872	793.19
276.104	753.19
276.335	700.19
276.567	690.19
276.799	701.19
277.031	693.19
277.262	705.19
277.494	707.19
277.726	674.19
277.957	701.19
278.189	721.19
278.421	713.19
278.652	677.19
278.884	694.19
279.115	707.19
279.347	693.19
279.579	701.19
279.81	685.19
280.042	718.19
280.273	704.19
280.505	725.19
280.736	689.19
280.968	707.19
281.199	723.19
281.431	711.19
281.662	725.19
281.894	724.19
282.125	735.19
282.356	726.19
282.588	709.19
282.819	706.19
283.051	730.19
283.282	744.19
283.513	729.19
283.745	729.19
283.976	746.19
284.207	751.19
284.439	771.19
284.67	773.19
284.901	761.19
285.132	763.19
285.364	767.19
285.595	772.19
285.826	766.19
286.057	791.19
286.288	773.19
286.52	763.19
286.751	771.19
286.982	778.19
287.213	783.19
287.444	791.19
287.675	773.19
287.906	804.19
288.138	813.19
288.369	809.19
288.6	803.19
288.831	823.19
289.062	756.19
289.293	789.19
289.524	777.19
289.755	797.19
289.986	807.19
290.217	801.19
290.448	790.19
290.679	805.19
290.91	789.19
291.141	795.19
291.371	811.19
291.602	801.19
291.833	796.19
292.064	791.19
292.295	795.19
292.526	789.19
292.757	789.19
292.987	813.19
293.218	780.19
293.449	836.19
293.68	797.19
293.91	819.19
294.141	834.19
294.372	803.19
294.603	833.19
294.833	835.19
295.064	824.19
295.295	859.19
295.525	833.19
295.756	860.19
295.987	829.19
296.217	878.19
296.448	824.19
296.679	847.19
296.909	847.19
297.14	840.19
297.37	847.19
297.601	872.19
297.831	869.19
298.062	874.19
298.292	893.19
298.523	888.19
298.753	890.19
298.984	883.19
299.214	879.19
299.445	885.19
299.675	857.19
299.905	870.19
300.136	867.19
300.366	881.19
300.597	887.19
300.827	902.19
301.057	902.19
301.288	878.19
301.518	864.19
301.748	893.19
301.979	903.19
302.209	948.19
302.439	956.19
302.669	922.19
302.9	955.19
303.13	894.19
303.36	917.19
303.59	939.19
303.82	918.19
304.051	946.19
304.281	920.19
304.511	919.19
304.741	941.19
304.971	947.19
305.201	931.19
305.431	925.19
305.661	933.19
305.891	909.19
306.121	927.19
306.352	961.19
306.582	919.19
306.812	940.19
307.042	937.19
307.272	933.19
307.502	911.19
307.731	936.19
307.961	915.19
308.191	906.19
308.421	941.19
308.651	941.19
308.881	903.19
309.111	908.19
309.341	901.19
309.571	940.19
309.8	942.19
310.03	936.19
310.26	931.19
310.49	938.19
310.72	959.19
310.949	967.19
311.179	930.19
311.409	929.19
311.639	947.19
311.868	945.19
312.098	991.19
312.328	965.19
312.557	1014.19
312.787	982.19
313.017	971.19
313.246	980.19
313.476	970.19
313.706	985.19
313.935	1011.19
314.165	984.19
314.394	1002.19
314.624	997.19
314.853	998.19
315.083	999.19
315.312	1002.19
315.542	1013.19
315.771	1013.19
316.001	1003.19
316.23	1010.19
316.46	1004.19
316.689	1031.19
316.919	1005.19
317.148	1002.19
317.377	1035.19
317.607	1002.19
317.836	1053.19
318.065	1006.19
318.295	1039.19
318.524	1014.19
318.753	1021.19
318.983	1026.19
319.212	1004.19
319.441	1016.19
319.67	994.19
319.9	1024.19
320.129	1015.19
320.358	1045.19
320.587	1013.19
320.816	997.19
321.046	1052.19
321.275	1039.19
321.504	1073.19
321.733	1073.19
321.962	1029.19
322.191	1031.19
322.42	1054.19
322.649	1054.19
322.878	1085.19
323.108	1066.19
323.337	1079.19
323.566	1087.19
323.795	1071.19
324.024	1066.19
324.253	1057.19
324.482	1075.19
324.71	1081.19
324.939	1091.19
325.168	1101.19
325.397	1067.19
325.626	1060.19
325.855	1055.19
326.084	1105.19
326.313	1102.19
326.542	1096.19
326.77	1104.19
326.999	1125.19
327.228	1089.19
327.457	1096.19
327.686	1095.19
327.914	1098.19
328.143	1105.19
328.372	1124.19
328.6	1079.19
328.829	1105.19
329.058	1134.19
329.287	1105.19
329.515	1118.19
329.744	1105.19
329.972	1127.19
330.201	1145.19
330.43	1124.19
330.658	1160.19
330.887	1159.19
331.115	1155.19
331.344	1153.19
331.572	1161.19
331.801	1150.19
332.03	1181.19
332.258	1159.19
332.486	1170.19
332.715	1186.19
332.943	1191.19
333.172	1229.19
333.4	1227.19
333.629	1256.19
333.857	1240.19
334.085	1274.19
334.314	1270.19
334.542	1263.19
334.771	1292.19
334.999	1289.19
335.227	1306.19
335.455	1310.19
335.684	1296.19
335.912	1318.19
336.14	1277.19
336.369	1273.19
336.597	1280.19
336.825	1273.19
337.053	1274.19
337.281	1293.19
337.51	1243.19
337.738	1258.19
337.966	1217.19
338.194	1231.19
338.422	1230.19
338.65	1221.19
338.878	1232.19
339.106	1221.19
339.334	1235.19
339.562	1235.19
339.79	1194.19
340.018	1254.19
340.246	1199.19
340.474	1190.19
340.702	1190.19
340.93	1185.19
341.158	1217.19
341.386	1193.19
341.614	1189.19
341.842	1216.19
342.07	1191.19
342.298	1204.19
342.526	1198.19
342.754	1219.19
342.981	1213.19
343.209	1235.19
343.437	1199.19
343.665	1229.19
343.893	1266.19
344.12	1263.19
344.348	1279.19
344.576	1286.19
344.804	1253.19
345.031	1217.19
345.259	1244.19
345.487	1231.19
345.714	1218.19
345.942	1221.19
346.17	1202.19
346.397	1186.19
346.625	1164.19
346.853	1181.19
347.08	1144.19
347.308	1143.19
347.535	1133.19
347.763	1179.19
347.99	1131.19
348.218	1115.19
348.445	1115.19
348.673	1120.19
348.9	1148.19
349.128	1124.19
349.355	1144.19
349.583	1145.19
349.81	1114.19
350.037	1115.19
350.265	1134.19
350.492	1118.19
350.72	1141.19
350.947	1132.19
351.174	1151.19
351.402	1149.19
351.629	1112.19
351.856	1161.19
352.083	1114.19
352.311	1132.19
352.538	1123.19
352.765	1118.19
352.992	1110.19
353.22	1134.19
353.447	1112.19
353.674	1128.19
353.901	1116.19
354.128	1147.19
354.355	1119.19
354.583	1135.19
354.81	1128.19
355.037	1131.19
355.264	1109.19
355.491	1113.19
355.718	1139.19
355.945	1140.19
356.172	1116.19
356.399	1133.19
356.626	1150.19
356.853	1151.19
357.08	1166.19
357.307	1155.19
357.534	1126.19
357.761	1134.19
357.988	1142.19
358.215	1166.19
358.441	1157.19
358.668	1164.19
358.895	1142.19
359.122	1142.19
359.349	1148.19
359.576	1128.19
359.802	1133.19
360.029	1142.19
360.256	1145.19
360.483	1140.19
360.709	1161.19
360.936	1157.19
361.163	1171.19
361.39	1145.19
361.616	1150.19
361.843	1117.19
362.07	1161.19
362.296	1119.19
362.523	1132.19
362.749	1151.19
362.976	1144.19
363.203	1161.19
363.429	1149.19
363.656	1157.19
363.882	1172.19
364.109	1186.19
364.335	1168.19
364.562	1190.19
364.788	1151.19
365.015	1150.19
365.241	1150.19
365.468	1132.19
365.694	1143.19
365.92	1171.19
366.147	1147.19
366.373	1161.19
366.599	1171.19
366.826	1158.19
367.052	1161.19
367.278	1168.19
367.505	1202.19
367.731	1186.19
367.957	1170.19
368.184	1209.19
368.41	1184.19
368.636	1200.19
368.862	1194.19
369.089	1211.19
369.315	1201.19
369.541	1215.19
369.767	1226.19
369.993	1178.19
370.219	1199.19
370.445	1202.19
370.672	1265.19
370.898	1242.19
371.124	1275.19
371.35	1242.19
371.576	1246.19
371.802	1239.19
372.028	1262.19
372.254	1288.19
372.48	1250.19
372.706	1268.19
372.932	1277.19
373.158	1301.19
373.384	1299.19
373.61	1285.19
373.835	1322.19
374.061	1259.19
374.287	1276.19
374.513	1298.19
374.739	1354.19
374.965	1357.19
375.191	1318.19
375.416	1327.19
375.642	1299.19
375.868	1295.19
376.094	1299.19
376.319	1274.19
376.545	1301.19
376.771	1277.19
376.997	1262.19
377.222	1253.19
377.448	1259.19
377.674	1231.19
377.899	1280.19
378.125	1281.19
378.35	1241.19
378.576	1252.19
378.802	1242.19
379.027	1256.19
379.253	1307.19
379.478	1194.19
379.704	1274.19
379.929	1261.19
380.155	1258.19
380.38	1236.19
380.606	1262.19
380.831	1261.19
381.057	1272.19
381.282	1285.19
381.507	1287.19
381.733	1301.19
381.958	1321.19
382.184	1352.19
382.409	1353.19
382.634	1321.19
382.86	1345.19
383.085	1323.19
383.31	1355.19
383.535	1383.19
383.761	1378.19
383.986	1352.19
384.211	1380.19
384.436	1384.19
384.662	1379.19
384.887	1388.19
385.112	1398.19
385.337	1409.19
385.562	1394.19
385.787	1413.19
386.013	1428.19
386.238	1441.19
386.463	1430.19
386.688	1448.19
386.913	1428.19
387.138	1457.19
387.363	1486.19
387.588	1443.19
387.813	1443.19
388.038	1465.19
388.263	1453.19
388.488	1496.19
388.713	1503.19
388.938	1459.19
389.163	1459.19
389.387	1533.19
389.612	1450.19
389.837	1430.19
390.062	1453.19
390.287	1523.19
390.512	1492.19
390.736	1494.19
390.961	1491.19
391.186	1515.19
391.411	1527.19
391.636	1543.19
391.86	1576.19
392.085	1545.19
392.31	1583.19
392.534	1510.19
392.759	1569.19
392.984	1548.19
393.208	1544.19
393.433	1542.19
393.658	1549.19
393.882	1500.19
394.107	1537.19
394.331	1545.19
394.556	1556.19
394.78	1561.19
395.005	1522.19
395.229	1551.19
395.454	1577.19
395.678	1595.19
395.903	1568.19
396.127	1606.19
396.352	1612.19
396.576	1578.19
396.801	1587.19
397.025	1587.19
397.249	1623.19
397.474	1634.19
397.698	1661.19
397.922	1659.19
398.147	1656.19
398.371	1699.19
398.595	1677.19
398.82	1740.19
399.044	1785.19
399.268	1830.19
399.492	1914.19
399.717	1980.19
399.941	2031.19
400.165	1984.19
400.389	1941.19
400.613	1915.19
400.837	1823.19
401.062	1841.19
401.286	1767.19
401.51	1825.19
401.734	1769.19
401.958	1769.19
402.182	1735.19
402.406	1737.19
402.63	1740.19
402.854	1759.19
403.078	1760.19
403.302	1778.19
403.526	1783.19
403.75	1767.19
403.974	1740.19
404.198	1751.19
404.422	1802.19
404.645	1826.19
404.869	1812.19
405.093	1803.19
405.317	1819.19
405.541	1821.19
405.765	1866.19
405.988	1838.19
406.212	1837.19
406.436	1861.19
406.66	1896.19
406.883	1825.19
407.107	1941.19
407.331	1972.19
407.555	2050.19
407.778	2048.19
408.002	2007.19
408.226	2000.19
408.449	1996.19
408.673	1956.19
408.896	1933.19
409.12	1921.19
409.344	1911.19
409.567	1857.19
409.791	1893.19
410.014	1888.19
410.238	1868.19
410.461	1896.19
410.685	1887.19
410.908	1875.19
411.132	1822.19
411.355	1805.19
411.578	1847.19
411.802	1835.19
412.025	1842.19
412.249	1846.19
412.472	1833.19
412.695	1817.19
412.919	1822.19
413.142	1778.19
413.365	1785.19
413.589	1828.19
413.812	1808.19
414.035	1794.19
414.258	1760.19
414.482	1779.19
414.705	1778.19
414.928	1757.19
415.151	1753.19
415.374	1772.19
415.597	1731.19
415.821	1729.19
416.044	1734.19
416.267	1707.19
416.49	1676.19
416.713	1702.19
416.936	1685.19
417.159	1698.19
417.382	1659.19
417.605	1665.19
417.828	1680.19
418.051	1717.19
418.274	1718.19
418.497	1693.19
418.72	1705.19
418.943	1674.19
419.166	1778.19
419.389	1918.19
419.611	1857.19
419.834	1815.19
420.057	1747.19
420.28	1710.19
420.503	1690.19
420.726	1661.19
420.948	1653.19
421.171	1703.19
421.394	1694.19
421.617	1631.19
421.839	1665.19
422.062	1699.19
422.285	1677.19
422.507	1705.19
422.73	1659.19
422.953	1669.19
423.175	1671.19
423.398	1693.19
423.621	1685.19
423.843	1736.19
424.066	1701.19
424.288	1663.19
424.511	1664.19
424.733	1669.19
424.956	1675.19
425.178	1685.19
425.401	1675.19
425.623	1676.19
425.846	1655.19
426.068	1650.19
426.291	1641.19
426.513	1665.19
426.735	1638.19
426.958	1636.19
427.18	1687.19
427.402	1652.19
427.625	1651.19
427.847	1594.19
428.069	1601.19
428.292	1611.19
428.514	1617.19
428.736	1615.19
428.958	1631.19
429.181	1603.19
429.403	1617.19
429.625	1601.19
429.847	1609.19
430.069	1606.19
430.292	1625.19
430.514	1590.19
430.736	1626.19
430.958	1617.19
431.18	1613.19
431.402	1605.19
431.624	1591.19
431.846	1615.19
432.068	1606.19
432.29	1623.19
432.512	1591.19
432.734	1626.19
432.956	1643.19
433.178	1585.19
433.4	1614.19
433.622	1593.19
433.844	1641.19
434.066	1627.19
434.287	1634.19
434.509	1646.19
434.731	1681.19
434.953	1689.19
435.175	1685.19
435.397	1699.19
435.618	1650.19
435.84	1634.19
436.062	1641.19
436.284	1622.19
436.505	1609.19
436.727	1613.19
436.949	1619.19
437.17	1593.19
437.392	1549.19
437.614	1588.19
437.835	1567.19
438.057	1564.19
438.278	1544.19
438.5	1577.19
438.721	1575.19
438.943	1579.19
439.165	1540.19
439.386	1551.19
439.608	1555.19
439.829	1573.19
440.05	1603.19
440.272	1583.19
440.493	1601.19
440.715	1651.19
440.936	1600.19
441.158	1608.19
441.379	1626.19
441.6	1657.19
441.822	1660.19
442.043	1690.19
442.264	1658.19
442.486	1629.19
442.707	1624.19
442.928	1668.19
443.149	1644.19
443.371	1655.19
443.592	1654.19
443.813	1647.19
444.034	1654.19
444.255	1693.19
444.476	1724.19
444.698	1704.19
444.919	1754.19
445.14	1847.19
445.361	1763.19
445.582	1690.19
445.803	1636.19
446.024	1623.19
446.245	1659.19
446.466	1614.19
446.687	1601.19
446.908	1561.19
447.129	1545.19
447.35	1529.19
447.571	1547.19
447.792	1505.19
448.013	1488.19
448.234	1516.19
448.455	1457.19
448.675	1485.19
448.896	1458.19
449.117	1479.19
449.338	1502.19
449.559	1480.19
449.779	1466.19
450	1490.19
450.221	1476.19
450.442	1429.19
450.662	1485.19
450.883	1445.19
451.104	1443.19
451.324	1426.19
451.545	1451.19
451.766	1438.19
451.986	1423.19
452.207	1405.19
452.428	1409.19
452.648	1436.19
452.869	1430.19
453.089	1408.19
453.31	1441.19
453.53	1406.19
453.751	1395.19
453.971	1410.19
454.192	1378.19
454.412	1386.19
454.633	1361.19
454.853	1388.19
455.073	1390.19
455.294	1390.19
455.514	1406.19
455.734	1380.19
455.955	1363.19
456.175	1401.19
456.395	1380.19
456.616	1381.19
456.836	1426.19
457.056	1401.19
457.276	1388.19
457.497	1413.19
457.717	1413.19
457.937	1433.19
458.157	1451.19
458.377	1426.19
458.598	1497.19
458.818	1463.19
459.038	1511.19
459.258	1492.19
459.478	1566.19
459.698	1565.19
459.918	1606.19
460.138	1611.19
460.358	1659.19
460.578	1665.19
460.798	1666.19
461.018	1672.19
461.238	1737.19
461.458	1698.19
461.678	1720.19
461.898	1754.19
462.118	1746.19
462.338	1819.19
462.558	1790.19
462.777	1835.19
462.997	1881.19
463.217	1901.19
463.437	1928.19
463.657	1890.19
463.876	1893.19
464.096	1923.19
464.316	1880.19
464.536	1853.19
464.755	1815.19
464.975	1828.19
465.195	1759.19
465.414	1669.19
465.634	1675.19
465.854	1674.19
466.073	1597.19
466.293	1623.19
466.512	1638.19
466.732	1587.19
466.951	1598.19
467.171	1551.19
467.391	1556.19
467.61	1527.19
467.829	1549.19
468.049	1551.19
468.268	1548.19
468.488	1533.19
468.707	1527.19
468.927	1587.19
469.146	1600.19
469.365	1547.19
469.585	1537.19
469.804	1575.19
470.023	1558.19
470.243	1590.19
470.462	1584.19
470.681	1566.19
470.901	1593.19
471.12	1577.19
471.339	1576.19
471.558	1540.19
471.777	1555.19
471.997	1557.19
472.216	1569.19
472.435	1534.19
472.654	1561.19
472.873	1534.19
473.092	1586.19
473.311	1558.19
473.53	1570.19
473.749	1551.19
473.968	1555.19
474.187	1519.19
474.406	1546.19
474.625	1609.19
474.844	1549.19
475.063	1573.19
475.282	1589.19
475.501	1559.19
475.72	1602.19
475.939	1609.19
476.158	1642.19
476.377	1657.19
476.596	1684.19
476.814	1752.19
477.033	1679.19
477.252	1692.19
477.471	1702.19
477.69	1722.19
477.908	1726.19
478.127	1764.19
478.346	1783.19
478.564	1797.19
478.783	1785.19
479.002	1829.19
479.22	1849.19
479.439	1930.19
479.658	1876.19
479.876	1892.19
480.095	1917.19
480.313	1957.19
480.532	1913.19
480.751	1891.19
480.969	1920.19
481.188	1913.19
481.406	1907.19
481.624	1881.19
481.843	1881.19
482.061	1897.19
482.28	1909.19
482.498	1914.19
482.717	1877.19
482.935	1860.19
483.153	1882.19
483.372	1887.19
483.59	1879.19
483.808	1901.19
484.027	1919.19
484.245	1902.19
484.463	1902.19
484.681	1925.19
484.9	1931.19
485.118	1943.19
485.336	1882.19
485.554	1910.19
485.772	1917.19
485.99	1954.19
486.209	1976.19
486.427	1935.19
486.645	1943.19
486.863	1935.19
487.081	1942.19
487.299	1920.19
487.517	1953.19
487.735	1924.19
487.953	1954.19
488.171	1982.19
488.389	1979.19
488.607	1916.19
488.825	1917.19
489.043	1944.19
489.261	1916.19
489.479	1944.19
489.696	1935.19
489.914	1960.19
490.132	1939.19
490.35	1941.19
490.568	1914.19
490.786	1948.19
