Data from Fe(NO3)3@0.05M.TitratingCurve.Agarose3%dH2O.NegLispCup.LampEnergy10.LIBS07252019_HRD10591_16-46-42-334.txt Node
Date: Thu Jul 25 16:46:42 EDT 2019
User: cochatt
Spectrometer: HR+D1059
Trigger mode: 1
Integration Time (sec): 1.000000E-1
Scans to average: 1
Electric dark correction enabled: true
Nonlinearity correction enabled: false
Boxcar width: 0
XAxis mode: Wavelengths
Number of Pixels in Spectrum: 2048
>>>>>Begin Spectral Data<<<<<
223.165	-10.94
223.4	-10.94
223.635	-10.94
223.869	-22.94
224.104	-22.94
224.338	-11.94
224.573	-23.94
224.808	-19.94
225.042	-8.94
225.277	-1.94
225.511	8.06
225.746	4.06
225.98	1.06
226.215	12.06
226.449	19.06
226.683	22.06
226.918	34.06
227.152	23.06
227.387	37.06
227.621	37.06
227.856	33.06
228.09	45.06
228.324	48.06
228.559	68.06
228.793	68.06
229.027	113.06
229.262	123.06
229.496	132.06
229.73	149.06
229.964	126.06
230.199	134.06
230.433	145.06
230.667	171.06
230.901	145.06
231.136	158.06
231.37	152.06
231.604	164.06
231.838	162.06
232.072	165.06
232.306	170.06
232.541	177.06
232.775	187.06
233.009	182.06
233.243	187.06
233.477	185.06
233.711	179.06
233.945	180.06
234.179	202.06
234.413	193.06
234.647	179.06
234.881	191.06
235.115	196.06
235.349	200.06
235.583	198.06
235.817	192.06
236.051	200.06
236.285	197.06
236.519	204.06
236.753	224.06
236.987	225.06
237.221	216.06
237.455	206.06
237.689	205.06
237.922	221.06
238.156	203.06
238.39	240.06
238.624	254.06
238.858	250.06
239.091	226.06
239.325	219.06
239.559	221.06
239.793	238.06
240.027	264.06
240.26	249.06
240.494	247.06
240.728	267.06
240.961	273.06
241.195	284.06
241.429	274.06
241.662	249.06
241.896	253.06
242.13	241.06
242.363	236.06
242.597	270.06
242.83	246.06
243.064	261.06
243.298	267.06
243.531	293.06
243.765	270.06
243.998	256.06
244.232	275.06
244.465	274.06
244.699	268.06
244.932	278.06
245.166	290.06
245.399	266.06
245.633	282.06
245.866	262.06
246.099	292.06
246.333	297.06
246.566	299.06
246.8	300.06
247.033	292.06
247.266	297.06
247.5	288.06
247.733	288.06
247.966	299.06
248.2	312.06
248.433	331.06
248.666	321.06
248.899	325.06
249.133	327.06
249.366	348.06
249.599	357.06
249.832	356.06
250.066	336.06
250.299	325.06
250.532	337.06
250.765	332.06
250.998	331.06
251.231	329.06
251.465	333.06
251.698	365.06
251.931	337.06
252.164	345.06
252.397	377.06
252.63	369.06
252.863	381.06
253.096	364.06
253.329	376.06
253.562	373.06
253.795	400.06
254.028	397.06
254.261	388.06
254.494	384.06
254.727	390.06
254.96	373.06
255.193	381.06
255.426	395.06
255.659	392.06
255.892	399.06
256.124	391.06
256.357	401.06
256.59	403.06
256.823	392.06
257.056	410.06
257.289	396.06
257.521	410.06
257.754	386.06
257.987	408.06
258.22	403.06
258.452	411.06
258.685	432.06
258.918	430.06
259.151	412.06
259.383	444.06
259.616	446.06
259.849	468.06
260.081	507.06
260.314	526.06
260.547	473.06
260.779	455.06
261.012	474.06
261.244	474.06
261.477	478.06
261.71	488.06
261.942	448.06
262.175	455.06
262.407	463.06
262.64	450.06
262.872	474.06
263.105	480.06
263.337	518.06
263.57	505.06
263.802	461.06
264.035	446.06
264.267	455.06
264.499	432.06
264.732	439.06
264.964	453.06
265.197	486.06
265.429	446.06
265.661	460.06
265.894	473.06
266.126	502.06
266.358	474.06
266.591	471.06
266.823	481.06
267.055	482.06
267.287	492.06
267.52	484.06
267.752	473.06
267.984	492.06
268.216	497.06
268.448	516.06
268.681	503.06
268.913	504.06
269.145	501.06
269.377	504.06
269.609	518.06
269.841	501.06
270.073	501.06
270.306	533.06
270.538	517.06
270.77	526.06
271.002	534.06
271.234	525.06
271.466	542.06
271.698	536.06
271.93	541.06
272.162	545.06
272.394	537.06
272.626	521.06
272.858	550.06
273.09	554.06
273.322	573.06
273.553	569.06
273.785	574.06
274.017	605.06
274.249	666.06
274.481	665.06
274.713	647.06
274.945	681.06
275.176	693.06
275.408	676.06
275.64	655.06
275.872	650.06
276.104	626.06
276.335	554.06
276.567	570.06
276.799	602.06
277.031	598.06
277.262	578.06
277.494	590.06
277.726	608.06
277.957	605.06
278.189	600.06
278.421	571.06
278.652	599.06
278.884	602.06
279.115	607.06
279.347	604.06
279.579	584.06
279.81	629.06
280.042	632.06
280.273	612.06
280.505	626.06
280.736	590.06
280.968	605.06
281.199	621.06
281.431	630.06
281.662	646.06
281.894	626.06
282.125	641.06
282.356	641.06
282.588	633.06
282.819	644.06
283.051	633.06
283.282	640.06
283.513	668.06
283.745	647.06
283.976	670.06
284.207	662.06
284.439	662.06
284.67	663.06
284.901	666.06
285.132	644.06
285.364	670.06
285.595	673.06
285.826	658.06
286.057	664.06
286.288	690.06
286.52	688.06
286.751	672.06
286.982	670.06
287.213	686.06
287.444	699.06
287.675	710.06
287.906	694.06
288.138	682.06
288.369	682.06
288.6	694.06
288.831	703.06
289.062	700.06
289.293	682.06
289.524	696.06
289.755	699.06
289.986	690.06
290.217	712.06
290.448	714.06
290.679	716.06
290.91	701.06
291.141	719.06
291.371	687.06
291.602	715.06
291.833	686.06
292.064	702.06
292.295	717.06
292.526	694.06
292.757	718.06
292.987	707.06
293.218	690.06
293.449	718.06
293.68	726.06
293.91	732.06
294.141	724.06
294.372	679.06
294.603	712.06
294.833	715.06
295.064	724.06
295.295	725.06
295.525	731.06
295.756	725.06
295.987	720.06
296.217	715.06
296.448	699.06
296.679	718.06
296.909	724.06
297.14	746.06
297.37	744.06
297.601	790.06
297.831	764.06
298.062	752.06
298.292	755.06
298.523	763.06
298.753	773.06
298.984	760.06
299.214	786.06
299.445	766.06
299.675	774.06
299.905	778.06
300.136	785.06
300.366	786.06
300.597	755.06
300.827	772.06
301.057	784.06
301.288	776.06
301.518	779.06
301.748	772.06
301.979	785.06
302.209	802.06
302.439	825.06
302.669	824.06
302.9	822.06
303.13	817.06
303.36	813.06
303.59	826.06
303.82	834.06
304.051	818.06
304.281	823.06
304.511	840.06
304.741	829.06
304.971	838.06
305.201	814.06
305.431	818.06
305.661	824.06
305.891	814.06
306.121	788.06
306.352	838.06
306.582	814.06
306.812	809.06
307.042	832.06
307.272	824.06
307.502	851.06
307.731	808.06
307.961	825.06
308.191	831.06
308.421	807.06
308.651	821.06
308.881	813.06
309.111	802.06
309.341	803.06
309.571	804.06
309.8	832.06
310.03	800.06
310.26	830.06
310.49	824.06
310.72	840.06
310.949	834.06
311.179	837.06
311.409	819.06
311.639	858.06
311.868	857.06
312.098	830.06
312.328	864.06
312.557	868.06
312.787	848.06
313.017	858.06
313.246	878.06
313.476	863.06
313.706	881.06
313.935	896.06
314.165	880.06
314.394	883.06
314.624	878.06
314.853	865.06
315.083	895.06
315.312	894.06
315.542	866.06
315.771	883.06
316.001	886.06
316.23	903.06
316.46	886.06
316.689	904.06
316.919	887.06
317.148	898.06
317.377	878.06
317.607	890.06
317.836	894.06
318.065	910.06
318.295	908.06
318.524	896.06
318.753	883.06
318.983	924.06
319.212	892.06
319.441	877.06
319.67	914.06
319.9	902.06
320.129	916.06
320.358	910.06
320.587	916.06
320.816	942.06
321.046	907.06
321.275	948.06
321.504	927.06
321.733	934.06
321.962	943.06
322.191	928.06
322.42	924.06
322.649	903.06
322.878	909.06
323.108	931.06
323.337	946.06
323.566	950.06
323.795	936.06
324.024	935.06
324.253	947.06
324.482	947.06
324.71	955.06
324.939	951.06
325.168	938.06
325.397	925.06
325.626	962.06
325.855	936.06
326.084	964.06
326.313	952.06
326.542	962.06
326.77	957.06
326.999	1000.06
327.228	995.06
327.457	978.06
327.686	963.06
327.914	970.06
328.143	989.06
328.372	986.06
328.6	983.06
328.829	980.06
329.058	991.06
329.287	986.06
329.515	979.06
329.744	980.06
329.972	970.06
330.201	998.06
330.43	1003.06
330.658	1002.06
330.887	1001.06
331.115	1012.06
331.344	1002.06
331.572	1050.06
331.801	1049.06
332.03	1054.06
332.258	1068.06
332.486	1086.06
332.715	1084.06
332.943	1113.06
333.172	1129.06
333.4	1101.06
333.629	1118.06
333.857	1125.06
334.085	1142.06
334.314	1146.06
334.542	1134.06
334.771	1148.06
334.999	1152.06
335.227	1146.06
335.455	1157.06
335.684	1161.06
335.912	1180.06
336.14	1159.06
336.369	1126.06
336.597	1130.06
336.825	1155.06
337.053	1120.06
337.281	1146.06
337.51	1111.06
337.738	1102.06
337.966	1118.06
338.194	1098.06
338.422	1074.06
338.65	1101.06
338.878	1107.06
339.106	1058.06
339.334	1078.06
339.562	1111.06
339.79	1072.06
340.018	1064.06
340.246	1061.06
340.474	1076.06
340.702	1033.06
340.93	1053.06
341.158	1068.06
341.386	1047.06
341.614	1073.06
341.842	1044.06
342.07	1047.06
342.298	1046.06
342.526	1074.06
342.754	1052.06
342.981	1069.06
343.209	1068.06
343.437	1109.06
343.665	1112.06
343.893	1112.06
344.12	1142.06
344.348	1157.06
344.576	1128.06
344.804	1120.06
345.031	1105.06
345.259	1094.06
345.487	1077.06
345.714	1068.06
345.942	1057.06
346.17	1041.06
346.397	1041.06
346.625	1028.06
346.853	1013.06
347.08	1030.06
347.308	1030.06
347.535	988.06
347.763	1028.06
347.99	1034.06
348.218	1012.06
348.445	992.06
348.673	969.06
348.9	1003.06
349.128	1033.06
349.355	1006.06
349.583	1012.06
349.81	1008.06
350.037	1001.06
350.265	981.06
350.492	1000.06
350.72	998.06
350.947	1000.06
351.174	995.06
351.402	1045.06
351.629	997.06
351.856	997.06
352.083	993.06
352.311	1032.06
352.538	1017.06
352.765	984.06
352.992	1014.06
353.22	1005.06
353.447	973.06
353.674	1004.06
353.901	1016.06
354.128	1001.06
354.355	1001.06
354.583	999.06
354.81	998.06
355.037	988.06
355.264	1010.06
355.491	980.06
355.718	989.06
355.945	1002.06
356.172	1005.06
356.399	1001.06
356.626	1017.06
356.853	1024.06
357.08	1017.06
357.307	1030.06
357.534	988.06
357.761	1014.06
357.988	1028.06
358.215	1030.06
358.441	1059.06
358.668	1034.06
358.895	1006.06
359.122	1007.06
359.349	1026.06
359.576	993.06
359.802	999.06
360.029	1008.06
360.256	1001.06
360.483	1011.06
360.709	1024.06
360.936	1034.06
361.163	1032.06
361.39	1009.06
361.616	1033.06
361.843	996.06
362.07	1036.06
362.296	1030.06
362.523	992.06
362.749	1044.06
362.976	1032.06
363.203	1050.06
363.429	1020.06
363.656	1017.06
363.882	1028.06
364.109	1043.06
364.335	1016.06
364.562	1017.06
364.788	1033.06
365.015	1035.06
365.241	1032.06
365.468	1035.06
365.694	1034.06
365.92	1025.06
366.147	1037.06
366.373	1041.06
366.599	1027.06
366.826	1027.06
367.052	1060.06
367.278	1044.06
367.505	1042.06
367.731	1042.06
367.957	1056.06
368.184	1048.06
368.41	1069.06
368.636	1067.06
368.862	1022.06
369.089	1076.06
369.315	1089.06
369.541	1054.06
369.767	1094.06
369.993	1059.06
370.219	1058.06
370.445	1060.06
370.672	1091.06
370.898	1080.06
371.124	1100.06
371.35	1119.06
371.576	1126.06
371.802	1109.06
372.028	1104.06
372.254	1127.06
372.48	1140.06
372.706	1142.06
372.932	1149.06
373.158	1148.06
373.384	1145.06
373.61	1175.06
373.835	1207.06
374.061	1166.06
374.287	1146.06
374.513	1172.06
374.739	1210.06
374.965	1222.06
375.191	1208.06
375.416	1198.06
375.642	1155.06
375.868	1184.06
376.094	1142.06
376.319	1110.06
376.545	1174.06
376.771	1164.06
376.997	1118.06
377.222	1107.06
377.448	1094.06
377.674	1094.06
377.899	1085.06
378.125	1093.06
378.35	1096.06
378.576	1082.06
378.802	1120.06
379.027	1094.06
379.253	1100.06
379.478	1107.06
379.704	1129.06
379.929	1146.06
380.155	1141.06
380.38	1154.06
380.606	1127.06
380.831	1138.06
381.057	1131.06
381.282	1156.06
381.507	1182.06
381.733	1153.06
381.958	1158.06
382.184	1177.06
382.409	1208.06
382.634	1208.06
382.86	1222.06
383.085	1190.06
383.31	1220.06
383.535	1219.06
383.761	1222.06
383.986	1216.06
384.211	1198.06
384.436	1250.06
384.662	1240.06
384.887	1246.06
385.112	1242.06
385.337	1288.06
385.562	1282.06
385.787	1301.06
386.013	1322.06
386.238	1316.06
386.463	1325.06
386.688	1316.06
386.913	1305.06
387.138	1332.06
387.363	1320.06
387.588	1294.06
387.813	1328.06
388.038	1346.06
388.263	1286.06
388.488	1325.06
388.713	1356.06
388.938	1360.06
389.163	1301.06
389.387	1321.06
389.612	1336.06
389.837	1354.06
390.062	1329.06
390.287	1345.06
390.512	1337.06
390.736	1350.06
390.961	1345.06
391.186	1379.06
391.411	1417.06
391.636	1404.06
391.86	1403.06
392.085	1392.06
392.31	1410.06
392.534	1396.06
392.759	1401.06
392.984	1400.06
393.208	1418.06
393.433	1407.06
393.658	1410.06
393.882	1387.06
394.107	1387.06
394.331	1414.06
394.556	1394.06
394.78	1413.06
395.005	1405.06
395.229	1405.06
395.454	1432.06
395.678	1463.06
395.903	1467.06
396.127	1487.06
396.352	1420.06
396.576	1457.06
396.801	1452.06
397.025	1445.06
397.249	1467.06
397.474	1476.06
397.698	1486.06
397.922	1515.06
398.147	1497.06
398.371	1515.06
398.595	1552.06
398.82	1614.06
399.044	1656.06
399.268	1730.06
399.492	1797.06
399.717	1863.06
399.941	1916.06
400.165	1876.06
400.389	1792.06
400.613	1781.06
400.837	1678.06
401.062	1677.06
401.286	1681.06
401.51	1652.06
401.734	1651.06
401.958	1670.06
402.182	1593.06
402.406	1609.06
402.63	1617.06
402.854	1589.06
403.078	1622.06
403.302	1633.06
403.526	1603.06
403.75	1664.06
403.974	1676.06
404.198	1628.06
404.422	1654.06
404.645	1638.06
404.869	1686.06
405.093	1682.06
405.317	1651.06
405.541	1699.06
405.765	1643.06
405.988	1674.06
406.212	1678.06
406.436	1715.06
406.66	1752.06
406.883	1742.06
407.107	1782.06
407.331	1868.06
407.555	1904.06
407.778	1852.06
408.002	1816.06
408.226	1828.06
408.449	1841.06
408.673	1819.06
408.896	1835.06
409.12	1733.06
409.344	1771.06
409.567	1736.06
409.791	1732.06
410.014	1687.06
410.238	1696.06
410.461	1732.06
410.685	1700.06
410.908	1674.06
411.132	1666.06
411.355	1629.06
411.578	1630.06
411.802	1661.06
412.025	1657.06
412.249	1697.06
412.472	1702.06
412.695	1652.06
412.919	1645.06
413.142	1674.06
413.365	1628.06
413.589	1628.06
413.812	1611.06
414.035	1617.06
414.258	1624.06
414.482	1605.06
414.705	1633.06
414.928	1643.06
415.151	1602.06
415.374	1615.06
415.597	1574.06
415.821	1527.06
416.044	1563.06
416.267	1573.06
416.49	1538.06
416.713	1563.06
416.936	1539.06
417.159	1573.06
417.382	1566.06
417.605	1527.06
417.828	1514.06
418.051	1540.06
418.274	1547.06
418.497	1525.06
418.72	1546.06
418.943	1518.06
419.166	1616.06
419.389	1746.06
419.611	1686.06
419.834	1633.06
420.057	1610.06
420.28	1573.06
420.503	1540.06
420.726	1540.06
420.948	1524.06
421.171	1540.06
421.394	1542.06
421.617	1517.06
421.839	1525.06
422.062	1522.06
422.285	1525.06
422.507	1521.06
422.73	1509.06
422.953	1526.06
423.175	1540.06
423.398	1545.06
423.621	1503.06
423.843	1545.06
424.066	1560.06
424.288	1526.06
424.511	1520.06
424.733	1490.06
424.956	1537.06
425.178	1506.06
425.401	1545.06
425.623	1544.06
425.846	1506.06
426.068	1534.06
426.291	1505.06
426.513	1520.06
426.735	1514.06
426.958	1542.06
427.18	1496.06
427.402	1504.06
427.625	1503.06
427.847	1431.06
428.069	1474.06
428.292	1476.06
428.514	1440.06
428.736	1457.06
428.958	1494.06
429.181	1445.06
429.403	1421.06
429.625	1420.06
429.847	1429.06
430.069	1441.06
430.292	1478.06
430.514	1390.06
430.736	1458.06
430.958	1502.06
431.18	1467.06
431.402	1474.06
431.624	1416.06
431.846	1470.06
432.068	1449.06
432.29	1506.06
432.512	1500.06
432.734	1467.06
432.956	1457.06
433.178	1478.06
433.4	1441.06
433.622	1466.06
433.844	1503.06
434.066	1489.06
434.287	1475.06
434.509	1500.06
434.731	1517.06
434.953	1497.06
435.175	1529.06
435.397	1523.06
435.618	1552.06
435.84	1510.06
436.062	1474.06
436.284	1485.06
436.505	1462.06
436.727	1487.06
436.949	1419.06
437.17	1464.06
437.392	1446.06
437.614	1422.06
437.835	1407.06
438.057	1426.06
438.278	1369.06
438.5	1402.06
438.721	1450.06
438.943	1412.06
439.165	1418.06
439.386	1416.06
439.608	1401.06
439.829	1416.06
440.05	1451.06
440.272	1437.06
440.493	1464.06
440.715	1462.06
440.936	1476.06
441.158	1434.06
441.379	1450.06
441.6	1524.06
441.822	1506.06
442.043	1502.06
442.264	1497.06
442.486	1450.06
442.707	1520.06
442.928	1523.06
443.149	1501.06
443.371	1510.06
443.592	1515.06
443.813	1526.06
444.034	1499.06
444.255	1534.06
444.476	1588.06
444.698	1605.06
444.919	1658.06
445.14	1714.06
445.361	1616.06
445.582	1510.06
445.803	1521.06
446.024	1478.06
446.245	1500.06
446.466	1497.06
446.687	1448.06
446.908	1426.06
447.129	1402.06
447.35	1432.06
447.571	1393.06
447.792	1384.06
448.013	1364.06
448.234	1362.06
448.455	1390.06
448.675	1385.06
448.896	1383.06
449.117	1345.06
449.338	1328.06
449.559	1325.06
449.779	1301.06
450	1296.06
450.221	1340.06
450.442	1309.06
450.662	1320.06
450.883	1285.06
451.104	1341.06
451.324	1302.06
451.545	1296.06
451.766	1300.06
451.986	1285.06
452.207	1302.06
452.428	1304.06
452.648	1267.06
452.869	1249.06
453.089	1244.06
453.31	1289.06
453.53	1250.06
453.751	1276.06
453.971	1260.06
454.192	1239.06
454.412	1269.06
454.633	1236.06
454.853	1267.06
455.073	1281.06
455.294	1270.06
455.514	1271.06
455.734	1248.06
455.955	1229.06
456.175	1274.06
456.395	1260.06
456.616	1276.06
456.836	1249.06
457.056	1321.06
457.276	1248.06
457.497	1320.06
457.717	1313.06
457.937	1341.06
458.157	1325.06
458.377	1338.06
458.598	1316.06
458.818	1338.06
459.038	1387.06
459.258	1392.06
459.478	1407.06
459.698	1430.06
459.918	1477.06
460.138	1456.06
460.358	1484.06
460.578	1537.06
460.798	1585.06
461.018	1538.06
461.238	1572.06
461.458	1586.06
461.678	1594.06
461.898	1614.06
462.118	1627.06
462.338	1683.06
462.558	1699.06
462.777	1719.06
462.997	1770.06
463.217	1805.06
463.437	1800.06
463.657	1748.06
463.876	1747.06
464.096	1764.06
464.316	1736.06
464.536	1742.06
464.755	1699.06
464.975	1668.06
465.195	1642.06
465.414	1556.06
465.634	1542.06
465.854	1530.06
466.073	1497.06
466.293	1480.06
466.512	1446.06
466.732	1445.06
466.951	1446.06
467.171	1425.06
467.391	1410.06
467.61	1392.06
467.829	1393.06
468.049	1395.06
468.268	1357.06
468.488	1390.06
468.707	1379.06
468.927	1409.06
469.146	1426.06
469.365	1418.06
469.585	1424.06
469.804	1421.06
470.023	1433.06
470.243	1381.06
470.462	1404.06
470.681	1410.06
470.901	1436.06
471.12	1442.06
471.339	1442.06
471.558	1397.06
471.777	1412.06
471.997	1384.06
472.216	1458.06
472.435	1420.06
472.654	1394.06
472.873	1403.06
473.092	1414.06
473.311	1406.06
473.53	1388.06
473.749	1362.06
473.968	1400.06
474.187	1389.06
474.406	1394.06
474.625	1406.06
474.844	1405.06
475.063	1403.06
475.282	1435.06
475.501	1410.06
475.72	1449.06
475.939	1462.06
476.158	1458.06
476.377	1485.06
476.596	1536.06
476.814	1560.06
477.033	1475.06
477.252	1542.06
477.471	1552.06
477.69	1568.06
477.908	1564.06
478.127	1578.06
478.346	1592.06
478.564	1654.06
478.783	1626.06
479.002	1660.06
479.22	1685.06
479.439	1706.06
479.658	1724.06
479.876	1703.06
480.095	1724.06
480.313	1720.06
480.532	1738.06
480.751	1737.06
480.969	1751.06
481.188	1723.06
481.406	1724.06
481.624	1696.06
481.843	1664.06
482.061	1651.06
482.28	1745.06
482.498	1721.06
482.717	1678.06
482.935	1692.06
483.153	1705.06
483.372	1706.06
483.59	1659.06
483.808	1680.06
484.027	1697.06
484.245	1712.06
484.463	1728.06
484.681	1694.06
484.9	1668.06
485.118	1722.06
485.336	1724.06
485.554	1722.06
485.772	1721.06
485.99	1733.06
486.209	1745.06
486.427	1751.06
486.645	1765.06
486.863	1718.06
487.081	1758.06
487.299	1735.06
487.517	1734.06
487.735	1740.06
487.953	1732.06
488.171	1730.06
488.389	1738.06
488.607	1715.06
488.825	1715.06
489.043	1730.06
489.261	1739.06
489.479	1741.06
489.696	1763.06
489.914	1725.06
490.132	1760.06
490.35	1760.06
490.568	1761.06
490.786	1717.06
491.003	1744.06
491.221	1765.06
491.439	1749.06
491.657	1750.06
491.874	1759.06
