Data from Fe(NO3)3@0.025M.TitratingCurve.Agarose3%dH2O.NegLispCup.LampEnergy10.LIBS07252019_HRD10591_16-55-49-335.txt Node
Date: Thu Jul 25 16:55:49 EDT 2019
User: cochatt
Spectrometer: HR+D1059
Trigger mode: 1
Integration Time (sec): 1.000000E-1
Scans to average: 1
Electric dark correction enabled: true
Nonlinearity correction enabled: false
Boxcar width: 0
XAxis mode: Wavelengths
Number of Pixels in Spectrum: 2048
>>>>>Begin Spectral Data<<<<<
223.165	-17.38
223.4	-17.38
223.635	-17.38
223.869	-11.38
224.104	-14.38
224.338	-1.38
224.573	-12.38
224.808	-7.38
225.042	-21.38
225.277	-8.38
225.511	-4.38
225.746	1.62
225.98	4.62
226.215	15.62
226.449	10.62
226.683	24.62
226.918	21.62
227.152	19.62
227.387	27.62
227.621	37.62
227.856	47.62
228.09	33.62
228.324	43.62
228.559	60.62
228.793	62.62
229.027	64.62
229.262	76.62
229.496	66.62
229.73	81.62
229.964	84.62
230.199	74.62
230.433	94.62
230.667	102.62
230.901	91.62
231.136	93.62
231.37	86.62
231.604	73.62
231.838	94.62
232.072	96.62
232.306	93.62
232.541	94.62
232.775	103.62
233.009	95.62
233.243	112.62
233.477	111.62
233.711	103.62
233.945	97.62
234.179	110.62
234.413	95.62
234.647	98.62
234.881	97.62
235.115	93.62
235.349	86.62
235.583	101.62
235.817	90.62
236.051	101.62
236.285	98.62
236.519	89.62
236.753	87.62
236.987	89.62
237.221	108.62
237.455	107.62
237.689	95.62
237.922	102.62
238.156	97.62
238.39	103.62
238.624	105.62
238.858	83.62
239.091	84.62
239.325	97.62
239.559	93.62
239.793	98.62
240.027	100.62
240.26	99.62
240.494	95.62
240.728	117.62
240.961	98.62
241.195	102.62
241.429	107.62
241.662	89.62
241.896	99.62
242.13	103.62
242.363	89.62
242.597	91.62
242.83	108.62
243.064	101.62
243.298	98.62
243.531	100.62
243.765	101.62
243.998	108.62
244.232	115.62
244.465	94.62
244.699	123.62
244.932	117.62
245.166	100.62
245.399	98.62
245.633	117.62
245.866	113.62
246.099	103.62
246.333	119.62
246.566	103.62
246.8	104.62
247.033	114.62
247.266	107.62
247.5	114.62
247.733	100.62
247.966	115.62
248.2	103.62
248.433	103.62
248.666	123.62
248.899	109.62
249.133	122.62
249.366	111.62
249.599	107.62
249.832	122.62
250.066	106.62
250.299	111.62
250.532	126.62
250.765	116.62
250.998	119.62
251.231	112.62
251.465	122.62
251.698	112.62
251.931	124.62
252.164	113.62
252.397	122.62
252.63	122.62
252.863	120.62
253.096	131.62
253.329	117.62
253.562	126.62
253.795	115.62
254.028	115.62
254.261	130.62
254.494	105.62
254.727	120.62
254.96	124.62
255.193	128.62
255.426	130.62
255.659	114.62
255.892	127.62
256.124	130.62
256.357	128.62
256.59	130.62
256.823	135.62
257.056	134.62
257.289	122.62
257.521	122.62
257.754	117.62
257.987	130.62
258.22	116.62
258.452	132.62
258.685	128.62
258.918	129.62
259.151	133.62
259.383	134.62
259.616	139.62
259.849	126.62
260.081	135.62
260.314	119.62
260.547	129.62
260.779	134.62
261.012	145.62
261.244	144.62
261.477	135.62
261.71	145.62
261.942	136.62
262.175	118.62
262.407	131.62
262.64	130.62
262.872	140.62
263.105	130.62
263.337	139.62
263.57	137.62
263.802	134.62
264.035	140.62
264.267	146.62
264.499	145.62
264.732	146.62
264.964	148.62
265.197	134.62
265.429	135.62
265.661	140.62
265.894	140.62
266.126	147.62
266.358	132.62
266.591	126.62
266.823	162.62
267.055	134.62
267.287	156.62
267.52	144.62
267.752	137.62
267.984	135.62
268.216	144.62
268.448	139.62
268.681	146.62
268.913	139.62
269.145	149.62
269.377	152.62
269.609	144.62
269.841	146.62
270.073	143.62
270.306	151.62
270.538	156.62
270.77	155.62
271.002	144.62
271.234	150.62
271.466	147.62
271.698	154.62
271.93	166.62
272.162	138.62
272.394	160.62
272.626	170.62
272.858	162.62
273.09	151.62
273.322	163.62
273.553	170.62
273.785	162.62
274.017	159.62
274.249	169.62
274.481	158.62
274.713	169.62
274.945	167.62
275.176	166.62
275.408	171.62
275.64	161.62
275.872	177.62
276.104	174.62
276.335	154.62
276.567	160.62
276.799	160.62
277.031	168.62
277.262	168.62
277.494	176.62
277.726	174.62
277.957	178.62
278.189	164.62
278.421	167.62
278.652	167.62
278.884	182.62
279.115	152.62
279.347	174.62
279.579	179.62
279.81	179.62
280.042	170.62
280.273	168.62
280.505	175.62
280.736	171.62
280.968	184.62
281.199	194.62
281.431	179.62
281.662	175.62
281.894	176.62
282.125	173.62
282.356	171.62
282.588	168.62
282.819	185.62
283.051	194.62
283.282	178.62
283.513	183.62
283.745	195.62
283.976	192.62
284.207	186.62
284.439	184.62
284.67	186.62
284.901	168.62
285.132	202.62
285.364	200.62
285.595	185.62
285.826	201.62
286.057	187.62
286.288	197.62
286.52	190.62
286.751	184.62
286.982	180.62
287.213	189.62
287.444	194.62
287.675	184.62
287.906	187.62
288.138	196.62
288.369	193.62
288.6	197.62
288.831	186.62
289.062	187.62
289.293	201.62
289.524	209.62
289.755	192.62
289.986	200.62
290.217	193.62
290.448	190.62
290.679	191.62
290.91	201.62
291.141	196.62
291.371	202.62
291.602	185.62
291.833	190.62
292.064	198.62
292.295	189.62
292.526	189.62
292.757	203.62
292.987	198.62
293.218	181.62
293.449	199.62
293.68	193.62
293.91	208.62
294.141	199.62
294.372	189.62
294.603	208.62
294.833	179.62
295.064	210.62
295.295	199.62
295.525	208.62
295.756	203.62
295.987	209.62
296.217	204.62
296.448	203.62
296.679	207.62
296.909	190.62
297.14	213.62
297.37	204.62
297.601	204.62
297.831	205.62
298.062	203.62
298.292	226.62
298.523	227.62
298.753	232.62
298.984	218.62
299.214	218.62
299.445	215.62
299.675	221.62
299.905	227.62
300.136	224.62
300.366	226.62
300.597	207.62
300.827	226.62
301.057	214.62
301.288	209.62
301.518	226.62
301.748	251.62
301.979	238.62
302.209	227.62
302.439	213.62
302.669	233.62
302.9	235.62
303.13	222.62
303.36	224.62
303.59	238.62
303.82	228.62
304.051	211.62
304.281	242.62
304.511	224.62
304.741	222.62
304.971	232.62
305.201	251.62
305.431	227.62
305.661	234.62
305.891	226.62
306.121	229.62
306.352	221.62
306.582	243.62
306.812	221.62
307.042	232.62
307.272	211.62
307.502	242.62
307.731	220.62
307.961	225.62
308.191	241.62
308.421	218.62
308.651	225.62
308.881	217.62
309.111	228.62
309.341	234.62
309.571	232.62
309.8	238.62
310.03	254.62
310.26	260.62
310.49	230.62
310.72	223.62
310.949	222.62
311.179	241.62
311.409	239.62
311.639	235.62
311.868	234.62
312.098	242.62
312.328	241.62
312.557	239.62
312.787	232.62
313.017	257.62
313.246	236.62
313.476	246.62
313.706	259.62
313.935	254.62
314.165	267.62
314.394	254.62
314.624	243.62
314.853	256.62
315.083	250.62
315.312	242.62
315.542	251.62
315.771	259.62
316.001	262.62
316.23	266.62
316.46	243.62
316.689	251.62
316.919	251.62
317.148	264.62
317.377	266.62
317.607	248.62
317.836	255.62
318.065	254.62
318.295	239.62
318.524	260.62
318.753	246.62
318.983	250.62
319.212	242.62
319.441	244.62
319.67	254.62
319.9	259.62
320.129	263.62
320.358	269.62
320.587	260.62
320.816	258.62
321.046	267.62
321.275	259.62
321.504	255.62
321.733	258.62
321.962	259.62
322.191	239.62
322.42	263.62
322.649	258.62
322.878	268.62
323.108	266.62
323.337	281.62
323.566	280.62
323.795	276.62
324.024	246.62
324.253	273.62
324.482	288.62
324.71	277.62
324.939	267.62
325.168	254.62
325.397	281.62
325.626	271.62
325.855	280.62
326.084	286.62
326.313	283.62
326.542	276.62
326.77	277.62
326.999	281.62
327.228	271.62
327.457	265.62
327.686	265.62
327.914	264.62
328.143	273.62
328.372	281.62
328.6	284.62
328.829	289.62
329.058	294.62
329.287	290.62
329.515	302.62
329.744	284.62
329.972	292.62
330.201	295.62
330.43	289.62
330.658	291.62
330.887	282.62
331.115	287.62
331.344	290.62
331.572	301.62
331.801	304.62
332.03	291.62
332.258	293.62
332.486	298.62
332.715	324.62
332.943	315.62
333.172	339.62
333.4	347.62
333.629	331.62
333.857	334.62
334.085	329.62
334.314	330.62
334.542	348.62
334.771	321.62
334.999	328.62
335.227	329.62
335.455	327.62
335.684	336.62
335.912	346.62
336.14	327.62
336.369	336.62
336.597	324.62
336.825	325.62
337.053	316.62
337.281	323.62
337.51	307.62
337.738	328.62
337.966	327.62
338.194	318.62
338.422	306.62
338.65	334.62
338.878	302.62
339.106	308.62
339.334	309.62
339.562	306.62
339.79	303.62
340.018	292.62
340.246	320.62
340.474	293.62
340.702	320.62
340.93	282.62
341.158	306.62
341.386	305.62
341.614	306.62
341.842	307.62
342.07	308.62
342.298	315.62
342.526	320.62
342.754	302.62
342.981	308.62
343.209	329.62
343.437	311.62
343.665	341.62
343.893	333.62
344.12	329.62
344.348	318.62
344.576	323.62
344.804	320.62
345.031	317.62
345.259	316.62
345.487	315.62
345.714	311.62
345.942	291.62
346.17	304.62
346.397	296.62
346.625	293.62
346.853	311.62
347.08	292.62
347.308	306.62
347.535	299.62
347.763	303.62
347.99	306.62
348.218	296.62
348.445	309.62
348.673	300.62
348.9	298.62
349.128	289.62
349.355	285.62
349.583	297.62
349.81	291.62
350.037	303.62
350.265	289.62
350.492	282.62
350.72	294.62
350.947	280.62
351.174	292.62
351.402	276.62
351.629	293.62
351.856	292.62
352.083	292.62
352.311	292.62
352.538	292.62
352.765	286.62
352.992	282.62
353.22	306.62
353.447	280.62
353.674	288.62
353.901	290.62
354.128	316.62
354.355	308.62
354.583	285.62
354.81	308.62
355.037	313.62
355.264	303.62
355.491	287.62
355.718	297.62
355.945	292.62
356.172	279.62
356.399	305.62
356.626	291.62
356.853	289.62
357.08	297.62
357.307	296.62
357.534	291.62
357.761	278.62
357.988	288.62
358.215	304.62
358.441	307.62
358.668	307.62
358.895	302.62
359.122	287.62
359.349	318.62
359.576	288.62
359.802	284.62
360.029	313.62
360.256	306.62
360.483	291.62
360.709	297.62
360.936	298.62
361.163	301.62
361.39	304.62
361.616	293.62
361.843	309.62
362.07	293.62
362.296	304.62
362.523	288.62
362.749	297.62
362.976	319.62
363.203	299.62
363.429	300.62
363.656	299.62
363.882	296.62
364.109	309.62
364.335	296.62
364.562	306.62
364.788	318.62
365.015	299.62
365.241	297.62
365.468	284.62
365.694	313.62
365.92	283.62
366.147	300.62
366.373	291.62
366.599	304.62
366.826	293.62
367.052	307.62
367.278	296.62
367.505	304.62
367.731	300.62
367.957	312.62
368.184	305.62
368.41	316.62
368.636	322.62
368.862	313.62
369.089	281.62
369.315	281.62
369.541	299.62
369.767	303.62
369.993	304.62
370.219	310.62
370.445	300.62
370.672	332.62
370.898	294.62
371.124	332.62
371.35	309.62
371.576	319.62
371.802	315.62
372.028	318.62
372.254	312.62
372.48	333.62
372.706	329.62
372.932	332.62
373.158	329.62
373.384	327.62
373.61	332.62
373.835	316.62
374.061	339.62
374.287	352.62
374.513	331.62
374.739	347.62
374.965	333.62
375.191	332.62
375.416	339.62
375.642	321.62
375.868	338.62
376.094	319.62
376.319	334.62
376.545	318.62
376.771	330.62
376.997	324.62
377.222	321.62
377.448	334.62
377.674	310.62
377.899	324.62
378.125	335.62
378.35	325.62
378.576	330.62
378.802	318.62
379.027	327.62
379.253	321.62
379.478	327.62
379.704	323.62
379.929	337.62
380.155	311.62
380.38	332.62
380.606	318.62
380.831	322.62
381.057	343.62
381.282	327.62
381.507	324.62
381.733	324.62
381.958	331.62
382.184	337.62
382.409	299.62
382.634	338.62
382.86	355.62
383.085	339.62
383.31	349.62
383.535	347.62
383.761	356.62
383.986	359.62
384.211	349.62
384.436	363.62
384.662	375.62
384.887	355.62
385.112	357.62
385.337	348.62
385.562	384.62
385.787	377.62
386.013	364.62
386.238	368.62
386.463	393.62
386.688	375.62
386.913	376.62
387.138	360.62
387.363	363.62
387.588	375.62
387.813	366.62
388.038	363.62
388.263	390.62
388.488	380.62
388.713	375.62
388.938	375.62
389.163	369.62
389.387	395.62
389.612	360.62
389.837	356.62
390.062	370.62
390.287	376.62
390.512	379.62
390.736	372.62
390.961	379.62
391.186	392.62
391.411	398.62
391.636	403.62
391.86	392.62
392.085	397.62
392.31	384.62
392.534	396.62
392.759	393.62
392.984	400.62
393.208	391.62
393.433	374.62
393.658	386.62
393.882	392.62
394.107	399.62
394.331	411.62
394.556	381.62
394.78	373.62
395.005	403.62
395.229	388.62
395.454	402.62
395.678	392.62
395.903	419.62
396.127	410.62
396.352	397.62
396.576	391.62
396.801	433.62
397.025	418.62
397.249	413.62
397.474	433.62
397.698	420.62
397.922	428.62
398.147	430.62
398.371	422.62
398.595	444.62
398.82	455.62
399.044	468.62
399.268	494.62
399.492	528.62
399.717	524.62
399.941	558.62
400.165	535.62
400.389	517.62
400.613	488.62
400.837	480.62
401.062	465.62
401.286	450.62
401.51	447.62
401.734	439.62
401.958	445.62
402.182	460.62
402.406	457.62
402.63	469.62
402.854	441.62
403.078	465.62
403.302	443.62
403.526	451.62
403.75	471.62
403.974	475.62
404.198	462.62
404.422	462.62
404.645	447.62
404.869	477.62
405.093	461.62
405.317	468.62
405.541	453.62
405.765	476.62
405.988	472.62
406.212	497.62
406.436	505.62
406.66	490.62
406.883	480.62
407.107	494.62
407.331	485.62
407.555	518.62
407.778	524.62
408.002	515.62
408.226	495.62
408.449	498.62
408.673	470.62
408.896	471.62
409.12	490.62
409.344	468.62
409.567	462.62
409.791	478.62
410.014	482.62
410.238	453.62
410.461	487.62
410.685	463.62
410.908	443.62
411.132	466.62
411.355	459.62
411.578	462.62
411.802	456.62
412.025	463.62
412.249	450.62
412.472	462.62
412.695	444.62
412.919	446.62
413.142	450.62
413.365	451.62
413.589	447.62
413.812	444.62
414.035	434.62
414.258	423.62
414.482	424.62
414.705	436.62
414.928	430.62
415.151	426.62
415.374	458.62
415.597	434.62
415.821	432.62
416.044	414.62
416.267	433.62
416.49	442.62
416.713	421.62
416.936	428.62
417.159	428.62
417.382	444.62
417.605	438.62
417.828	438.62
418.051	406.62
418.274	433.62
418.497	430.62
418.72	447.62
418.943	439.62
419.166	450.62
419.389	456.62
419.611	466.62
419.834	443.62
420.057	456.62
420.28	431.62
420.503	447.62
420.726	422.62
420.948	418.62
421.171	422.62
421.394	431.62
421.617	419.62
421.839	425.62
422.062	417.62
422.285	439.62
422.507	441.62
422.73	423.62
422.953	451.62
423.175	422.62
423.398	437.62
423.621	425.62
423.843	436.62
424.066	426.62
424.288	393.62
424.511	404.62
424.733	415.62
424.956	417.62
425.178	430.62
425.401	409.62
425.623	416.62
425.846	400.62
426.068	403.62
426.291	404.62
426.513	411.62
426.735	425.62
426.958	404.62
427.18	401.62
427.402	398.62
427.625	400.62
427.847	413.62
428.069	397.62
428.292	389.62
428.514	392.62
428.736	396.62
428.958	403.62
429.181	374.62
429.403	378.62
429.625	378.62
429.847	397.62
430.069	416.62
430.292	401.62
430.514	378.62
430.736	389.62
430.958	396.62
431.18	391.62
431.402	399.62
431.624	406.62
431.846	396.62
432.068	386.62
432.29	409.62
432.512	391.62
432.734	411.62
432.956	403.62
433.178	405.62
433.4	402.62
433.622	385.62
433.844	414.62
434.066	419.62
434.287	416.62
434.509	415.62
434.731	415.62
434.953	421.62
435.175	432.62
435.397	430.62
435.618	419.62
435.84	398.62
436.062	385.62
436.284	402.62
436.505	390.62
436.727	384.62
436.949	384.62
437.17	400.62
437.392	376.62
437.614	379.62
437.835	367.62
438.057	369.62
438.278	380.62
438.5	387.62
438.721	379.62
438.943	385.62
439.165	372.62
439.386	390.62
439.608	374.62
439.829	382.62
440.05	391.62
440.272	407.62
440.493	386.62
440.715	379.62
440.936	360.62
441.158	394.62
441.379	395.62
441.6	413.62
441.822	395.62
442.043	418.62
442.264	415.62
442.486	396.62
442.707	418.62
442.928	406.62
443.149	424.62
443.371	414.62
443.592	418.62
443.813	425.62
444.034	421.62
444.255	430.62
444.476	440.62
444.698	438.62
444.919	471.62
445.14	527.62
445.361	465.62
445.582	420.62
445.803	410.62
446.024	410.62
446.245	394.62
446.466	409.62
446.687	424.62
446.908	397.62
447.129	384.62
447.35	396.62
447.571	372.62
447.792	369.62
448.013	362.62
448.234	378.62
448.455	379.62
448.675	357.62
448.896	378.62
449.117	368.62
449.338	367.62
449.559	366.62
449.779	363.62
450	360.62
450.221	375.62
450.442	355.62
450.662	379.62
450.883	348.62
451.104	370.62
451.324	368.62
451.545	343.62
451.766	357.62
451.986	356.62
452.207	358.62
452.428	359.62
452.648	362.62
452.869	354.62
453.089	331.62
453.31	353.62
453.53	371.62
453.751	343.62
453.971	360.62
454.192	357.62
454.412	362.62
454.633	345.62
454.853	352.62
455.073	352.62
455.294	358.62
455.514	351.62
455.734	334.62
455.955	355.62
456.175	339.62
456.395	340.62
456.616	328.62
456.836	347.62
457.056	331.62
457.276	347.62
457.497	362.62
457.717	356.62
457.937	380.62
458.157	378.62
458.377	359.62
458.598	377.62
458.818	390.62
459.038	352.62
459.258	376.62
459.478	390.62
459.698	401.62
459.918	395.62
460.138	417.62
460.358	443.62
460.578	434.62
460.798	443.62
461.018	454.62
461.238	449.62
461.458	445.62
461.678	436.62
461.898	432.62
462.118	455.62
462.338	453.62
462.558	478.62
462.777	478.62
462.997	501.62
463.217	495.62
463.437	490.62
463.657	488.62
463.876	516.62
464.096	463.62
464.316	454.62
464.536	468.62
464.755	488.62
464.975	457.62
465.195	444.62
465.414	416.62
465.634	409.62
465.854	395.62
466.073	403.62
466.293	386.62
466.512	390.62
466.732	373.62
466.951	368.62
467.171	384.62
467.391	374.62
467.61	392.62
467.829	397.62
468.049	384.62
468.268	379.62
468.488	372.62
468.707	368.62
468.927	369.62
469.146	359.62
469.365	376.62
469.585	378.62
469.804	381.62
470.023	409.62
470.243	384.62
470.462	384.62
470.681	383.62
470.901	392.62
471.12	410.62
471.339	378.62
471.558	374.62
471.777	352.62
471.997	398.62
472.216	374.62
472.435	364.62
472.654	371.62
472.873	385.62
473.092	361.62
473.311	382.62
473.53	380.62
473.749	379.62
473.968	390.62
474.187	382.62
474.406	373.62
474.625	388.62
474.844	390.62
475.063	377.62
475.282	387.62
475.501	387.62
475.72	383.62
475.939	389.62
476.158	390.62
476.377	410.62
476.596	387.62
476.814	395.62
477.033	411.62
477.252	410.62
477.471	389.62
477.69	414.62
477.908	432.62
478.127	425.62
478.346	428.62
478.564	437.62
478.783	426.62
479.002	447.62
479.22	440.62
479.439	459.62
479.658	452.62
479.876	449.62
480.095	456.62
480.313	463.62
480.532	465.62
480.751	459.62
480.969	453.62
481.188	450.62
481.406	456.62
481.624	441.62
481.843	426.62
482.061	435.62
482.28	442.62
482.498	432.62
482.717	426.62
482.935	436.62
483.153	436.62
483.372	440.62
483.59	420.62
483.808	432.62
484.027	434.62
484.245	455.62
484.463	446.62
484.681	452.62
484.9	431.62
485.118	455.62
485.336	457.62
485.554	420.62
485.772	464.62
485.99	449.62
486.209	448.62
486.427	430.62
486.645	447.62
486.863	456.62
487.081	456.62
487.299	445.62
487.517	455.62
487.735	451.62
487.953	412.62
488.171	446.62
488.389	452.62
488.607	446.62
488.825	437.62
489.043	450.62
489.261	450.62
489.479	454.62
489.696	455.62
489.914	440.62
490.132	452.62
490.35	459.62
490.568	464.62
490.786	466.62
491.003	465.62
491.221	462.62
491.439	468.62
491.657	447.62
491.874	462.62
492.092	451.62
492.31	451.62
492.527	448.62
492.745	479.62
492.963	458.62
493.18	469.62
493.398	456.62
493.615	485.62
493.833	449.62
494.05	478.62
494.268	465.62
494.485	456.62
494.703	467.62
494.92	473.62
495.138	498.62
495.355	482.62
495.573	494.62
495.79	495.62
496.008	481.62
496.225	487.62
496.442	480.62
496.66	484.62
496.877	508.62
497.094	548.62
497.312	500.62
497.529	512.62
497.746	537.62
497.963	554.62
498.181	583.62
498.398	570.62
498.615	611.62
498.832	626.62
499.049	656.62
499.267	693.62
499.484	737.62
499.701	774.62
499.918	825.62
500.135	874.62
500.352	898.62
500.569	909.62
500.786	902.62
501.003	891.62
501.22	858.62
501.437	800.62
501.654	746.62
501.871	711.62
502.088	673.62
