Data from Fe(NO3)3@0.1M.TitratingCurve.Agarose3%dH2O.NegLispCup.LampEnergy10.LIBS07252019_HRD10591_16-40-46-333.txt Node
Date: Thu Jul 25 16:40:46 EDT 2019
User: cochatt
Spectrometer: HR+D1059
Trigger mode: 1
Integration Time (sec): 1.000000E-1
Scans to average: 1
Electric dark correction enabled: true
Nonlinearity correction enabled: false
Boxcar width: 0
XAxis mode: Wavelengths
Number of Pixels in Spectrum: 2048
>>>>>Begin Spectral Data<<<<<
223.165	-16.31
223.4	-16.31
223.635	-16.31
223.869	-24.31
224.104	-17.31
224.338	-19.31
224.573	-11.31
224.808	-20.31
225.042	-6.31
225.277	-12.31
225.511	3.69
225.746	-0.31
225.98	6.69
226.215	3.69
226.449	24.69
226.683	18.69
226.918	36.69
227.152	33.69
227.387	24.69
227.621	34.69
227.856	54.69
228.09	53.69
228.324	68.69
228.559	53.69
228.793	69.69
229.027	60.69
229.262	68.69
229.496	75.69
229.73	79.69
229.964	76.69
230.199	96.69
230.433	89.69
230.667	94.69
230.901	97.69
231.136	91.69
231.37	97.69
231.604	108.69
231.838	89.69
232.072	104.69
232.306	90.69
232.541	94.69
232.775	99.69
233.009	99.69
233.243	89.69
233.477	101.69
233.711	115.69
233.945	107.69
234.179	100.69
234.413	94.69
234.647	108.69
234.881	105.69
235.115	101.69
235.349	90.69
235.583	111.69
235.817	89.69
236.051	99.69
236.285	91.69
236.519	107.69
236.753	87.69
236.987	111.69
237.221	111.69
237.455	101.69
237.689	98.69
237.922	92.69
238.156	98.69
238.39	85.69
238.624	95.69
238.858	99.69
239.091	92.69
239.325	102.69
239.559	101.69
239.793	87.69
240.027	89.69
240.26	110.69
240.494	113.69
240.728	97.69
240.961	115.69
241.195	115.69
241.429	106.69
241.662	103.69
241.896	99.69
242.13	114.69
242.363	94.69
242.597	105.69
242.83	92.69
243.064	99.69
243.298	113.69
243.531	121.69
243.765	124.69
243.998	103.69
244.232	121.69
244.465	109.69
244.699	116.69
244.932	113.69
245.166	107.69
245.399	102.69
245.633	125.69
245.866	118.69
246.099	120.69
246.333	106.69
246.566	116.69
246.8	113.69
247.033	114.69
247.266	116.69
247.5	117.69
247.733	123.69
247.966	114.69
248.2	119.69
248.433	114.69
248.666	118.69
248.899	123.69
249.133	103.69
249.366	122.69
249.599	119.69
249.832	115.69
250.066	122.69
250.299	127.69
250.532	124.69
250.765	114.69
250.998	119.69
251.231	116.69
251.465	132.69
251.698	140.69
251.931	116.69
252.164	139.69
252.397	121.69
252.63	114.69
252.863	125.69
253.096	121.69
253.329	131.69
253.562	130.69
253.795	134.69
254.028	128.69
254.261	145.69
254.494	118.69
254.727	133.69
254.96	138.69
255.193	123.69
255.426	127.69
255.659	141.69
255.892	130.69
256.124	136.69
256.357	134.69
256.59	151.69
256.823	130.69
257.056	134.69
257.289	118.69
257.521	143.69
257.754	139.69
257.987	138.69
258.22	146.69
258.452	135.69
258.685	151.69
258.918	135.69
259.151	139.69
259.383	139.69
259.616	152.69
259.849	142.69
260.081	147.69
260.314	139.69
260.547	143.69
260.779	131.69
261.012	130.69
261.244	148.69
261.477	156.69
261.71	140.69
261.942	145.69
262.175	161.69
262.407	134.69
262.64	143.69
262.872	146.69
263.105	164.69
263.337	153.69
263.57	152.69
263.802	138.69
264.035	142.69
264.267	141.69
264.499	167.69
264.732	165.69
264.964	149.69
265.197	146.69
265.429	150.69
265.661	141.69
265.894	144.69
266.126	145.69
266.358	139.69
266.591	151.69
266.823	152.69
267.055	141.69
267.287	161.69
267.52	145.69
267.752	160.69
267.984	148.69
268.216	156.69
268.448	151.69
268.681	148.69
268.913	159.69
269.145	160.69
269.377	160.69
269.609	171.69
269.841	145.69
270.073	152.69
270.306	160.69
270.538	155.69
270.77	141.69
271.002	155.69
271.234	167.69
271.466	163.69
271.698	173.69
271.93	156.69
272.162	168.69
272.394	160.69
272.626	168.69
272.858	152.69
273.09	164.69
273.322	164.69
273.553	154.69
273.785	160.69
274.017	181.69
274.249	181.69
274.481	170.69
274.713	179.69
274.945	172.69
275.176	157.69
275.408	172.69
275.64	155.69
275.872	171.69
276.104	183.69
276.335	162.69
276.567	157.69
276.799	155.69
277.031	173.69
277.262	171.69
277.494	176.69
277.726	183.69
277.957	181.69
278.189	169.69
278.421	161.69
278.652	168.69
278.884	163.69
279.115	178.69
279.347	173.69
279.579	181.69
279.81	190.69
280.042	183.69
280.273	194.69
280.505	167.69
280.736	177.69
280.968	166.69
281.199	189.69
281.431	180.69
281.662	173.69
281.894	202.69
282.125	177.69
282.356	184.69
282.588	188.69
282.819	183.69
283.051	180.69
283.282	174.69
283.513	185.69
283.745	187.69
283.976	189.69
284.207	174.69
284.439	193.69
284.67	193.69
284.901	191.69
285.132	193.69
285.364	181.69
285.595	183.69
285.826	196.69
286.057	195.69
286.288	179.69
286.52	187.69
286.751	199.69
286.982	216.69
287.213	193.69
287.444	195.69
287.675	178.69
287.906	192.69
288.138	189.69
288.369	193.69
288.6	179.69
288.831	200.69
289.062	187.69
289.293	196.69
289.524	199.69
289.755	205.69
289.986	207.69
290.217	186.69
290.448	188.69
290.679	177.69
290.91	211.69
291.141	196.69
291.371	198.69
291.602	201.69
291.833	187.69
292.064	212.69
292.295	197.69
292.526	189.69
292.757	197.69
292.987	188.69
293.218	190.69
293.449	212.69
293.68	205.69
293.91	199.69
294.141	205.69
294.372	214.69
294.603	202.69
294.833	209.69
295.064	180.69
295.295	198.69
295.525	210.69
295.756	207.69
295.987	204.69
296.217	194.69
296.448	208.69
296.679	205.69
296.909	214.69
297.14	208.69
297.37	210.69
297.601	212.69
297.831	206.69
298.062	226.69
298.292	214.69
298.523	229.69
298.753	218.69
298.984	204.69
299.214	197.69
299.445	217.69
299.675	190.69
299.905	224.69
300.136	202.69
300.366	223.69
300.597	219.69
300.827	232.69
301.057	224.69
301.288	223.69
301.518	212.69
301.748	216.69
301.979	228.69
302.209	220.69
302.439	212.69
302.669	235.69
302.9	241.69
303.13	228.69
303.36	214.69
303.59	213.69
303.82	222.69
304.051	243.69
304.281	222.69
304.511	212.69
304.741	227.69
304.971	234.69
305.201	226.69
305.431	220.69
305.661	210.69
305.891	219.69
306.121	226.69
306.352	205.69
306.582	227.69
306.812	215.69
307.042	224.69
307.272	241.69
307.502	212.69
307.731	215.69
307.961	214.69
308.191	207.69
308.421	215.69
308.651	214.69
308.881	214.69
309.111	223.69
309.341	209.69
309.571	211.69
309.8	218.69
310.03	219.69
310.26	230.69
310.49	218.69
310.72	226.69
310.949	208.69
311.179	227.69
311.409	204.69
311.639	230.69
311.868	222.69
312.098	218.69
312.328	225.69
312.557	228.69
312.787	236.69
313.017	246.69
313.246	229.69
313.476	225.69
313.706	215.69
313.935	235.69
314.165	234.69
314.394	223.69
314.624	235.69
314.853	228.69
315.083	230.69
315.312	243.69
315.542	226.69
315.771	207.69
316.001	233.69
316.23	235.69
316.46	228.69
316.689	234.69
316.919	235.69
317.148	214.69
317.377	231.69
317.607	235.69
317.836	220.69
318.065	234.69
318.295	229.69
318.524	222.69
318.753	227.69
318.983	230.69
319.212	222.69
319.441	247.69
319.67	241.69
319.9	245.69
320.129	213.69
320.358	234.69
320.587	243.69
320.816	239.69
321.046	244.69
321.275	236.69
321.504	228.69
321.733	231.69
321.962	243.69
322.191	236.69
322.42	247.69
322.649	253.69
322.878	239.69
323.108	230.69
323.337	255.69
323.566	221.69
323.795	233.69
324.024	240.69
324.253	249.69
324.482	236.69
324.71	243.69
324.939	256.69
325.168	254.69
325.397	258.69
325.626	237.69
325.855	234.69
326.084	255.69
326.313	256.69
326.542	236.69
326.77	249.69
326.999	241.69
327.228	266.69
327.457	268.69
327.686	245.69
327.914	245.69
328.143	246.69
328.372	237.69
328.6	273.69
328.829	268.69
329.058	265.69
329.287	246.69
329.515	260.69
329.744	242.69
329.972	251.69
330.201	260.69
330.43	270.69
330.658	266.69
330.887	261.69
331.115	244.69
331.344	269.69
331.572	267.69
331.801	260.69
332.03	275.69
332.258	281.69
332.486	283.69
332.715	301.69
332.943	308.69
333.172	301.69
333.4	291.69
333.629	318.69
333.857	333.69
334.085	322.69
334.314	314.69
334.542	308.69
334.771	313.69
334.999	302.69
335.227	309.69
335.455	294.69
335.684	323.69
335.912	284.69
336.14	267.69
336.369	290.69
336.597	302.69
336.825	306.69
337.053	296.69
337.281	286.69
337.51	282.69
337.738	296.69
337.966	287.69
338.194	273.69
338.422	278.69
338.65	279.69
338.878	258.69
339.106	272.69
339.334	261.69
339.562	257.69
339.79	245.69
340.018	283.69
340.246	264.69
340.474	260.69
340.702	248.69
340.93	289.69
341.158	262.69
341.386	269.69
341.614	262.69
341.842	261.69
342.07	259.69
342.298	271.69
342.526	260.69
342.754	262.69
342.981	270.69
343.209	265.69
343.437	286.69
343.665	288.69
343.893	290.69
344.12	296.69
344.348	299.69
344.576	294.69
344.804	277.69
345.031	272.69
345.259	261.69
345.487	271.69
345.714	260.69
345.942	251.69
346.17	252.69
346.397	252.69
346.625	266.69
346.853	265.69
347.08	253.69
347.308	260.69
347.535	260.69
347.763	269.69
347.99	253.69
348.218	259.69
348.445	262.69
348.673	266.69
348.9	273.69
349.128	235.69
349.355	241.69
349.583	244.69
349.81	256.69
350.037	262.69
350.265	238.69
350.492	253.69
350.72	243.69
350.947	269.69
351.174	241.69
351.402	242.69
351.629	229.69
351.856	251.69
352.083	261.69
352.311	249.69
352.538	255.69
352.765	265.69
352.992	246.69
353.22	257.69
353.447	266.69
353.674	258.69
353.901	236.69
354.128	263.69
354.355	255.69
354.583	249.69
354.81	248.69
355.037	275.69
355.264	237.69
355.491	248.69
355.718	256.69
355.945	261.69
356.172	256.69
356.399	267.69
356.626	246.69
356.853	242.69
357.08	246.69
357.307	261.69
357.534	265.69
357.761	245.69
357.988	252.69
358.215	253.69
358.441	236.69
358.668	258.69
358.895	242.69
359.122	255.69
359.349	266.69
359.576	256.69
359.802	259.69
360.029	251.69
360.256	238.69
360.483	251.69
360.709	246.69
360.936	268.69
361.163	255.69
361.39	263.69
361.616	253.69
361.843	225.69
362.07	246.69
362.296	250.69
362.523	260.69
362.749	262.69
362.976	266.69
363.203	255.69
363.429	245.69
363.656	254.69
363.882	244.69
364.109	247.69
364.335	251.69
364.562	255.69
364.788	247.69
365.015	242.69
365.241	236.69
365.468	281.69
365.694	256.69
365.92	246.69
366.147	246.69
366.373	249.69
366.599	260.69
366.826	254.69
367.052	262.69
367.278	254.69
367.505	261.69
367.731	266.69
367.957	254.69
368.184	269.69
368.41	265.69
368.636	250.69
368.862	255.69
369.089	247.69
369.315	270.69
369.541	261.69
369.767	279.69
369.993	257.69
370.219	259.69
370.445	286.69
370.672	255.69
370.898	271.69
371.124	261.69
371.35	270.69
371.576	271.69
371.802	286.69
372.028	284.69
372.254	277.69
372.48	274.69
372.706	280.69
372.932	266.69
373.158	264.69
373.384	288.69
373.61	288.69
373.835	286.69
374.061	278.69
374.287	281.69
374.513	280.69
374.739	296.69
374.965	307.69
375.191	309.69
375.416	302.69
375.642	282.69
375.868	291.69
376.094	286.69
376.319	289.69
376.545	282.69
376.771	270.69
376.997	277.69
377.222	281.69
377.448	282.69
377.674	276.69
377.899	283.69
378.125	254.69
378.35	262.69
378.576	270.69
378.802	271.69
379.027	281.69
379.253	299.69
379.478	267.69
379.704	285.69
379.929	286.69
380.155	278.69
380.38	267.69
380.606	277.69
380.831	285.69
381.057	274.69
381.282	293.69
381.507	261.69
381.733	266.69
381.958	267.69
382.184	301.69
382.409	293.69
382.634	294.69
382.86	292.69
383.085	299.69
383.31	289.69
383.535	305.69
383.761	295.69
383.986	306.69
384.211	317.69
384.436	297.69
384.662	307.69
384.887	308.69
385.112	312.69
385.337	318.69
385.562	317.69
385.787	316.69
386.013	331.69
386.238	312.69
386.463	311.69
386.688	321.69
386.913	302.69
387.138	336.69
387.363	311.69
387.588	328.69
387.813	316.69
388.038	316.69
388.263	327.69
388.488	317.69
388.713	315.69
388.938	323.69
389.163	331.69
389.387	328.69
389.612	307.69
389.837	309.69
390.062	313.69
390.287	336.69
390.512	331.69
390.736	323.69
390.961	314.69
391.186	337.69
391.411	320.69
391.636	338.69
391.86	350.69
392.085	380.69
392.31	358.69
392.534	346.69
392.759	343.69
392.984	356.69
393.208	343.69
393.433	349.69
393.658	322.69
393.882	331.69
394.107	331.69
394.331	341.69
394.556	355.69
394.78	329.69
395.005	371.69
395.229	344.69
395.454	357.69
395.678	370.69
395.903	361.69
396.127	355.69
396.352	339.69
396.576	343.69
396.801	346.69
397.025	350.69
397.249	355.69
397.474	353.69
397.698	354.69
397.922	347.69
398.147	362.69
398.371	367.69
398.595	375.69
398.82	408.69
399.044	423.69
399.268	442.69
399.492	486.69
399.717	535.69
399.941	538.69
400.165	479.69
400.389	433.69
400.613	419.69
400.837	398.69
401.062	397.69
401.286	405.69
401.51	410.69
401.734	391.69
401.958	403.69
402.182	416.69
402.406	398.69
402.63	404.69
402.854	406.69
403.078	433.69
403.302	440.69
403.526	437.69
403.75	429.69
403.974	465.69
404.198	442.69
404.422	458.69
404.645	430.69
404.869	432.69
405.093	443.69
405.317	441.69
405.541	425.69
405.765	429.69
405.988	439.69
406.212	431.69
406.436	422.69
406.66	427.69
406.883	437.69
407.107	475.69
407.331	491.69
407.555	503.69
407.778	493.69
408.002	482.69
408.226	452.69
408.449	471.69
408.673	433.69
408.896	449.69
409.12	447.69
409.344	441.69
409.567	441.69
409.791	441.69
410.014	464.69
410.238	433.69
410.461	428.69
410.685	451.69
410.908	421.69
411.132	430.69
411.355	452.69
411.578	410.69
411.802	412.69
412.025	410.69
412.249	418.69
412.472	423.69
412.695	416.69
412.919	429.69
413.142	414.69
413.365	421.69
413.589	430.69
413.812	410.69
414.035	417.69
414.258	409.69
414.482	411.69
414.705	418.69
414.928	416.69
415.151	405.69
415.374	422.69
415.597	411.69
415.821	371.69
416.044	381.69
416.267	402.69
416.49	407.69
416.713	390.69
416.936	404.69
417.159	403.69
417.382	389.69
417.605	404.69
417.828	407.69
418.051	403.69
418.274	406.69
418.497	396.69
418.72	407.69
418.943	423.69
419.166	431.69
419.389	441.69
419.611	449.69
419.834	430.69
420.057	413.69
420.28	416.69
420.503	414.69
420.726	412.69
420.948	386.69
421.171	378.69
421.394	391.69
421.617	411.69
421.839	412.69
422.062	415.69
422.285	420.69
422.507	399.69
422.73	398.69
422.953	416.69
423.175	422.69
423.398	400.69
423.621	421.69
423.843	414.69
424.066	410.69
424.288	399.69
424.511	408.69
424.733	437.69
424.956	407.69
425.178	403.69
425.401	427.69
425.623	399.69
425.846	399.69
426.068	392.69
426.291	372.69
426.513	382.69
426.735	408.69
426.958	379.69
427.18	383.69
427.402	380.69
427.625	370.69
427.847	378.69
428.069	378.69
428.292	388.69
428.514	375.69
428.736	377.69
428.958	363.69
429.181	351.69
429.403	348.69
429.625	349.69
429.847	372.69
430.069	362.69
430.292	359.69
430.514	351.69
430.736	369.69
430.958	370.69
431.18	364.69
431.402	369.69
431.624	372.69
431.846	375.69
432.068	362.69
432.29	381.69
432.512	377.69
432.734	363.69
432.956	374.69
433.178	378.69
433.4	374.69
433.622	369.69
433.844	385.69
434.066	376.69
434.287	369.69
434.509	387.69
434.731	374.69
434.953	395.69
435.175	402.69
435.397	411.69
435.618	380.69
435.84	399.69
436.062	371.69
436.284	374.69
436.505	381.69
436.727	395.69
436.949	377.69
437.17	361.69
437.392	371.69
437.614	382.69
437.835	360.69
438.057	354.69
438.278	364.69
438.5	358.69
438.721	377.69
438.943	381.69
439.165	370.69
439.386	378.69
439.608	397.69
439.829	383.69
440.05	355.69
440.272	383.69
440.493	387.69
440.715	395.69
440.936	388.69
441.158	389.69
441.379	390.69
441.6	424.69
441.822	426.69
442.043	430.69
442.264	420.69
442.486	402.69
442.707	420.69
442.928	408.69
443.149	414.69
443.371	423.69
443.592	412.69
443.813	427.69
444.034	423.69
444.255	455.69
444.476	452.69
444.698	471.69
444.919	490.69
445.14	567.69
445.361	469.69
445.582	435.69
445.803	405.69
446.024	416.69
446.245	401.69
446.466	390.69
446.687	400.69
446.908	408.69
447.129	383.69
447.35	375.69
447.571	390.69
447.792	362.69
448.013	387.69
448.234	365.69
448.455	365.69
448.675	371.69
448.896	363.69
449.117	363.69
449.338	353.69
449.559	346.69
449.779	348.69
450	358.69
450.221	353.69
450.442	374.69
450.662	345.69
450.883	354.69
451.104	378.69
451.324	381.69
451.545	364.69
451.766	359.69
451.986	346.69
452.207	358.69
452.428	368.69
452.648	336.69
452.869	363.69
453.089	345.69
453.31	365.69
453.53	340.69
453.751	335.69
453.971	340.69
454.192	350.69
454.412	330.69
454.633	343.69
454.853	348.69
455.073	324.69
455.294	342.69
455.514	339.69
455.734	343.69
455.955	333.69
456.175	313.69
456.395	347.69
456.616	339.69
456.836	346.69
457.056	341.69
457.276	327.69
457.497	358.69
457.717	332.69
457.937	342.69
458.157	332.69
458.377	342.69
458.598	345.69
458.818	361.69
459.038	351.69
459.258	366.69
459.478	369.69
459.698	383.69
459.918	395.69
460.138	414.69
460.358	409.69
460.578	419.69
460.798	429.69
461.018	431.69
461.238	413.69
461.458	402.69
461.678	417.69
461.898	437.69
462.118	440.69
462.338	481.69
462.558	450.69
462.777	460.69
462.997	519.69
463.217	541.69
463.437	538.69
463.657	499.69
463.876	483.69
464.096	483.69
464.316	470.69
464.536	468.69
464.755	498.69
464.975	476.69
465.195	427.69
465.414	420.69
465.634	397.69
465.854	397.69
466.073	365.69
466.293	371.69
466.512	385.69
466.732	366.69
466.951	373.69
467.171	355.69
467.391	391.69
467.61	360.69
467.829	361.69
468.049	357.69
468.268	363.69
468.488	365.69
468.707	359.69
468.927	359.69
469.146	359.69
469.365	359.69
469.585	373.69
469.804	380.69
470.023	363.69
470.243	363.69
470.462	361.69
470.681	369.69
470.901	381.69
471.12	357.69
471.339	378.69
471.558	354.69
471.777	360.69
471.997	364.69
472.216	353.69
472.435	346.69
472.654	347.69
472.873	317.69
473.092	349.69
473.311	333.69
473.53	316.69
473.749	335.69
473.968	343.69
474.187	340.69
474.406	326.69
474.625	335.69
474.844	343.69
475.063	348.69
475.282	331.69
475.501	338.69
475.72	343.69
475.939	358.69
476.158	333.69
476.377	343.69
476.596	357.69
476.814	347.69
477.033	352.69
477.252	349.69
477.471	369.69
477.69	359.69
477.908	368.69
478.127	396.69
478.346	399.69
478.564	375.69
478.783	392.69
479.002	405.69
479.22	398.69
479.439	415.69
479.658	413.69
479.876	403.69
480.095	411.69
480.313	411.69
480.532	406.69
480.751	431.69
480.969	411.69
481.188	405.69
481.406	379.69
481.624	394.69
481.843	371.69
482.061	373.69
482.28	369.69
482.498	378.69
482.717	369.69
482.935	358.69
483.153	395.69
483.372	400.69
483.59	397.69
483.808	377.69
484.027	367.69
484.245	360.69
484.463	371.69
484.681	401.69
484.9	374.69
485.118	389.69
485.336	352.69
485.554	389.69
485.772	389.69
485.99	396.69
486.209	394.69
486.427	391.69
486.645	386.69
486.863	389.69
487.081	384.69
487.299	412.69
487.517	412.69
487.735	402.69
487.953	391.69
488.171	387.69
488.389	394.69
488.607	385.69
488.825	368.69
489.043	395.69
489.261	370.69
489.479	386.69
489.696	394.69
489.914	409.69
490.132	379.69
490.35	395.69
490.568	399.69
490.786	404.69
491.003	406.69
491.221	408.69
491.439	389.69
491.657	387.69
491.874	389.69
492.092	413.69
492.31	395.69
492.527	413.69
492.745	422.69
492.963	399.69
493.18	419.69
493.398	410.69
493.615	407.69
493.833	410.69
494.05	437.69
494.268	430.69
494.485	395.69
494.703	419.69
494.92	423.69
495.138	409.69
495.355	417.69
495.573	409.69
495.79	406.69
496.008	403.69
496.225	417.69
496.442	416.69
496.66	421.69
496.877	417.69
497.094	414.69
497.312	433.69
497.529	433.69
497.746	469.69
497.963	485.69
498.181	484.69
498.398	486.69
498.615	538.69
498.832	580.69
499.049	591.69
499.267	615.69
499.484	682.69
499.701	728.69
499.918	813.69
500.135	884.69
500.352	971.69
500.569	1040.69
500.786	1023.69
501.003	948.69
501.22	887.69
501.437	797.69
501.654	691.69
501.871	643.69
502.088	605.69
