Data from Fe(NO3)3@0.0125M.TitratingCurve.Agarose3%dH2O.NegLispCup.LampEnergy10.LIBS07252019_HRD10591_17-00-48-337.txt Node
Date: Thu Jul 25 17:00:48 EDT 2019
User: cochatt
Spectrometer: HR+D1059
Trigger mode: 1
Integration Time (sec): 1.000000E-1
Scans to average: 1
Electric dark correction enabled: true
Nonlinearity correction enabled: false
Boxcar width: 0
XAxis mode: Wavelengths
Number of Pixels in Spectrum: 2048
>>>>>Begin Spectral Data<<<<<
223.165	-6.38
223.4	-6.38
223.635	-6.38
223.869	-7.38
224.104	-12.38
224.338	-16.38
224.573	-16.38
224.808	-18.38
225.042	-6.38
225.277	-7.38
225.511	-2.38
225.746	5.62
225.98	2.62
226.215	8.62
226.449	29.62
226.683	11.62
226.918	15.62
227.152	19.62
227.387	44.62
227.621	47.62
227.856	64.62
228.09	47.62
228.324	50.62
228.559	53.62
228.793	60.62
229.027	78.62
229.262	101.62
229.496	86.62
229.73	88.62
229.964	97.62
230.199	83.62
230.433	85.62
230.667	105.62
230.901	89.62
231.136	103.62
231.37	107.62
231.604	111.62
231.838	104.62
232.072	115.62
232.306	89.62
232.541	96.62
232.775	115.62
233.009	104.62
233.243	113.62
233.477	122.62
233.711	100.62
233.945	99.62
234.179	110.62
234.413	113.62
234.647	112.62
234.881	121.62
235.115	112.62
235.349	105.62
235.583	115.62
235.817	123.62
236.051	105.62
236.285	119.62
236.519	122.62
236.753	97.62
236.987	101.62
237.221	124.62
237.455	122.62
237.689	104.62
237.922	120.62
238.156	113.62
238.39	123.62
238.624	120.62
238.858	100.62
239.091	117.62
239.325	125.62
239.559	111.62
239.793	118.62
240.027	111.62
240.26	128.62
240.494	119.62
240.728	131.62
240.961	122.62
241.195	127.62
241.429	124.62
241.662	117.62
241.896	123.62
242.13	124.62
242.363	118.62
242.597	128.62
242.83	123.62
243.064	111.62
243.298	142.62
243.531	147.62
243.765	123.62
243.998	120.62
244.232	128.62
244.465	130.62
244.699	138.62
244.932	150.62
245.166	144.62
245.399	128.62
245.633	141.62
245.866	136.62
246.099	121.62
246.333	127.62
246.566	136.62
246.8	120.62
247.033	140.62
247.266	132.62
247.5	134.62
247.733	139.62
247.966	147.62
248.2	140.62
248.433	149.62
248.666	141.62
248.899	127.62
249.133	139.62
249.366	151.62
249.599	144.62
249.832	145.62
250.066	145.62
250.299	156.62
250.532	143.62
250.765	152.62
250.998	135.62
251.231	148.62
251.465	152.62
251.698	149.62
251.931	147.62
252.164	168.62
252.397	159.62
252.63	144.62
252.863	154.62
253.096	164.62
253.329	164.62
253.562	158.62
253.795	170.62
254.028	161.62
254.261	175.62
254.494	168.62
254.727	155.62
254.96	157.62
255.193	144.62
255.426	156.62
255.659	153.62
255.892	165.62
256.124	159.62
256.357	161.62
256.59	164.62
256.823	172.62
257.056	164.62
257.289	170.62
257.521	160.62
257.754	175.62
257.987	168.62
258.22	136.62
258.452	175.62
258.685	164.62
258.918	186.62
259.151	168.62
259.383	177.62
259.616	169.62
259.849	184.62
260.081	195.62
260.314	201.62
260.547	183.62
260.779	186.62
261.012	195.62
261.244	200.62
261.477	196.62
261.71	175.62
261.942	163.62
262.175	192.62
262.407	186.62
262.64	179.62
262.872	177.62
263.105	185.62
263.337	189.62
263.57	195.62
263.802	182.62
264.035	188.62
264.267	189.62
264.499	169.62
264.732	180.62
264.964	195.62
265.197	182.62
265.429	188.62
265.661	191.62
265.894	185.62
266.126	194.62
266.358	186.62
266.591	169.62
266.823	193.62
267.055	179.62
267.287	188.62
267.52	181.62
267.752	192.62
267.984	168.62
268.216	211.62
268.448	207.62
268.681	195.62
268.913	208.62
269.145	185.62
269.377	219.62
269.609	209.62
269.841	193.62
270.073	219.62
270.306	193.62
270.538	203.62
270.77	192.62
271.002	203.62
271.234	187.62
271.466	208.62
271.698	194.62
271.93	212.62
272.162	214.62
272.394	223.62
272.626	209.62
272.858	208.62
273.09	228.62
273.322	220.62
273.553	211.62
273.785	219.62
274.017	218.62
274.249	230.62
274.481	209.62
274.713	222.62
274.945	239.62
275.176	236.62
275.408	235.62
275.64	235.62
275.872	221.62
276.104	227.62
276.335	228.62
276.567	217.62
276.799	226.62
277.031	215.62
277.262	235.62
277.494	226.62
277.726	224.62
277.957	220.62
278.189	230.62
278.421	232.62
278.652	223.62
278.884	233.62
279.115	222.62
279.347	224.62
279.579	239.62
279.81	236.62
280.042	245.62
280.273	235.62
280.505	226.62
280.736	235.62
280.968	245.62
281.199	252.62
281.431	235.62
281.662	229.62
281.894	244.62
282.125	240.62
282.356	253.62
282.588	233.62
282.819	244.62
283.051	257.62
283.282	253.62
283.513	247.62
283.745	245.62
283.976	253.62
284.207	259.62
284.439	253.62
284.67	268.62
284.901	251.62
285.132	248.62
285.364	257.62
285.595	268.62
285.826	259.62
286.057	273.62
286.288	249.62
286.52	265.62
286.751	239.62
286.982	255.62
287.213	256.62
287.444	265.62
287.675	264.62
287.906	251.62
288.138	263.62
288.369	279.62
288.6	270.62
288.831	270.62
289.062	284.62
289.293	284.62
289.524	272.62
289.755	260.62
289.986	262.62
290.217	273.62
290.448	275.62
290.679	282.62
290.91	272.62
291.141	258.62
291.371	272.62
291.602	288.62
291.833	279.62
292.064	271.62
292.295	283.62
292.526	268.62
292.757	279.62
292.987	276.62
293.218	279.62
293.449	279.62
293.68	273.62
293.91	279.62
294.141	270.62
294.372	289.62
294.603	298.62
294.833	289.62
295.064	281.62
295.295	283.62
295.525	263.62
295.756	274.62
295.987	269.62
296.217	262.62
296.448	266.62
296.679	296.62
296.909	276.62
297.14	301.62
297.37	306.62
297.601	288.62
297.831	313.62
298.062	303.62
298.292	314.62
298.523	305.62
298.753	315.62
298.984	323.62
299.214	294.62
299.445	313.62
299.675	300.62
299.905	306.62
300.136	309.62
300.366	287.62
300.597	304.62
300.827	349.62
301.057	316.62
301.288	323.62
301.518	307.62
301.748	315.62
301.979	313.62
302.209	332.62
302.439	318.62
302.669	330.62
302.9	319.62
303.13	319.62
303.36	336.62
303.59	315.62
303.82	308.62
304.051	339.62
304.281	316.62
304.511	336.62
304.741	320.62
304.971	306.62
305.201	325.62
305.431	334.62
305.661	317.62
305.891	323.62
306.121	316.62
306.352	319.62
306.582	327.62
306.812	319.62
307.042	313.62
307.272	316.62
307.502	328.62
307.731	332.62
307.961	325.62
308.191	312.62
308.421	328.62
308.651	328.62
308.881	323.62
309.111	318.62
309.341	316.62
309.571	347.62
309.8	318.62
310.03	332.62
310.26	348.62
310.49	328.62
310.72	328.62
310.949	358.62
311.179	346.62
311.409	327.62
311.639	340.62
311.868	347.62
312.098	353.62
312.328	350.62
312.557	360.62
312.787	347.62
313.017	350.62
313.246	375.62
313.476	361.62
313.706	351.62
313.935	363.62
314.165	346.62
314.394	359.62
314.624	351.62
314.853	361.62
315.083	351.62
315.312	354.62
315.542	346.62
315.771	370.62
316.001	367.62
316.23	315.62
316.46	367.62
316.689	360.62
316.919	351.62
317.148	365.62
317.377	350.62
317.607	343.62
317.836	352.62
318.065	373.62
318.295	349.62
318.524	348.62
318.753	366.62
318.983	355.62
319.212	371.62
319.441	361.62
319.67	371.62
319.9	364.62
320.129	357.62
320.358	356.62
320.587	365.62
320.816	367.62
321.046	369.62
321.275	358.62
321.504	369.62
321.733	369.62
321.962	375.62
322.191	365.62
322.42	385.62
322.649	360.62
322.878	369.62
323.108	373.62
323.337	373.62
323.566	380.62
323.795	375.62
324.024	379.62
324.253	376.62
324.482	360.62
324.71	391.62
324.939	399.62
325.168	388.62
325.397	381.62
325.626	377.62
325.855	371.62
326.084	386.62
326.313	400.62
326.542	388.62
326.77	402.62
326.999	383.62
327.228	382.62
327.457	389.62
327.686	381.62
327.914	395.62
328.143	383.62
328.372	396.62
328.6	412.62
328.829	395.62
329.058	389.62
329.287	406.62
329.515	391.62
329.744	392.62
329.972	392.62
330.201	408.62
330.43	414.62
330.658	394.62
330.887	413.62
331.115	410.62
331.344	410.62
331.572	428.62
331.801	436.62
332.03	429.62
332.258	404.62
332.486	417.62
332.715	413.62
332.943	423.62
333.172	437.62
333.4	439.62
333.629	445.62
333.857	443.62
334.085	465.62
334.314	439.62
334.542	455.62
334.771	451.62
334.999	467.62
335.227	487.62
335.455	440.62
335.684	456.62
335.912	464.62
336.14	460.62
336.369	438.62
336.597	450.62
336.825	447.62
337.053	447.62
337.281	451.62
337.51	441.62
337.738	433.62
337.966	452.62
338.194	427.62
338.422	438.62
338.65	441.62
338.878	423.62
339.106	459.62
339.334	444.62
339.562	439.62
339.79	440.62
340.018	435.62
340.246	445.62
340.474	432.62
340.702	443.62
340.93	423.62
341.158	448.62
341.386	421.62
341.614	428.62
341.842	426.62
342.07	423.62
342.298	435.62
342.526	417.62
342.754	399.62
342.981	425.62
343.209	437.62
343.437	429.62
343.665	444.62
343.893	466.62
344.12	459.62
344.348	454.62
344.576	435.62
344.804	448.62
345.031	460.62
345.259	436.62
345.487	439.62
345.714	422.62
345.942	409.62
346.17	444.62
346.397	441.62
346.625	413.62
346.853	424.62
347.08	415.62
347.308	435.62
347.535	420.62
347.763	412.62
347.99	415.62
348.218	405.62
348.445	410.62
348.673	408.62
348.9	438.62
349.128	427.62
349.355	409.62
349.583	421.62
349.81	423.62
350.037	406.62
350.265	401.62
350.492	412.62
350.72	428.62
350.947	408.62
351.174	405.62
351.402	409.62
351.629	413.62
351.856	416.62
352.083	412.62
352.311	403.62
352.538	385.62
352.765	420.62
352.992	420.62
353.22	409.62
353.447	418.62
353.674	429.62
353.901	405.62
354.128	440.62
354.355	406.62
354.583	412.62
354.81	395.62
355.037	419.62
355.264	424.62
355.491	410.62
355.718	420.62
355.945	406.62
356.172	419.62
356.399	415.62
356.626	418.62
356.853	418.62
357.08	407.62
357.307	429.62
357.534	426.62
357.761	443.62
357.988	420.62
358.215	447.62
358.441	437.62
358.668	418.62
358.895	419.62
359.122	433.62
359.349	424.62
359.576	410.62
359.802	401.62
360.029	425.62
360.256	441.62
360.483	421.62
360.709	408.62
360.936	432.62
361.163	433.62
361.39	410.62
361.616	409.62
361.843	423.62
362.07	426.62
362.296	417.62
362.523	420.62
362.749	439.62
362.976	425.62
363.203	418.62
363.429	435.62
363.656	449.62
363.882	423.62
364.109	429.62
364.335	428.62
364.562	432.62
364.788	421.62
365.015	431.62
365.241	454.62
365.468	427.62
365.694	423.62
365.92	430.62
366.147	426.62
366.373	431.62
366.599	442.62
366.826	415.62
367.052	427.62
367.278	415.62
367.505	447.62
367.731	437.62
367.957	423.62
368.184	415.62
368.41	422.62
368.636	431.62
368.862	444.62
369.089	454.62
369.315	420.62
369.541	439.62
369.767	461.62
369.993	445.62
370.219	444.62
370.445	459.62
370.672	447.62
370.898	455.62
371.124	468.62
371.35	455.62
371.576	463.62
371.802	448.62
372.028	465.62
372.254	444.62
372.48	443.62
372.706	455.62
372.932	451.62
373.158	463.62
373.384	478.62
373.61	480.62
373.835	453.62
374.061	442.62
374.287	461.62
374.513	469.62
374.739	472.62
374.965	457.62
375.191	501.62
375.416	485.62
375.642	465.62
375.868	469.62
376.094	477.62
376.319	459.62
376.545	449.62
376.771	455.62
376.997	453.62
377.222	451.62
377.448	452.62
377.674	468.62
377.899	459.62
378.125	461.62
378.35	468.62
378.576	444.62
378.802	457.62
379.027	447.62
379.253	448.62
379.478	453.62
379.704	468.62
379.929	466.62
380.155	442.62
380.38	441.62
380.606	471.62
380.831	455.62
381.057	460.62
381.282	443.62
381.507	455.62
381.733	474.62
381.958	486.62
382.184	490.62
382.409	479.62
382.634	472.62
382.86	470.62
383.085	467.62
383.31	507.62
383.535	479.62
383.761	471.62
383.986	480.62
384.211	487.62
384.436	496.62
384.662	507.62
384.887	500.62
385.112	500.62
385.337	519.62
385.562	511.62
385.787	504.62
386.013	523.62
386.238	513.62
386.463	525.62
386.688	515.62
386.913	513.62
387.138	515.62
387.363	543.62
387.588	505.62
387.813	513.62
388.038	533.62
388.263	512.62
388.488	493.62
388.713	519.62
388.938	509.62
389.163	529.62
389.387	516.62
389.612	524.62
389.837	521.62
390.062	505.62
390.287	516.62
390.512	532.62
390.736	535.62
390.961	540.62
391.186	497.62
391.411	544.62
391.636	547.62
391.86	541.62
392.085	533.62
392.31	540.62
392.534	526.62
392.759	535.62
392.984	554.62
393.208	545.62
393.433	555.62
393.658	539.62
393.882	541.62
394.107	523.62
394.331	539.62
394.556	550.62
394.78	561.62
395.005	528.62
395.229	530.62
395.454	558.62
395.678	583.62
395.903	536.62
396.127	591.62
396.352	560.62
396.576	560.62
396.801	553.62
397.025	559.62
397.249	571.62
397.474	573.62
397.698	568.62
397.922	601.62
398.147	576.62
398.371	603.62
398.595	595.62
398.82	604.62
399.044	632.62
399.268	634.62
399.492	678.62
399.717	685.62
399.941	673.62
400.165	680.62
400.389	654.62
400.613	656.62
400.837	626.62
401.062	604.62
401.286	605.62
401.51	594.62
401.734	601.62
401.958	592.62
402.182	603.62
402.406	611.62
402.63	582.62
402.854	587.62
403.078	592.62
403.302	592.62
403.526	604.62
403.75	615.62
403.974	587.62
404.198	590.62
404.422	615.62
404.645	592.62
404.869	631.62
405.093	619.62
405.317	627.62
405.541	626.62
405.765	616.62
405.988	635.62
406.212	633.62
406.436	638.62
406.66	653.62
406.883	613.62
407.107	679.62
407.331	650.62
407.555	683.62
407.778	656.62
408.002	671.62
408.226	648.62
408.449	649.62
408.673	657.62
408.896	643.62
409.12	644.62
409.344	662.62
409.567	627.62
409.791	628.62
410.014	649.62
410.238	648.62
410.461	624.62
410.685	635.62
410.908	608.62
411.132	619.62
411.355	609.62
411.578	629.62
411.802	603.62
412.025	620.62
412.249	613.62
412.472	622.62
412.695	601.62
412.919	620.62
413.142	601.62
413.365	585.62
413.589	615.62
413.812	607.62
414.035	604.62
414.258	616.62
414.482	583.62
414.705	629.62
414.928	578.62
415.151	588.62
415.374	570.62
415.597	593.62
415.821	565.62
416.044	603.62
416.267	595.62
416.49	590.62
416.713	589.62
416.936	582.62
417.159	582.62
417.382	570.62
417.605	565.62
417.828	571.62
418.051	577.62
418.274	577.62
418.497	582.62
418.72	588.62
418.943	580.62
419.166	585.62
419.389	635.62
419.611	609.62
419.834	583.62
420.057	596.62
420.28	570.62
420.503	564.62
420.726	567.62
420.948	571.62
421.171	565.62
421.394	564.62
421.617	560.62
421.839	573.62
422.062	564.62
422.285	581.62
422.507	578.62
422.73	575.62
422.953	574.62
423.175	577.62
423.398	565.62
423.621	556.62
423.843	580.62
424.066	575.62
424.288	540.62
424.511	565.62
424.733	587.62
424.956	564.62
425.178	557.62
425.401	564.62
425.623	575.62
425.846	543.62
426.068	578.62
426.291	555.62
426.513	556.62
426.735	557.62
426.958	563.62
427.18	562.62
427.402	573.62
427.625	569.62
427.847	545.62
428.069	543.62
428.292	532.62
428.514	548.62
428.736	562.62
428.958	547.62
429.181	556.62
429.403	538.62
429.625	536.62
429.847	541.62
430.069	550.62
430.292	537.62
430.514	552.62
430.736	551.62
430.958	562.62
431.18	532.62
431.402	538.62
431.624	554.62
431.846	569.62
432.068	533.62
432.29	548.62
432.512	551.62
432.734	561.62
432.956	546.62
433.178	536.62
433.4	552.62
433.622	572.62
433.844	553.62
434.066	553.62
434.287	547.62
434.509	580.62
434.731	564.62
434.953	562.62
435.175	576.62
435.397	575.62
435.618	551.62
435.84	564.62
436.062	543.62
436.284	549.62
436.505	536.62
436.727	533.62
436.949	562.62
437.17	536.62
437.392	541.62
437.614	556.62
437.835	544.62
438.057	508.62
438.278	531.62
438.5	564.62
438.721	537.62
438.943	525.62
439.165	534.62
439.386	532.62
439.608	542.62
439.829	548.62
440.05	524.62
440.272	556.62
440.493	536.62
440.715	539.62
440.936	530.62
441.158	563.62
441.379	538.62
441.6	549.62
441.822	575.62
442.043	573.62
442.264	563.62
442.486	555.62
442.707	559.62
442.928	535.62
443.149	555.62
443.371	553.62
443.592	555.62
443.813	564.62
444.034	550.62
444.255	556.62
444.476	580.62
444.698	578.62
444.919	577.62
445.14	659.62
445.361	588.62
445.582	567.62
445.803	545.62
446.024	575.62
446.245	548.62
446.466	547.62
446.687	529.62
446.908	531.62
447.129	539.62
447.35	520.62
447.571	524.62
447.792	512.62
448.013	492.62
448.234	505.62
448.455	520.62
448.675	530.62
448.896	509.62
449.117	523.62
449.338	500.62
449.559	494.62
449.779	518.62
450	492.62
450.221	492.62
450.442	508.62
450.662	495.62
450.883	504.62
451.104	504.62
451.324	500.62
451.545	491.62
451.766	522.62
451.986	490.62
452.207	492.62
452.428	499.62
452.648	483.62
452.869	470.62
453.089	488.62
453.31	475.62
453.53	495.62
453.751	504.62
453.971	491.62
454.192	501.62
454.412	482.62
454.633	508.62
454.853	479.62
455.073	481.62
455.294	498.62
455.514	477.62
455.734	476.62
455.955	473.62
456.175	478.62
456.395	488.62
456.616	488.62
456.836	503.62
457.056	488.62
457.276	458.62
457.497	485.62
457.717	481.62
457.937	482.62
458.157	492.62
458.377	483.62
458.598	501.62
458.818	499.62
459.038	507.62
459.258	509.62
459.478	520.62
459.698	532.62
459.918	534.62
460.138	553.62
460.358	539.62
460.578	555.62
460.798	568.62
461.018	576.62
461.238	594.62
461.458	586.62
461.678	578.62
461.898	572.62
462.118	576.62
462.338	593.62
462.558	626.62
462.777	604.62
462.997	635.62
463.217	605.62
463.437	644.62
463.657	633.62
463.876	625.62
464.096	623.62
464.316	611.62
464.536	612.62
464.755	589.62
464.975	594.62
465.195	576.62
465.414	568.62
465.634	571.62
465.854	547.62
466.073	548.62
466.293	547.62
466.512	543.62
466.732	530.62
466.951	541.62
467.171	525.62
467.391	545.62
467.61	528.62
467.829	530.62
468.049	513.62
468.268	530.62
468.488	518.62
468.707	529.62
468.927	517.62
469.146	513.62
469.365	532.62
469.585	502.62
469.804	519.62
470.023	539.62
470.243	518.62
470.462	538.62
470.681	544.62
470.901	528.62
471.12	539.62
471.339	537.62
471.558	512.62
471.777	537.62
471.997	536.62
472.216	542.62
472.435	531.62
472.654	543.62
472.873	522.62
473.092	536.62
473.311	524.62
473.53	529.62
473.749	529.62
473.968	540.62
474.187	536.62
474.406	536.62
474.625	556.62
474.844	541.62
475.063	543.62
475.282	548.62
475.501	521.62
475.72	538.62
475.939	540.62
476.158	538.62
476.377	572.62
476.596	563.62
476.814	569.62
477.033	574.62
477.252	569.62
477.471	575.62
477.69	577.62
477.908	575.62
478.127	600.62
478.346	601.62
478.564	613.62
478.783	587.62
479.002	613.62
479.22	593.62
479.439	633.62
479.658	624.62
479.876	610.62
480.095	615.62
480.313	647.62
480.532	644.62
480.751	638.62
480.969	632.62
481.188	615.62
481.406	633.62
481.624	647.62
481.843	605.62
482.061	618.62
482.28	627.62
482.498	617.62
482.717	627.62
482.935	635.62
483.153	640.62
483.372	627.62
483.59	623.62
483.808	638.62
484.027	629.62
484.245	645.62
484.463	630.62
484.681	652.62
484.9	656.62
485.118	652.62
485.336	625.62
485.554	638.62
485.772	655.62
485.99	638.62
486.209	635.62
486.427	655.62
486.645	653.62
486.863	653.62
487.081	651.62
487.299	640.62
487.517	666.62
487.735	643.62
487.953	659.62
488.171	667.62
488.389	665.62
488.607	663.62
488.825	654.62
489.043	629.62
489.261	640.62
489.479	639.62
489.696	661.62
489.914	649.62
490.132	653.62
490.35	647.62
490.568	645.62
490.786	641.62
491.003	633.62
491.221	658.62
491.439	634.62
491.657	649.62
491.874	676.62
492.092	664.62
492.31	659.62
492.527	682.62
492.745	665.62
492.963	662.62
493.18	654.62
493.398	655.62
493.615	660.62
493.833	681.62
494.05	638.62
494.268	645.62
494.485	654.62
494.703	672.62
494.92	676.62
495.138	663.62
495.355	659.62
495.573	705.62
495.79	687.62
496.008	703.62
496.225	716.62
496.442	736.62
496.66	699.62
496.877	717.62
497.094	745.62
497.312	729.62
497.529	769.62
497.746	775.62
497.963	769.62
498.181	797.62
498.398	804.62
498.615	822.62
498.832	833.62
499.049	886.62
499.267	889.62
499.484	926.62
499.701	956.62
499.918	972.62
500.135	1045.62
500.352	1092.62
500.569	1076.62
500.786	1072.62
501.003	1042.62
501.22	1019.62
501.437	967.62
501.654	923.62
