Data from Fe(NO3)3@0.05M.TitratingCurve.Agarose3%dH2O.NegLispCup.LampEnergy10.LIBS07252019_HRD10591_16-47-02-334.txt Node
Date: Thu Jul 25 16:47:02 EDT 2019
User: cochatt
Spectrometer: HR+D1059
Trigger mode: 1
Integration Time (sec): 1.000000E-1
Scans to average: 1
Electric dark correction enabled: true
Nonlinearity correction enabled: false
Boxcar width: 0
XAxis mode: Wavelengths
Number of Pixels in Spectrum: 2048
>>>>>Begin Spectral Data<<<<<
223.165	-15.88
223.4	-15.88
223.635	-15.88
223.869	-18.88
224.104	-12.88
224.338	-33.88
224.573	2.12
224.808	-18.88
225.042	-18.88
225.277	1.12
225.511	4.12
225.746	-5.88
225.98	18.12
226.215	27.12
226.449	10.12
226.683	18.12
226.918	13.12
227.152	31.12
227.387	49.12
227.621	32.12
227.856	40.12
228.09	55.12
228.324	45.12
228.559	56.12
228.793	76.12
229.027	96.12
229.262	134.12
229.496	122.12
229.73	124.12
229.964	125.12
230.199	149.12
230.433	144.12
230.667	140.12
230.901	141.12
231.136	137.12
231.37	133.12
231.604	152.12
231.838	143.12
232.072	153.12
232.306	134.12
232.541	152.12
232.775	146.12
233.009	152.12
233.243	160.12
233.477	158.12
233.711	164.12
233.945	163.12
234.179	154.12
234.413	165.12
234.647	164.12
234.881	164.12
235.115	171.12
235.349	170.12
235.583	137.12
235.817	164.12
236.051	169.12
236.285	156.12
236.519	176.12
236.753	170.12
236.987	172.12
237.221	166.12
237.455	161.12
237.689	168.12
237.922	171.12
238.156	176.12
238.39	176.12
238.624	218.12
238.858	207.12
239.091	179.12
239.325	188.12
239.559	199.12
239.793	190.12
240.027	221.12
240.26	216.12
240.494	203.12
240.728	200.12
240.961	212.12
241.195	199.12
241.429	212.12
241.662	205.12
241.896	195.12
242.13	197.12
242.363	193.12
242.597	199.12
242.83	227.12
243.064	210.12
243.298	224.12
243.531	227.12
243.765	228.12
243.998	233.12
244.232	227.12
244.465	220.12
244.699	217.12
244.932	229.12
245.166	227.12
245.399	227.12
245.633	226.12
245.866	240.12
246.099	213.12
246.333	254.12
246.566	253.12
246.8	244.12
247.033	229.12
247.266	242.12
247.5	240.12
247.733	251.12
247.966	257.12
248.2	258.12
248.433	258.12
248.666	262.12
248.899	259.12
249.133	275.12
249.366	281.12
249.599	276.12
249.832	283.12
250.066	262.12
250.299	279.12
250.532	278.12
250.765	270.12
250.998	280.12
251.231	266.12
251.465	293.12
251.698	294.12
251.931	274.12
252.164	283.12
252.397	265.12
252.63	292.12
252.863	314.12
253.096	308.12
253.329	301.12
253.562	320.12
253.795	312.12
254.028	324.12
254.261	325.12
254.494	305.12
254.727	313.12
254.96	314.12
255.193	321.12
255.426	313.12
255.659	298.12
255.892	304.12
256.124	316.12
256.357	331.12
256.59	339.12
256.823	338.12
257.056	312.12
257.289	312.12
257.521	325.12
257.754	328.12
257.987	317.12
258.22	336.12
258.452	343.12
258.685	340.12
258.918	348.12
259.151	349.12
259.383	355.12
259.616	343.12
259.849	365.12
260.081	394.12
260.314	408.12
260.547	386.12
260.779	340.12
261.012	372.12
261.244	380.12
261.477	391.12
261.71	384.12
261.942	366.12
262.175	370.12
262.407	344.12
262.64	367.12
262.872	380.12
263.105	374.12
263.337	388.12
263.57	393.12
263.802	371.12
264.035	360.12
264.267	361.12
264.499	354.12
264.732	365.12
264.964	358.12
265.197	356.12
265.429	374.12
265.661	372.12
265.894	388.12
266.126	387.12
266.358	377.12
266.591	389.12
266.823	412.12
267.055	413.12
267.287	371.12
267.52	376.12
267.752	380.12
267.984	387.12
268.216	396.12
268.448	390.12
268.681	378.12
268.913	400.12
269.145	404.12
269.377	411.12
269.609	409.12
269.841	397.12
270.073	409.12
270.306	386.12
270.538	410.12
270.77	385.12
271.002	405.12
271.234	410.12
271.466	424.12
271.698	442.12
271.93	436.12
272.162	429.12
272.394	415.12
272.626	429.12
272.858	420.12
273.09	440.12
273.322	454.12
273.553	450.12
273.785	457.12
274.017	462.12
274.249	500.12
274.481	523.12
274.713	514.12
274.945	556.12
275.176	547.12
275.408	519.12
275.64	504.12
275.872	517.12
276.104	468.12
276.335	470.12
276.567	427.12
276.799	465.12
277.031	470.12
277.262	470.12
277.494	458.12
277.726	466.12
277.957	482.12
278.189	482.12
278.421	461.12
278.652	468.12
278.884	480.12
279.115	480.12
279.347	476.12
279.579	476.12
279.81	472.12
280.042	492.12
280.273	499.12
280.505	502.12
280.736	465.12
280.968	496.12
281.199	496.12
281.431	492.12
281.662	486.12
281.894	512.12
282.125	506.12
282.356	523.12
282.588	502.12
282.819	499.12
283.051	491.12
283.282	521.12
283.513	520.12
283.745	507.12
283.976	523.12
284.207	497.12
284.439	527.12
284.67	516.12
284.901	517.12
285.132	533.12
285.364	510.12
285.595	525.12
285.826	537.12
286.057	541.12
286.288	523.12
286.52	552.12
286.751	532.12
286.982	533.12
287.213	529.12
287.444	542.12
287.675	538.12
287.906	554.12
288.138	537.12
288.369	522.12
288.6	542.12
288.831	542.12
289.062	545.12
289.293	527.12
289.524	523.12
289.755	565.12
289.986	547.12
290.217	538.12
290.448	542.12
290.679	541.12
290.91	549.12
291.141	565.12
291.371	551.12
291.602	568.12
291.833	566.12
292.064	573.12
292.295	568.12
292.526	548.12
292.757	553.12
292.987	558.12
293.218	554.12
293.449	573.12
293.68	555.12
293.91	554.12
294.141	579.12
294.372	545.12
294.603	565.12
294.833	560.12
295.064	565.12
295.295	569.12
295.525	585.12
295.756	572.12
295.987	560.12
296.217	585.12
296.448	585.12
296.679	577.12
296.909	574.12
297.14	578.12
297.37	599.12
297.601	594.12
297.831	586.12
298.062	595.12
298.292	598.12
298.523	610.12
298.753	592.12
298.984	588.12
299.214	618.12
299.445	608.12
299.675	593.12
299.905	591.12
300.136	614.12
300.366	625.12
300.597	631.12
300.827	616.12
301.057	623.12
301.288	628.12
301.518	577.12
301.748	608.12
301.979	650.12
302.209	637.12
302.439	659.12
302.669	654.12
302.9	648.12
303.13	638.12
303.36	626.12
303.59	652.12
303.82	636.12
304.051	660.12
304.281	625.12
304.511	616.12
304.741	631.12
304.971	639.12
305.201	638.12
305.431	624.12
305.661	643.12
305.891	635.12
306.121	646.12
306.352	613.12
306.582	645.12
306.812	636.12
307.042	648.12
307.272	638.12
307.502	658.12
307.731	640.12
307.961	653.12
308.191	642.12
308.421	639.12
308.651	670.12
308.881	648.12
309.111	657.12
309.341	626.12
309.571	621.12
309.8	637.12
310.03	662.12
310.26	658.12
310.49	645.12
310.72	669.12
310.949	670.12
311.179	665.12
311.409	646.12
311.639	664.12
311.868	658.12
312.098	648.12
312.328	670.12
312.557	665.12
312.787	686.12
313.017	666.12
313.246	672.12
313.476	677.12
313.706	688.12
313.935	690.12
314.165	698.12
314.394	676.12
314.624	694.12
314.853	695.12
315.083	676.12
315.312	722.12
315.542	690.12
315.771	696.12
316.001	677.12
316.23	682.12
316.46	699.12
316.689	714.12
316.919	670.12
317.148	693.12
317.377	702.12
317.607	694.12
317.836	705.12
318.065	700.12
318.295	695.12
318.524	694.12
318.753	709.12
318.983	703.12
319.212	688.12
319.441	700.12
319.67	674.12
319.9	696.12
320.129	719.12
320.358	695.12
320.587	677.12
320.816	681.12
321.046	716.12
321.275	698.12
321.504	715.12
321.733	723.12
321.962	727.12
322.191	706.12
322.42	749.12
322.649	740.12
322.878	739.12
323.108	704.12
323.337	735.12
323.566	726.12
323.795	715.12
324.024	741.12
324.253	733.12
324.482	710.12
324.71	713.12
324.939	734.12
325.168	759.12
325.397	722.12
325.626	757.12
325.855	729.12
326.084	736.12
326.313	753.12
326.542	770.12
326.77	760.12
326.999	746.12
327.228	736.12
327.457	740.12
327.686	756.12
327.914	717.12
328.143	747.12
328.372	780.12
328.6	770.12
328.829	752.12
329.058	761.12
329.287	750.12
329.515	762.12
329.744	767.12
329.972	791.12
330.201	798.12
330.43	792.12
330.658	786.12
330.887	788.12
331.115	792.12
331.344	820.12
331.572	766.12
331.801	802.12
332.03	801.12
332.258	819.12
332.486	822.12
332.715	838.12
332.943	853.12
333.172	894.12
333.4	887.12
333.629	894.12
333.857	931.12
334.085	888.12
334.314	910.12
334.542	897.12
334.771	918.12
334.999	900.12
335.227	922.12
335.455	922.12
335.684	884.12
335.912	914.12
336.14	918.12
336.369	888.12
336.597	883.12
336.825	901.12
337.053	902.12
337.281	902.12
337.51	892.12
337.738	854.12
337.966	844.12
338.194	858.12
338.422	857.12
338.65	851.12
338.878	850.12
339.106	857.12
339.334	856.12
339.562	816.12
339.79	804.12
340.018	826.12
340.246	809.12
340.474	825.12
340.702	841.12
340.93	825.12
341.158	805.12
341.386	819.12
341.614	826.12
341.842	772.12
342.07	820.12
342.298	819.12
342.526	819.12
342.754	804.12
342.981	830.12
343.209	825.12
343.437	856.12
343.665	865.12
343.893	893.12
344.12	938.12
344.348	890.12
344.576	881.12
344.804	850.12
345.031	859.12
345.259	843.12
345.487	825.12
345.714	816.12
345.942	808.12
346.17	809.12
346.397	786.12
346.625	804.12
346.853	799.12
347.08	786.12
347.308	784.12
347.535	785.12
347.763	794.12
347.99	766.12
348.218	762.12
348.445	777.12
348.673	787.12
348.9	792.12
349.128	763.12
349.355	783.12
349.583	795.12
349.81	781.12
350.037	764.12
350.265	755.12
350.492	774.12
350.72	793.12
350.947	781.12
351.174	792.12
351.402	782.12
351.629	770.12
351.856	788.12
352.083	774.12
352.311	757.12
352.538	776.12
352.765	752.12
352.992	748.12
353.22	745.12
353.447	780.12
353.674	780.12
353.901	783.12
354.128	759.12
354.355	768.12
354.583	753.12
354.81	759.12
355.037	770.12
355.264	797.12
355.491	747.12
355.718	773.12
355.945	769.12
356.172	787.12
356.399	761.12
356.626	777.12
356.853	804.12
357.08	768.12
357.307	797.12
357.534	788.12
357.761	772.12
357.988	789.12
358.215	791.12
358.441	802.12
358.668	770.12
358.895	780.12
359.122	772.12
359.349	800.12
359.576	771.12
359.802	786.12
360.029	780.12
360.256	777.12
360.483	794.12
360.709	785.12
360.936	788.12
361.163	789.12
361.39	818.12
361.616	764.12
361.843	808.12
362.07	818.12
362.296	770.12
362.523	788.12
362.749	776.12
362.976	775.12
363.203	807.12
363.429	789.12
363.656	774.12
363.882	786.12
364.109	794.12
364.335	796.12
364.562	796.12
364.788	801.12
365.015	805.12
365.241	787.12
365.468	808.12
365.694	779.12
365.92	771.12
366.147	821.12
366.373	787.12
366.599	800.12
366.826	763.12
367.052	795.12
367.278	812.12
367.505	791.12
367.731	834.12
367.957	788.12
368.184	821.12
368.41	818.12
368.636	819.12
368.862	811.12
369.089	847.12
369.315	805.12
369.541	812.12
369.767	827.12
369.993	845.12
370.219	801.12
370.445	840.12
370.672	837.12
370.898	859.12
371.124	845.12
371.35	884.12
371.576	861.12
371.802	874.12
372.028	850.12
372.254	889.12
372.48	866.12
372.706	880.12
372.932	873.12
373.158	875.12
373.384	862.12
373.61	898.12
373.835	908.12
374.061	882.12
374.287	882.12
374.513	905.12
374.739	921.12
374.965	936.12
375.191	938.12
375.416	900.12
375.642	910.12
375.868	914.12
376.094	902.12
376.319	885.12
376.545	878.12
376.771	866.12
376.997	875.12
377.222	865.12
377.448	833.12
377.674	887.12
377.899	859.12
378.125	891.12
378.35	865.12
378.576	859.12
378.802	865.12
379.027	846.12
379.253	871.12
379.478	858.12
379.704	867.12
379.929	854.12
380.155	865.12
380.38	846.12
380.606	861.12
380.831	888.12
381.057	882.12
381.282	874.12
381.507	867.12
381.733	909.12
381.958	892.12
382.184	893.12
382.409	924.12
382.634	918.12
382.86	924.12
383.085	928.12
383.31	946.12
383.535	937.12
383.761	924.12
383.986	944.12
384.211	984.12
384.436	976.12
384.662	960.12
384.887	973.12
385.112	963.12
385.337	973.12
385.562	997.12
385.787	987.12
386.013	1028.12
386.238	1056.12
386.463	1011.12
386.688	1054.12
386.913	994.12
387.138	997.12
387.363	993.12
387.588	1021.12
387.813	996.12
388.038	1018.12
388.263	1014.12
388.488	1008.12
388.713	1012.12
388.938	997.12
389.163	999.12
389.387	1042.12
389.612	984.12
389.837	1009.12
390.062	1033.12
390.287	1028.12
390.512	1027.12
390.736	1038.12
390.961	1056.12
391.186	1038.12
391.411	1064.12
391.636	1088.12
391.86	1088.12
392.085	1100.12
392.31	1102.12
392.534	1097.12
392.759	1116.12
392.984	1092.12
393.208	1078.12
393.433	1083.12
393.658	1076.12
393.882	1067.12
394.107	1080.12
394.331	1088.12
394.556	1088.12
394.78	1078.12
395.005	1081.12
395.229	1098.12
395.454	1118.12
395.678	1117.12
395.903	1150.12
396.127	1113.12
396.352	1106.12
396.576	1099.12
396.801	1110.12
397.025	1108.12
397.249	1118.12
397.474	1180.12
397.698	1150.12
397.922	1154.12
398.147	1171.12
398.371	1170.12
398.595	1196.12
398.82	1268.12
399.044	1304.12
399.268	1374.12
399.492	1440.12
399.717	1496.12
399.941	1549.12
400.165	1489.12
400.389	1421.12
400.613	1324.12
400.837	1305.12
401.062	1278.12
401.286	1280.12
401.51	1247.12
401.734	1245.12
401.958	1292.12
402.182	1250.12
402.406	1264.12
402.63	1268.12
402.854	1289.12
403.078	1281.12
403.302	1289.12
403.526	1309.12
403.75	1312.12
403.974	1337.12
404.198	1256.12
404.422	1306.12
404.645	1291.12
404.869	1324.12
405.093	1321.12
405.317	1301.12
405.541	1317.12
405.765	1318.12
405.988	1293.12
406.212	1325.12
406.436	1347.12
406.66	1354.12
406.883	1376.12
407.107	1422.12
407.331	1480.12
407.555	1484.12
407.778	1459.12
408.002	1446.12
408.226	1470.12
408.449	1455.12
408.673	1410.12
408.896	1387.12
409.12	1398.12
409.344	1399.12
409.567	1355.12
409.791	1378.12
410.014	1353.12
410.238	1307.12
410.461	1316.12
410.685	1311.12
410.908	1329.12
411.132	1347.12
411.355	1299.12
411.578	1320.12
411.802	1298.12
412.025	1290.12
412.249	1298.12
412.472	1318.12
412.695	1282.12
412.919	1297.12
413.142	1284.12
413.365	1264.12
413.589	1306.12
413.812	1243.12
414.035	1241.12
414.258	1244.12
414.482	1282.12
414.705	1264.12
414.928	1277.12
415.151	1259.12
415.374	1250.12
415.597	1227.12
415.821	1190.12
416.044	1203.12
416.267	1206.12
416.49	1202.12
416.713	1216.12
416.936	1227.12
417.159	1202.12
417.382	1185.12
417.605	1195.12
417.828	1225.12
418.051	1237.12
418.274	1237.12
418.497	1232.12
418.72	1234.12
418.943	1204.12
419.166	1278.12
419.389	1370.12
419.611	1331.12
419.834	1317.12
420.057	1253.12
420.28	1242.12
420.503	1188.12
420.726	1175.12
420.948	1172.12
421.171	1193.12
421.394	1196.12
421.617	1222.12
421.839	1208.12
422.062	1217.12
422.285	1153.12
422.507	1203.12
422.73	1207.12
422.953	1206.12
423.175	1193.12
423.398	1211.12
423.621	1208.12
423.843	1251.12
424.066	1243.12
424.288	1225.12
424.511	1216.12
424.733	1202.12
424.956	1208.12
425.178	1198.12
425.401	1208.12
425.623	1210.12
425.846	1167.12
426.068	1186.12
426.291	1149.12
426.513	1176.12
426.735	1155.12
426.958	1180.12
427.18	1137.12
427.402	1156.12
427.625	1154.12
427.847	1136.12
428.069	1136.12
428.292	1151.12
428.514	1112.12
428.736	1131.12
428.958	1164.12
429.181	1124.12
429.403	1120.12
429.625	1115.12
429.847	1097.12
430.069	1129.12
430.292	1093.12
430.514	1099.12
430.736	1160.12
430.958	1163.12
431.18	1161.12
431.402	1118.12
431.624	1106.12
431.846	1137.12
432.068	1118.12
432.29	1154.12
432.512	1109.12
432.734	1150.12
432.956	1136.12
433.178	1156.12
433.4	1131.12
433.622	1172.12
433.844	1138.12
434.066	1146.12
434.287	1176.12
434.509	1174.12
434.731	1220.12
434.953	1190.12
435.175	1194.12
435.397	1212.12
435.618	1165.12
435.84	1172.12
436.062	1148.12
436.284	1138.12
436.505	1140.12
436.727	1117.12
436.949	1129.12
437.17	1129.12
437.392	1129.12
437.614	1122.12
437.835	1085.12
438.057	1124.12
438.278	1116.12
438.5	1107.12
438.721	1097.12
438.943	1091.12
439.165	1072.12
439.386	1091.12
439.608	1131.12
439.829	1114.12
440.05	1124.12
440.272	1139.12
440.493	1148.12
440.715	1131.12
440.936	1169.12
441.158	1167.12
441.379	1149.12
441.6	1197.12
441.822	1182.12
442.043	1224.12
442.264	1190.12
442.486	1159.12
442.707	1192.12
442.928	1198.12
443.149	1185.12
443.371	1174.12
443.592	1196.12
443.813	1211.12
444.034	1228.12
444.255	1254.12
444.476	1262.12
444.698	1292.12
444.919	1287.12
445.14	1352.12
445.361	1288.12
445.582	1188.12
445.803	1232.12
446.024	1173.12
446.245	1182.12
446.466	1170.12
446.687	1180.12
446.908	1153.12
447.129	1123.12
447.35	1091.12
447.571	1122.12
447.792	1076.12
448.013	1077.12
448.234	1047.12
448.455	1065.12
448.675	1085.12
448.896	1022.12
449.117	1042.12
449.338	1061.12
449.559	1045.12
449.779	1047.12
450	1076.12
450.221	1052.12
450.442	1060.12
450.662	1030.12
450.883	1028.12
451.104	1050.12
451.324	1064.12
451.545	1036.12
451.766	999.12
451.986	1024.12
452.207	1015.12
452.428	1021.12
452.648	1031.12
452.869	1005.12
453.089	964.12
453.31	1005.12
453.53	983.12
453.751	989.12
453.971	993.12
454.192	998.12
454.412	978.12
454.633	980.12
454.853	988.12
455.073	991.12
455.294	1000.12
455.514	965.12
455.734	994.12
455.955	972.12
456.175	995.12
456.395	982.12
456.616	980.12
456.836	973.12
457.056	984.12
457.276	952.12
457.497	995.12
457.717	955.12
457.937	995.12
458.157	1041.12
458.377	1034.12
458.598	1036.12
458.818	1050.12
459.038	1057.12
459.258	1092.12
459.478	1076.12
459.698	1134.12
459.918	1159.12
460.138	1162.12
460.358	1196.12
460.578	1223.12
460.798	1216.12
461.018	1243.12
461.238	1242.12
461.458	1264.12
461.678	1274.12
461.898	1298.12
462.118	1261.12
462.338	1344.12
462.558	1348.12
462.777	1372.12
462.997	1401.12
463.217	1428.12
463.437	1434.12
463.657	1420.12
463.876	1403.12
464.096	1408.12
464.316	1355.12
464.536	1364.12
464.755	1346.12
464.975	1318.12
465.195	1282.12
465.414	1224.12
465.634	1197.12
465.854	1158.12
466.073	1128.12
466.293	1132.12
466.512	1124.12
466.732	1105.12
466.951	1113.12
467.171	1119.12
467.391	1069.12
467.61	1095.12
467.829	1048.12
468.049	1098.12
468.268	1050.12
468.488	1073.12
468.707	1066.12
468.927	1084.12
469.146	1072.12
469.365	1096.12
469.585	1102.12
469.804	1109.12
470.023	1085.12
470.243	1101.12
470.462	1146.12
470.681	1114.12
470.901	1120.12
471.12	1120.12
471.339	1105.12
471.558	1076.12
471.777	1116.12
471.997	1107.12
472.216	1129.12
472.435	1086.12
472.654	1068.12
472.873	1053.12
473.092	1098.12
473.311	1080.12
473.53	1068.12
473.749	1048.12
473.968	1082.12
474.187	1079.12
474.406	1049.12
474.625	1078.12
474.844	1064.12
475.063	1092.12
475.282	1103.12
475.501	1084.12
475.72	1100.12
475.939	1106.12
476.158	1109.12
476.377	1118.12
476.596	1127.12
476.814	1188.12
477.033	1154.12
477.252	1143.12
477.471	1174.12
477.69	1200.12
477.908	1197.12
478.127	1215.12
478.346	1242.12
478.564	1221.12
478.783	1243.12
479.002	1258.12
479.22	1290.12
479.439	1332.12
479.658	1288.12
479.876	1312.12
480.095	1285.12
480.313	1349.12
480.532	1329.12
480.751	1308.12
480.969	1306.12
481.188	1299.12
481.406	1280.12
481.624	1262.12
481.843	1253.12
482.061	1257.12
482.28	1283.12
482.498	1259.12
482.717	1248.12
482.935	1253.12
483.153	1257.12
483.372	1238.12
483.59	1260.12
483.808	1242.12
484.027	1266.12
484.245	1286.12
484.463	1261.12
484.681	1306.12
484.9	1266.12
485.118	1305.12
485.336	1308.12
485.554	1294.12
485.772	1282.12
485.99	1271.12
486.209	1284.12
486.427	1280.12
486.645	1287.12
486.863	1297.12
487.081	1320.12
487.299	1270.12
487.517	1284.12
487.735	1320.12
487.953	1311.12
488.171	1288.12
488.389	1293.12
488.607	1271.12
488.825	1267.12
489.043	1259.12
489.261	1286.12
489.479	1268.12
489.696	1313.12
489.914	1275.12
490.132	1296.12
490.35	1293.12
490.568	1311.12
490.786	1280.12
491.003	1308.12
491.221	1306.12
491.439	1314.12
491.657	1315.12
491.874	1294.12
492.092	1332.12
492.31	1336.12
492.527	1349.12
492.745	1309.12
492.963	1312.12
493.18	1325.12
493.398	1377.12
493.615	1350.12
493.833	1359.12
494.05	1348.12
494.268	1370.12
494.485	1395.12
494.703	1364.12
494.92	1380.12
495.138	1401.12
