Data from Fe(NO3)3@0.0125M.TitratingCurve.Agarose3%dH2O.NegLispCup.LampEnergy10.LIBS07252019_HRD10591_16-58-50-336.txt Node
Date: Thu Jul 25 16:58:50 EDT 2019
User: cochatt
Spectrometer: HR+D1059
Trigger mode: 1
Integration Time (sec): 1.000000E-1
Scans to average: 1
Electric dark correction enabled: true
Nonlinearity correction enabled: false
Boxcar width: 0
XAxis mode: Wavelengths
Number of Pixels in Spectrum: 2048
>>>>>Begin Spectral Data<<<<<
223.165	-27.44
223.4	-27.44
223.635	-27.44
223.869	-22.44
224.104	-15.44
224.338	-3.44
224.573	-3.44
224.808	-19.44
225.042	-18.44
225.277	3.56
225.511	6.56
225.746	2.56
225.98	3.56
226.215	14.56
226.449	8.56
226.683	11.56
226.918	28.56
227.152	30.56
227.387	24.56
227.621	38.56
227.856	40.56
228.09	37.56
228.324	42.56
228.559	46.56
228.793	71.56
229.027	106.56
229.262	102.56
229.496	122.56
229.73	121.56
229.964	109.56
230.199	122.56
230.433	121.56
230.667	117.56
230.901	119.56
231.136	127.56
231.37	136.56
231.604	139.56
231.838	121.56
232.072	128.56
232.306	129.56
232.541	124.56
232.775	125.56
233.009	125.56
233.243	134.56
233.477	136.56
233.711	125.56
233.945	124.56
234.179	130.56
234.413	115.56
234.647	136.56
234.881	124.56
235.115	142.56
235.349	147.56
235.583	137.56
235.817	133.56
236.051	134.56
236.285	138.56
236.519	130.56
236.753	136.56
236.987	150.56
237.221	144.56
237.455	153.56
237.689	132.56
237.922	148.56
238.156	140.56
238.39	135.56
238.624	149.56
238.858	144.56
239.091	155.56
239.325	171.56
239.559	145.56
239.793	168.56
240.027	153.56
240.26	153.56
240.494	160.56
240.728	152.56
240.961	168.56
241.195	178.56
241.429	161.56
241.662	158.56
241.896	168.56
242.13	167.56
242.363	146.56
242.597	151.56
242.83	159.56
243.064	166.56
243.298	166.56
243.531	171.56
243.765	168.56
243.998	184.56
244.232	189.56
244.465	178.56
244.699	183.56
244.932	172.56
245.166	189.56
245.399	202.56
245.633	178.56
245.866	182.56
246.099	183.56
246.333	177.56
246.566	184.56
246.8	179.56
247.033	196.56
247.266	187.56
247.5	192.56
247.733	187.56
247.966	204.56
248.2	193.56
248.433	190.56
248.666	195.56
248.899	197.56
249.133	213.56
249.366	209.56
249.599	200.56
249.832	220.56
250.066	211.56
250.299	207.56
250.532	199.56
250.765	201.56
250.998	217.56
251.231	216.56
251.465	212.56
251.698	198.56
251.931	226.56
252.164	223.56
252.397	219.56
252.63	216.56
252.863	218.56
253.096	236.56
253.329	211.56
253.562	213.56
253.795	215.56
254.028	221.56
254.261	236.56
254.494	229.56
254.727	219.56
254.96	224.56
255.193	234.56
255.426	244.56
255.659	235.56
255.892	226.56
256.124	242.56
256.357	252.56
256.59	224.56
256.823	231.56
257.056	227.56
257.289	229.56
257.521	252.56
257.754	250.56
257.987	248.56
258.22	256.56
258.452	264.56
258.685	267.56
258.918	264.56
259.151	275.56
259.383	262.56
259.616	264.56
259.849	283.56
260.081	277.56
260.314	278.56
260.547	269.56
260.779	272.56
261.012	283.56
261.244	266.56
261.477	267.56
261.71	276.56
261.942	267.56
262.175	274.56
262.407	277.56
262.64	282.56
262.872	296.56
263.105	286.56
263.337	292.56
263.57	297.56
263.802	286.56
264.035	279.56
264.267	290.56
264.499	268.56
264.732	281.56
264.964	276.56
265.197	286.56
265.429	278.56
265.661	287.56
265.894	313.56
266.126	310.56
266.358	292.56
266.591	291.56
266.823	285.56
267.055	292.56
267.287	308.56
267.52	314.56
267.752	287.56
267.984	308.56
268.216	325.56
268.448	304.56
268.681	291.56
268.913	309.56
269.145	290.56
269.377	309.56
269.609	306.56
269.841	326.56
270.073	327.56
270.306	302.56
270.538	308.56
270.77	331.56
271.002	321.56
271.234	336.56
271.466	330.56
271.698	318.56
271.93	329.56
272.162	338.56
272.394	358.56
272.626	317.56
272.858	363.56
273.09	345.56
273.322	352.56
273.553	348.56
273.785	332.56
274.017	341.56
274.249	354.56
274.481	370.56
274.713	376.56
274.945	363.56
275.176	375.56
275.408	381.56
275.64	368.56
275.872	365.56
276.104	368.56
276.335	370.56
276.567	362.56
276.799	367.56
277.031	380.56
277.262	364.56
277.494	361.56
277.726	378.56
277.957	368.56
278.189	365.56
278.421	354.56
278.652	376.56
278.884	376.56
279.115	380.56
279.347	386.56
279.579	378.56
279.81	369.56
280.042	373.56
280.273	358.56
280.505	386.56
280.736	386.56
280.968	390.56
281.199	392.56
281.431	390.56
281.662	386.56
281.894	402.56
282.125	391.56
282.356	405.56
282.588	395.56
282.819	406.56
283.051	417.56
283.282	395.56
283.513	394.56
283.745	406.56
283.976	410.56
284.207	404.56
284.439	405.56
284.67	420.56
284.901	420.56
285.132	414.56
285.364	418.56
285.595	414.56
285.826	422.56
286.057	420.56
286.288	423.56
286.52	392.56
286.751	436.56
286.982	433.56
287.213	436.56
287.444	420.56
287.675	426.56
287.906	417.56
288.138	418.56
288.369	438.56
288.6	432.56
288.831	443.56
289.062	427.56
289.293	446.56
289.524	444.56
289.755	447.56
289.986	438.56
290.217	445.56
290.448	438.56
290.679	456.56
290.91	442.56
291.141	440.56
291.371	447.56
291.602	464.56
291.833	452.56
292.064	433.56
292.295	430.56
292.526	432.56
292.757	441.56
292.987	462.56
293.218	462.56
293.449	474.56
293.68	457.56
293.91	454.56
294.141	469.56
294.372	436.56
294.603	440.56
294.833	467.56
295.064	468.56
295.295	456.56
295.525	450.56
295.756	469.56
295.987	456.56
296.217	466.56
296.448	480.56
296.679	453.56
296.909	471.56
297.14	482.56
297.37	490.56
297.601	465.56
297.831	485.56
298.062	462.56
298.292	485.56
298.523	484.56
298.753	485.56
298.984	497.56
299.214	490.56
299.445	492.56
299.675	485.56
299.905	494.56
300.136	510.56
300.366	494.56
300.597	488.56
300.827	481.56
301.057	493.56
301.288	508.56
301.518	491.56
301.748	513.56
301.979	501.56
302.209	517.56
302.439	504.56
302.669	510.56
302.9	524.56
303.13	509.56
303.36	517.56
303.59	508.56
303.82	529.56
304.051	494.56
304.281	539.56
304.511	538.56
304.741	536.56
304.971	509.56
305.201	521.56
305.431	538.56
305.661	515.56
305.891	538.56
306.121	530.56
306.352	537.56
306.582	520.56
306.812	527.56
307.042	530.56
307.272	542.56
307.502	510.56
307.731	530.56
307.961	517.56
308.191	532.56
308.421	535.56
308.651	533.56
308.881	521.56
309.111	533.56
309.341	540.56
309.571	550.56
309.8	544.56
310.03	535.56
310.26	521.56
310.49	533.56
310.72	527.56
310.949	534.56
311.179	533.56
311.409	542.56
311.639	545.56
311.868	569.56
312.098	536.56
312.328	567.56
312.557	574.56
312.787	577.56
313.017	562.56
313.246	566.56
313.476	580.56
313.706	566.56
313.935	575.56
314.165	580.56
314.394	563.56
314.624	582.56
314.853	596.56
315.083	583.56
315.312	584.56
315.542	573.56
315.771	557.56
316.001	588.56
316.23	572.56
316.46	576.56
316.689	581.56
316.919	615.56
317.148	591.56
317.377	600.56
317.607	601.56
317.836	578.56
318.065	602.56
318.295	591.56
318.524	591.56
318.753	602.56
318.983	590.56
319.212	575.56
319.441	605.56
319.67	609.56
319.9	587.56
320.129	571.56
320.358	607.56
320.587	574.56
320.816	606.56
321.046	599.56
321.275	617.56
321.504	613.56
321.733	626.56
321.962	617.56
322.191	612.56
322.42	619.56
322.649	621.56
322.878	632.56
323.108	610.56
323.337	632.56
323.566	610.56
323.795	629.56
324.024	626.56
324.253	608.56
324.482	627.56
324.71	621.56
324.939	620.56
325.168	633.56
325.397	630.56
325.626	636.56
325.855	640.56
326.084	646.56
326.313	642.56
326.542	630.56
326.77	653.56
326.999	655.56
327.228	639.56
327.457	635.56
327.686	636.56
327.914	672.56
328.143	658.56
328.372	645.56
328.6	653.56
328.829	657.56
329.058	672.56
329.287	639.56
329.515	652.56
329.744	649.56
329.972	665.56
330.201	667.56
330.43	660.56
330.658	652.56
330.887	658.56
331.115	685.56
331.344	666.56
331.572	695.56
331.801	684.56
332.03	674.56
332.258	690.56
332.486	681.56
332.715	702.56
332.943	674.56
333.172	690.56
333.4	692.56
333.629	704.56
333.857	714.56
334.085	715.56
334.314	731.56
334.542	682.56
334.771	712.56
334.999	685.56
335.227	732.56
335.455	725.56
335.684	733.56
335.912	724.56
336.14	724.56
336.369	706.56
336.597	697.56
336.825	713.56
337.053	738.56
337.281	709.56
337.51	694.56
337.738	712.56
337.966	711.56
338.194	667.56
338.422	703.56
338.65	685.56
338.878	702.56
339.106	688.56
339.334	697.56
339.562	727.56
339.79	692.56
340.018	678.56
340.246	672.56
340.474	684.56
340.702	672.56
340.93	702.56
341.158	713.56
341.386	689.56
341.614	714.56
341.842	684.56
342.07	684.56
342.298	692.56
342.526	682.56
342.754	698.56
342.981	669.56
343.209	706.56
343.437	706.56
343.665	687.56
343.893	699.56
344.12	732.56
344.348	722.56
344.576	740.56
344.804	716.56
345.031	691.56
345.259	689.56
345.487	688.56
345.714	686.56
345.942	664.56
346.17	670.56
346.397	704.56
346.625	675.56
346.853	665.56
347.08	644.56
347.308	664.56
347.535	676.56
347.763	676.56
347.99	688.56
348.218	685.56
348.445	676.56
348.673	656.56
348.9	660.56
349.128	664.56
349.355	662.56
349.583	682.56
349.81	694.56
350.037	682.56
350.265	660.56
350.492	668.56
350.72	648.56
350.947	673.56
351.174	678.56
351.402	658.56
351.629	678.56
351.856	664.56
352.083	688.56
352.311	639.56
352.538	663.56
352.765	678.56
352.992	684.56
353.22	661.56
353.447	652.56
353.674	668.56
353.901	672.56
354.128	663.56
354.355	654.56
354.583	670.56
354.81	688.56
355.037	660.56
355.264	665.56
355.491	668.56
355.718	682.56
355.945	679.56
356.172	671.56
356.399	681.56
356.626	674.56
356.853	678.56
357.08	675.56
357.307	688.56
357.534	638.56
357.761	653.56
357.988	681.56
358.215	682.56
358.441	693.56
358.668	672.56
358.895	668.56
359.122	661.56
359.349	671.56
359.576	682.56
359.802	678.56
360.029	657.56
360.256	655.56
360.483	675.56
360.709	686.56
360.936	660.56
361.163	684.56
361.39	669.56
361.616	668.56
361.843	658.56
362.07	669.56
362.296	671.56
362.523	676.56
362.749	638.56
362.976	654.56
363.203	667.56
363.429	669.56
363.656	675.56
363.882	680.56
364.109	680.56
364.335	694.56
364.562	700.56
364.788	676.56
365.015	702.56
365.241	695.56
365.468	704.56
365.694	675.56
365.92	675.56
366.147	703.56
366.373	696.56
366.599	708.56
366.826	688.56
367.052	692.56
367.278	701.56
367.505	698.56
367.731	689.56
367.957	688.56
368.184	701.56
368.41	729.56
368.636	686.56
368.862	701.56
369.089	683.56
369.315	688.56
369.541	686.56
369.767	698.56
369.993	728.56
370.219	704.56
370.445	712.56
370.672	713.56
370.898	696.56
371.124	717.56
371.35	712.56
371.576	708.56
371.802	715.56
372.028	763.56
372.254	730.56
372.48	724.56
372.706	741.56
372.932	723.56
373.158	710.56
373.384	712.56
373.61	731.56
373.835	724.56
374.061	717.56
374.287	713.56
374.513	741.56
374.739	720.56
374.965	758.56
375.191	724.56
375.416	739.56
375.642	737.56
375.868	710.56
376.094	719.56
376.319	716.56
376.545	718.56
376.771	723.56
376.997	735.56
377.222	710.56
377.448	720.56
377.674	718.56
377.899	711.56
378.125	705.56
378.35	709.56
378.576	716.56
378.802	728.56
379.027	704.56
379.253	715.56
379.478	742.56
379.704	713.56
379.929	743.56
380.155	706.56
380.38	702.56
380.606	727.56
380.831	700.56
381.057	733.56
381.282	707.56
381.507	731.56
381.733	726.56
381.958	733.56
382.184	755.56
382.409	733.56
382.634	752.56
382.86	731.56
383.085	756.56
383.31	725.56
383.535	745.56
383.761	724.56
383.986	749.56
384.211	764.56
384.436	790.56
384.662	725.56
384.887	749.56
385.112	760.56
385.337	765.56
385.562	771.56
385.787	770.56
386.013	774.56
386.238	773.56
386.463	799.56
386.688	785.56
386.913	778.56
387.138	769.56
387.363	788.56
387.588	790.56
387.813	781.56
388.038	775.56
388.263	800.56
388.488	787.56
388.713	807.56
388.938	806.56
389.163	789.56
389.387	829.56
389.612	781.56
389.837	812.56
390.062	782.56
390.287	817.56
390.512	800.56
390.736	787.56
390.961	818.56
391.186	813.56
391.411	814.56
391.636	794.56
391.86	818.56
392.085	834.56
392.31	796.56
392.534	817.56
392.759	791.56
392.984	822.56
393.208	791.56
393.433	825.56
393.658	818.56
393.882	804.56
394.107	818.56
394.331	800.56
394.556	815.56
394.78	820.56
395.005	806.56
395.229	806.56
395.454	832.56
395.678	824.56
395.903	828.56
396.127	843.56
396.352	810.56
396.576	816.56
396.801	814.56
397.025	856.56
397.249	839.56
397.474	848.56
397.698	839.56
397.922	855.56
398.147	855.56
398.371	872.56
398.595	877.56
398.82	892.56
399.044	895.56
399.268	912.56
399.492	933.56
399.717	945.56
399.941	968.56
400.165	941.56
400.389	924.56
400.613	924.56
400.837	913.56
401.062	913.56
401.286	892.56
401.51	886.56
401.734	890.56
401.958	892.56
402.182	881.56
402.406	858.56
402.63	880.56
402.854	894.56
403.078	924.56
403.302	910.56
403.526	900.56
403.75	877.56
403.974	893.56
404.198	897.56
404.422	886.56
404.645	905.56
404.869	886.56
405.093	900.56
405.317	910.56
405.541	894.56
405.765	903.56
405.988	918.56
406.212	901.56
406.436	901.56
406.66	960.56
406.883	941.56
407.107	935.56
407.331	943.56
407.555	944.56
407.778	952.56
408.002	973.56
408.226	981.56
408.449	996.56
408.673	975.56
408.896	910.56
409.12	935.56
409.344	935.56
409.567	908.56
409.791	897.56
410.014	903.56
410.238	929.56
410.461	928.56
410.685	914.56
410.908	909.56
411.132	916.56
411.355	895.56
411.578	922.56
411.802	898.56
412.025	914.56
412.249	888.56
412.472	901.56
412.695	887.56
412.919	881.56
413.142	883.56
413.365	897.56
413.589	900.56
413.812	864.56
414.035	854.56
414.258	895.56
414.482	866.56
414.705	865.56
414.928	859.56
415.151	892.56
415.374	856.56
415.597	853.56
415.821	867.56
416.044	854.56
416.267	845.56
416.49	859.56
416.713	855.56
416.936	864.56
417.159	842.56
417.382	847.56
417.605	836.56
417.828	849.56
418.051	854.56
418.274	856.56
418.497	803.56
418.72	796.56
418.943	818.56
419.166	858.56
419.389	905.56
419.611	902.56
419.834	894.56
420.057	855.56
420.28	900.56
420.503	822.56
420.726	835.56
420.948	841.56
421.171	817.56
421.394	820.56
421.617	849.56
421.839	813.56
422.062	832.56
422.285	820.56
422.507	853.56
422.73	836.56
422.953	839.56
423.175	844.56
423.398	841.56
423.621	804.56
423.843	825.56
424.066	837.56
424.288	808.56
424.511	854.56
424.733	842.56
424.956	824.56
425.178	830.56
425.401	816.56
425.623	827.56
425.846	809.56
426.068	836.56
426.291	847.56
426.513	774.56
426.735	794.56
426.958	824.56
427.18	790.56
427.402	799.56
427.625	835.56
427.847	792.56
428.069	812.56
428.292	817.56
428.514	788.56
428.736	810.56
428.958	826.56
429.181	786.56
429.403	761.56
429.625	821.56
429.847	809.56
430.069	813.56
430.292	802.56
430.514	795.56
430.736	820.56
430.958	797.56
431.18	814.56
431.402	801.56
431.624	811.56
431.846	802.56
432.068	774.56
432.29	796.56
432.512	795.56
432.734	788.56
432.956	805.56
433.178	816.56
433.4	766.56
433.622	798.56
433.844	801.56
434.066	799.56
434.287	779.56
434.509	797.56
434.731	797.56
434.953	831.56
435.175	816.56
435.397	822.56
435.618	813.56
435.84	788.56
436.062	799.56
436.284	787.56
436.505	777.56
436.727	786.56
436.949	801.56
437.17	791.56
437.392	800.56
437.614	805.56
437.835	771.56
438.057	821.56
438.278	776.56
438.5	774.56
438.721	766.56
438.943	773.56
439.165	793.56
439.386	780.56
439.608	768.56
439.829	789.56
440.05	813.56
440.272	802.56
440.493	798.56
440.715	793.56
440.936	818.56
441.158	760.56
441.379	803.56
441.6	823.56
441.822	805.56
442.043	797.56
442.264	799.56
442.486	795.56
442.707	832.56
442.928	798.56
443.149	801.56
443.371	826.56
443.592	840.56
443.813	793.56
444.034	786.56
444.255	817.56
444.476	832.56
444.698	804.56
444.919	814.56
445.14	883.56
445.361	826.56
445.582	807.56
445.803	788.56
446.024	788.56
446.245	782.56
446.466	788.56
446.687	779.56
446.908	778.56
447.129	754.56
447.35	771.56
447.571	756.56
447.792	748.56
448.013	757.56
448.234	777.56
448.455	757.56
448.675	754.56
448.896	754.56
449.117	756.56
449.338	740.56
449.559	741.56
449.779	721.56
450	739.56
450.221	729.56
450.442	716.56
450.662	714.56
450.883	718.56
451.104	715.56
451.324	708.56
451.545	755.56
451.766	718.56
451.986	690.56
452.207	739.56
452.428	728.56
452.648	716.56
452.869	716.56
453.089	724.56
453.31	701.56
453.53	707.56
453.751	706.56
453.971	712.56
454.192	710.56
454.412	707.56
454.633	726.56
454.853	712.56
455.073	727.56
455.294	726.56
455.514	721.56
455.734	712.56
455.955	710.56
456.175	708.56
456.395	712.56
456.616	735.56
456.836	730.56
457.056	718.56
457.276	709.56
457.497	724.56
457.717	705.56
457.937	704.56
458.157	708.56
458.377	716.56
458.598	738.56
458.818	748.56
459.038	755.56
459.258	743.56
459.478	738.56
459.698	762.56
459.918	771.56
460.138	771.56
460.358	779.56
460.578	781.56
460.798	793.56
461.018	818.56
461.238	809.56
461.458	790.56
461.678	820.56
461.898	810.56
462.118	797.56
462.338	828.56
462.558	858.56
462.777	844.56
462.997	843.56
463.217	871.56
463.437	881.56
463.657	858.56
463.876	875.56
464.096	850.56
464.316	836.56
464.536	873.56
464.755	853.56
464.975	853.56
465.195	791.56
465.414	820.56
465.634	796.56
465.854	767.56
466.073	799.56
466.293	804.56
466.512	800.56
466.732	744.56
466.951	782.56
467.171	770.56
467.391	787.56
467.61	754.56
467.829	769.56
468.049	762.56
468.268	759.56
468.488	746.56
468.707	741.56
468.927	770.56
469.146	781.56
469.365	750.56
469.585	756.56
469.804	790.56
470.023	789.56
470.243	758.56
470.462	765.56
470.681	795.56
470.901	793.56
471.12	754.56
471.339	764.56
471.558	771.56
471.777	768.56
471.997	782.56
472.216	786.56
472.435	781.56
472.654	761.56
472.873	785.56
473.092	786.56
473.311	784.56
473.53	767.56
473.749	780.56
473.968	810.56
474.187	779.56
474.406	797.56
474.625	792.56
474.844	796.56
475.063	789.56
475.282	800.56
475.501	806.56
475.72	811.56
475.939	834.56
476.158	819.56
476.377	816.56
476.596	835.56
476.814	852.56
477.033	856.56
477.252	840.56
477.471	834.56
477.69	863.56
477.908	872.56
478.127	864.56
478.346	872.56
478.564	900.56
478.783	896.56
479.002	884.56
479.22	915.56
479.439	922.56
479.658	938.56
479.876	916.56
480.095	916.56
480.313	914.56
480.532	946.56
480.751	925.56
480.969	944.56
481.188	931.56
481.406	947.56
481.624	922.56
481.843	936.56
482.061	924.56
482.28	936.56
482.498	905.56
482.717	921.56
482.935	904.56
483.153	931.56
483.372	938.56
483.59	959.56
483.808	955.56
484.027	963.56
484.245	945.56
484.463	964.56
484.681	962.56
484.9	947.56
485.118	954.56
485.336	951.56
485.554	1003.56
485.772	949.56
485.99	995.56
486.209	968.56
486.427	952.56
486.645	977.56
486.863	957.56
487.081	953.56
487.299	983.56
487.517	952.56
487.735	954.56
487.953	969.56
488.171	955.56
488.389	983.56
488.607	960.56
488.825	951.56
489.043	967.56
489.261	959.56
489.479	967.56
489.696	971.56
489.914	937.56
490.132	948.56
490.35	968.56
490.568	971.56
490.786	962.56
491.003	949.56
491.221	973.56
491.439	946.56
491.657	960.56
491.874	1000.56
492.092	1012.56
492.31	968.56
492.527	973.56
492.745	973.56
492.963	980.56
493.18	990.56
493.398	971.56
493.615	985.56
493.833	982.56
494.05	976.56
494.268	998.56
494.485	989.56
494.703	992.56
494.92	1022.56
495.138	1011.56
495.355	993.56
495.573	992.56
495.79	1015.56
496.008	1029.56
496.225	1032.56
496.442	1028.56
496.66	1025.56
496.877	1035.56
497.094	1068.56
497.312	1069.56
497.529	1060.56
497.746	1060.56
497.963	1078.56
498.181	1109.56
498.398	1161.56
498.615	1133.56
498.832	1156.56
499.049	1184.56
499.267	1206.56
499.484	1266.56
499.701	1282.56
499.918	1282.56
500.135	1308.56
500.352	1332.56
500.569	1322.56
500.786	1368.56
501.003	1370.56
501.22	1334.56
