Data from Fe(NO3)3@0.05M.TitratingCurve.Agarose3%dH2O.NegLispCup.LampEnergy10.LIBS07252019_HRD10591_16-48-30-335.txt Node
Date: Thu Jul 25 16:48:30 EDT 2019
User: cochatt
Spectrometer: HR+D1059
Trigger mode: 1
Integration Time (sec): 1.000000E-1
Scans to average: 1
Electric dark correction enabled: true
Nonlinearity correction enabled: false
Boxcar width: 0
XAxis mode: Wavelengths
Number of Pixels in Spectrum: 2048
>>>>>Begin Spectral Data<<<<<
223.165	-6.44
223.4	-6.44
223.635	-6.44
223.869	-22.44
224.104	-9.44
224.338	-4.44
224.573	-15.44
224.808	-15.44
225.042	1.56
225.277	-8.44
225.511	9.56
225.746	4.56
225.98	4.56
226.215	-11.44
226.449	8.56
226.683	12.56
226.918	18.56
227.152	33.56
227.387	30.56
227.621	41.56
227.856	40.56
228.09	45.56
228.324	41.56
228.559	60.56
228.793	58.56
229.027	68.56
229.262	79.56
229.496	69.56
229.73	79.56
229.964	81.56
230.199	75.56
230.433	79.56
230.667	79.56
230.901	65.56
231.136	82.56
231.37	92.56
231.604	89.56
231.838	95.56
232.072	90.56
232.306	89.56
232.541	95.56
232.775	81.56
233.009	88.56
233.243	94.56
233.477	77.56
233.711	90.56
233.945	88.56
234.179	90.56
234.413	83.56
234.647	96.56
234.881	121.56
235.115	91.56
235.349	86.56
235.583	90.56
235.817	99.56
236.051	85.56
236.285	101.56
236.519	86.56
236.753	75.56
236.987	82.56
237.221	80.56
237.455	87.56
237.689	85.56
237.922	88.56
238.156	77.56
238.39	88.56
238.624	93.56
238.858	90.56
239.091	85.56
239.325	107.56
239.559	91.56
239.793	95.56
240.027	91.56
240.26	81.56
240.494	99.56
240.728	100.56
240.961	73.56
241.195	92.56
241.429	86.56
241.662	86.56
241.896	87.56
242.13	104.56
242.363	96.56
242.597	96.56
242.83	91.56
243.064	96.56
243.298	102.56
243.531	100.56
243.765	89.56
243.998	101.56
244.232	91.56
244.465	94.56
244.699	111.56
244.932	94.56
245.166	103.56
245.399	114.56
245.633	95.56
245.866	93.56
246.099	91.56
246.333	100.56
246.566	97.56
246.8	101.56
247.033	101.56
247.266	93.56
247.5	97.56
247.733	96.56
247.966	106.56
248.2	100.56
248.433	100.56
248.666	81.56
248.899	111.56
249.133	91.56
249.366	106.56
249.599	107.56
249.832	111.56
250.066	103.56
250.299	98.56
250.532	106.56
250.765	104.56
250.998	105.56
251.231	111.56
251.465	110.56
251.698	113.56
251.931	113.56
252.164	94.56
252.397	120.56
252.63	107.56
252.863	115.56
253.096	118.56
253.329	114.56
253.562	113.56
253.795	111.56
254.028	117.56
254.261	115.56
254.494	101.56
254.727	96.56
254.96	105.56
255.193	121.56
255.426	116.56
255.659	92.56
255.892	106.56
256.124	99.56
256.357	108.56
256.59	122.56
256.823	102.56
257.056	91.56
257.289	110.56
257.521	108.56
257.754	117.56
257.987	115.56
258.22	129.56
258.452	106.56
258.685	107.56
258.918	112.56
259.151	115.56
259.383	118.56
259.616	112.56
259.849	114.56
260.081	129.56
260.314	122.56
260.547	120.56
260.779	114.56
261.012	119.56
261.244	113.56
261.477	132.56
261.71	118.56
261.942	113.56
262.175	114.56
262.407	125.56
262.64	121.56
262.872	118.56
263.105	116.56
263.337	136.56
263.57	125.56
263.802	116.56
264.035	126.56
264.267	115.56
264.499	107.56
264.732	125.56
264.964	115.56
265.197	113.56
265.429	123.56
265.661	128.56
265.894	122.56
266.126	129.56
266.358	135.56
266.591	129.56
266.823	106.56
267.055	119.56
267.287	127.56
267.52	98.56
267.752	115.56
267.984	122.56
268.216	123.56
268.448	123.56
268.681	136.56
268.913	125.56
269.145	128.56
269.377	123.56
269.609	129.56
269.841	126.56
270.073	123.56
270.306	117.56
270.538	125.56
270.77	120.56
271.002	132.56
271.234	158.56
271.466	123.56
271.698	131.56
271.93	123.56
272.162	115.56
272.394	148.56
272.626	127.56
272.858	139.56
273.09	129.56
273.322	137.56
273.553	132.56
273.785	127.56
274.017	123.56
274.249	124.56
274.481	124.56
274.713	126.56
274.945	154.56
275.176	159.56
275.408	131.56
275.64	139.56
275.872	130.56
276.104	128.56
276.335	119.56
276.567	137.56
276.799	122.56
277.031	136.56
277.262	125.56
277.494	122.56
277.726	131.56
277.957	131.56
278.189	129.56
278.421	144.56
278.652	113.56
278.884	138.56
279.115	133.56
279.347	124.56
279.579	128.56
279.81	136.56
280.042	134.56
280.273	151.56
280.505	130.56
280.736	133.56
280.968	152.56
281.199	136.56
281.431	147.56
281.662	133.56
281.894	147.56
282.125	141.56
282.356	152.56
282.588	146.56
282.819	147.56
283.051	138.56
283.282	135.56
283.513	134.56
283.745	147.56
283.976	125.56
284.207	151.56
284.439	149.56
284.67	136.56
284.901	143.56
285.132	139.56
285.364	139.56
285.595	145.56
285.826	147.56
286.057	160.56
286.288	140.56
286.52	153.56
286.751	160.56
286.982	140.56
287.213	132.56
287.444	148.56
287.675	142.56
287.906	161.56
288.138	149.56
288.369	147.56
288.6	135.56
288.831	140.56
289.062	157.56
289.293	160.56
289.524	145.56
289.755	149.56
289.986	135.56
290.217	155.56
290.448	164.56
290.679	149.56
290.91	145.56
291.141	149.56
291.371	156.56
291.602	146.56
291.833	146.56
292.064	149.56
292.295	168.56
292.526	147.56
292.757	137.56
292.987	146.56
293.218	151.56
293.449	154.56
293.68	142.56
293.91	155.56
294.141	154.56
294.372	157.56
294.603	162.56
294.833	136.56
295.064	157.56
295.295	156.56
295.525	144.56
295.756	148.56
295.987	147.56
296.217	147.56
296.448	160.56
296.679	170.56
296.909	154.56
297.14	149.56
297.37	141.56
297.601	155.56
297.831	146.56
298.062	177.56
298.292	162.56
298.523	155.56
298.753	162.56
298.984	165.56
299.214	173.56
299.445	147.56
299.675	156.56
299.905	164.56
300.136	173.56
300.366	145.56
300.597	156.56
300.827	167.56
301.057	167.56
301.288	141.56
301.518	160.56
301.748	164.56
301.979	154.56
302.209	169.56
302.439	168.56
302.669	177.56
302.9	152.56
303.13	166.56
303.36	152.56
303.59	167.56
303.82	152.56
304.051	161.56
304.281	162.56
304.511	168.56
304.741	153.56
304.971	154.56
305.201	165.56
305.431	156.56
305.661	164.56
305.891	168.56
306.121	153.56
306.352	155.56
306.582	169.56
306.812	149.56
307.042	168.56
307.272	160.56
307.502	167.56
307.731	157.56
307.961	157.56
308.191	161.56
308.421	168.56
308.651	161.56
308.881	175.56
309.111	157.56
309.341	146.56
309.571	162.56
309.8	151.56
310.03	155.56
310.26	156.56
310.49	156.56
310.72	184.56
310.949	154.56
311.179	157.56
311.409	164.56
311.639	159.56
311.868	166.56
312.098	176.56
312.328	145.56
312.557	157.56
312.787	169.56
313.017	166.56
313.246	170.56
313.476	167.56
313.706	172.56
313.935	166.56
314.165	170.56
314.394	167.56
314.624	157.56
314.853	166.56
315.083	181.56
315.312	161.56
315.542	178.56
315.771	175.56
316.001	161.56
316.23	173.56
316.46	171.56
316.689	162.56
316.919	164.56
317.148	162.56
317.377	157.56
317.607	179.56
317.836	178.56
318.065	180.56
318.295	187.56
318.524	175.56
318.753	166.56
318.983	163.56
319.212	162.56
319.441	177.56
319.67	176.56
319.9	157.56
320.129	172.56
320.358	173.56
320.587	168.56
320.816	178.56
321.046	163.56
321.275	164.56
321.504	177.56
321.733	169.56
321.962	165.56
322.191	167.56
322.42	175.56
322.649	165.56
322.878	162.56
323.108	175.56
323.337	162.56
323.566	179.56
323.795	173.56
324.024	166.56
324.253	171.56
324.482	173.56
324.71	163.56
324.939	172.56
325.168	179.56
325.397	179.56
325.626	167.56
325.855	175.56
326.084	192.56
326.313	178.56
326.542	172.56
326.77	177.56
326.999	185.56
327.228	184.56
327.457	164.56
327.686	193.56
327.914	193.56
328.143	184.56
328.372	191.56
328.6	175.56
328.829	198.56
329.058	179.56
329.287	171.56
329.515	169.56
329.744	173.56
329.972	173.56
330.201	172.56
330.43	166.56
330.658	186.56
330.887	176.56
331.115	180.56
331.344	183.56
331.572	198.56
331.801	194.56
332.03	169.56
332.258	196.56
332.486	204.56
332.715	198.56
332.943	210.56
333.172	210.56
333.4	232.56
333.629	222.56
333.857	206.56
334.085	226.56
334.314	215.56
334.542	231.56
334.771	194.56
334.999	200.56
335.227	216.56
335.455	204.56
335.684	209.56
335.912	202.56
336.14	195.56
336.369	192.56
336.597	198.56
336.825	203.56
337.053	195.56
337.281	212.56
337.51	196.56
337.738	193.56
337.966	194.56
338.194	202.56
338.422	180.56
338.65	195.56
338.878	192.56
339.106	189.56
339.334	200.56
339.562	193.56
339.79	201.56
340.018	200.56
340.246	194.56
340.474	176.56
340.702	198.56
340.93	189.56
341.158	177.56
341.386	191.56
341.614	198.56
341.842	196.56
342.07	173.56
342.298	177.56
342.526	175.56
342.754	178.56
342.981	192.56
343.209	164.56
343.437	190.56
343.665	200.56
343.893	218.56
344.12	209.56
344.348	215.56
344.576	182.56
344.804	200.56
345.031	197.56
345.259	206.56
345.487	187.56
345.714	160.56
345.942	178.56
346.17	187.56
346.397	204.56
346.625	184.56
346.853	176.56
347.08	178.56
347.308	177.56
347.535	184.56
347.763	159.56
347.99	201.56
348.218	187.56
348.445	177.56
348.673	163.56
348.9	185.56
349.128	194.56
349.355	177.56
349.583	181.56
349.81	169.56
350.037	179.56
350.265	193.56
350.492	185.56
350.72	177.56
350.947	180.56
351.174	178.56
351.402	178.56
351.629	180.56
351.856	175.56
352.083	182.56
352.311	195.56
352.538	165.56
352.765	187.56
352.992	172.56
353.22	171.56
353.447	162.56
353.674	177.56
353.901	168.56
354.128	169.56
354.355	158.56
354.583	172.56
354.81	172.56
355.037	185.56
355.264	178.56
355.491	178.56
355.718	171.56
355.945	184.56
356.172	174.56
356.399	171.56
356.626	188.56
356.853	188.56
357.08	180.56
357.307	188.56
357.534	184.56
357.761	194.56
357.988	189.56
358.215	169.56
358.441	169.56
358.668	191.56
358.895	176.56
359.122	173.56
359.349	167.56
359.576	166.56
359.802	182.56
360.029	189.56
360.256	190.56
360.483	186.56
360.709	186.56
360.936	191.56
361.163	181.56
361.39	183.56
361.616	184.56
361.843	182.56
362.07	176.56
362.296	194.56
362.523	182.56
362.749	165.56
362.976	179.56
363.203	198.56
363.429	177.56
363.656	165.56
363.882	184.56
364.109	186.56
364.335	179.56
364.562	173.56
364.788	181.56
365.015	178.56
365.241	180.56
365.468	173.56
365.694	192.56
365.92	187.56
366.147	186.56
366.373	184.56
366.599	169.56
366.826	183.56
367.052	181.56
367.278	187.56
367.505	173.56
367.731	173.56
367.957	183.56
368.184	191.56
368.41	182.56
368.636	197.56
368.862	189.56
369.089	186.56
369.315	176.56
369.541	187.56
369.767	196.56
369.993	187.56
370.219	190.56
370.445	191.56
370.672	208.56
370.898	178.56
371.124	194.56
371.35	193.56
371.576	208.56
371.802	192.56
372.028	198.56
372.254	203.56
372.48	215.56
372.706	198.56
372.932	220.56
373.158	186.56
373.384	199.56
373.61	203.56
373.835	194.56
374.061	193.56
374.287	222.56
374.513	204.56
374.739	206.56
374.965	235.56
375.191	213.56
375.416	209.56
375.642	211.56
375.868	218.56
376.094	211.56
376.319	202.56
376.545	197.56
376.771	217.56
376.997	196.56
377.222	201.56
377.448	183.56
377.674	212.56
377.899	196.56
378.125	195.56
378.35	208.56
378.576	191.56
378.802	217.56
379.027	195.56
379.253	199.56
379.478	201.56
379.704	196.56
379.929	216.56
380.155	204.56
380.38	202.56
380.606	211.56
380.831	201.56
381.057	196.56
381.282	195.56
381.507	216.56
381.733	198.56
381.958	210.56
382.184	210.56
382.409	216.56
382.634	220.56
382.86	216.56
383.085	226.56
383.31	208.56
383.535	228.56
383.761	240.56
383.986	229.56
384.211	213.56
384.436	232.56
384.662	216.56
384.887	231.56
385.112	208.56
385.337	236.56
385.562	226.56
385.787	241.56
386.013	258.56
386.238	245.56
386.463	244.56
386.688	236.56
386.913	255.56
387.138	231.56
387.363	218.56
387.588	232.56
387.813	240.56
388.038	249.56
388.263	236.56
388.488	251.56
388.713	221.56
388.938	228.56
389.163	215.56
389.387	243.56
389.612	247.56
389.837	227.56
390.062	228.56
390.287	219.56
390.512	250.56
390.736	236.56
390.961	263.56
391.186	235.56
391.411	248.56
391.636	253.56
391.86	263.56
392.085	286.56
392.31	253.56
392.534	263.56
392.759	255.56
392.984	256.56
393.208	247.56
393.433	267.56
393.658	261.56
393.882	260.56
394.107	267.56
394.331	257.56
394.556	251.56
394.78	249.56
395.005	253.56
395.229	267.56
395.454	261.56
395.678	280.56
395.903	279.56
396.127	287.56
396.352	263.56
396.576	257.56
396.801	265.56
397.025	275.56
397.249	283.56
397.474	276.56
397.698	281.56
397.922	263.56
398.147	283.56
398.371	297.56
398.595	279.56
398.82	297.56
399.044	327.56
399.268	335.56
399.492	356.56
399.717	402.56
399.941	398.56
400.165	369.56
400.389	327.56
400.613	307.56
400.837	304.56
401.062	304.56
401.286	313.56
401.51	307.56
401.734	279.56
401.958	313.56
402.182	309.56
402.406	312.56
402.63	311.56
402.854	309.56
403.078	304.56
403.302	304.56
403.526	334.56
403.75	295.56
403.974	321.56
404.198	336.56
404.422	318.56
404.645	316.56
404.869	322.56
405.093	317.56
405.317	311.56
405.541	323.56
405.765	344.56
405.988	325.56
406.212	317.56
406.436	316.56
406.66	324.56
406.883	327.56
407.107	356.56
407.331	357.56
407.555	385.56
407.778	346.56
408.002	370.56
408.226	360.56
408.449	353.56
408.673	344.56
408.896	342.56
409.12	328.56
409.344	340.56
409.567	335.56
409.791	363.56
410.014	330.56
410.238	330.56
410.461	337.56
410.685	328.56
410.908	332.56
411.132	319.56
411.355	324.56
411.578	325.56
411.802	321.56
412.025	310.56
412.249	319.56
412.472	320.56
412.695	317.56
412.919	301.56
413.142	331.56
413.365	325.56
413.589	327.56
413.812	294.56
414.035	319.56
414.258	310.56
414.482	305.56
414.705	315.56
414.928	308.56
415.151	321.56
415.374	302.56
415.597	307.56
415.821	328.56
416.044	305.56
416.267	310.56
416.49	292.56
416.713	293.56
416.936	303.56
417.159	306.56
417.382	318.56
417.605	289.56
417.828	317.56
418.051	307.56
418.274	301.56
418.497	319.56
418.72	328.56
418.943	316.56
419.166	325.56
419.389	354.56
419.611	346.56
419.834	324.56
420.057	327.56
420.28	303.56
420.503	319.56
420.726	316.56
420.948	317.56
421.171	315.56
421.394	294.56
421.617	317.56
421.839	311.56
422.062	312.56
422.285	330.56
422.507	327.56
422.73	318.56
422.953	309.56
423.175	335.56
423.398	346.56
423.621	299.56
423.843	312.56
424.066	326.56
424.288	333.56
424.511	347.56
424.733	324.56
424.956	323.56
425.178	307.56
425.401	326.56
425.623	289.56
425.846	306.56
426.068	287.56
426.291	309.56
426.513	323.56
426.735	298.56
426.958	307.56
427.18	302.56
427.402	299.56
427.625	307.56
427.847	313.56
428.069	295.56
428.292	295.56
428.514	284.56
428.736	298.56
428.958	280.56
429.181	298.56
429.403	296.56
429.625	283.56
429.847	303.56
430.069	296.56
430.292	319.56
430.514	289.56
430.736	296.56
430.958	283.56
431.18	283.56
431.402	294.56
431.624	304.56
431.846	296.56
432.068	291.56
432.29	305.56
432.512	292.56
432.734	309.56
432.956	316.56
433.178	291.56
433.4	292.56
433.622	302.56
433.844	304.56
434.066	324.56
434.287	311.56
434.509	329.56
434.731	311.56
434.953	328.56
435.175	306.56
435.397	324.56
435.618	315.56
435.84	305.56
436.062	305.56
436.284	310.56
436.505	303.56
436.727	308.56
436.949	301.56
437.17	303.56
437.392	304.56
437.614	305.56
437.835	288.56
438.057	311.56
438.278	295.56
438.5	281.56
438.721	285.56
438.943	300.56
439.165	287.56
439.386	308.56
439.608	327.56
439.829	312.56
440.05	330.56
440.272	313.56
440.493	295.56
440.715	325.56
440.936	324.56
441.158	326.56
441.379	327.56
441.6	327.56
441.822	337.56
442.043	340.56
442.264	332.56
442.486	322.56
442.707	338.56
442.928	342.56
443.149	323.56
443.371	335.56
443.592	320.56
443.813	332.56
444.034	362.56
444.255	362.56
444.476	354.56
444.698	364.56
444.919	376.56
445.14	503.56
445.361	404.56
445.582	343.56
445.803	339.56
446.024	314.56
446.245	328.56
446.466	328.56
446.687	313.56
446.908	323.56
447.129	314.56
447.35	320.56
447.571	327.56
447.792	316.56
448.013	307.56
448.234	307.56
448.455	316.56
448.675	296.56
448.896	287.56
449.117	264.56
449.338	271.56
449.559	303.56
449.779	309.56
450	282.56
450.221	287.56
450.442	286.56
450.662	308.56
450.883	287.56
451.104	279.56
451.324	322.56
451.545	303.56
451.766	313.56
451.986	306.56
452.207	283.56
452.428	279.56
452.648	275.56
452.869	283.56
453.089	269.56
453.31	287.56
453.53	283.56
453.751	295.56
453.971	259.56
454.192	260.56
454.412	282.56
454.633	285.56
454.853	267.56
455.073	260.56
455.294	268.56
455.514	276.56
455.734	263.56
455.955	263.56
456.175	264.56
456.395	268.56
456.616	282.56
456.836	267.56
457.056	262.56
457.276	282.56
457.497	261.56
457.717	279.56
457.937	276.56
458.157	264.56
458.377	281.56
458.598	274.56
458.818	287.56
459.038	287.56
459.258	304.56
459.478	283.56
459.698	298.56
459.918	311.56
460.138	333.56
460.358	333.56
460.578	344.56
460.798	341.56
461.018	321.56
461.238	340.56
461.458	343.56
461.678	356.56
461.898	351.56
462.118	360.56
462.338	348.56
462.558	388.56
462.777	365.56
462.997	407.56
463.217	411.56
463.437	417.56
463.657	381.56
463.876	378.56
464.096	369.56
464.316	380.56
464.536	380.56
464.755	379.56
464.975	362.56
465.195	353.56
465.414	344.56
465.634	329.56
465.854	324.56
466.073	311.56
466.293	314.56
466.512	305.56
466.732	298.56
466.951	308.56
467.171	283.56
467.391	307.56
467.61	316.56
467.829	314.56
468.049	293.56
468.268	277.56
468.488	284.56
468.707	300.56
468.927	275.56
469.146	288.56
469.365	302.56
469.585	284.56
469.804	303.56
470.023	326.56
470.243	304.56
470.462	321.56
470.681	306.56
470.901	312.56
471.12	313.56
471.339	305.56
471.558	301.56
471.777	300.56
471.997	317.56
472.216	291.56
472.435	273.56
472.654	291.56
472.873	286.56
473.092	289.56
473.311	277.56
473.53	288.56
473.749	269.56
473.968	287.56
474.187	273.56
474.406	291.56
474.625	297.56
474.844	290.56
475.063	278.56
475.282	309.56
475.501	287.56
475.72	296.56
475.939	292.56
476.158	310.56
476.377	287.56
476.596	295.56
476.814	279.56
477.033	318.56
477.252	302.56
477.471	305.56
477.69	309.56
477.908	310.56
478.127	327.56
478.346	345.56
478.564	332.56
478.783	331.56
479.002	343.56
479.22	346.56
479.439	328.56
479.658	339.56
479.876	333.56
480.095	332.56
480.313	336.56
480.532	337.56
480.751	337.56
480.969	352.56
481.188	326.56
481.406	325.56
481.624	320.56
481.843	329.56
482.061	313.56
482.28	318.56
482.498	318.56
482.717	320.56
482.935	296.56
483.153	321.56
483.372	313.56
483.59	319.56
483.808	314.56
484.027	295.56
484.245	320.56
484.463	320.56
484.681	321.56
484.9	342.56
485.118	326.56
485.336	313.56
485.554	312.56
485.772	320.56
485.99	317.56
486.209	315.56
486.427	312.56
486.645	317.56
486.863	331.56
487.081	332.56
487.299	316.56
487.517	327.56
487.735	345.56
487.953	342.56
488.171	319.56
488.389	339.56
488.607	330.56
488.825	322.56
489.043	321.56
489.261	329.56
489.479	335.56
489.696	329.56
489.914	325.56
490.132	320.56
490.35	345.56
490.568	335.56
490.786	352.56
491.003	333.56
491.221	360.56
491.439	361.56
491.657	337.56
491.874	340.56
492.092	357.56
492.31	361.56
492.527	364.56
492.745	342.56
492.963	343.56
493.18	342.56
493.398	346.56
493.615	356.56
493.833	329.56
494.05	335.56
494.268	351.56
494.485	373.56
494.703	361.56
494.92	345.56
495.138	358.56
495.355	370.56
495.573	353.56
495.79	356.56
496.008	362.56
496.225	363.56
496.442	362.56
496.66	378.56
496.877	359.56
497.094	367.56
497.312	379.56
497.529	385.56
497.746	401.56
497.963	388.56
498.181	387.56
498.398	417.56
498.615	424.56
498.832	460.56
499.049	468.56
499.267	513.56
499.484	559.56
499.701	595.56
499.918	651.56
500.135	663.56
500.352	721.56
500.569	732.56
500.786	756.56
501.003	743.56
501.22	628.56
501.437	620.56
501.654	572.56
501.871	522.56
502.088	476.56
502.305	467.56
502.522	443.56
502.739	448.56
