Data from Fe(NO3)3@0.0125M.TitratingCurve.Agarose3%dH2O.NegLispCup.LampEnergy10.LIBS07252019_HRD10591_17-01-10-337.txt Node
Date: Thu Jul 25 17:01:10 EDT 2019
User: cochatt
Spectrometer: HR+D1059
Trigger mode: 1
Integration Time (sec): 1.000000E-1
Scans to average: 1
Electric dark correction enabled: true
Nonlinearity correction enabled: false
Boxcar width: 0
XAxis mode: Wavelengths
Number of Pixels in Spectrum: 2048
>>>>>Begin Spectral Data<<<<<
223.165	4.12
223.4	4.12
223.635	4.12
223.869	-25.88
224.104	-33.88
224.338	-17.88
224.573	-11.88
224.808	-9.88
225.042	-23.88
225.277	-8.88
225.511	8.12
225.746	8.12
225.98	7.12
226.215	7.12
226.449	27.12
226.683	18.12
226.918	24.12
227.152	28.12
227.387	35.12
227.621	40.12
227.856	60.12
228.09	43.12
228.324	50.12
228.559	73.12
228.793	71.12
229.027	96.12
229.262	87.12
229.496	80.12
229.73	92.12
229.964	115.12
230.199	101.12
230.433	116.12
230.667	108.12
230.901	101.12
231.136	97.12
231.37	95.12
231.604	112.12
231.838	112.12
232.072	120.12
232.306	104.12
232.541	123.12
232.775	117.12
233.009	118.12
233.243	103.12
233.477	115.12
233.711	121.12
233.945	120.12
234.179	120.12
234.413	119.12
234.647	108.12
234.881	121.12
235.115	128.12
235.349	122.12
235.583	124.12
235.817	121.12
236.051	108.12
236.285	121.12
236.519	123.12
236.753	126.12
236.987	117.12
237.221	114.12
237.455	115.12
237.689	133.12
237.922	131.12
238.156	126.12
238.39	129.12
238.624	126.12
238.858	124.12
239.091	131.12
239.325	126.12
239.559	118.12
239.793	141.12
240.027	119.12
240.26	141.12
240.494	145.12
240.728	132.12
240.961	121.12
241.195	137.12
241.429	122.12
241.662	124.12
241.896	128.12
242.13	133.12
242.363	130.12
242.597	127.12
242.83	127.12
243.064	138.12
243.298	131.12
243.531	137.12
243.765	135.12
243.998	131.12
244.232	135.12
244.465	126.12
244.699	124.12
244.932	136.12
245.166	136.12
245.399	128.12
245.633	149.12
245.866	127.12
246.099	152.12
246.333	150.12
246.566	132.12
246.8	137.12
247.033	145.12
247.266	148.12
247.5	125.12
247.733	129.12
247.966	142.12
248.2	129.12
248.433	149.12
248.666	154.12
248.899	163.12
249.133	141.12
249.366	130.12
249.599	154.12
249.832	149.12
250.066	162.12
250.299	148.12
250.532	164.12
250.765	164.12
250.998	158.12
251.231	163.12
251.465	151.12
251.698	150.12
251.931	148.12
252.164	158.12
252.397	183.12
252.63	177.12
252.863	165.12
253.096	176.12
253.329	165.12
253.562	156.12
253.795	157.12
254.028	184.12
254.261	190.12
254.494	175.12
254.727	168.12
254.96	168.12
255.193	169.12
255.426	172.12
255.659	170.12
255.892	177.12
256.124	171.12
256.357	189.12
256.59	187.12
256.823	165.12
257.056	169.12
257.289	175.12
257.521	166.12
257.754	170.12
257.987	172.12
258.22	167.12
258.452	159.12
258.685	165.12
258.918	188.12
259.151	175.12
259.383	192.12
259.616	187.12
259.849	183.12
260.081	212.12
260.314	201.12
260.547	176.12
260.779	183.12
261.012	189.12
261.244	171.12
261.477	211.12
261.71	193.12
261.942	199.12
262.175	196.12
262.407	202.12
262.64	209.12
262.872	188.12
263.105	197.12
263.337	199.12
263.57	216.12
263.802	192.12
264.035	187.12
264.267	185.12
264.499	187.12
264.732	199.12
264.964	200.12
265.197	193.12
265.429	193.12
265.661	182.12
265.894	193.12
266.126	189.12
266.358	191.12
266.591	203.12
266.823	209.12
267.055	205.12
267.287	213.12
267.52	203.12
267.752	204.12
267.984	184.12
268.216	188.12
268.448	202.12
268.681	208.12
268.913	217.12
269.145	202.12
269.377	222.12
269.609	210.12
269.841	201.12
270.073	214.12
270.306	216.12
270.538	220.12
270.77	203.12
271.002	224.12
271.234	207.12
271.466	207.12
271.698	221.12
271.93	217.12
272.162	213.12
272.394	225.12
272.626	218.12
272.858	219.12
273.09	203.12
273.322	219.12
273.553	225.12
273.785	227.12
274.017	238.12
274.249	263.12
274.481	231.12
274.713	264.12
274.945	264.12
275.176	272.12
275.408	241.12
275.64	261.12
275.872	252.12
276.104	243.12
276.335	231.12
276.567	237.12
276.799	245.12
277.031	229.12
277.262	236.12
277.494	235.12
277.726	244.12
277.957	249.12
278.189	235.12
278.421	236.12
278.652	234.12
278.884	240.12
279.115	251.12
279.347	257.12
279.579	254.12
279.81	240.12
280.042	263.12
280.273	245.12
280.505	251.12
280.736	245.12
280.968	232.12
281.199	243.12
281.431	245.12
281.662	247.12
281.894	249.12
282.125	254.12
282.356	263.12
282.588	268.12
282.819	263.12
283.051	264.12
283.282	263.12
283.513	262.12
283.745	275.12
283.976	252.12
284.207	258.12
284.439	236.12
284.67	259.12
284.901	283.12
285.132	277.12
285.364	276.12
285.595	272.12
285.826	267.12
286.057	261.12
286.288	281.12
286.52	265.12
286.751	261.12
286.982	266.12
287.213	270.12
287.444	276.12
287.675	286.12
287.906	280.12
288.138	289.12
288.369	274.12
288.6	263.12
288.831	285.12
289.062	273.12
289.293	275.12
289.524	287.12
289.755	291.12
289.986	270.12
290.217	279.12
290.448	269.12
290.679	272.12
290.91	298.12
291.141	298.12
291.371	308.12
291.602	295.12
291.833	291.12
292.064	291.12
292.295	281.12
292.526	273.12
292.757	297.12
292.987	291.12
293.218	277.12
293.449	284.12
293.68	292.12
293.91	297.12
294.141	291.12
294.372	279.12
294.603	280.12
294.833	299.12
295.064	303.12
295.295	285.12
295.525	291.12
295.756	293.12
295.987	304.12
296.217	275.12
296.448	299.12
296.679	289.12
296.909	294.12
297.14	304.12
297.37	309.12
297.601	317.12
297.831	304.12
298.062	307.12
298.292	297.12
298.523	295.12
298.753	302.12
298.984	308.12
299.214	326.12
299.445	301.12
299.675	327.12
299.905	302.12
300.136	311.12
300.366	325.12
300.597	315.12
300.827	318.12
301.057	309.12
301.288	302.12
301.518	312.12
301.748	330.12
301.979	333.12
302.209	308.12
302.439	333.12
302.669	312.12
302.9	308.12
303.13	344.12
303.36	326.12
303.59	332.12
303.82	332.12
304.051	332.12
304.281	307.12
304.511	335.12
304.741	316.12
304.971	320.12
305.201	324.12
305.431	321.12
305.661	322.12
305.891	328.12
306.121	317.12
306.352	339.12
306.582	333.12
306.812	324.12
307.042	335.12
307.272	345.12
307.502	333.12
307.731	335.12
307.961	339.12
308.191	331.12
308.421	330.12
308.651	356.12
308.881	345.12
309.111	341.12
309.341	327.12
309.571	342.12
309.8	341.12
310.03	351.12
310.26	345.12
310.49	327.12
310.72	345.12
310.949	340.12
311.179	329.12
311.409	335.12
311.639	357.12
311.868	365.12
312.098	340.12
312.328	337.12
312.557	348.12
312.787	360.12
313.017	348.12
313.246	331.12
313.476	359.12
313.706	357.12
313.935	358.12
314.165	372.12
314.394	363.12
314.624	367.12
314.853	357.12
315.083	360.12
315.312	351.12
315.542	351.12
315.771	356.12
316.001	367.12
316.23	366.12
316.46	382.12
316.689	372.12
316.919	364.12
317.148	383.12
317.377	357.12
317.607	371.12
317.836	360.12
318.065	371.12
318.295	389.12
318.524	359.12
318.753	379.12
318.983	373.12
319.212	356.12
319.441	362.12
319.67	369.12
319.9	368.12
320.129	362.12
320.358	386.12
320.587	385.12
320.816	383.12
321.046	359.12
321.275	391.12
321.504	379.12
321.733	375.12
321.962	372.12
322.191	362.12
322.42	385.12
322.649	375.12
322.878	372.12
323.108	387.12
323.337	381.12
323.566	410.12
323.795	380.12
324.024	410.12
324.253	395.12
324.482	387.12
324.71	407.12
324.939	401.12
325.168	408.12
325.397	396.12
325.626	398.12
325.855	405.12
326.084	395.12
326.313	401.12
326.542	401.12
326.77	416.12
326.999	387.12
327.228	400.12
327.457	386.12
327.686	413.12
327.914	400.12
328.143	406.12
328.372	407.12
328.6	393.12
328.829	391.12
329.058	388.12
329.287	401.12
329.515	421.12
329.744	422.12
329.972	421.12
330.201	421.12
330.43	413.12
330.658	409.12
330.887	401.12
331.115	408.12
331.344	414.12
331.572	424.12
331.801	413.12
332.03	435.12
332.258	436.12
332.486	445.12
332.715	433.12
332.943	437.12
333.172	421.12
333.4	449.12
333.629	458.12
333.857	470.12
334.085	462.12
334.314	442.12
334.542	444.12
334.771	460.12
334.999	431.12
335.227	451.12
335.455	465.12
335.684	444.12
335.912	453.12
336.14	447.12
336.369	451.12
336.597	461.12
336.825	455.12
337.053	472.12
337.281	459.12
337.51	446.12
337.738	480.12
337.966	451.12
338.194	452.12
338.422	451.12
338.65	454.12
338.878	453.12
339.106	447.12
339.334	436.12
339.562	435.12
339.79	429.12
340.018	432.12
340.246	439.12
340.474	457.12
340.702	440.12
340.93	429.12
341.158	425.12
341.386	423.12
341.614	424.12
341.842	446.12
342.07	430.12
342.298	437.12
342.526	441.12
342.754	457.12
342.981	447.12
343.209	444.12
343.437	465.12
343.665	448.12
343.893	461.12
344.12	468.12
344.348	476.12
344.576	475.12
344.804	458.12
345.031	428.12
345.259	455.12
345.487	449.12
345.714	445.12
345.942	446.12
346.17	439.12
346.397	437.12
346.625	414.12
346.853	424.12
347.08	431.12
347.308	457.12
347.535	427.12
347.763	428.12
347.99	423.12
348.218	436.12
348.445	417.12
348.673	425.12
348.9	424.12
349.128	422.12
349.355	421.12
349.583	428.12
349.81	423.12
350.037	451.12
350.265	410.12
350.492	424.12
350.72	439.12
350.947	423.12
351.174	416.12
351.402	403.12
351.629	418.12
351.856	433.12
352.083	407.12
352.311	419.12
352.538	434.12
352.765	420.12
352.992	419.12
353.22	425.12
353.447	440.12
353.674	439.12
353.901	431.12
354.128	414.12
354.355	412.12
354.583	415.12
354.81	413.12
355.037	417.12
355.264	431.12
355.491	427.12
355.718	419.12
355.945	419.12
356.172	433.12
356.399	431.12
356.626	423.12
356.853	435.12
357.08	430.12
357.307	455.12
357.534	412.12
357.761	414.12
357.988	437.12
358.215	435.12
358.441	432.12
358.668	427.12
358.895	430.12
359.122	423.12
359.349	431.12
359.576	438.12
359.802	420.12
360.029	420.12
360.256	433.12
360.483	431.12
360.709	431.12
360.936	429.12
361.163	424.12
361.39	424.12
361.616	417.12
361.843	455.12
362.07	438.12
362.296	431.12
362.523	432.12
362.749	441.12
362.976	435.12
363.203	438.12
363.429	451.12
363.656	451.12
363.882	436.12
364.109	446.12
364.335	444.12
364.562	444.12
364.788	447.12
365.015	447.12
365.241	440.12
365.468	453.12
365.694	447.12
365.92	427.12
366.147	425.12
366.373	428.12
366.599	448.12
366.826	448.12
367.052	451.12
367.278	444.12
367.505	430.12
367.731	446.12
367.957	448.12
368.184	452.12
368.41	456.12
368.636	442.12
368.862	442.12
369.089	426.12
369.315	456.12
369.541	453.12
369.767	448.12
369.993	462.12
370.219	435.12
370.445	460.12
370.672	451.12
370.898	463.12
371.124	436.12
371.35	444.12
371.576	473.12
371.802	469.12
372.028	460.12
372.254	484.12
372.48	476.12
372.706	503.12
372.932	463.12
373.158	469.12
373.384	488.12
373.61	470.12
373.835	479.12
374.061	479.12
374.287	489.12
374.513	483.12
374.739	484.12
374.965	477.12
375.191	503.12
375.416	476.12
375.642	451.12
375.868	452.12
376.094	477.12
376.319	458.12
376.545	458.12
376.771	465.12
376.997	448.12
377.222	454.12
377.448	471.12
377.674	483.12
377.899	443.12
378.125	466.12
378.35	466.12
378.576	474.12
378.802	449.12
379.027	439.12
379.253	465.12
379.478	488.12
379.704	468.12
379.929	475.12
380.155	483.12
380.38	465.12
380.606	471.12
380.831	446.12
381.057	463.12
381.282	471.12
381.507	464.12
381.733	485.12
381.958	478.12
382.184	479.12
382.409	486.12
382.634	491.12
382.86	483.12
383.085	491.12
383.31	503.12
383.535	501.12
383.761	487.12
383.986	493.12
384.211	493.12
384.436	520.12
384.662	508.12
384.887	504.12
385.112	512.12
385.337	533.12
385.562	505.12
385.787	511.12
386.013	536.12
386.238	539.12
386.463	531.12
386.688	490.12
386.913	496.12
387.138	522.12
387.363	507.12
387.588	511.12
387.813	529.12
388.038	532.12
388.263	528.12
388.488	516.12
388.713	537.12
388.938	533.12
389.163	537.12
389.387	522.12
389.612	524.12
389.837	523.12
390.062	525.12
390.287	558.12
390.512	535.12
390.736	524.12
390.961	547.12
391.186	556.12
391.411	549.12
391.636	551.12
391.86	570.12
392.085	537.12
392.31	540.12
392.534	578.12
392.759	557.12
392.984	561.12
393.208	558.12
393.433	557.12
393.658	583.12
393.882	554.12
394.107	546.12
394.331	571.12
394.556	538.12
394.78	547.12
395.005	583.12
395.229	563.12
395.454	553.12
395.678	558.12
395.903	565.12
396.127	583.12
396.352	567.12
396.576	566.12
396.801	598.12
397.025	573.12
397.249	577.12
397.474	567.12
397.698	591.12
397.922	616.12
398.147	614.12
398.371	583.12
398.595	605.12
398.82	617.12
399.044	636.12
399.268	648.12
399.492	656.12
399.717	658.12
399.941	684.12
400.165	684.12
400.389	670.12
400.613	664.12
400.837	647.12
401.062	629.12
401.286	629.12
401.51	630.12
401.734	608.12
401.958	637.12
402.182	612.12
402.406	631.12
402.63	621.12
402.854	623.12
403.078	627.12
403.302	616.12
403.526	647.12
403.75	627.12
403.974	624.12
404.198	631.12
404.422	641.12
404.645	640.12
404.869	638.12
405.093	637.12
405.317	621.12
405.541	641.12
405.765	631.12
405.988	660.12
406.212	659.12
406.436	645.12
406.66	664.12
406.883	660.12
407.107	652.12
407.331	685.12
407.555	684.12
407.778	657.12
408.002	683.12
408.226	671.12
408.449	684.12
408.673	672.12
408.896	647.12
409.12	670.12
409.344	648.12
409.567	639.12
409.791	639.12
410.014	637.12
410.238	658.12
410.461	640.12
410.685	637.12
410.908	651.12
411.132	656.12
411.355	632.12
411.578	640.12
411.802	630.12
412.025	635.12
412.249	616.12
412.472	614.12
412.695	630.12
412.919	620.12
413.142	625.12
413.365	618.12
413.589	615.12
413.812	610.12
414.035	615.12
414.258	614.12
414.482	623.12
414.705	612.12
414.928	619.12
415.151	610.12
415.374	621.12
415.597	619.12
415.821	587.12
416.044	608.12
416.267	592.12
416.49	575.12
416.713	616.12
416.936	609.12
417.159	586.12
417.382	575.12
417.605	568.12
417.828	583.12
418.051	600.12
418.274	619.12
418.497	579.12
418.72	604.12
418.943	604.12
419.166	633.12
419.389	628.12
419.611	609.12
419.834	583.12
420.057	590.12
420.28	583.12
420.503	560.12
420.726	580.12
420.948	579.12
421.171	583.12
421.394	591.12
421.617	573.12
421.839	574.12
422.062	582.12
422.285	608.12
422.507	567.12
422.73	580.12
422.953	597.12
423.175	590.12
423.398	607.12
423.621	589.12
423.843	579.12
424.066	584.12
424.288	568.12
424.511	567.12
424.733	558.12
424.956	577.12
425.178	576.12
425.401	579.12
425.623	590.12
425.846	575.12
426.068	581.12
426.291	568.12
426.513	559.12
426.735	566.12
426.958	574.12
427.18	568.12
427.402	565.12
427.625	580.12
427.847	571.12
428.069	565.12
428.292	545.12
428.514	553.12
428.736	566.12
428.958	567.12
429.181	552.12
429.403	555.12
429.625	571.12
429.847	563.12
430.069	575.12
430.292	569.12
430.514	541.12
430.736	579.12
430.958	562.12
431.18	556.12
431.402	561.12
431.624	565.12
431.846	558.12
432.068	557.12
432.29	581.12
432.512	556.12
432.734	567.12
432.956	561.12
433.178	574.12
433.4	577.12
433.622	590.12
433.844	592.12
434.066	557.12
434.287	573.12
434.509	594.12
434.731	573.12
434.953	565.12
435.175	574.12
435.397	586.12
435.618	575.12
435.84	573.12
436.062	542.12
436.284	556.12
436.505	561.12
436.727	565.12
436.949	571.12
437.17	558.12
437.392	534.12
437.614	543.12
437.835	548.12
438.057	517.12
438.278	526.12
438.5	549.12
438.721	549.12
438.943	565.12
439.165	550.12
439.386	549.12
439.608	534.12
439.829	538.12
440.05	571.12
440.272	565.12
440.493	554.12
440.715	575.12
440.936	570.12
441.158	551.12
441.379	543.12
441.6	558.12
441.822	558.12
442.043	584.12
442.264	567.12
442.486	558.12
442.707	567.12
442.928	568.12
443.149	560.12
443.371	557.12
443.592	564.12
443.813	573.12
444.034	573.12
444.255	601.12
444.476	590.12
444.698	608.12
444.919	588.12
445.14	677.12
445.361	605.12
445.582	593.12
445.803	563.12
446.024	556.12
446.245	553.12
446.466	567.12
446.687	550.12
446.908	565.12
447.129	503.12
447.35	533.12
447.571	556.12
447.792	532.12
448.013	518.12
448.234	529.12
448.455	523.12
448.675	520.12
448.896	521.12
449.117	488.12
449.338	495.12
449.559	509.12
449.779	527.12
450	519.12
450.221	509.12
450.442	518.12
450.662	521.12
450.883	494.12
451.104	519.12
451.324	493.12
451.545	503.12
451.766	507.12
451.986	493.12
452.207	498.12
452.428	511.12
452.648	504.12
452.869	520.12
453.089	505.12
453.31	490.12
453.53	493.12
453.751	524.12
453.971	489.12
454.192	485.12
454.412	464.12
454.633	488.12
454.853	480.12
455.073	492.12
455.294	476.12
455.514	502.12
455.734	468.12
455.955	482.12
456.175	502.12
456.395	493.12
456.616	497.12
456.836	487.12
457.056	489.12
457.276	490.12
457.497	510.12
457.717	501.12
457.937	524.12
458.157	515.12
458.377	509.12
458.598	503.12
458.818	541.12
459.038	540.12
459.258	522.12
459.478	529.12
459.698	550.12
459.918	560.12
460.138	556.12
460.358	565.12
460.578	591.12
460.798	553.12
461.018	585.12
461.238	592.12
461.458	575.12
461.678	605.12
461.898	616.12
462.118	625.12
462.338	621.12
462.558	621.12
462.777	632.12
462.997	638.12
463.217	625.12
463.437	644.12
463.657	631.12
463.876	632.12
464.096	618.12
464.316	649.12
464.536	649.12
464.755	631.12
464.975	599.12
465.195	595.12
465.414	592.12
465.634	560.12
465.854	580.12
466.073	565.12
466.293	552.12
466.512	561.12
466.732	558.12
466.951	566.12
467.171	533.12
467.391	552.12
467.61	569.12
467.829	552.12
468.049	544.12
468.268	520.12
468.488	543.12
468.707	539.12
468.927	534.12
469.146	535.12
469.365	540.12
469.585	552.12
469.804	544.12
470.023	537.12
470.243	563.12
470.462	533.12
470.681	537.12
470.901	552.12
471.12	539.12
471.339	537.12
471.558	548.12
471.777	534.12
471.997	553.12
472.216	545.12
472.435	547.12
472.654	519.12
472.873	528.12
473.092	545.12
473.311	537.12
473.53	535.12
473.749	556.12
473.968	571.12
474.187	563.12
474.406	545.12
474.625	559.12
474.844	549.12
475.063	561.12
475.282	557.12
475.501	552.12
475.72	584.12
475.939	584.12
476.158	583.12
476.377	575.12
476.596	586.12
476.814	577.12
477.033	584.12
477.252	599.12
477.471	599.12
477.69	587.12
477.908	614.12
478.127	617.12
478.346	627.12
478.564	633.12
478.783	646.12
479.002	643.12
479.22	633.12
479.439	675.12
479.658	646.12
479.876	655.12
480.095	650.12
480.313	670.12
480.532	669.12
480.751	653.12
480.969	636.12
481.188	676.12
481.406	676.12
481.624	639.12
481.843	664.12
482.061	632.12
482.28	656.12
482.498	654.12
482.717	678.12
482.935	649.12
483.153	661.12
483.372	662.12
483.59	679.12
483.808	659.12
484.027	661.12
484.245	647.12
484.463	674.12
484.681	699.12
484.9	672.12
485.118	680.12
485.336	683.12
485.554	682.12
485.772	676.12
485.99	672.12
486.209	695.12
486.427	706.12
486.645	696.12
486.863	686.12
487.081	698.12
487.299	672.12
487.517	699.12
487.735	697.12
487.953	681.12
488.171	693.12
488.389	669.12
488.607	696.12
488.825	699.12
489.043	678.12
489.261	678.12
489.479	684.12
489.696	696.12
489.914	673.12
490.132	680.12
490.35	665.12
490.568	681.12
490.786	692.12
491.003	682.12
491.221	671.12
491.439	666.12
491.657	694.12
491.874	696.12
492.092	676.12
492.31	683.12
492.527	679.12
492.745	666.12
492.963	680.12
493.18	688.12
493.398	690.12
493.615	714.12
493.833	730.12
494.05	717.12
494.268	728.12
494.485	694.12
494.703	679.12
494.92	691.12
495.138	692.12
495.355	720.12
495.573	699.12
495.79	728.12
496.008	706.12
496.225	712.12
496.442	719.12
496.66	744.12
496.877	732.12
497.094	747.12
497.312	766.12
497.529	775.12
497.746	778.12
497.963	772.12
498.181	817.12
498.398	829.12
498.615	834.12
498.832	880.12
499.049	896.12
499.267	908.12
499.484	943.12
499.701	986.12
499.918	1024.12
500.135	1068.12
500.352	1077.12
500.569	1075.12
500.786	1124.12
501.003	1053.12
501.22	1021.12
501.437	990.12
501.654	940.12
