Data from Fe(NO3)3@0.0125M.TitratingCurve.Agarose3%dH2O.NegLispCup.LampEnergy10.LIBS07252019_HRD10591_17-00-21-337.txt Node
Date: Thu Jul 25 17:00:21 EDT 2019
User: cochatt
Spectrometer: HR+D1059
Trigger mode: 1
Integration Time (sec): 1.000000E-1
Scans to average: 1
Electric dark correction enabled: true
Nonlinearity correction enabled: false
Boxcar width: 0
XAxis mode: Wavelengths
Number of Pixels in Spectrum: 2048
>>>>>Begin Spectral Data<<<<<
223.165	-14.38
223.4	-14.38
223.635	-14.38
223.869	-11.38
224.104	-29.38
224.338	-22.38
224.573	0.62
224.808	-18.38
225.042	-0.38
225.277	-9.38
225.511	7.62
225.746	-2.38
225.98	18.62
226.215	4.62
226.449	14.62
226.683	9.62
226.918	24.62
227.152	27.62
227.387	37.62
227.621	42.62
227.856	32.62
228.09	41.62
228.324	51.62
228.559	50.62
228.793	46.62
229.027	75.62
229.262	100.62
229.496	86.62
229.73	89.62
229.964	99.62
230.199	89.62
230.433	95.62
230.667	114.62
230.901	105.62
231.136	114.62
231.37	106.62
231.604	101.62
231.838	115.62
232.072	117.62
232.306	117.62
232.541	106.62
232.775	103.62
233.009	98.62
233.243	97.62
233.477	106.62
233.711	113.62
233.945	115.62
234.179	116.62
234.413	115.62
234.647	115.62
234.881	116.62
235.115	122.62
235.349	120.62
235.583	122.62
235.817	114.62
236.051	122.62
236.285	118.62
236.519	117.62
236.753	130.62
236.987	114.62
237.221	131.62
237.455	130.62
237.689	134.62
237.922	120.62
238.156	114.62
238.39	126.62
238.624	127.62
238.858	113.62
239.091	116.62
239.325	124.62
239.559	128.62
239.793	134.62
240.027	137.62
240.26	124.62
240.494	134.62
240.728	137.62
240.961	138.62
241.195	133.62
241.429	131.62
241.662	143.62
241.896	130.62
242.13	135.62
242.363	125.62
242.597	141.62
242.83	140.62
243.064	136.62
243.298	145.62
243.531	148.62
243.765	142.62
243.998	145.62
244.232	147.62
244.465	154.62
244.699	137.62
244.932	141.62
245.166	139.62
245.399	152.62
245.633	150.62
245.866	154.62
246.099	145.62
246.333	150.62
246.566	146.62
246.8	168.62
247.033	147.62
247.266	148.62
247.5	138.62
247.733	159.62
247.966	163.62
248.2	163.62
248.433	153.62
248.666	149.62
248.899	146.62
249.133	148.62
249.366	160.62
249.599	160.62
249.832	177.62
250.066	177.62
250.299	171.62
250.532	164.62
250.765	180.62
250.998	181.62
251.231	155.62
251.465	174.62
251.698	166.62
251.931	167.62
252.164	173.62
252.397	168.62
252.63	182.62
252.863	189.62
253.096	174.62
253.329	183.62
253.562	183.62
253.795	176.62
254.028	190.62
254.261	190.62
254.494	196.62
254.727	187.62
254.96	196.62
255.193	179.62
255.426	197.62
255.659	195.62
255.892	177.62
256.124	186.62
256.357	180.62
256.59	192.62
256.823	182.62
257.056	186.62
257.289	185.62
257.521	185.62
257.754	180.62
257.987	193.62
258.22	186.62
258.452	199.62
258.685	190.62
258.918	193.62
259.151	211.62
259.383	204.62
259.616	201.62
259.849	217.62
260.081	226.62
260.314	240.62
260.547	214.62
260.779	201.62
261.012	217.62
261.244	217.62
261.477	230.62
261.71	196.62
261.942	224.62
262.175	199.62
262.407	203.62
262.64	221.62
262.872	213.62
263.105	228.62
263.337	231.62
263.57	231.62
263.802	229.62
264.035	215.62
264.267	207.62
264.499	214.62
264.732	201.62
264.964	222.62
265.197	202.62
265.429	201.62
265.661	221.62
265.894	221.62
266.126	224.62
266.358	224.62
266.591	213.62
266.823	237.62
267.055	223.62
267.287	208.62
267.52	233.62
267.752	229.62
267.984	220.62
268.216	235.62
268.448	219.62
268.681	234.62
268.913	243.62
269.145	246.62
269.377	234.62
269.609	230.62
269.841	239.62
270.073	236.62
270.306	231.62
270.538	235.62
270.77	249.62
271.002	237.62
271.234	242.62
271.466	229.62
271.698	242.62
271.93	244.62
272.162	250.62
272.394	249.62
272.626	260.62
272.858	245.62
273.09	258.62
273.322	262.62
273.553	264.62
273.785	260.62
274.017	256.62
274.249	277.62
274.481	274.62
274.713	300.62
274.945	307.62
275.176	305.62
275.408	284.62
275.64	272.62
275.872	295.62
276.104	285.62
276.335	272.62
276.567	262.62
276.799	272.62
277.031	277.62
277.262	262.62
277.494	272.62
277.726	265.62
277.957	275.62
278.189	282.62
278.421	266.62
278.652	258.62
278.884	271.62
279.115	267.62
279.347	292.62
279.579	282.62
279.81	272.62
280.042	290.62
280.273	265.62
280.505	280.62
280.736	283.62
280.968	266.62
281.199	269.62
281.431	293.62
281.662	288.62
281.894	303.62
282.125	293.62
282.356	279.62
282.588	285.62
282.819	267.62
283.051	278.62
283.282	274.62
283.513	305.62
283.745	278.62
283.976	283.62
284.207	304.62
284.439	292.62
284.67	286.62
284.901	297.62
285.132	312.62
285.364	288.62
285.595	288.62
285.826	277.62
286.057	311.62
286.288	312.62
286.52	290.62
286.751	298.62
286.982	295.62
287.213	320.62
287.444	308.62
287.675	290.62
287.906	311.62
288.138	319.62
288.369	308.62
288.6	320.62
288.831	293.62
289.062	321.62
289.293	337.62
289.524	295.62
289.755	318.62
289.986	304.62
290.217	317.62
290.448	318.62
290.679	325.62
290.91	312.62
291.141	304.62
291.371	316.62
291.602	348.62
291.833	329.62
292.064	322.62
292.295	329.62
292.526	320.62
292.757	297.62
292.987	337.62
293.218	322.62
293.449	345.62
293.68	332.62
293.91	308.62
294.141	312.62
294.372	332.62
294.603	324.62
294.833	323.62
295.064	332.62
295.295	321.62
295.525	345.62
295.756	342.62
295.987	343.62
296.217	336.62
296.448	339.62
296.679	327.62
296.909	327.62
297.14	328.62
297.37	360.62
297.601	342.62
297.831	353.62
298.062	333.62
298.292	341.62
298.523	374.62
298.753	355.62
298.984	354.62
299.214	345.62
299.445	350.62
299.675	353.62
299.905	342.62
300.136	352.62
300.366	344.62
300.597	349.62
300.827	345.62
301.057	357.62
301.288	354.62
301.518	357.62
301.748	352.62
301.979	360.62
302.209	388.62
302.439	379.62
302.669	370.62
302.9	362.62
303.13	358.62
303.36	376.62
303.59	376.62
303.82	352.62
304.051	367.62
304.281	378.62
304.511	381.62
304.741	376.62
304.971	361.62
305.201	369.62
305.431	378.62
305.661	385.62
305.891	376.62
306.121	374.62
306.352	371.62
306.582	387.62
306.812	372.62
307.042	394.62
307.272	380.62
307.502	375.62
307.731	379.62
307.961	376.62
308.191	356.62
308.421	366.62
308.651	373.62
308.881	376.62
309.111	376.62
309.341	377.62
309.571	377.62
309.8	357.62
310.03	386.62
310.26	380.62
310.49	378.62
310.72	403.62
310.949	377.62
311.179	393.62
311.409	379.62
311.639	378.62
311.868	398.62
312.098	399.62
312.328	391.62
312.557	414.62
312.787	413.62
313.017	395.62
313.246	396.62
313.476	404.62
313.706	400.62
313.935	425.62
314.165	402.62
314.394	389.62
314.624	398.62
314.853	395.62
315.083	402.62
315.312	411.62
315.542	421.62
315.771	409.62
316.001	393.62
316.23	405.62
316.46	401.62
316.689	438.62
316.919	399.62
317.148	415.62
317.377	418.62
317.607	408.62
317.836	425.62
318.065	406.62
318.295	438.62
318.524	422.62
318.753	429.62
318.983	406.62
319.212	429.62
319.441	410.62
319.67	426.62
319.9	405.62
320.129	414.62
320.358	421.62
320.587	436.62
320.816	420.62
321.046	426.62
321.275	451.62
321.504	444.62
321.733	418.62
321.962	453.62
322.191	417.62
322.42	422.62
322.649	411.62
322.878	423.62
323.108	430.62
323.337	435.62
323.566	437.62
323.795	422.62
324.024	412.62
324.253	422.62
324.482	421.62
324.71	443.62
324.939	426.62
325.168	440.62
325.397	423.62
325.626	429.62
325.855	421.62
326.084	439.62
326.313	455.62
326.542	438.62
326.77	466.62
326.999	478.62
327.228	436.62
327.457	442.62
327.686	444.62
327.914	451.62
328.143	459.62
328.372	445.62
328.6	434.62
328.829	423.62
329.058	467.62
329.287	455.62
329.515	454.62
329.744	494.62
329.972	483.62
330.201	482.62
330.43	470.62
330.658	455.62
330.887	461.62
331.115	466.62
331.344	455.62
331.572	475.62
331.801	473.62
332.03	487.62
332.258	484.62
332.486	474.62
332.715	487.62
332.943	491.62
333.172	494.62
333.4	498.62
333.629	498.62
333.857	521.62
334.085	540.62
334.314	524.62
334.542	500.62
334.771	533.62
334.999	520.62
335.227	521.62
335.455	520.62
335.684	497.62
335.912	499.62
336.14	514.62
336.369	506.62
336.597	521.62
336.825	513.62
337.053	523.62
337.281	531.62
337.51	501.62
337.738	512.62
337.966	490.62
338.194	499.62
338.422	501.62
338.65	497.62
338.878	491.62
339.106	499.62
339.334	512.62
339.562	487.62
339.79	497.62
340.018	486.62
340.246	505.62
340.474	477.62
340.702	490.62
340.93	496.62
341.158	482.62
341.386	491.62
341.614	473.62
341.842	508.62
342.07	474.62
342.298	510.62
342.526	491.62
342.754	502.62
342.981	509.62
343.209	514.62
343.437	497.62
343.665	491.62
343.893	508.62
344.12	511.62
344.348	507.62
344.576	504.62
344.804	497.62
345.031	499.62
345.259	483.62
345.487	502.62
345.714	491.62
345.942	499.62
346.17	478.62
346.397	481.62
346.625	501.62
346.853	487.62
347.08	478.62
347.308	505.62
347.535	460.62
347.763	480.62
347.99	508.62
348.218	475.62
348.445	466.62
348.673	479.62
348.9	498.62
349.128	476.62
349.355	486.62
349.583	484.62
349.81	487.62
350.037	475.62
350.265	488.62
350.492	485.62
350.72	458.62
350.947	474.62
351.174	474.62
351.402	473.62
351.629	468.62
351.856	470.62
352.083	468.62
352.311	489.62
352.538	459.62
352.765	486.62
352.992	476.62
353.22	491.62
353.447	456.62
353.674	459.62
353.901	469.62
354.128	481.62
354.355	461.62
354.583	454.62
354.81	473.62
355.037	462.62
355.264	466.62
355.491	482.62
355.718	467.62
355.945	462.62
356.172	496.62
356.399	456.62
356.626	481.62
356.853	463.62
357.08	473.62
357.307	465.62
357.534	460.62
357.761	474.62
357.988	498.62
358.215	493.62
358.441	509.62
358.668	487.62
358.895	486.62
359.122	500.62
359.349	480.62
359.576	471.62
359.802	485.62
360.029	482.62
360.256	483.62
360.483	469.62
360.709	496.62
360.936	490.62
361.163	512.62
361.39	505.62
361.616	475.62
361.843	488.62
362.07	502.62
362.296	493.62
362.523	491.62
362.749	505.62
362.976	477.62
363.203	488.62
363.429	499.62
363.656	478.62
363.882	491.62
364.109	504.62
364.335	498.62
364.562	486.62
364.788	488.62
365.015	493.62
365.241	488.62
365.468	497.62
365.694	498.62
365.92	498.62
366.147	483.62
366.373	493.62
366.599	481.62
366.826	489.62
367.052	478.62
367.278	492.62
367.505	506.62
367.731	515.62
367.957	502.62
368.184	509.62
368.41	513.62
368.636	519.62
368.862	501.62
369.089	502.62
369.315	506.62
369.541	528.62
369.767	530.62
369.993	494.62
370.219	510.62
370.445	508.62
370.672	532.62
370.898	542.62
371.124	527.62
371.35	524.62
371.576	528.62
371.802	521.62
372.028	519.62
372.254	541.62
372.48	527.62
372.706	530.62
372.932	548.62
373.158	555.62
373.384	528.62
373.61	541.62
373.835	550.62
374.061	556.62
374.287	565.62
374.513	548.62
374.739	558.62
374.965	562.62
375.191	549.62
375.416	541.62
375.642	531.62
375.868	546.62
376.094	541.62
376.319	528.62
376.545	546.62
376.771	548.62
376.997	545.62
377.222	532.62
377.448	519.62
377.674	531.62
377.899	552.62
378.125	521.62
378.35	525.62
378.576	505.62
378.802	522.62
379.027	550.62
379.253	532.62
379.478	513.62
379.704	524.62
379.929	532.62
380.155	535.62
380.38	529.62
380.606	557.62
380.831	551.62
381.057	525.62
381.282	526.62
381.507	536.62
381.733	524.62
381.958	534.62
382.184	566.62
382.409	557.62
382.634	576.62
382.86	565.62
383.085	540.62
383.31	548.62
383.535	539.62
383.761	546.62
383.986	554.62
384.211	555.62
384.436	546.62
384.662	565.62
384.887	538.62
385.112	580.62
385.337	562.62
385.562	600.62
385.787	586.62
386.013	624.62
386.238	595.62
386.463	587.62
386.688	591.62
386.913	598.62
387.138	600.62
387.363	592.62
387.588	594.62
387.813	587.62
388.038	594.62
388.263	584.62
388.488	589.62
388.713	605.62
388.938	571.62
389.163	581.62
389.387	589.62
389.612	606.62
389.837	596.62
390.062	562.62
390.287	604.62
390.512	631.62
390.736	610.62
390.961	613.62
391.186	596.62
391.411	604.62
391.636	627.62
391.86	620.62
392.085	630.62
392.31	646.62
392.534	618.62
392.759	627.62
392.984	633.62
393.208	642.62
393.433	662.62
393.658	665.62
393.882	638.62
394.107	640.62
394.331	624.62
394.556	621.62
394.78	631.62
395.005	606.62
395.229	628.62
395.454	626.62
395.678	621.62
395.903	640.62
396.127	660.62
396.352	618.62
396.576	629.62
396.801	646.62
397.025	676.62
397.249	648.62
397.474	645.62
397.698	675.62
397.922	649.62
398.147	643.62
398.371	660.62
398.595	652.62
398.82	690.62
399.044	692.62
399.268	729.62
399.492	707.62
399.717	762.62
399.941	757.62
400.165	744.62
400.389	747.62
400.613	722.62
400.837	718.62
401.062	706.62
401.286	685.62
401.51	699.62
401.734	705.62
401.958	708.62
402.182	682.62
402.406	678.62
402.63	688.62
402.854	696.62
403.078	648.62
403.302	681.62
403.526	678.62
403.75	692.62
403.974	689.62
404.198	705.62
404.422	726.62
404.645	704.62
404.869	680.62
405.093	688.62
405.317	684.62
405.541	715.62
405.765	704.62
405.988	702.62
406.212	698.62
406.436	724.62
406.66	716.62
406.883	733.62
407.107	746.62
407.331	736.62
407.555	765.62
407.778	768.62
408.002	745.62
408.226	762.62
408.449	773.62
408.673	759.62
408.896	728.62
409.12	729.62
409.344	741.62
409.567	731.62
409.791	731.62
410.014	739.62
410.238	740.62
410.461	740.62
410.685	706.62
410.908	716.62
411.132	730.62
411.355	701.62
411.578	717.62
411.802	714.62
412.025	714.62
412.249	697.62
412.472	714.62
412.695	690.62
412.919	714.62
413.142	691.62
413.365	689.62
413.589	722.62
413.812	695.62
414.035	704.62
414.258	694.62
414.482	667.62
414.705	698.62
414.928	688.62
415.151	708.62
415.374	680.62
415.597	706.62
415.821	696.62
416.044	663.62
416.267	650.62
416.49	683.62
416.713	670.62
416.936	692.62
417.159	648.62
417.382	642.62
417.605	633.62
417.828	673.62
418.051	678.62
418.274	660.62
418.497	638.62
418.72	663.62
418.943	660.62
419.166	706.62
419.389	714.62
419.611	714.62
419.834	687.62
420.057	671.62
420.28	671.62
420.503	665.62
420.726	658.62
420.948	670.62
421.171	668.62
421.394	632.62
421.617	660.62
421.839	668.62
422.062	673.62
422.285	642.62
422.507	660.62
422.73	675.62
422.953	662.62
423.175	647.62
423.398	682.62
423.621	651.62
423.843	656.62
424.066	666.62
424.288	651.62
424.511	675.62
424.733	649.62
424.956	638.62
425.178	650.62
425.401	652.62
425.623	666.62
425.846	653.62
426.068	628.62
426.291	648.62
426.513	633.62
426.735	631.62
426.958	651.62
427.18	652.62
427.402	638.62
427.625	624.62
427.847	644.62
428.069	626.62
428.292	648.62
428.514	652.62
428.736	628.62
428.958	646.62
429.181	644.62
429.403	646.62
429.625	620.62
429.847	634.62
430.069	628.62
430.292	651.62
430.514	642.62
430.736	660.62
430.958	646.62
431.18	628.62
431.402	640.62
431.624	611.62
431.846	652.62
432.068	640.62
432.29	638.62
432.512	621.62
432.734	658.62
432.956	646.62
433.178	654.62
433.4	625.62
433.622	636.62
433.844	650.62
434.066	624.62
434.287	648.62
434.509	655.62
434.731	658.62
434.953	647.62
435.175	650.62
435.397	670.62
435.618	657.62
435.84	645.62
436.062	636.62
436.284	640.62
436.505	637.62
436.727	625.62
436.949	635.62
437.17	631.62
437.392	610.62
437.614	652.62
437.835	612.62
438.057	635.62
438.278	613.62
438.5	632.62
438.721	631.62
438.943	652.62
439.165	609.62
439.386	612.62
439.608	634.62
439.829	619.62
440.05	622.62
440.272	632.62
440.493	644.62
440.715	638.62
440.936	620.62
441.158	631.62
441.379	640.62
441.6	653.62
441.822	650.62
442.043	651.62
442.264	637.62
442.486	639.62
442.707	634.62
442.928	640.62
443.149	670.62
443.371	634.62
443.592	649.62
443.813	645.62
444.034	660.62
444.255	654.62
444.476	655.62
444.698	650.62
444.919	652.62
445.14	736.62
445.361	668.62
445.582	666.62
445.803	664.62
446.024	637.62
446.245	628.62
446.466	640.62
446.687	646.62
446.908	621.62
447.129	613.62
447.35	619.62
447.571	616.62
447.792	602.62
448.013	607.62
448.234	595.62
448.455	617.62
448.675	597.62
448.896	608.62
449.117	591.62
449.338	600.62
449.559	607.62
449.779	603.62
450	594.62
450.221	605.62
450.442	588.62
450.662	603.62
450.883	577.62
451.104	593.62
451.324	588.62
451.545	581.62
451.766	581.62
451.986	589.62
452.207	595.62
452.428	579.62
452.648	579.62
452.869	576.62
453.089	582.62
453.31	583.62
453.53	553.62
453.751	567.62
453.971	592.62
454.192	573.62
454.412	570.62
454.633	577.62
454.853	558.62
455.073	569.62
455.294	555.62
455.514	570.62
455.734	579.62
455.955	566.62
456.175	551.62
456.395	563.62
456.616	570.62
456.836	568.62
457.056	574.62
457.276	561.62
457.497	592.62
457.717	580.62
457.937	570.62
458.157	605.62
458.377	584.62
458.598	588.62
458.818	590.62
459.038	628.62
459.258	624.62
459.478	617.62
459.698	624.62
459.918	647.62
460.138	632.62
460.358	668.62
460.578	661.62
460.798	674.62
461.018	672.62
461.238	676.62
461.458	690.62
461.678	670.62
461.898	672.62
462.118	668.62
462.338	706.62
462.558	688.62
462.777	708.62
462.997	723.62
463.217	700.62
463.437	743.62
463.657	729.62
463.876	710.62
464.096	745.62
464.316	705.62
464.536	715.62
464.755	690.62
464.975	708.62
465.195	672.62
465.414	664.62
465.634	661.62
465.854	653.62
466.073	658.62
466.293	640.62
466.512	628.62
466.732	613.62
466.951	640.62
467.171	624.62
467.391	617.62
467.61	658.62
467.829	628.62
468.049	632.62
468.268	622.62
468.488	632.62
468.707	631.62
468.927	644.62
469.146	620.62
469.365	643.62
469.585	620.62
469.804	628.62
470.023	664.62
470.243	644.62
470.462	640.62
470.681	645.62
470.901	637.62
471.12	649.62
471.339	637.62
471.558	636.62
471.777	640.62
471.997	656.62
472.216	652.62
472.435	634.62
472.654	647.62
472.873	658.62
473.092	632.62
473.311	646.62
473.53	628.62
473.749	635.62
473.968	636.62
474.187	629.62
474.406	634.62
474.625	654.62
474.844	671.62
475.063	652.62
475.282	650.62
475.501	664.62
475.72	668.62
475.939	670.62
476.158	689.62
476.377	683.62
476.596	701.62
476.814	688.62
477.033	696.62
477.252	718.62
477.471	699.62
477.69	700.62
477.908	716.62
478.127	730.62
478.346	725.62
478.564	740.62
478.783	734.62
479.002	729.62
479.22	734.62
479.439	762.62
479.658	754.62
479.876	738.62
480.095	749.62
480.313	772.62
480.532	769.62
480.751	755.62
480.969	763.62
481.188	753.62
481.406	766.62
481.624	753.62
481.843	779.62
482.061	770.62
482.28	782.62
482.498	768.62
482.717	774.62
482.935	767.62
483.153	772.62
483.372	758.62
483.59	765.62
483.808	775.62
484.027	766.62
484.245	797.62
484.463	792.62
484.681	776.62
484.9	770.62
485.118	785.62
485.336	793.62
485.554	776.62
485.772	771.62
485.99	776.62
486.209	792.62
486.427	792.62
486.645	790.62
486.863	809.62
487.081	789.62
487.299	766.62
487.517	793.62
487.735	783.62
487.953	781.62
488.171	813.62
488.389	795.62
488.607	804.62
488.825	781.62
489.043	809.62
489.261	812.62
489.479	779.62
489.696	783.62
489.914	770.62
490.132	826.62
490.35	801.62
490.568	809.62
490.786	804.62
491.003	791.62
491.221	800.62
491.439	799.62
491.657	820.62
491.874	780.62
492.092	817.62
492.31	826.62
492.527	810.62
492.745	790.62
492.963	817.62
493.18	797.62
493.398	807.62
493.615	818.62
493.833	828.62
494.05	826.62
494.268	830.62
494.485	834.62
494.703	804.62
494.92	846.62
495.138	826.62
495.355	823.62
495.573	844.62
495.79	843.62
496.008	874.62
496.225	869.62
496.442	876.62
496.66	867.62
496.877	890.62
497.094	904.62
497.312	902.62
497.529	892.62
497.746	910.62
497.963	926.62
498.181	931.62
498.398	946.62
498.615	997.62
498.832	1012.62
499.049	1044.62
499.267	1051.62
499.484	1078.62
499.701	1104.62
499.918	1148.62
500.135	1189.62
500.352	1201.62
500.569	1198.62
500.786	1225.62
501.003	1170.62
501.22	1140.62
501.437	1129.62
