Data from Fe(NO3)3@0.0125M.TitratingCurve.Agarose3%dH2O.NegLispCup.LampEnergy10.LIBS07252019_HRD10591_17-00-12-336.txt Node
Date: Thu Jul 25 17:00:12 EDT 2019
User: cochatt
Spectrometer: HR+D1059
Trigger mode: 1
Integration Time (sec): 1.000000E-1
Scans to average: 1
Electric dark correction enabled: true
Nonlinearity correction enabled: false
Boxcar width: 0
XAxis mode: Wavelengths
Number of Pixels in Spectrum: 2048
>>>>>Begin Spectral Data<<<<<
223.165	-23.25
223.4	-23.25
223.635	-23.25
223.869	-3.25
224.104	-23.25
224.338	-12.25
224.573	-17.25
224.808	-13.25
225.042	-3.25
225.277	-7.25
225.511	1.75
225.746	14.75
225.98	7.75
226.215	-1.25
226.449	8.75
226.683	9.75
226.918	22.75
227.152	38.75
227.387	25.75
227.621	26.75
227.856	46.75
228.09	52.75
228.324	35.75
228.559	60.75
228.793	56.75
229.027	67.75
229.262	70.75
229.496	82.75
229.73	81.75
229.964	78.75
230.199	90.75
230.433	89.75
230.667	95.75
230.901	102.75
231.136	95.75
231.37	90.75
231.604	92.75
231.838	101.75
232.072	106.75
232.306	111.75
232.541	90.75
232.775	89.75
233.009	82.75
233.243	97.75
233.477	94.75
233.711	102.75
233.945	105.75
234.179	109.75
234.413	104.75
234.647	105.75
234.881	111.75
235.115	114.75
235.349	105.75
235.583	117.75
235.817	96.75
236.051	115.75
236.285	106.75
236.519	112.75
236.753	93.75
236.987	110.75
237.221	95.75
237.455	112.75
237.689	108.75
237.922	95.75
238.156	102.75
238.39	124.75
238.624	99.75
238.858	107.75
239.091	104.75
239.325	111.75
239.559	107.75
239.793	110.75
240.027	124.75
240.26	122.75
240.494	118.75
240.728	104.75
240.961	111.75
241.195	116.75
241.429	117.75
241.662	96.75
241.896	109.75
242.13	123.75
242.363	108.75
242.597	95.75
242.83	116.75
243.064	134.75
243.298	116.75
243.531	116.75
243.765	121.75
243.998	125.75
244.232	112.75
244.465	128.75
244.699	121.75
244.932	114.75
245.166	112.75
245.399	111.75
245.633	108.75
245.866	107.75
246.099	110.75
246.333	122.75
246.566	130.75
246.8	124.75
247.033	119.75
247.266	117.75
247.5	124.75
247.733	126.75
247.966	120.75
248.2	119.75
248.433	126.75
248.666	114.75
248.899	124.75
249.133	123.75
249.366	122.75
249.599	119.75
249.832	134.75
250.066	130.75
250.299	130.75
250.532	125.75
250.765	118.75
250.998	126.75
251.231	133.75
251.465	124.75
251.698	124.75
251.931	119.75
252.164	125.75
252.397	136.75
252.63	127.75
252.863	134.75
253.096	149.75
253.329	146.75
253.562	150.75
253.795	142.75
254.028	146.75
254.261	135.75
254.494	136.75
254.727	137.75
254.96	157.75
255.193	147.75
255.426	137.75
255.659	139.75
255.892	136.75
256.124	132.75
256.357	148.75
256.59	155.75
256.823	142.75
257.056	150.75
257.289	144.75
257.521	151.75
257.754	139.75
257.987	124.75
258.22	160.75
258.452	154.75
258.685	150.75
258.918	141.75
259.151	157.75
259.383	130.75
259.616	143.75
259.849	161.75
260.081	183.75
260.314	182.75
260.547	154.75
260.779	158.75
261.012	157.75
261.244	176.75
261.477	161.75
261.71	162.75
261.942	153.75
262.175	162.75
262.407	166.75
262.64	156.75
262.872	148.75
263.105	154.75
263.337	170.75
263.57	155.75
263.802	154.75
264.035	151.75
264.267	152.75
264.499	145.75
264.732	168.75
264.964	141.75
265.197	152.75
265.429	156.75
265.661	163.75
265.894	150.75
266.126	163.75
266.358	175.75
266.591	166.75
266.823	162.75
267.055	166.75
267.287	155.75
267.52	162.75
267.752	168.75
267.984	180.75
268.216	169.75
268.448	170.75
268.681	166.75
268.913	171.75
269.145	170.75
269.377	182.75
269.609	179.75
269.841	179.75
270.073	178.75
270.306	176.75
270.538	177.75
270.77	162.75
271.002	159.75
271.234	184.75
271.466	158.75
271.698	182.75
271.93	184.75
272.162	188.75
272.394	192.75
272.626	182.75
272.858	172.75
273.09	188.75
273.322	186.75
273.553	187.75
273.785	201.75
274.017	199.75
274.249	203.75
274.481	214.75
274.713	208.75
274.945	216.75
275.176	209.75
275.408	195.75
275.64	203.75
275.872	204.75
276.104	192.75
276.335	198.75
276.567	194.75
276.799	194.75
277.031	200.75
277.262	199.75
277.494	184.75
277.726	184.75
277.957	213.75
278.189	214.75
278.421	182.75
278.652	199.75
278.884	198.75
279.115	196.75
279.347	181.75
279.579	214.75
279.81	194.75
280.042	205.75
280.273	211.75
280.505	200.75
280.736	182.75
280.968	211.75
281.199	204.75
281.431	208.75
281.662	216.75
281.894	215.75
282.125	202.75
282.356	219.75
282.588	201.75
282.819	201.75
283.051	219.75
283.282	208.75
283.513	210.75
283.745	225.75
283.976	208.75
284.207	209.75
284.439	222.75
284.67	222.75
284.901	228.75
285.132	217.75
285.364	211.75
285.595	228.75
285.826	202.75
286.057	230.75
286.288	220.75
286.52	240.75
286.751	229.75
286.982	233.75
287.213	226.75
287.444	210.75
287.675	225.75
287.906	238.75
288.138	206.75
288.369	231.75
288.6	214.75
288.831	232.75
289.062	238.75
289.293	236.75
289.524	244.75
289.755	225.75
289.986	215.75
290.217	222.75
290.448	240.75
290.679	240.75
290.91	234.75
291.141	208.75
291.371	239.75
291.602	221.75
291.833	241.75
292.064	227.75
292.295	228.75
292.526	243.75
292.757	226.75
292.987	250.75
293.218	245.75
293.449	261.75
293.68	230.75
293.91	229.75
294.141	228.75
294.372	241.75
294.603	242.75
294.833	248.75
295.064	263.75
295.295	238.75
295.525	256.75
295.756	251.75
295.987	259.75
296.217	269.75
296.448	254.75
296.679	250.75
296.909	256.75
297.14	267.75
297.37	239.75
297.601	254.75
297.831	257.75
298.062	238.75
298.292	255.75
298.523	272.75
298.753	267.75
298.984	271.75
299.214	268.75
299.445	254.75
299.675	257.75
299.905	248.75
300.136	259.75
300.366	254.75
300.597	257.75
300.827	286.75
301.057	291.75
301.288	265.75
301.518	263.75
301.748	260.75
301.979	278.75
302.209	274.75
302.439	281.75
302.669	279.75
302.9	263.75
303.13	243.75
303.36	298.75
303.59	291.75
303.82	262.75
304.051	291.75
304.281	276.75
304.511	287.75
304.741	287.75
304.971	264.75
305.201	282.75
305.431	271.75
305.661	271.75
305.891	278.75
306.121	291.75
306.352	281.75
306.582	271.75
306.812	287.75
307.042	287.75
307.272	295.75
307.502	289.75
307.731	285.75
307.961	277.75
308.191	283.75
308.421	273.75
308.651	284.75
308.881	283.75
309.111	290.75
309.341	284.75
309.571	308.75
309.8	286.75
310.03	295.75
310.26	305.75
310.49	286.75
310.72	298.75
310.949	295.75
311.179	290.75
311.409	313.75
311.639	290.75
311.868	310.75
312.098	306.75
312.328	327.75
312.557	307.75
312.787	306.75
313.017	305.75
313.246	316.75
313.476	320.75
313.706	306.75
313.935	308.75
314.165	299.75
314.394	304.75
314.624	304.75
314.853	299.75
315.083	304.75
315.312	313.75
315.542	319.75
315.771	304.75
316.001	297.75
316.23	302.75
316.46	319.75
316.689	333.75
316.919	313.75
317.148	307.75
317.377	322.75
317.607	302.75
317.836	324.75
318.065	318.75
318.295	296.75
318.524	320.75
318.753	306.75
318.983	338.75
319.212	319.75
319.441	306.75
319.67	321.75
319.9	322.75
320.129	331.75
320.358	313.75
320.587	323.75
320.816	324.75
321.046	312.75
321.275	335.75
321.504	330.75
321.733	336.75
321.962	339.75
322.191	336.75
322.42	331.75
322.649	335.75
322.878	335.75
323.108	322.75
323.337	337.75
323.566	339.75
323.795	323.75
324.024	327.75
324.253	341.75
324.482	322.75
324.71	333.75
324.939	323.75
325.168	335.75
325.397	338.75
325.626	345.75
325.855	339.75
326.084	352.75
326.313	344.75
326.542	336.75
326.77	337.75
326.999	333.75
327.228	328.75
327.457	334.75
327.686	350.75
327.914	325.75
328.143	338.75
328.372	347.75
328.6	328.75
328.829	357.75
329.058	343.75
329.287	352.75
329.515	340.75
329.744	353.75
329.972	378.75
330.201	368.75
330.43	356.75
330.658	347.75
330.887	356.75
331.115	369.75
331.344	355.75
331.572	368.75
331.801	372.75
332.03	359.75
332.258	361.75
332.486	361.75
332.715	370.75
332.943	383.75
333.172	384.75
333.4	391.75
333.629	388.75
333.857	390.75
334.085	396.75
334.314	394.75
334.542	393.75
334.771	385.75
334.999	409.75
335.227	397.75
335.455	391.75
335.684	366.75
335.912	405.75
336.14	402.75
336.369	391.75
336.597	391.75
336.825	388.75
337.053	384.75
337.281	391.75
337.51	401.75
337.738	395.75
337.966	378.75
338.194	387.75
338.422	376.75
338.65	386.75
338.878	389.75
339.106	374.75
339.334	380.75
339.562	371.75
339.79	373.75
340.018	378.75
340.246	367.75
340.474	363.75
340.702	370.75
340.93	352.75
341.158	388.75
341.386	391.75
341.614	377.75
341.842	363.75
342.07	388.75
342.298	375.75
342.526	382.75
342.754	363.75
342.981	390.75
343.209	362.75
343.437	372.75
343.665	391.75
343.893	399.75
344.12	416.75
344.348	414.75
344.576	397.75
344.804	395.75
345.031	388.75
345.259	400.75
345.487	399.75
345.714	388.75
345.942	389.75
346.17	396.75
346.397	374.75
346.625	374.75
346.853	368.75
347.08	375.75
347.308	378.75
347.535	379.75
347.763	378.75
347.99	386.75
348.218	384.75
348.445	383.75
348.673	376.75
348.9	367.75
349.128	379.75
349.355	392.75
349.583	364.75
349.81	380.75
350.037	375.75
350.265	364.75
350.492	364.75
350.72	383.75
350.947	374.75
351.174	366.75
351.402	375.75
351.629	382.75
351.856	366.75
352.083	373.75
352.311	361.75
352.538	378.75
352.765	382.75
352.992	366.75
353.22	390.75
353.447	372.75
353.674	386.75
353.901	391.75
354.128	368.75
354.355	370.75
354.583	368.75
354.81	383.75
355.037	374.75
355.264	376.75
355.491	371.75
355.718	386.75
355.945	382.75
356.172	382.75
356.399	378.75
356.626	376.75
356.853	381.75
357.08	393.75
357.307	382.75
357.534	377.75
357.761	380.75
357.988	394.75
358.215	406.75
358.441	381.75
358.668	381.75
358.895	387.75
359.122	389.75
359.349	386.75
359.576	378.75
359.802	379.75
360.029	382.75
360.256	404.75
360.483	395.75
360.709	377.75
360.936	385.75
361.163	393.75
361.39	381.75
361.616	376.75
361.843	404.75
362.07	394.75
362.296	378.75
362.523	388.75
362.749	382.75
362.976	410.75
363.203	395.75
363.429	379.75
363.656	396.75
363.882	375.75
364.109	400.75
364.335	378.75
364.562	387.75
364.788	397.75
365.015	387.75
365.241	386.75
365.468	401.75
365.694	388.75
365.92	397.75
366.147	402.75
366.373	385.75
366.599	399.75
366.826	380.75
367.052	402.75
367.278	378.75
367.505	404.75
367.731	403.75
367.957	407.75
368.184	395.75
368.41	410.75
368.636	380.75
368.862	410.75
369.089	406.75
369.315	404.75
369.541	397.75
369.767	410.75
369.993	389.75
370.219	409.75
370.445	411.75
370.672	415.75
370.898	413.75
371.124	414.75
371.35	413.75
371.576	409.75
371.802	431.75
372.028	432.75
372.254	435.75
372.48	418.75
372.706	396.75
372.932	423.75
373.158	426.75
373.384	443.75
373.61	440.75
373.835	438.75
374.061	430.75
374.287	418.75
374.513	430.75
374.739	446.75
374.965	439.75
375.191	441.75
375.416	433.75
375.642	439.75
375.868	424.75
376.094	431.75
376.319	410.75
376.545	424.75
376.771	435.75
376.997	419.75
377.222	422.75
377.448	409.75
377.674	420.75
377.899	416.75
378.125	406.75
378.35	414.75
378.576	414.75
378.802	431.75
379.027	416.75
379.253	434.75
379.478	426.75
379.704	433.75
379.929	414.75
380.155	414.75
380.38	426.75
380.606	432.75
380.831	420.75
381.057	431.75
381.282	435.75
381.507	421.75
381.733	434.75
381.958	420.75
382.184	426.75
382.409	457.75
382.634	468.75
382.86	444.75
383.085	455.75
383.31	425.75
383.535	456.75
383.761	443.75
383.986	429.75
384.211	439.75
384.436	443.75
384.662	444.75
384.887	461.75
385.112	464.75
385.337	450.75
385.562	466.75
385.787	444.75
386.013	468.75
386.238	467.75
386.463	463.75
386.688	473.75
386.913	466.75
387.138	480.75
387.363	474.75
387.588	481.75
387.813	454.75
388.038	485.75
388.263	458.75
388.488	481.75
388.713	481.75
388.938	471.75
389.163	466.75
389.387	469.75
389.612	483.75
389.837	493.75
390.062	487.75
390.287	466.75
390.512	452.75
390.736	469.75
390.961	487.75
391.186	484.75
391.411	497.75
391.636	496.75
391.86	489.75
392.085	510.75
392.31	502.75
392.534	497.75
392.759	491.75
392.984	512.75
393.208	526.75
393.433	531.75
393.658	511.75
393.882	487.75
394.107	496.75
394.331	494.75
394.556	482.75
394.78	492.75
395.005	481.75
395.229	487.75
395.454	523.75
395.678	511.75
395.903	497.75
396.127	490.75
396.352	507.75
396.576	505.75
396.801	530.75
397.025	542.75
397.249	537.75
397.474	514.75
397.698	534.75
397.922	531.75
398.147	516.75
398.371	542.75
398.595	553.75
398.82	551.75
399.044	534.75
399.268	549.75
399.492	586.75
399.717	594.75
399.941	604.75
400.165	574.75
400.389	582.75
400.613	592.75
400.837	554.75
401.062	558.75
401.286	555.75
401.51	560.75
401.734	553.75
401.958	540.75
402.182	559.75
402.406	563.75
402.63	559.75
402.854	555.75
403.078	553.75
403.302	547.75
403.526	542.75
403.75	572.75
403.974	553.75
404.198	538.75
404.422	580.75
404.645	551.75
404.869	550.75
405.093	578.75
405.317	549.75
405.541	576.75
405.765	556.75
405.988	569.75
406.212	560.75
406.436	579.75
406.66	574.75
406.883	579.75
407.107	580.75
407.331	599.75
407.555	595.75
407.778	603.75
408.002	594.75
408.226	592.75
408.449	599.75
408.673	588.75
408.896	570.75
409.12	575.75
409.344	587.75
409.567	574.75
409.791	588.75
410.014	588.75
410.238	586.75
410.461	602.75
410.685	575.75
410.908	574.75
411.132	552.75
411.355	560.75
411.578	572.75
411.802	561.75
412.025	554.75
412.249	563.75
412.472	533.75
412.695	552.75
412.919	563.75
413.142	584.75
413.365	580.75
413.589	548.75
413.812	535.75
414.035	542.75
414.258	535.75
414.482	531.75
414.705	567.75
414.928	542.75
415.151	530.75
415.374	560.75
415.597	554.75
415.821	524.75
416.044	547.75
416.267	551.75
416.49	564.75
416.713	524.75
416.936	542.75
417.159	524.75
417.382	510.75
417.605	530.75
417.828	541.75
418.051	530.75
418.274	532.75
418.497	541.75
418.72	523.75
418.943	539.75
419.166	552.75
419.389	552.75
419.611	552.75
419.834	566.75
420.057	547.75
420.28	520.75
420.503	544.75
420.726	522.75
420.948	533.75
421.171	515.75
421.394	534.75
421.617	529.75
421.839	504.75
422.062	518.75
422.285	532.75
422.507	541.75
422.73	536.75
422.953	528.75
423.175	523.75
423.398	527.75
423.621	510.75
423.843	526.75
424.066	546.75
424.288	509.75
424.511	504.75
424.733	514.75
424.956	512.75
425.178	521.75
425.401	518.75
425.623	535.75
425.846	545.75
426.068	541.75
426.291	521.75
426.513	530.75
426.735	515.75
426.958	517.75
427.18	502.75
427.402	544.75
427.625	516.75
427.847	493.75
428.069	498.75
428.292	524.75
428.514	492.75
428.736	512.75
428.958	514.75
429.181	525.75
429.403	510.75
429.625	512.75
429.847	508.75
430.069	498.75
430.292	530.75
430.514	492.75
430.736	531.75
430.958	526.75
431.18	500.75
431.402	528.75
431.624	516.75
431.846	535.75
432.068	524.75
432.29	530.75
432.512	511.75
432.734	522.75
432.956	523.75
433.178	519.75
433.4	520.75
433.622	532.75
433.844	532.75
434.066	515.75
434.287	533.75
434.509	514.75
434.731	540.75
434.953	520.75
435.175	533.75
435.397	520.75
435.618	534.75
435.84	506.75
436.062	517.75
436.284	512.75
436.505	525.75
436.727	502.75
436.949	514.75
437.17	509.75
437.392	496.75
437.614	496.75
437.835	474.75
438.057	513.75
438.278	494.75
438.5	517.75
438.721	523.75
438.943	531.75
439.165	511.75
439.386	514.75
439.608	523.75
439.829	531.75
440.05	514.75
440.272	497.75
440.493	533.75
440.715	511.75
440.936	513.75
441.158	518.75
441.379	519.75
441.6	513.75
441.822	511.75
442.043	516.75
442.264	521.75
442.486	515.75
442.707	532.75
442.928	520.75
443.149	530.75
443.371	526.75
443.592	531.75
443.813	538.75
444.034	551.75
444.255	554.75
444.476	526.75
444.698	528.75
444.919	545.75
445.14	612.75
445.361	559.75
445.582	537.75
445.803	526.75
446.024	524.75
446.245	520.75
446.466	519.75
446.687	484.75
446.908	514.75
447.129	494.75
447.35	508.75
447.571	508.75
447.792	497.75
448.013	516.75
448.234	489.75
448.455	503.75
448.675	479.75
448.896	501.75
449.117	506.75
449.338	474.75
449.559	458.75
449.779	481.75
450	485.75
450.221	488.75
450.442	486.75
450.662	488.75
450.883	495.75
451.104	466.75
451.324	489.75
451.545	473.75
451.766	474.75
451.986	474.75
452.207	482.75
452.428	470.75
452.648	496.75
452.869	499.75
453.089	489.75
453.31	459.75
453.53	483.75
453.751	484.75
453.971	466.75
454.192	487.75
454.412	462.75
454.633	476.75
454.853	494.75
455.073	468.75
455.294	471.75
455.514	472.75
455.734	480.75
455.955	452.75
456.175	478.75
456.395	479.75
456.616	460.75
456.836	461.75
457.056	484.75
457.276	465.75
457.497	501.75
457.717	474.75
457.937	466.75
458.157	484.75
458.377	480.75
458.598	495.75
458.818	513.75
459.038	512.75
459.258	480.75
459.478	497.75
459.698	482.75
459.918	527.75
460.138	516.75
460.358	548.75
460.578	536.75
460.798	543.75
461.018	562.75
461.238	541.75
461.458	560.75
461.678	555.75
461.898	575.75
462.118	555.75
462.338	566.75
462.558	581.75
462.777	597.75
462.997	562.75
463.217	550.75
463.437	609.75
463.657	559.75
463.876	606.75
464.096	588.75
464.316	573.75
464.536	575.75
464.755	571.75
464.975	562.75
465.195	550.75
465.414	539.75
465.634	539.75
465.854	531.75
466.073	543.75
466.293	510.75
466.512	537.75
466.732	541.75
466.951	552.75
467.171	514.75
467.391	530.75
467.61	490.75
467.829	522.75
468.049	498.75
468.268	489.75
468.488	508.75
468.707	522.75
468.927	527.75
469.146	511.75
469.365	521.75
469.585	526.75
469.804	537.75
470.023	526.75
470.243	520.75
470.462	535.75
470.681	525.75
470.901	532.75
471.12	543.75
471.339	525.75
471.558	520.75
471.777	541.75
471.997	518.75
472.216	533.75
472.435	516.75
472.654	510.75
472.873	517.75
473.092	537.75
473.311	544.75
473.53	521.75
473.749	519.75
473.968	545.75
474.187	518.75
474.406	510.75
474.625	513.75
474.844	527.75
475.063	538.75
475.282	550.75
475.501	540.75
475.72	550.75
475.939	571.75
476.158	562.75
476.377	576.75
476.596	564.75
476.814	580.75
477.033	560.75
477.252	592.75
477.471	562.75
477.69	577.75
477.908	574.75
478.127	626.75
478.346	582.75
478.564	597.75
478.783	585.75
479.002	606.75
479.22	623.75
479.439	630.75
479.658	628.75
479.876	623.75
480.095	601.75
480.313	636.75
480.532	622.75
480.751	616.75
480.969	616.75
481.188	641.75
481.406	620.75
481.624	626.75
481.843	634.75
482.061	620.75
482.28	622.75
482.498	631.75
482.717	596.75
482.935	596.75
483.153	619.75
483.372	634.75
483.59	638.75
483.808	646.75
484.027	624.75
484.245	638.75
484.463	638.75
484.681	645.75
484.9	637.75
485.118	635.75
485.336	642.75
485.554	596.75
485.772	635.75
485.99	640.75
486.209	633.75
486.427	640.75
486.645	655.75
486.863	643.75
487.081	644.75
487.299	636.75
487.517	660.75
487.735	661.75
487.953	648.75
488.171	644.75
488.389	664.75
488.607	641.75
488.825	637.75
489.043	640.75
489.261	656.75
489.479	644.75
489.696	661.75
489.914	624.75
490.132	649.75
490.35	635.75
490.568	635.75
490.786	663.75
491.003	677.75
491.221	682.75
491.439	683.75
491.657	688.75
491.874	650.75
492.092	673.75
492.31	694.75
492.527	674.75
492.745	680.75
492.963	688.75
493.18	647.75
493.398	673.75
493.615	672.75
493.833	697.75
494.05	682.75
494.268	667.75
494.485	697.75
494.703	698.75
494.92	674.75
495.138	702.75
495.355	705.75
495.573	708.75
495.79	710.75
496.008	716.75
496.225	716.75
496.442	720.75
496.66	734.75
496.877	721.75
497.094	730.75
497.312	736.75
497.529	732.75
497.746	762.75
497.963	735.75
498.181	778.75
498.398	784.75
498.615	801.75
498.832	827.75
499.049	843.75
499.267	824.75
499.484	886.75
499.701	894.75
499.918	903.75
500.135	912.75
500.352	974.75
500.569	956.75
500.786	957.75
501.003	952.75
501.22	918.75
501.437	905.75
501.654	890.75
501.871	842.75
