Data from Fe(NO3)3@0.1M.TitratingCurve.Agarose3%dH2O.NegLispCup.LampEnergy10.LIBS07252019_HRD10591_16-41-48-333.txt Node
Date: Thu Jul 25 16:41:48 EDT 2019
User: cochatt
Spectrometer: HR+D1059
Trigger mode: 1
Integration Time (sec): 1.000000E-1
Scans to average: 1
Electric dark correction enabled: true
Nonlinearity correction enabled: false
Boxcar width: 0
XAxis mode: Wavelengths
Number of Pixels in Spectrum: 2048
>>>>>Begin Spectral Data<<<<<
223.165	-20
223.4	-20
223.635	-20
223.869	-9
224.104	-13
224.338	-9
224.573	-10
224.808	-21
225.042	-13
225.277	-4
225.511	2
225.746	25
225.98	3
226.215	-11
226.449	5
226.683	17
226.918	23
227.152	35
227.387	42
227.621	40
227.856	57
228.09	53
228.324	53
228.559	61
228.793	62
229.027	69
229.262	92
229.496	81
229.73	95
229.964	99
230.199	86
230.433	78
230.667	98
230.901	102
231.136	93
231.37	87
231.604	92
231.838	103
232.072	102
232.306	87
232.541	96
232.775	108
233.009	108
233.243	88
233.477	105
233.711	97
233.945	104
234.179	101
234.413	108
234.647	102
234.881	93
235.115	114
235.349	113
235.583	97
235.817	103
236.051	117
236.285	121
236.519	107
236.753	115
236.987	108
237.221	91
237.455	92
237.689	104
237.922	103
238.156	91
238.39	112
238.624	117
238.858	102
239.091	105
239.325	88
239.559	98
239.793	111
240.027	117
240.26	122
240.494	122
240.728	102
240.961	119
241.195	104
241.429	113
241.662	117
241.896	119
242.13	113
242.363	120
242.597	105
242.83	115
243.064	105
243.298	105
243.531	118
243.765	125
243.998	109
244.232	124
244.465	121
244.699	111
244.932	125
245.166	131
245.399	125
245.633	124
245.866	132
246.099	128
246.333	136
246.566	120
246.8	108
247.033	131
247.266	117
247.5	114
247.733	133
247.966	124
248.2	129
248.433	126
248.666	140
248.899	125
249.133	133
249.366	134
249.599	121
249.832	130
250.066	135
250.299	125
250.532	154
250.765	126
250.998	125
251.231	144
251.465	136
251.698	142
251.931	139
252.164	129
252.397	144
252.63	147
252.863	149
253.096	140
253.329	148
253.562	136
253.795	135
254.028	139
254.261	151
254.494	142
254.727	151
254.96	140
255.193	151
255.426	147
255.659	153
255.892	134
256.124	159
256.357	146
256.59	137
256.823	155
257.056	145
257.289	165
257.521	144
257.754	145
257.987	139
258.22	144
258.452	151
258.685	149
258.918	145
259.151	153
259.383	151
259.616	137
259.849	140
260.081	151
260.314	158
260.547	139
260.779	158
261.012	145
261.244	166
261.477	173
261.71	161
261.942	150
262.175	168
262.407	163
262.64	151
262.872	160
263.105	171
263.337	175
263.57	178
263.802	175
264.035	156
264.267	160
264.499	167
264.732	179
264.964	176
265.197	188
265.429	177
265.661	151
265.894	161
266.126	150
266.358	169
266.591	169
266.823	170
267.055	156
267.287	164
267.52	171
267.752	183
267.984	182
268.216	167
268.448	182
268.681	182
268.913	189
269.145	183
269.377	181
269.609	175
269.841	184
270.073	200
270.306	186
270.538	175
270.77	178
271.002	184
271.234	185
271.466	178
271.698	182
271.93	188
272.162	198
272.394	204
272.626	201
272.858	195
273.09	201
273.322	192
273.553	179
273.785	189
274.017	187
274.249	178
274.481	180
274.713	201
274.945	195
275.176	188
275.408	205
275.64	195
275.872	200
276.104	195
276.335	212
276.567	193
276.799	198
277.031	204
277.262	201
277.494	208
277.726	201
277.957	187
278.189	191
278.421	204
278.652	203
278.884	195
279.115	200
279.347	210
279.579	199
279.81	214
280.042	214
280.273	215
280.505	222
280.736	206
280.968	194
281.199	214
281.431	223
281.662	222
281.894	203
282.125	206
282.356	219
282.588	233
282.819	210
283.051	221
283.282	225
283.513	214
283.745	204
283.976	208
284.207	216
284.439	220
284.67	218
284.901	235
285.132	232
285.364	227
285.595	205
285.826	209
286.057	222
286.288	228
286.52	220
286.751	225
286.982	245
287.213	225
287.444	234
287.675	233
287.906	236
288.138	239
288.369	230
288.6	229
288.831	241
289.062	224
289.293	250
289.524	226
289.755	234
289.986	249
290.217	234
290.448	241
290.679	230
290.91	247
291.141	236
291.371	241
291.602	231
291.833	231
292.064	223
292.295	226
292.526	242
292.757	211
292.987	226
293.218	250
293.449	226
293.68	241
293.91	233
294.141	241
294.372	227
294.603	231
294.833	240
295.064	231
295.295	233
295.525	245
295.756	249
295.987	264
296.217	235
296.448	258
296.679	244
296.909	258
297.14	236
297.37	256
297.601	246
297.831	257
298.062	247
298.292	258
298.523	253
298.753	243
298.984	263
299.214	268
299.445	265
299.675	251
299.905	248
300.136	275
300.366	271
300.597	259
300.827	257
301.057	264
301.288	257
301.518	267
301.748	274
301.979	269
302.209	239
302.439	252
302.669	276
302.9	264
303.13	255
303.36	277
303.59	266
303.82	259
304.051	266
304.281	266
304.511	281
304.741	266
304.971	248
305.201	284
305.431	267
305.661	285
305.891	264
306.121	259
306.352	260
306.582	277
306.812	259
307.042	261
307.272	268
307.502	281
307.731	259
307.961	269
308.191	291
308.421	279
308.651	289
308.881	264
309.111	267
309.341	258
309.571	270
309.8	272
310.03	269
310.26	275
310.49	283
310.72	261
310.949	255
311.179	268
311.409	262
311.639	254
311.868	274
312.098	277
312.328	284
312.557	289
312.787	287
313.017	273
313.246	287
313.476	284
313.706	291
313.935	297
314.165	279
314.394	288
314.624	306
314.853	295
315.083	301
315.312	292
315.542	294
315.771	289
316.001	291
316.23	280
316.46	279
316.689	267
316.919	291
317.148	284
317.377	282
317.607	284
317.836	277
318.065	285
318.295	286
318.524	295
318.753	282
318.983	291
319.212	310
319.441	277
319.67	285
319.9	284
320.129	313
320.358	294
320.587	292
320.816	277
321.046	294
321.275	297
321.504	285
321.733	280
321.962	290
322.191	294
322.42	307
322.649	319
322.878	309
323.108	307
323.337	294
323.566	290
323.795	287
324.024	295
324.253	306
324.482	295
324.71	326
324.939	275
325.168	293
325.397	315
325.626	307
325.855	291
326.084	310
326.313	275
326.542	304
326.77	313
326.999	307
327.228	307
327.457	300
327.686	309
327.914	308
328.143	320
328.372	315
328.6	299
328.829	311
329.058	319
329.287	308
329.515	320
329.744	323
329.972	315
330.201	312
330.43	303
330.658	326
330.887	324
331.115	324
331.344	314
331.572	329
331.801	306
332.03	341
332.258	343
332.486	351
332.715	358
332.943	370
333.172	381
333.4	380
333.629	401
333.857	376
334.085	391
334.314	391
334.542	388
334.771	405
334.999	381
335.227	367
335.455	381
335.684	397
335.912	361
336.14	370
336.369	350
336.597	374
336.825	377
337.053	364
337.281	346
337.51	374
337.738	345
337.966	341
338.194	352
338.422	352
338.65	365
338.878	356
339.106	329
339.334	342
339.562	324
339.79	330
340.018	341
340.246	317
340.474	346
340.702	342
340.93	328
341.158	331
341.386	320
341.614	336
341.842	331
342.07	333
342.298	324
342.526	313
342.754	343
342.981	330
343.209	323
343.437	349
343.665	361
343.893	399
344.12	383
344.348	375
344.576	337
344.804	356
345.031	342
345.259	332
345.487	344
345.714	326
345.942	320
346.17	320
346.397	339
346.625	319
346.853	329
347.08	333
347.308	333
347.535	333
347.763	330
347.99	327
348.218	314
348.445	338
348.673	321
348.9	333
349.128	312
349.355	303
349.583	341
349.81	313
350.037	327
350.265	329
350.492	308
350.72	314
350.947	295
351.174	321
351.402	328
351.629	311
351.856	307
352.083	322
352.311	300
352.538	311
352.765	308
352.992	314
353.22	311
353.447	299
353.674	309
353.901	324
354.128	329
354.355	321
354.583	310
354.81	309
355.037	327
355.264	321
355.491	312
355.718	337
355.945	332
356.172	305
356.399	325
356.626	315
356.853	314
357.08	305
357.307	318
357.534	310
357.761	311
357.988	327
358.215	323
358.441	315
358.668	317
358.895	324
359.122	328
359.349	320
359.576	326
359.802	334
360.029	306
360.256	320
360.483	324
360.709	317
360.936	312
361.163	309
361.39	303
361.616	307
361.843	312
362.07	300
362.296	311
362.523	324
362.749	316
362.976	310
363.203	329
363.429	322
363.656	321
363.882	301
364.109	312
364.335	311
364.562	325
364.788	325
365.015	325
365.241	322
365.468	329
365.694	320
365.92	322
366.147	325
366.373	293
366.599	334
366.826	333
367.052	311
367.278	330
367.505	326
367.731	337
367.957	330
368.184	312
368.41	326
368.636	339
368.862	322
369.089	335
369.315	307
369.541	329
369.767	338
369.993	329
370.219	347
370.445	331
370.672	346
370.898	355
371.124	352
371.35	328
371.576	335
371.802	339
372.028	356
372.254	348
372.48	373
372.706	360
372.932	362
373.158	341
373.384	336
373.61	359
373.835	342
374.061	351
374.287	343
374.513	362
374.739	364
374.965	365
375.191	359
375.416	384
375.642	360
375.868	346
376.094	355
376.319	350
376.545	346
376.771	353
376.997	356
377.222	345
377.448	351
377.674	350
377.899	348
378.125	340
378.35	339
378.576	340
378.802	336
379.027	329
379.253	356
379.478	344
379.704	344
379.929	347
380.155	326
380.38	352
380.606	330
380.831	357
381.057	361
381.282	359
381.507	344
381.733	357
381.958	340
382.184	337
382.409	368
382.634	373
382.86	365
383.085	375
383.31	372
383.535	395
383.761	382
383.986	372
384.211	377
384.436	405
384.662	397
384.887	383
385.112	415
385.337	410
385.562	424
385.787	418
386.013	412
386.238	435
386.463	395
386.688	426
386.913	386
387.138	408
387.363	407
387.588	419
387.813	393
388.038	417
388.263	405
388.488	401
388.713	426
388.938	395
389.163	392
389.387	405
389.612	389
389.837	410
390.062	396
390.287	389
390.512	410
390.736	407
390.961	406
391.186	420
391.411	412
391.636	422
391.86	444
392.085	447
392.31	447
392.534	454
392.759	421
392.984	416
393.208	393
393.433	417
393.658	404
393.882	426
394.107	429
394.331	428
394.556	428
394.78	426
395.005	444
395.229	427
395.454	435
395.678	452
395.903	451
396.127	417
396.352	436
396.576	436
396.801	444
397.025	441
397.249	442
397.474	452
397.698	440
397.922	455
398.147	456
398.371	447
398.595	483
398.82	509
399.044	525
399.268	553
399.492	644
399.717	695
399.941	641
400.165	630
400.389	578
400.613	526
400.837	527
401.062	505
401.286	504
401.51	478
401.734	492
401.958	517
402.182	523
402.406	515
402.63	512
402.854	519
403.078	530
403.302	527
403.526	548
403.75	535
403.974	568
404.198	544
404.422	541
404.645	556
404.869	555
405.093	550
405.317	523
405.541	550
405.765	541
405.988	538
406.212	532
406.436	532
406.66	569
406.883	534
407.107	579
407.331	591
407.555	615
407.778	611
408.002	607
408.226	582
408.449	582
408.673	572
408.896	568
409.12	541
409.344	567
409.567	559
409.791	574
410.014	545
410.238	543
410.461	558
410.685	540
410.908	529
411.132	530
411.355	526
411.578	512
411.802	525
412.025	531
412.249	529
412.472	531
412.695	534
412.919	506
413.142	506
413.365	525
413.589	513
413.812	485
414.035	498
414.258	489
414.482	525
414.705	512
414.928	515
415.151	517
415.374	492
415.597	499
415.821	494
416.044	503
416.267	481
416.49	509
416.713	502
416.936	488
417.159	486
417.382	484
417.605	479
417.828	489
418.051	478
418.274	492
418.497	483
418.72	486
418.943	513
419.166	524
419.389	534
419.611	544
419.834	533
420.057	516
420.28	480
420.503	484
420.726	497
420.948	490
421.171	510
421.394	508
421.617	505
421.839	486
422.062	499
422.285	491
422.507	507
422.73	487
422.953	499
423.175	490
423.398	490
423.621	491
423.843	526
424.066	525
424.288	526
424.511	508
424.733	513
424.956	499
425.178	481
425.401	486
425.623	505
425.846	490
426.068	484
426.291	485
426.513	461
426.735	473
426.958	470
427.18	467
427.402	465
427.625	450
427.847	450
428.069	453
428.292	456
428.514	448
428.736	452
428.958	445
429.181	448
429.403	437
429.625	432
429.847	420
430.069	426
430.292	447
430.514	435
430.736	429
430.958	427
431.18	447
431.402	438
431.624	452
431.846	452
432.068	455
432.29	449
432.512	469
432.734	447
432.956	451
433.178	462
433.4	451
433.622	454
433.844	459
434.066	465
434.287	459
434.509	463
434.731	499
434.953	484
435.175	486
435.397	482
435.618	483
435.84	474
436.062	454
436.284	446
436.505	464
436.727	465
436.949	456
437.17	462
437.392	458
437.614	434
437.835	432
438.057	445
438.278	466
438.5	445
438.721	444
438.943	447
439.165	436
439.386	446
439.608	457
439.829	464
440.05	457
440.272	495
440.493	465
440.715	469
440.936	477
441.158	501
441.379	515
441.6	502
441.822	515
442.043	531
442.264	502
442.486	497
442.707	511
442.928	492
443.149	508
443.371	509
443.592	512
443.813	528
444.034	537
444.255	513
444.476	536
444.698	573
444.919	566
445.14	659
445.361	585
445.582	515
445.803	499
446.024	521
446.245	499
446.466	484
446.687	487
446.908	475
447.129	459
447.35	455
447.571	457
447.792	445
448.013	451
448.234	443
448.455	439
448.675	441
448.896	444
449.117	433
449.338	437
449.559	438
449.779	414
450	455
450.221	434
450.442	415
450.662	417
450.883	418
451.104	420
451.324	439
451.545	439
451.766	434
451.986	431
452.207	427
452.428	415
452.648	423
452.869	437
453.089	420
453.31	408
453.53	398
453.751	409
453.971	395
454.192	423
454.412	401
454.633	402
454.853	404
455.073	413
455.294	396
455.514	405
455.734	403
455.955	394
456.175	401
456.395	384
456.616	397
456.836	389
457.056	399
457.276	391
457.497	382
457.717	393
457.937	402
458.157	427
458.377	407
458.598	406
458.818	426
459.038	415
459.258	416
459.478	463
459.698	452
459.918	490
460.138	487
460.358	519
460.578	521
460.798	522
461.018	535
461.238	524
461.458	513
461.678	516
461.898	517
462.118	502
462.338	553
462.558	577
462.777	613
462.997	628
463.217	631
463.437	625
463.657	607
463.876	591
464.096	590
464.316	591
464.536	610
464.755	565
464.975	537
465.195	534
465.414	492
465.634	475
465.854	470
466.073	462
466.293	451
466.512	455
466.732	463
466.951	447
467.171	479
467.391	448
467.61	445
467.829	448
468.049	468
468.268	454
468.488	431
468.707	413
468.927	439
469.146	422
469.365	448
469.585	437
469.804	450
470.023	458
470.243	422
470.462	434
470.681	440
470.901	464
471.12	461
471.339	429
471.558	447
471.777	454
471.997	436
472.216	438
472.435	417
472.654	432
472.873	418
473.092	411
473.311	432
473.53	413
473.749	411
473.968	391
474.187	407
474.406	405
474.625	406
474.844	420
475.063	436
475.282	411
475.501	414
475.72	440
475.939	422
476.158	413
476.377	461
476.596	431
476.814	437
477.033	418
477.252	453
477.471	460
477.69	463
477.908	467
478.127	485
478.346	479
478.564	487
478.783	498
479.002	495
479.22	497
479.439	516
479.658	489
479.876	513
480.095	516
480.313	526
480.532	538
480.751	517
480.969	483
481.188	483
481.406	473
481.624	451
481.843	461
482.061	443
482.28	452
482.498	476
482.717	451
482.935	463
483.153	471
483.372	454
483.59	451
483.808	456
484.027	457
484.245	483
484.463	451
484.681	473
484.9	460
485.118	461
485.336	472
485.554	499
485.772	481
485.99	471
486.209	487
486.427	467
486.645	480
486.863	491
487.081	480
487.299	456
487.517	459
487.735	485
487.953	496
488.171	503
488.389	487
488.607	470
488.825	468
489.043	473
489.261	483
489.479	464
489.696	462
489.914	478
490.132	464
490.35	473
490.568	484
490.786	485
491.003	475
491.221	489
491.439	488
491.657	483
491.874	498
492.092	524
492.31	485
492.527	507
492.745	479
492.963	512
493.18	507
493.398	515
493.615	515
493.833	525
494.05	518
494.268	514
494.485	513
494.703	511
494.92	511
495.138	506
495.355	535
495.573	530
495.79	521
496.008	512
496.225	544
496.442	554
496.66	544
496.877	538
497.094	553
497.312	559
497.529	575
497.746	567
497.963	603
498.181	614
498.398	630
498.615	653
498.832	688
499.049	711
499.267	779
499.484	826
499.701	893
499.918	993
500.135	1051
500.352	1203
500.569	1215
500.786	1227
501.003	1151
501.22	1041
501.437	936
501.654	839
501.871	775
502.088	755
502.305	734
502.522	683
502.739	649
502.956	640
503.172	617
503.389	597
503.606	575
503.823	561
504.04	564
504.256	573
504.473	572
504.69	587
504.907	559
505.123	561
505.34	500
505.557	506
505.773	496
505.99	491
506.207	471
506.423	464
506.64	459
506.856	465
507.073	468
507.289	469
507.506	471
507.722	457
507.939	456
508.155	448
508.372	423
508.588	425
508.805	416
509.021	444
509.238	419
509.454	419
509.67	402
509.887	409
510.103	414
510.319	423
510.536	405
510.752	425
510.968	407
511.184	399
511.401	415
511.617	419
511.833	388
512.049	412
512.265	428
512.481	403
512.698	405
512.914	425
513.13	439
513.346	412
513.562	419
513.778	408
513.994	423
514.21	426
514.426	419
514.642	398
514.858	400
515.074	412
515.29	424
515.506	437
515.721	440
515.937	442
516.153	464
516.369	444
516.585	480
516.801	499
517.016	492
517.232	503
517.448	488
517.664	537
517.879	506
518.095	517
518.311	525
518.527	525
518.742	489
518.958	462
519.173	453
519.389	458
519.605	431
519.82	439
520.036	433
520.251	423
520.467	423
520.682	417
520.898	410
521.113	417
521.329	403
521.544	408
521.76	386
521.975	378
522.19	402
522.406	383
522.621	405
522.836	381
523.052	387
523.267	395
523.482	378
523.698	395
523.913	408
524.128	352
524.343	380
524.559	393
524.774	383
524.989	387
525.204	400
525.419	381
525.634	385
525.849	362
526.064	383
526.28	371
526.495	384
526.71	377
526.925	356
527.14	387
527.355	387
527.57	385
527.785	390
527.999	391
528.214	392
528.429	386
528.644	374
528.859	379
529.074	383
529.289	374
529.503	373
529.718	370
529.933	360
530.148	371
530.363	383
530.577	369
530.792	396
531.007	388
531.221	383
531.436	397
531.651	383
531.865	383
532.08	378
532.295	370
532.509	378
532.724	362
532.938	375
533.153	399
533.367	360
533.582	379
533.796	374
534.011	377
534.225	379
534.44	359
534.654	371
534.868	363
535.083	375
535.297	359
535.511	371
535.726	364
535.94	381
536.154	371
536.369	364
536.583	363
536.797	340
537.011	335
537.225	352
537.44	343
537.654	356
537.868	357
538.082	368
538.296	347
538.51	361
538.724	355
538.938	362
539.153	341
539.367	359
539.581	343
539.795	346
540.009	348
540.222	347
540.436	333
540.65	330
540.864	327
541.078	334
541.292	365
541.506	357
541.72	343
541.934	333
542.147	376
542.361	344
542.575	347
542.789	345
543.002	342
543.216	331
543.43	362
543.644	343
543.857	348
544.071	367
544.285	363
544.498	343
544.712	348
544.925	362
545.139	352
545.352	349
545.566	343
545.779	348
545.993	343
546.206	361
546.42	356
546.633	347
546.847	340
547.06	347
547.274	359
547.487	347
547.7	343
547.914	331
548.127	335
548.34	347
548.554	348
548.767	361
548.98	370
549.193	348
549.407	353
549.62	359
549.833	353
550.046	335
550.259	333
550.473	349
550.686	350
550.899	340
551.112	344
551.325	339
551.538	353
551.751	335
551.964	339
552.177	343
552.39	362
552.603	374
552.816	375
553.029	368
553.242	366
553.455	372
553.667	384
553.88	360
554.093	348
554.306	346
554.519	343
554.732	361
554.944	350
555.157	330
555.37	348
555.583	341
555.795	353
556.008	341
556.221	323
556.433	310
556.646	325
556.859	316
557.071	298
557.284	318
557.496	300
557.709	297
557.921	315
558.134	303
558.346	300
558.559	305
558.771	297
558.984	324
559.196	298
559.409	287
559.621	309
559.833	304
560.046	303
560.258	308
560.47	301
560.683	294
560.895	310
561.107	286
561.32	292
561.532	296
561.744	306
561.956	294
562.168	298
562.381	308
562.593	309
562.805	298
563.017	295
563.229	296
563.441	303
