Data from Fe(NO3)3@0.025M.TitratingCurve.Agarose3%dH2O.NegLispCup.LampEnergy10.LIBS07252019_HRD10591_16-54-53-335.txt Node
Date: Thu Jul 25 16:54:53 EDT 2019
User: cochatt
Spectrometer: HR+D1059
Trigger mode: 1
Integration Time (sec): 1.000000E-1
Scans to average: 1
Electric dark correction enabled: true
Nonlinearity correction enabled: false
Boxcar width: 0
XAxis mode: Wavelengths
Number of Pixels in Spectrum: 2048
>>>>>Begin Spectral Data<<<<<
223.165	-15.69
223.4	-15.69
223.635	-15.69
223.869	-13.69
224.104	-21.69
224.338	-20.69
224.573	-22.69
224.808	-22.69
225.042	4.31
225.277	0.31
225.511	-1.69
225.746	4.31
225.98	12.31
226.215	27.31
226.449	7.31
226.683	0.31
226.918	34.31
227.152	28.31
227.387	39.31
227.621	38.31
227.856	48.31
228.09	51.31
228.324	66.31
228.559	51.31
228.793	62.31
229.027	75.31
229.262	80.31
229.496	74.31
229.73	71.31
229.964	74.31
230.199	71.31
230.433	89.31
230.667	97.31
230.901	95.31
231.136	92.31
231.37	95.31
231.604	90.31
231.838	84.31
232.072	89.31
232.306	94.31
232.541	88.31
232.775	82.31
233.009	99.31
233.243	76.31
233.477	101.31
233.711	87.31
233.945	90.31
234.179	93.31
234.413	100.31
234.647	84.31
234.881	87.31
235.115	105.31
235.349	93.31
235.583	93.31
235.817	98.31
236.051	92.31
236.285	96.31
236.519	98.31
236.753	99.31
236.987	103.31
237.221	80.31
237.455	110.31
237.689	97.31
237.922	110.31
238.156	99.31
238.39	105.31
238.624	94.31
238.858	80.31
239.091	95.31
239.325	86.31
239.559	99.31
239.793	108.31
240.027	98.31
240.26	101.31
240.494	85.31
240.728	101.31
240.961	113.31
241.195	95.31
241.429	93.31
241.662	87.31
241.896	87.31
242.13	90.31
242.363	97.31
242.597	109.31
242.83	101.31
243.064	101.31
243.298	106.31
243.531	101.31
243.765	114.31
243.998	102.31
244.232	110.31
244.465	109.31
244.699	105.31
244.932	110.31
245.166	103.31
245.399	115.31
245.633	102.31
245.866	101.31
246.099	106.31
246.333	113.31
246.566	115.31
246.8	92.31
247.033	109.31
247.266	110.31
247.5	104.31
247.733	107.31
247.966	114.31
248.2	118.31
248.433	119.31
248.666	115.31
248.899	111.31
249.133	113.31
249.366	113.31
249.599	97.31
249.832	95.31
250.066	95.31
250.299	126.31
250.532	117.31
250.765	126.31
250.998	106.31
251.231	105.31
251.465	115.31
251.698	115.31
251.931	140.31
252.164	121.31
252.397	117.31
252.63	109.31
252.863	119.31
253.096	115.31
253.329	115.31
253.562	125.31
253.795	121.31
254.028	122.31
254.261	104.31
254.494	122.31
254.727	125.31
254.96	125.31
255.193	110.31
255.426	117.31
255.659	102.31
255.892	119.31
256.124	135.31
256.357	133.31
256.59	106.31
256.823	141.31
257.056	128.31
257.289	104.31
257.521	123.31
257.754	109.31
257.987	124.31
258.22	115.31
258.452	114.31
258.685	134.31
258.918	142.31
259.151	118.31
259.383	123.31
259.616	142.31
259.849	136.31
260.081	134.31
260.314	131.31
260.547	121.31
260.779	141.31
261.012	126.31
261.244	133.31
261.477	135.31
261.71	126.31
261.942	142.31
262.175	141.31
262.407	140.31
262.64	131.31
262.872	139.31
263.105	139.31
263.337	129.31
263.57	133.31
263.802	140.31
264.035	128.31
264.267	122.31
264.499	125.31
264.732	134.31
264.964	141.31
265.197	121.31
265.429	149.31
265.661	145.31
265.894	127.31
266.126	144.31
266.358	147.31
266.591	125.31
266.823	151.31
267.055	149.31
267.287	129.31
267.52	150.31
267.752	141.31
267.984	133.31
268.216	129.31
268.448	143.31
268.681	131.31
268.913	158.31
269.145	135.31
269.377	144.31
269.609	150.31
269.841	142.31
270.073	140.31
270.306	155.31
270.538	145.31
270.77	137.31
271.002	149.31
271.234	145.31
271.466	142.31
271.698	153.31
271.93	133.31
272.162	151.31
272.394	148.31
272.626	160.31
272.858	153.31
273.09	134.31
273.322	146.31
273.553	129.31
273.785	152.31
274.017	139.31
274.249	153.31
274.481	150.31
274.713	152.31
274.945	147.31
275.176	150.31
275.408	146.31
275.64	151.31
275.872	152.31
276.104	156.31
276.335	153.31
276.567	151.31
276.799	165.31
277.031	155.31
277.262	156.31
277.494	156.31
277.726	158.31
277.957	162.31
278.189	151.31
278.421	174.31
278.652	159.31
278.884	159.31
279.115	153.31
279.347	149.31
279.579	175.31
279.81	164.31
280.042	169.31
280.273	180.31
280.505	172.31
280.736	169.31
280.968	149.31
281.199	160.31
281.431	164.31
281.662	186.31
281.894	165.31
282.125	161.31
282.356	172.31
282.588	167.31
282.819	167.31
283.051	178.31
283.282	165.31
283.513	174.31
283.745	167.31
283.976	167.31
284.207	156.31
284.439	169.31
284.67	172.31
284.901	163.31
285.132	169.31
285.364	169.31
285.595	172.31
285.826	181.31
286.057	188.31
286.288	170.31
286.52	177.31
286.751	190.31
286.982	194.31
287.213	192.31
287.444	179.31
287.675	174.31
287.906	177.31
288.138	195.31
288.369	189.31
288.6	181.31
288.831	182.31
289.062	174.31
289.293	180.31
289.524	162.31
289.755	183.31
289.986	187.31
290.217	198.31
290.448	189.31
290.679	180.31
290.91	184.31
291.141	192.31
291.371	168.31
291.602	188.31
291.833	167.31
292.064	175.31
292.295	156.31
292.526	173.31
292.757	184.31
292.987	189.31
293.218	190.31
293.449	179.31
293.68	170.31
293.91	186.31
294.141	177.31
294.372	179.31
294.603	188.31
294.833	180.31
295.064	185.31
295.295	193.31
295.525	177.31
295.756	178.31
295.987	174.31
296.217	193.31
296.448	173.31
296.679	198.31
296.909	190.31
297.14	196.31
297.37	187.31
297.601	200.31
297.831	190.31
298.062	201.31
298.292	208.31
298.523	198.31
298.753	217.31
298.984	213.31
299.214	203.31
299.445	192.31
299.675	194.31
299.905	207.31
300.136	208.31
300.366	208.31
300.597	202.31
300.827	194.31
301.057	198.31
301.288	214.31
301.518	205.31
301.748	203.31
301.979	219.31
302.209	203.31
302.439	205.31
302.669	218.31
302.9	198.31
303.13	209.31
303.36	206.31
303.59	184.31
303.82	210.31
304.051	217.31
304.281	219.31
304.511	219.31
304.741	198.31
304.971	213.31
305.201	226.31
305.431	200.31
305.661	203.31
305.891	219.31
306.121	211.31
306.352	198.31
306.582	221.31
306.812	200.31
307.042	206.31
307.272	207.31
307.502	206.31
307.731	199.31
307.961	221.31
308.191	205.31
308.421	204.31
308.651	210.31
308.881	209.31
309.111	221.31
309.341	218.31
309.571	218.31
309.8	205.31
310.03	205.31
310.26	220.31
310.49	205.31
310.72	228.31
310.949	208.31
311.179	215.31
311.409	218.31
311.639	209.31
311.868	214.31
312.098	216.31
312.328	206.31
312.557	207.31
312.787	223.31
313.017	212.31
313.246	213.31
313.476	210.31
313.706	221.31
313.935	227.31
314.165	221.31
314.394	218.31
314.624	227.31
314.853	238.31
315.083	242.31
315.312	206.31
315.542	213.31
315.771	199.31
316.001	222.31
316.23	217.31
316.46	230.31
316.689	210.31
316.919	227.31
317.148	225.31
317.377	222.31
317.607	238.31
317.836	210.31
318.065	224.31
318.295	226.31
318.524	223.31
318.753	226.31
318.983	200.31
319.212	230.31
319.441	230.31
319.67	222.31
319.9	243.31
320.129	235.31
320.358	225.31
320.587	210.31
320.816	232.31
321.046	217.31
321.275	191.31
321.504	216.31
321.733	232.31
321.962	235.31
322.191	235.31
322.42	221.31
322.649	234.31
322.878	236.31
323.108	232.31
323.337	225.31
323.566	221.31
323.795	228.31
324.024	237.31
324.253	221.31
324.482	244.31
324.71	227.31
324.939	231.31
325.168	224.31
325.397	221.31
325.626	246.31
325.855	245.31
326.084	249.31
326.313	259.31
326.542	232.31
326.77	246.31
326.999	238.31
327.228	254.31
327.457	223.31
327.686	238.31
327.914	236.31
328.143	236.31
328.372	224.31
328.6	249.31
328.829	225.31
329.058	238.31
329.287	228.31
329.515	238.31
329.744	232.31
329.972	248.31
330.201	247.31
330.43	259.31
330.658	230.31
330.887	250.31
331.115	251.31
331.344	249.31
331.572	248.31
331.801	262.31
332.03	277.31
332.258	277.31
332.486	282.31
332.715	272.31
332.943	292.31
333.172	280.31
333.4	261.31
333.629	303.31
333.857	283.31
334.085	300.31
334.314	307.31
334.542	301.31
334.771	285.31
334.999	271.31
335.227	283.31
335.455	308.31
335.684	289.31
335.912	295.31
336.14	278.31
336.369	289.31
336.597	283.31
336.825	291.31
337.053	275.31
337.281	291.31
337.51	274.31
337.738	289.31
337.966	276.31
338.194	279.31
338.422	286.31
338.65	275.31
338.878	270.31
339.106	259.31
339.334	247.31
339.562	266.31
339.79	263.31
340.018	267.31
340.246	259.31
340.474	261.31
340.702	266.31
340.93	271.31
341.158	248.31
341.386	257.31
341.614	277.31
341.842	268.31
342.07	286.31
342.298	275.31
342.526	254.31
342.754	249.31
342.981	242.31
343.209	289.31
343.437	282.31
343.665	282.31
343.893	283.31
344.12	318.31
344.348	286.31
344.576	260.31
344.804	263.31
345.031	269.31
345.259	267.31
345.487	259.31
345.714	264.31
345.942	273.31
346.17	234.31
346.397	274.31
346.625	265.31
346.853	255.31
347.08	245.31
347.308	249.31
347.535	248.31
347.763	248.31
347.99	250.31
348.218	249.31
348.445	245.31
348.673	256.31
348.9	268.31
349.128	258.31
349.355	247.31
349.583	253.31
349.81	258.31
350.037	239.31
350.265	243.31
350.492	247.31
350.72	254.31
350.947	251.31
351.174	244.31
351.402	256.31
351.629	231.31
351.856	253.31
352.083	255.31
352.311	243.31
352.538	257.31
352.765	245.31
352.992	254.31
353.22	259.31
353.447	252.31
353.674	254.31
353.901	254.31
354.128	259.31
354.355	242.31
354.583	251.31
354.81	246.31
355.037	246.31
355.264	252.31
355.491	259.31
355.718	250.31
355.945	263.31
356.172	250.31
356.399	240.31
356.626	254.31
356.853	245.31
357.08	253.31
357.307	255.31
357.534	258.31
357.761	253.31
357.988	268.31
358.215	265.31
358.441	251.31
358.668	248.31
358.895	252.31
359.122	256.31
359.349	252.31
359.576	258.31
359.802	238.31
360.029	257.31
360.256	263.31
360.483	267.31
360.709	248.31
360.936	255.31
361.163	282.31
361.39	267.31
361.616	250.31
361.843	265.31
362.07	262.31
362.296	271.31
362.523	239.31
362.749	243.31
362.976	257.31
363.203	259.31
363.429	251.31
363.656	243.31
363.882	270.31
364.109	247.31
364.335	260.31
364.562	250.31
364.788	257.31
365.015	264.31
365.241	264.31
365.468	278.31
365.694	262.31
365.92	277.31
366.147	261.31
366.373	272.31
366.599	236.31
366.826	264.31
367.052	258.31
367.278	255.31
367.505	251.31
367.731	264.31
367.957	244.31
368.184	249.31
368.41	271.31
368.636	270.31
368.862	262.31
369.089	258.31
369.315	260.31
369.541	268.31
369.767	263.31
369.993	264.31
370.219	266.31
370.445	266.31
370.672	287.31
370.898	271.31
371.124	249.31
371.35	278.31
371.576	293.31
371.802	290.31
372.028	291.31
372.254	276.31
372.48	261.31
372.706	267.31
372.932	289.31
373.158	279.31
373.384	281.31
373.61	289.31
373.835	295.31
374.061	271.31
374.287	289.31
374.513	281.31
374.739	289.31
374.965	293.31
375.191	295.31
375.416	297.31
375.642	283.31
375.868	295.31
376.094	291.31
376.319	279.31
376.545	262.31
376.771	284.31
376.997	274.31
377.222	277.31
377.448	270.31
377.674	263.31
377.899	279.31
378.125	274.31
378.35	278.31
378.576	277.31
378.802	263.31
379.027	277.31
379.253	279.31
379.478	276.31
379.704	279.31
379.929	268.31
380.155	280.31
380.38	291.31
380.606	287.31
380.831	269.31
381.057	290.31
381.282	285.31
381.507	285.31
381.733	284.31
381.958	295.31
382.184	284.31
382.409	298.31
382.634	292.31
382.86	287.31
383.085	277.31
383.31	285.31
383.535	291.31
383.761	305.31
383.986	299.31
384.211	300.31
384.436	301.31
384.662	300.31
384.887	310.31
385.112	317.31
385.337	310.31
385.562	302.31
385.787	311.31
386.013	311.31
386.238	306.31
386.463	314.31
386.688	318.31
386.913	316.31
387.138	309.31
387.363	325.31
387.588	313.31
387.813	320.31
388.038	329.31
388.263	313.31
388.488	324.31
388.713	347.31
388.938	300.31
389.163	305.31
389.387	313.31
389.612	313.31
389.837	302.31
390.062	318.31
390.287	311.31
390.512	309.31
390.736	325.31
390.961	318.31
391.186	320.31
391.411	330.31
391.636	329.31
391.86	349.31
392.085	347.31
392.31	328.31
392.534	335.31
392.759	338.31
392.984	309.31
393.208	334.31
393.433	338.31
393.658	324.31
393.882	331.31
394.107	331.31
394.331	322.31
394.556	334.31
394.78	332.31
395.005	331.31
395.229	351.31
395.454	358.31
395.678	341.31
395.903	353.31
396.127	354.31
396.352	365.31
396.576	347.31
396.801	329.31
397.025	338.31
397.249	351.31
397.474	359.31
397.698	362.31
397.922	371.31
398.147	371.31
398.371	361.31
398.595	363.31
398.82	388.31
399.044	406.31
399.268	430.31
399.492	457.31
399.717	473.31
399.941	455.31
400.165	451.31
400.389	425.31
400.613	410.31
400.837	392.31
401.062	406.31
401.286	379.31
401.51	400.31
401.734	389.31
401.958	378.31
402.182	389.31
402.406	377.31
402.63	403.31
402.854	398.31
403.078	395.31
403.302	398.31
403.526	399.31
403.75	404.31
403.974	387.31
404.198	385.31
404.422	410.31
404.645	393.31
404.869	404.31
405.093	386.31
405.317	405.31
405.541	411.31
405.765	408.31
405.988	413.31
406.212	395.31
406.436	424.31
406.66	426.31
406.883	416.31
407.107	439.31
407.331	468.31
407.555	463.31
407.778	457.31
408.002	447.31
408.226	437.31
408.449	435.31
408.673	416.31
408.896	426.31
409.12	430.31
409.344	431.31
409.567	410.31
409.791	422.31
410.014	408.31
410.238	394.31
410.461	399.31
410.685	400.31
410.908	385.31
411.132	394.31
411.355	378.31
411.578	383.31
411.802	394.31
412.025	403.31
412.249	400.31
412.472	399.31
412.695	403.31
412.919	405.31
413.142	382.31
413.365	387.31
413.589	393.31
413.812	393.31
414.035	376.31
414.258	371.31
414.482	385.31
414.705	379.31
414.928	388.31
415.151	378.31
415.374	381.31
415.597	379.31
415.821	390.31
416.044	371.31
416.267	377.31
416.49	379.31
416.713	372.31
416.936	374.31
417.159	373.31
417.382	356.31
417.605	365.31
417.828	371.31
418.051	385.31
418.274	385.31
418.497	378.31
418.72	375.31
418.943	363.31
419.166	387.31
419.389	387.31
419.611	402.31
419.834	394.31
420.057	385.31
420.28	373.31
420.503	366.31
420.726	369.31
420.948	369.31
421.171	377.31
421.394	377.31
421.617	365.31
421.839	366.31
422.062	360.31
422.285	378.31
422.507	379.31
422.73	367.31
422.953	377.31
423.175	369.31
423.398	366.31
423.621	362.31
423.843	375.31
424.066	385.31
424.288	350.31
424.511	340.31
424.733	351.31
424.956	389.31
425.178	373.31
425.401	358.31
425.623	369.31
425.846	350.31
426.068	358.31
426.291	372.31
426.513	349.31
426.735	361.31
426.958	356.31
427.18	345.31
427.402	358.31
427.625	349.31
427.847	350.31
428.069	339.31
428.292	347.31
428.514	326.31
428.736	333.31
428.958	328.31
429.181	325.31
429.403	332.31
429.625	335.31
429.847	321.31
430.069	339.31
430.292	342.31
430.514	349.31
430.736	323.31
430.958	328.31
431.18	329.31
431.402	358.31
431.624	330.31
431.846	337.31
432.068	327.31
432.29	337.31
432.512	343.31
432.734	349.31
432.956	341.31
433.178	359.31
433.4	344.31
433.622	335.31
433.844	347.31
434.066	341.31
434.287	331.31
434.509	356.31
434.731	360.31
434.953	359.31
435.175	381.31
435.397	379.31
435.618	362.31
435.84	339.31
436.062	362.31
436.284	340.31
436.505	333.31
436.727	350.31
436.949	347.31
437.17	339.31
437.392	334.31
437.614	327.31
437.835	346.31
438.057	337.31
438.278	330.31
438.5	333.31
438.721	333.31
438.943	335.31
439.165	335.31
439.386	327.31
439.608	338.31
439.829	330.31
440.05	347.31
440.272	345.31
440.493	341.31
440.715	341.31
440.936	335.31
441.158	361.31
441.379	353.31
441.6	357.31
441.822	365.31
442.043	356.31
442.264	345.31
442.486	350.31
442.707	351.31
442.928	357.31
443.149	360.31
443.371	348.31
443.592	366.31
443.813	362.31
444.034	369.31
444.255	373.31
444.476	383.31
444.698	364.31
444.919	381.31
445.14	520.31
445.361	429.31
445.582	362.31
445.803	353.31
446.024	350.31
446.245	364.31
446.466	339.31
446.687	350.31
446.908	328.31
447.129	361.31
447.35	327.31
447.571	340.31
447.792	328.31
448.013	320.31
448.234	320.31
448.455	294.31
448.675	321.31
448.896	326.31
449.117	307.31
449.338	323.31
449.559	318.31
449.779	313.31
450	313.31
450.221	306.31
450.442	327.31
450.662	318.31
450.883	325.31
451.104	300.31
451.324	297.31
451.545	324.31
451.766	302.31
451.986	316.31
452.207	305.31
452.428	310.31
452.648	313.31
452.869	311.31
453.089	303.31
453.31	320.31
453.53	293.31
453.751	302.31
453.971	303.31
454.192	304.31
454.412	301.31
454.633	290.31
454.853	289.31
455.073	299.31
455.294	297.31
455.514	298.31
455.734	300.31
455.955	301.31
456.175	306.31
456.395	290.31
456.616	307.31
456.836	320.31
457.056	322.31
457.276	310.31
457.497	314.31
457.717	311.31
457.937	314.31
458.157	311.31
458.377	319.31
458.598	315.31
458.818	311.31
459.038	333.31
459.258	336.31
459.478	344.31
459.698	334.31
459.918	351.31
460.138	353.31
460.358	371.31
460.578	391.31
460.798	382.31
461.018	397.31
461.238	371.31
461.458	366.31
461.678	362.31
461.898	389.31
462.118	396.31
462.338	403.31
462.558	417.31
462.777	424.31
462.997	410.31
463.217	444.31
463.437	444.31
463.657	416.31
463.876	433.31
464.096	427.31
464.316	421.31
464.536	396.31
464.755	421.31
464.975	399.31
465.195	372.31
465.414	385.31
465.634	355.31
465.854	340.31
466.073	346.31
466.293	335.31
466.512	318.31
466.732	333.31
466.951	340.31
467.171	312.31
467.391	332.31
467.61	331.31
467.829	323.31
468.049	331.31
468.268	332.31
468.488	327.31
468.707	327.31
468.927	321.31
469.146	327.31
469.365	324.31
469.585	346.31
469.804	331.31
470.023	334.31
470.243	332.31
470.462	332.31
470.681	354.31
470.901	330.31
471.12	337.31
471.339	334.31
471.558	338.31
471.777	336.31
471.997	319.31
472.216	325.31
472.435	325.31
472.654	330.31
472.873	328.31
473.092	337.31
473.311	325.31
473.53	307.31
473.749	307.31
473.968	333.31
474.187	318.31
474.406	330.31
474.625	319.31
474.844	338.31
475.063	323.31
475.282	323.31
475.501	336.31
475.72	325.31
475.939	326.31
476.158	325.31
476.377	346.31
476.596	335.31
476.814	344.31
477.033	327.31
477.252	337.31
477.471	331.31
477.69	356.31
477.908	362.31
478.127	369.31
478.346	362.31
478.564	370.31
478.783	386.31
479.002	365.31
479.22	376.31
479.439	381.31
479.658	379.31
479.876	373.31
480.095	365.31
480.313	390.31
480.532	386.31
480.751	387.31
480.969	407.31
481.188	407.31
481.406	378.31
481.624	376.31
481.843	389.31
482.061	371.31
482.28	373.31
482.498	361.31
482.717	375.31
482.935	365.31
483.153	379.31
483.372	377.31
483.59	352.31
483.808	366.31
484.027	379.31
484.245	362.31
484.463	371.31
484.681	379.31
484.9	359.31
485.118	373.31
485.336	373.31
485.554	399.31
485.772	391.31
485.99	379.31
486.209	388.31
486.427	376.31
486.645	386.31
486.863	361.31
487.081	378.31
487.299	369.31
487.517	363.31
487.735	374.31
487.953	375.31
488.171	365.31
488.389	389.31
488.607	379.31
488.825	377.31
489.043	380.31
489.261	395.31
489.479	371.31
489.696	375.31
489.914	384.31
490.132	375.31
490.35	397.31
490.568	378.31
490.786	381.31
491.003	374.31
491.221	381.31
491.439	361.31
491.657	370.31
491.874	381.31
492.092	385.31
492.31	369.31
492.527	371.31
492.745	403.31
492.963	384.31
493.18	394.31
493.398	388.31
493.615	398.31
493.833	422.31
494.05	390.31
494.268	386.31
494.485	395.31
494.703	414.31
494.92	415.31
495.138	410.31
495.355	386.31
495.573	397.31
495.79	414.31
496.008	421.31
496.225	403.31
496.442	416.31
496.66	411.31
496.877	427.31
497.094	423.31
497.312	446.31
497.529	455.31
497.746	455.31
497.963	451.31
498.181	460.31
498.398	491.31
498.615	502.31
498.832	521.31
499.049	561.31
499.267	611.31
499.484	618.31
499.701	637.31
499.918	685.31
500.135	764.31
500.352	809.31
500.569	843.31
500.786	797.31
501.003	790.31
501.22	729.31
501.437	703.31
501.654	635.31
501.871	599.31
502.088	579.31
502.305	558.31
