Data from Fe(NO3)3@0.025M.TitratingCurve.Agarose3%dH2O.NegLispCup.LampEnergy10.LIBS07252019_HRD10591_16-54-29-335.txt Node
Date: Thu Jul 25 16:54:29 EDT 2019
User: cochatt
Spectrometer: HR+D1059
Trigger mode: 1
Integration Time (sec): 1.000000E-1
Scans to average: 1
Electric dark correction enabled: true
Nonlinearity correction enabled: false
Boxcar width: 0
XAxis mode: Wavelengths
Number of Pixels in Spectrum: 2048
>>>>>Begin Spectral Data<<<<<
223.165	-9.19
223.4	-9.19
223.635	-9.19
223.869	-16.19
224.104	-10.19
224.338	-16.19
224.573	-17.19
224.808	-13.19
225.042	-9.19
225.277	-12.19
225.511	7.81
225.746	3.81
225.98	17.81
226.215	18.81
226.449	-1.19
226.683	19.81
226.918	17.81
227.152	18.81
227.387	42.81
227.621	33.81
227.856	43.81
228.09	42.81
228.324	42.81
228.559	63.81
228.793	65.81
229.027	93.81
229.262	91.81
229.496	97.81
229.73	107.81
229.964	94.81
230.199	102.81
230.433	99.81
230.667	96.81
230.901	102.81
231.136	100.81
231.37	97.81
231.604	107.81
231.838	116.81
232.072	112.81
232.306	111.81
232.541	115.81
232.775	110.81
233.009	112.81
233.243	129.81
233.477	138.81
233.711	125.81
233.945	103.81
234.179	118.81
234.413	126.81
234.647	129.81
234.881	131.81
235.115	132.81
235.349	114.81
235.583	123.81
235.817	128.81
236.051	132.81
236.285	124.81
236.519	110.81
236.753	134.81
236.987	121.81
237.221	130.81
237.455	130.81
237.689	136.81
237.922	134.81
238.156	121.81
238.39	131.81
238.624	159.81
238.858	140.81
239.091	140.81
239.325	132.81
239.559	117.81
239.793	148.81
240.027	139.81
240.26	139.81
240.494	153.81
240.728	139.81
240.961	155.81
241.195	137.81
241.429	145.81
241.662	146.81
241.896	146.81
242.13	125.81
242.363	145.81
242.597	153.81
242.83	139.81
243.064	148.81
243.298	152.81
243.531	146.81
243.765	148.81
243.998	150.81
244.232	158.81
244.465	147.81
244.699	171.81
244.932	151.81
245.166	144.81
245.399	168.81
245.633	156.81
245.866	170.81
246.099	163.81
246.333	160.81
246.566	160.81
246.8	154.81
247.033	156.81
247.266	168.81
247.5	162.81
247.733	162.81
247.966	168.81
248.2	181.81
248.433	163.81
248.666	182.81
248.899	175.81
249.133	184.81
249.366	183.81
249.599	164.81
249.832	163.81
250.066	172.81
250.299	183.81
250.532	191.81
250.765	175.81
250.998	189.81
251.231	189.81
251.465	185.81
251.698	198.81
251.931	186.81
252.164	200.81
252.397	190.81
252.63	188.81
252.863	197.81
253.096	194.81
253.329	208.81
253.562	194.81
253.795	211.81
254.028	201.81
254.261	201.81
254.494	199.81
254.727	195.81
254.96	204.81
255.193	200.81
255.426	210.81
255.659	191.81
255.892	200.81
256.124	204.81
256.357	197.81
256.59	213.81
256.823	211.81
257.056	204.81
257.289	201.81
257.521	202.81
257.754	202.81
257.987	214.81
258.22	209.81
258.452	207.81
258.685	222.81
258.918	235.81
259.151	217.81
259.383	198.81
259.616	221.81
259.849	222.81
260.081	245.81
260.314	267.81
260.547	216.81
260.779	215.81
261.012	223.81
261.244	242.81
261.477	226.81
261.71	230.81
261.942	236.81
262.175	224.81
262.407	228.81
262.64	226.81
262.872	257.81
263.105	240.81
263.337	244.81
263.57	251.81
263.802	239.81
264.035	239.81
264.267	238.81
264.499	223.81
264.732	231.81
264.964	240.81
265.197	230.81
265.429	242.81
265.661	237.81
265.894	252.81
266.126	245.81
266.358	245.81
266.591	239.81
266.823	239.81
267.055	242.81
267.287	243.81
267.52	240.81
267.752	242.81
267.984	250.81
268.216	246.81
268.448	263.81
268.681	254.81
268.913	250.81
269.145	244.81
269.377	263.81
269.609	262.81
269.841	270.81
270.073	249.81
270.306	274.81
270.538	267.81
270.77	254.81
271.002	243.81
271.234	256.81
271.466	267.81
271.698	260.81
271.93	262.81
272.162	282.81
272.394	264.81
272.626	264.81
272.858	272.81
273.09	270.81
273.322	272.81
273.553	290.81
273.785	290.81
274.017	292.81
274.249	315.81
274.481	312.81
274.713	285.81
274.945	316.81
275.176	333.81
275.408	324.81
275.64	321.81
275.872	310.81
276.104	318.81
276.335	285.81
276.567	289.81
276.799	299.81
277.031	301.81
277.262	280.81
277.494	290.81
277.726	286.81
277.957	297.81
278.189	283.81
278.421	292.81
278.652	286.81
278.884	306.81
279.115	309.81
279.347	286.81
279.579	307.81
279.81	303.81
280.042	284.81
280.273	302.81
280.505	316.81
280.736	301.81
280.968	321.81
281.199	307.81
281.431	311.81
281.662	305.81
281.894	309.81
282.125	317.81
282.356	328.81
282.588	315.81
282.819	312.81
283.051	306.81
283.282	321.81
283.513	311.81
283.745	333.81
283.976	341.81
284.207	302.81
284.439	317.81
284.67	319.81
284.901	328.81
285.132	339.81
285.364	339.81
285.595	329.81
285.826	310.81
286.057	344.81
286.288	310.81
286.52	336.81
286.751	322.81
286.982	336.81
287.213	314.81
287.444	347.81
287.675	345.81
287.906	338.81
288.138	335.81
288.369	342.81
288.6	345.81
288.831	332.81
289.062	323.81
289.293	346.81
289.524	329.81
289.755	318.81
289.986	337.81
290.217	337.81
290.448	336.81
290.679	335.81
290.91	338.81
291.141	329.81
291.371	331.81
291.602	345.81
291.833	363.81
292.064	352.81
292.295	339.81
292.526	339.81
292.757	346.81
292.987	344.81
293.218	342.81
293.449	366.81
293.68	348.81
293.91	346.81
294.141	350.81
294.372	348.81
294.603	367.81
294.833	363.81
295.064	332.81
295.295	352.81
295.525	357.81
295.756	358.81
295.987	344.81
296.217	366.81
296.448	366.81
296.679	339.81
296.909	358.81
297.14	352.81
297.37	352.81
297.601	373.81
297.831	368.81
298.062	355.81
298.292	372.81
298.523	379.81
298.753	377.81
298.984	376.81
299.214	368.81
299.445	381.81
299.675	369.81
299.905	384.81
300.136	382.81
300.366	375.81
300.597	369.81
300.827	355.81
301.057	389.81
301.288	376.81
301.518	390.81
301.748	389.81
301.979	398.81
302.209	382.81
302.439	394.81
302.669	385.81
302.9	388.81
303.13	391.81
303.36	402.81
303.59	410.81
303.82	392.81
304.051	387.81
304.281	387.81
304.511	396.81
304.741	394.81
304.971	395.81
305.201	379.81
305.431	380.81
305.661	412.81
305.891	404.81
306.121	399.81
306.352	403.81
306.582	388.81
306.812	383.81
307.042	423.81
307.272	422.81
307.502	394.81
307.731	405.81
307.961	386.81
308.191	387.81
308.421	412.81
308.651	399.81
308.881	402.81
309.111	374.81
309.341	418.81
309.571	402.81
309.8	423.81
310.03	406.81
310.26	431.81
310.49	406.81
310.72	411.81
310.949	406.81
311.179	409.81
311.409	408.81
311.639	405.81
311.868	438.81
312.098	410.81
312.328	418.81
312.557	418.81
312.787	419.81
313.017	426.81
313.246	420.81
313.476	418.81
313.706	427.81
313.935	426.81
314.165	434.81
314.394	419.81
314.624	422.81
314.853	426.81
315.083	418.81
315.312	455.81
315.542	450.81
315.771	439.81
316.001	428.81
316.23	420.81
316.46	442.81
316.689	439.81
316.919	448.81
317.148	454.81
317.377	450.81
317.607	448.81
317.836	424.81
318.065	447.81
318.295	440.81
318.524	464.81
318.753	460.81
318.983	443.81
319.212	447.81
319.441	434.81
319.67	447.81
319.9	451.81
320.129	447.81
320.358	440.81
320.587	431.81
320.816	450.81
321.046	455.81
321.275	450.81
321.504	449.81
321.733	445.81
321.962	443.81
322.191	440.81
322.42	462.81
322.649	473.81
322.878	468.81
323.108	454.81
323.337	459.81
323.566	442.81
323.795	456.81
324.024	446.81
324.253	458.81
324.482	475.81
324.71	447.81
324.939	468.81
325.168	472.81
325.397	458.81
325.626	472.81
325.855	474.81
326.084	496.81
326.313	479.81
326.542	466.81
326.77	484.81
326.999	468.81
327.228	467.81
327.457	454.81
327.686	450.81
327.914	487.81
328.143	499.81
328.372	493.81
328.6	471.81
328.829	467.81
329.058	474.81
329.287	487.81
329.515	483.81
329.744	486.81
329.972	510.81
330.201	494.81
330.43	498.81
330.658	494.81
330.887	490.81
331.115	508.81
331.344	502.81
331.572	491.81
331.801	510.81
332.03	522.81
332.258	502.81
332.486	524.81
332.715	515.81
332.943	520.81
333.172	511.81
333.4	522.81
333.629	519.81
333.857	527.81
334.085	554.81
334.314	542.81
334.542	558.81
334.771	561.81
334.999	563.81
335.227	543.81
335.455	542.81
335.684	553.81
335.912	553.81
336.14	533.81
336.369	547.81
336.597	547.81
336.825	560.81
337.053	569.81
337.281	556.81
337.51	538.81
337.738	536.81
337.966	537.81
338.194	534.81
338.422	535.81
338.65	514.81
338.878	528.81
339.106	532.81
339.334	555.81
339.562	522.81
339.79	516.81
340.018	522.81
340.246	528.81
340.474	542.81
340.702	521.81
340.93	510.81
341.158	520.81
341.386	510.81
341.614	542.81
341.842	518.81
342.07	531.81
342.298	523.81
342.526	524.81
342.754	524.81
342.981	524.81
343.209	521.81
343.437	532.81
343.665	526.81
343.893	540.81
344.12	535.81
344.348	546.81
344.576	534.81
344.804	546.81
345.031	540.81
345.259	556.81
345.487	525.81
345.714	504.81
345.942	507.81
346.17	520.81
346.397	520.81
346.625	499.81
346.853	499.81
347.08	503.81
347.308	513.81
347.535	528.81
347.763	486.81
347.99	494.81
348.218	483.81
348.445	494.81
348.673	495.81
348.9	506.81
349.128	504.81
349.355	512.81
349.583	506.81
349.81	487.81
350.037	487.81
350.265	483.81
350.492	480.81
350.72	482.81
350.947	483.81
351.174	488.81
351.402	502.81
351.629	510.81
351.856	502.81
352.083	498.81
352.311	475.81
352.538	480.81
352.765	500.81
352.992	473.81
353.22	485.81
353.447	483.81
353.674	476.81
353.901	490.81
354.128	498.81
354.355	497.81
354.583	499.81
354.81	517.81
355.037	499.81
355.264	470.81
355.491	485.81
355.718	473.81
355.945	480.81
356.172	500.81
356.399	487.81
356.626	488.81
356.853	494.81
357.08	484.81
357.307	487.81
357.534	478.81
357.761	496.81
357.988	496.81
358.215	507.81
358.441	522.81
358.668	504.81
358.895	508.81
359.122	486.81
359.349	502.81
359.576	502.81
359.802	507.81
360.029	494.81
360.256	506.81
360.483	507.81
360.709	515.81
360.936	508.81
361.163	517.81
361.39	514.81
361.616	509.81
361.843	498.81
362.07	488.81
362.296	513.81
362.523	495.81
362.749	518.81
362.976	514.81
363.203	531.81
363.429	500.81
363.656	501.81
363.882	509.81
364.109	531.81
364.335	504.81
364.562	508.81
364.788	512.81
365.015	519.81
365.241	496.81
365.468	498.81
365.694	523.81
365.92	510.81
366.147	501.81
366.373	514.81
366.599	512.81
366.826	500.81
367.052	498.81
367.278	518.81
367.505	491.81
367.731	522.81
367.957	528.81
368.184	512.81
368.41	540.81
368.636	525.81
368.862	518.81
369.089	515.81
369.315	531.81
369.541	526.81
369.767	511.81
369.993	484.81
370.219	531.81
370.445	523.81
370.672	548.81
370.898	554.81
371.124	539.81
371.35	533.81
371.576	560.81
371.802	549.81
372.028	535.81
372.254	539.81
372.48	544.81
372.706	549.81
372.932	551.81
373.158	555.81
373.384	537.81
373.61	556.81
373.835	563.81
374.061	547.81
374.287	560.81
374.513	546.81
374.739	565.81
374.965	584.81
375.191	564.81
375.416	578.81
375.642	548.81
375.868	548.81
376.094	556.81
376.319	561.81
376.545	544.81
376.771	564.81
376.997	542.81
377.222	525.81
377.448	557.81
377.674	546.81
377.899	528.81
378.125	540.81
378.35	538.81
378.576	551.81
378.802	556.81
379.027	534.81
379.253	533.81
379.478	545.81
379.704	549.81
379.929	563.81
380.155	570.81
380.38	559.81
380.606	543.81
380.831	558.81
381.057	564.81
381.282	530.81
381.507	525.81
381.733	556.81
381.958	559.81
382.184	570.81
382.409	574.81
382.634	551.81
382.86	576.81
383.085	583.81
383.31	567.81
383.535	566.81
383.761	563.81
383.986	567.81
384.211	576.81
384.436	573.81
384.662	601.81
384.887	579.81
385.112	588.81
385.337	610.81
385.562	594.81
385.787	592.81
386.013	617.81
386.238	623.81
386.463	618.81
386.688	617.81
386.913	603.81
387.138	603.81
387.363	617.81
387.588	620.81
387.813	610.81
388.038	595.81
388.263	629.81
388.488	624.81
388.713	627.81
388.938	635.81
389.163	618.81
389.387	627.81
389.612	606.81
389.837	601.81
390.062	626.81
390.287	629.81
390.512	603.81
390.736	625.81
390.961	642.81
391.186	632.81
391.411	612.81
391.636	626.81
391.86	623.81
392.085	639.81
392.31	647.81
392.534	645.81
392.759	645.81
392.984	647.81
393.208	670.81
393.433	649.81
393.658	651.81
393.882	623.81
394.107	630.81
394.331	626.81
394.556	638.81
394.78	667.81
395.005	634.81
395.229	651.81
395.454	661.81
395.678	656.81
395.903	660.81
396.127	650.81
396.352	658.81
396.576	656.81
396.801	658.81
397.025	660.81
397.249	639.81
397.474	676.81
397.698	686.81
397.922	688.81
398.147	679.81
398.371	671.81
398.595	681.81
398.82	712.81
399.044	731.81
399.268	728.81
399.492	762.81
399.717	803.81
399.941	804.81
400.165	781.81
400.389	794.81
400.613	770.81
400.837	724.81
401.062	750.81
401.286	743.81
401.51	718.81
401.734	715.81
401.958	730.81
402.182	727.81
402.406	696.81
402.63	718.81
402.854	725.81
403.078	724.81
403.302	705.81
403.526	728.81
403.75	724.81
403.974	704.81
404.198	700.81
404.422	746.81
404.645	723.81
404.869	738.81
405.093	744.81
405.317	718.81
405.541	734.81
405.765	735.81
405.988	737.81
406.212	746.81
406.436	753.81
406.66	786.81
406.883	757.81
407.107	795.81
407.331	815.81
407.555	806.81
407.778	804.81
408.002	827.81
408.226	822.81
408.449	786.81
408.673	786.81
408.896	761.81
409.12	798.81
409.344	785.81
409.567	772.81
409.791	748.81
410.014	775.81
410.238	759.81
410.461	781.81
410.685	750.81
410.908	760.81
411.132	739.81
411.355	742.81
411.578	736.81
411.802	755.81
412.025	746.81
412.249	761.81
412.472	731.81
412.695	741.81
412.919	764.81
413.142	718.81
413.365	722.81
413.589	721.81
413.812	713.81
414.035	722.81
414.258	711.81
414.482	695.81
414.705	720.81
414.928	728.81
415.151	728.81
415.374	695.81
415.597	698.81
415.821	688.81
416.044	676.81
416.267	711.81
416.49	707.81
416.713	679.81
416.936	715.81
417.159	689.81
417.382	686.81
417.605	664.81
417.828	670.81
418.051	675.81
418.274	693.81
418.497	674.81
418.72	670.81
418.943	695.81
419.166	717.81
419.389	737.81
419.611	741.81
419.834	715.81
420.057	694.81
420.28	688.81
420.503	647.81
420.726	675.81
420.948	679.81
421.171	683.81
421.394	677.81
421.617	700.81
421.839	669.81
422.062	658.81
422.285	678.81
422.507	692.81
422.73	674.81
422.953	668.81
423.175	692.81
423.398	688.81
423.621	657.81
423.843	682.81
424.066	677.81
424.288	674.81
424.511	663.81
424.733	673.81
424.956	663.81
425.178	657.81
425.401	666.81
425.623	689.81
425.846	675.81
426.068	653.81
426.291	652.81
426.513	661.81
426.735	658.81
426.958	661.81
427.18	640.81
427.402	654.81
427.625	652.81
427.847	630.81
428.069	650.81
428.292	655.81
428.514	644.81
428.736	646.81
428.958	663.81
429.181	649.81
429.403	650.81
429.625	656.81
429.847	658.81
430.069	632.81
430.292	664.81
430.514	639.81
430.736	662.81
430.958	643.81
431.18	628.81
431.402	654.81
431.624	635.81
431.846	636.81
432.068	640.81
432.29	652.81
432.512	660.81
432.734	631.81
432.956	605.81
433.178	648.81
433.4	645.81
433.622	656.81
433.844	676.81
434.066	640.81
434.287	633.81
434.509	651.81
434.731	661.81
434.953	668.81
435.175	662.81
435.397	655.81
435.618	672.81
435.84	644.81
436.062	646.81
436.284	662.81
436.505	653.81
436.727	634.81
436.949	645.81
437.17	624.81
437.392	603.81
437.614	635.81
437.835	625.81
438.057	624.81
438.278	634.81
438.5	634.81
438.721	597.81
438.943	648.81
439.165	619.81
439.386	606.81
439.608	641.81
439.829	628.81
440.05	610.81
440.272	629.81
440.493	614.81
440.715	634.81
440.936	644.81
441.158	633.81
441.379	653.81
441.6	633.81
441.822	644.81
442.043	653.81
442.264	666.81
442.486	633.81
442.707	650.81
442.928	631.81
443.149	658.81
443.371	636.81
443.592	635.81
443.813	627.81
444.034	660.81
444.255	664.81
444.476	688.81
444.698	653.81
444.919	671.81
445.14	771.81
445.361	715.81
445.582	657.81
445.803	647.81
446.024	609.81
446.245	631.81
446.466	638.81
446.687	614.81
446.908	622.81
447.129	607.81
447.35	614.81
447.571	617.81
447.792	587.81
448.013	598.81
448.234	594.81
448.455	595.81
448.675	588.81
448.896	597.81
449.117	594.81
449.338	600.81
449.559	594.81
449.779	591.81
450	594.81
450.221	590.81
450.442	615.81
450.662	592.81
450.883	593.81
451.104	591.81
451.324	581.81
451.545	588.81
451.766	594.81
451.986	581.81
452.207	583.81
452.428	587.81
452.648	570.81
452.869	572.81
453.089	573.81
453.31	574.81
453.53	577.81
453.751	562.81
453.971	580.81
454.192	577.81
454.412	547.81
454.633	554.81
454.853	563.81
455.073	555.81
455.294	584.81
455.514	546.81
455.734	538.81
455.955	544.81
456.175	563.81
456.395	566.81
456.616	564.81
456.836	553.81
457.056	560.81
457.276	552.81
457.497	564.81
457.717	572.81
457.937	574.81
458.157	568.81
458.377	564.81
458.598	600.81
458.818	613.81
459.038	593.81
459.258	641.81
459.478	630.81
459.698	616.81
459.918	632.81
460.138	633.81
460.358	634.81
460.578	638.81
460.798	648.81
461.018	661.81
461.238	677.81
461.458	677.81
461.678	692.81
461.898	688.81
462.118	699.81
462.338	687.81
462.558	694.81
462.777	726.81
462.997	751.81
463.217	724.81
463.437	734.81
463.657	724.81
463.876	740.81
464.096	724.81
464.316	704.81
464.536	704.81
464.755	716.81
464.975	703.81
465.195	698.81
465.414	665.81
465.634	659.81
465.854	665.81
466.073	658.81
466.293	628.81
466.512	632.81
466.732	618.81
466.951	601.81
467.171	614.81
467.391	595.81
467.61	637.81
467.829	640.81
468.049	609.81
468.268	592.81
468.488	629.81
468.707	613.81
468.927	610.81
469.146	607.81
469.365	603.81
469.585	626.81
469.804	624.81
470.023	599.81
470.243	609.81
470.462	614.81
470.681	619.81
470.901	633.81
471.12	626.81
471.339	617.81
471.558	606.81
471.777	627.81
471.997	610.81
472.216	614.81
472.435	604.81
472.654	589.81
472.873	588.81
473.092	615.81
473.311	617.81
473.53	622.81
473.749	602.81
473.968	600.81
474.187	627.81
474.406	618.81
474.625	604.81
474.844	606.81
475.063	653.81
475.282	633.81
475.501	624.81
475.72	655.81
475.939	631.81
476.158	654.81
476.377	638.81
476.596	658.81
476.814	686.81
477.033	688.81
477.252	665.81
477.471	678.81
477.69	673.81
477.908	683.81
478.127	687.81
478.346	700.81
478.564	689.81
478.783	698.81
479.002	711.81
479.22	717.81
479.439	708.81
479.658	747.81
479.876	712.81
480.095	754.81
480.313	722.81
480.532	752.81
480.751	725.81
480.969	728.81
481.188	709.81
481.406	715.81
481.624	729.81
481.843	723.81
482.061	711.81
482.28	722.81
482.498	744.81
482.717	730.81
482.935	724.81
483.153	729.81
483.372	703.81
483.59	733.81
483.808	724.81
484.027	729.81
484.245	745.81
484.463	724.81
484.681	743.81
484.9	747.81
485.118	739.81
485.336	734.81
485.554	740.81
485.772	745.81
485.99	746.81
486.209	753.81
486.427	733.81
486.645	729.81
486.863	759.81
487.081	776.81
487.299	745.81
487.517	762.81
487.735	732.81
487.953	744.81
488.171	739.81
488.389	759.81
488.607	737.81
488.825	744.81
489.043	743.81
489.261	767.81
489.479	764.81
489.696	741.81
489.914	750.81
490.132	739.81
490.35	760.81
490.568	752.81
490.786	735.81
491.003	770.81
491.221	743.81
491.439	740.81
491.657	776.81
491.874	759.81
492.092	765.81
492.31	763.81
492.527	757.81
492.745	791.81
492.963	767.81
493.18	766.81
493.398	784.81
493.615	780.81
493.833	795.81
494.05	807.81
494.268	774.81
494.485	776.81
494.703	780.81
494.92	775.81
495.138	776.81
495.355	795.81
495.573	817.81
495.79	798.81
496.008	818.81
496.225	814.81
496.442	816.81
496.66	842.81
496.877	847.81
497.094	841.81
497.312	883.81
497.529	846.81
497.746	872.81
497.963	889.81
498.181	920.81
498.398	935.81
498.615	963.81
498.832	984.81
499.049	1032.81
499.267	1046.81
499.484	1067.81
499.701	1092.81
499.918	1162.81
500.135	1213.81
500.352	1223.81
500.569	1223.81
500.786	1245.81
501.003	1213.81
501.22	1147.81
501.437	1127.81
