Data from Fe(NO3)3@0.025M.TitratingCurve.Agarose3%dH2O.NegLispCup.LampEnergy10.LIBS07252019_HRD10591_16-54-16-335.txt Node
Date: Thu Jul 25 16:54:16 EDT 2019
User: cochatt
Spectrometer: HR+D1059
Trigger mode: 1
Integration Time (sec): 1.000000E-1
Scans to average: 1
Electric dark correction enabled: true
Nonlinearity correction enabled: false
Boxcar width: 0
XAxis mode: Wavelengths
Number of Pixels in Spectrum: 2048
>>>>>Begin Spectral Data<<<<<
223.165	-22.25
223.4	-22.25
223.635	-22.25
223.869	-10.25
224.104	-32.25
224.338	-14.25
224.573	-18.25
224.808	-15.25
225.042	-9.25
225.277	-3.25
225.511	8.75
225.746	8.75
225.98	12.75
226.215	12.75
226.449	17.75
226.683	19.75
226.918	24.75
227.152	19.75
227.387	26.75
227.621	38.75
227.856	45.75
228.09	54.75
228.324	57.75
228.559	55.75
228.793	42.75
229.027	56.75
229.262	74.75
229.496	76.75
229.73	92.75
229.964	83.75
230.199	89.75
230.433	97.75
230.667	85.75
230.901	97.75
231.136	102.75
231.37	95.75
231.604	89.75
231.838	91.75
232.072	91.75
232.306	89.75
232.541	86.75
232.775	105.75
233.009	100.75
233.243	111.75
233.477	108.75
233.711	106.75
233.945	103.75
234.179	90.75
234.413	106.75
234.647	105.75
234.881	104.75
235.115	100.75
235.349	116.75
235.583	107.75
235.817	109.75
236.051	100.75
236.285	94.75
236.519	101.75
236.753	102.75
236.987	106.75
237.221	94.75
237.455	101.75
237.689	99.75
237.922	96.75
238.156	99.75
238.39	107.75
238.624	108.75
238.858	99.75
239.091	85.75
239.325	101.75
239.559	98.75
239.793	93.75
240.027	105.75
240.26	113.75
240.494	99.75
240.728	102.75
240.961	101.75
241.195	104.75
241.429	97.75
241.662	109.75
241.896	108.75
242.13	107.75
242.363	93.75
242.597	106.75
242.83	100.75
243.064	107.75
243.298	116.75
243.531	111.75
243.765	122.75
243.998	117.75
244.232	101.75
244.465	103.75
244.699	119.75
244.932	94.75
245.166	111.75
245.399	115.75
245.633	118.75
245.866	115.75
246.099	115.75
246.333	109.75
246.566	107.75
246.8	121.75
247.033	118.75
247.266	104.75
247.5	116.75
247.733	114.75
247.966	110.75
248.2	133.75
248.433	120.75
248.666	138.75
248.899	123.75
249.133	124.75
249.366	120.75
249.599	125.75
249.832	120.75
250.066	132.75
250.299	119.75
250.532	118.75
250.765	122.75
250.998	129.75
251.231	115.75
251.465	110.75
251.698	123.75
251.931	120.75
252.164	133.75
252.397	119.75
252.63	129.75
252.863	115.75
253.096	131.75
253.329	134.75
253.562	126.75
253.795	120.75
254.028	132.75
254.261	140.75
254.494	145.75
254.727	132.75
254.96	136.75
255.193	136.75
255.426	128.75
255.659	123.75
255.892	123.75
256.124	144.75
256.357	156.75
256.59	124.75
256.823	125.75
257.056	132.75
257.289	135.75
257.521	136.75
257.754	127.75
257.987	141.75
258.22	140.75
258.452	130.75
258.685	129.75
258.918	133.75
259.151	133.75
259.383	130.75
259.616	138.75
259.849	146.75
260.081	152.75
260.314	166.75
260.547	150.75
260.779	148.75
261.012	152.75
261.244	154.75
261.477	153.75
261.71	145.75
261.942	163.75
262.175	140.75
262.407	146.75
262.64	139.75
262.872	134.75
263.105	154.75
263.337	148.75
263.57	144.75
263.802	137.75
264.035	147.75
264.267	147.75
264.499	135.75
264.732	139.75
264.964	130.75
265.197	142.75
265.429	134.75
265.661	145.75
265.894	144.75
266.126	147.75
266.358	140.75
266.591	140.75
266.823	145.75
267.055	134.75
267.287	162.75
267.52	147.75
267.752	140.75
267.984	163.75
268.216	150.75
268.448	156.75
268.681	150.75
268.913	158.75
269.145	166.75
269.377	148.75
269.609	150.75
269.841	161.75
270.073	161.75
270.306	148.75
270.538	158.75
270.77	170.75
271.002	150.75
271.234	152.75
271.466	162.75
271.698	162.75
271.93	156.75
272.162	165.75
272.394	164.75
272.626	155.75
272.858	171.75
273.09	172.75
273.322	154.75
273.553	168.75
273.785	156.75
274.017	163.75
274.249	159.75
274.481	162.75
274.713	181.75
274.945	178.75
275.176	186.75
275.408	179.75
275.64	189.75
275.872	177.75
276.104	174.75
276.335	183.75
276.567	173.75
276.799	171.75
277.031	174.75
277.262	176.75
277.494	159.75
277.726	179.75
277.957	169.75
278.189	168.75
278.421	173.75
278.652	168.75
278.884	172.75
279.115	174.75
279.347	176.75
279.579	169.75
279.81	171.75
280.042	178.75
280.273	170.75
280.505	184.75
280.736	178.75
280.968	168.75
281.199	178.75
281.431	198.75
281.662	163.75
281.894	184.75
282.125	168.75
282.356	178.75
282.588	196.75
282.819	178.75
283.051	181.75
283.282	182.75
283.513	173.75
283.745	194.75
283.976	187.75
284.207	174.75
284.439	176.75
284.67	189.75
284.901	180.75
285.132	169.75
285.364	176.75
285.595	201.75
285.826	183.75
286.057	189.75
286.288	193.75
286.52	177.75
286.751	194.75
286.982	194.75
287.213	184.75
287.444	178.75
287.675	183.75
287.906	176.75
288.138	186.75
288.369	202.75
288.6	182.75
288.831	192.75
289.062	180.75
289.293	193.75
289.524	185.75
289.755	186.75
289.986	184.75
290.217	177.75
290.448	189.75
290.679	182.75
290.91	185.75
291.141	189.75
291.371	213.75
291.602	197.75
291.833	204.75
292.064	193.75
292.295	180.75
292.526	196.75
292.757	196.75
292.987	203.75
293.218	202.75
293.449	195.75
293.68	192.75
293.91	189.75
294.141	198.75
294.372	203.75
294.603	185.75
294.833	170.75
295.064	187.75
295.295	201.75
295.525	186.75
295.756	196.75
295.987	190.75
296.217	186.75
296.448	191.75
296.679	195.75
296.909	206.75
297.14	190.75
297.37	199.75
297.601	200.75
297.831	199.75
298.062	188.75
298.292	195.75
298.523	205.75
298.753	192.75
298.984	212.75
299.214	196.75
299.445	202.75
299.675	213.75
299.905	201.75
300.136	217.75
300.366	198.75
300.597	209.75
300.827	227.75
301.057	209.75
301.288	206.75
301.518	208.75
301.748	222.75
301.979	195.75
302.209	229.75
302.439	204.75
302.669	210.75
302.9	213.75
303.13	197.75
303.36	200.75
303.59	209.75
303.82	217.75
304.051	219.75
304.281	229.75
304.511	214.75
304.741	195.75
304.971	209.75
305.201	215.75
305.431	226.75
305.661	217.75
305.891	222.75
306.121	202.75
306.352	212.75
306.582	211.75
306.812	206.75
307.042	225.75
307.272	204.75
307.502	219.75
307.731	238.75
307.961	217.75
308.191	220.75
308.421	232.75
308.651	214.75
308.881	195.75
309.111	224.75
309.341	213.75
309.571	211.75
309.8	226.75
310.03	206.75
310.26	212.75
310.49	240.75
310.72	229.75
310.949	212.75
311.179	227.75
311.409	219.75
311.639	213.75
311.868	224.75
312.098	229.75
312.328	229.75
312.557	248.75
312.787	226.75
313.017	235.75
313.246	231.75
313.476	226.75
313.706	232.75
313.935	225.75
314.165	221.75
314.394	225.75
314.624	215.75
314.853	250.75
315.083	222.75
315.312	225.75
315.542	220.75
315.771	227.75
316.001	216.75
316.23	230.75
316.46	223.75
316.689	236.75
316.919	238.75
317.148	211.75
317.377	248.75
317.607	217.75
317.836	227.75
318.065	226.75
318.295	230.75
318.524	236.75
318.753	224.75
318.983	230.75
319.212	240.75
319.441	235.75
319.67	225.75
319.9	234.75
320.129	238.75
320.358	227.75
320.587	224.75
320.816	220.75
321.046	204.75
321.275	224.75
321.504	229.75
321.733	234.75
321.962	252.75
322.191	234.75
322.42	233.75
322.649	229.75
322.878	238.75
323.108	229.75
323.337	223.75
323.566	237.75
323.795	241.75
324.024	236.75
324.253	226.75
324.482	243.75
324.71	241.75
324.939	221.75
325.168	233.75
325.397	221.75
325.626	247.75
325.855	245.75
326.084	244.75
326.313	246.75
326.542	242.75
326.77	237.75
326.999	245.75
327.228	232.75
327.457	235.75
327.686	240.75
327.914	254.75
328.143	260.75
328.372	233.75
328.6	248.75
328.829	251.75
329.058	240.75
329.287	245.75
329.515	241.75
329.744	261.75
329.972	250.75
330.201	250.75
330.43	242.75
330.658	267.75
330.887	268.75
331.115	240.75
331.344	260.75
331.572	256.75
331.801	249.75
332.03	243.75
332.258	250.75
332.486	266.75
332.715	275.75
332.943	272.75
333.172	266.75
333.4	274.75
333.629	271.75
333.857	289.75
334.085	290.75
334.314	298.75
334.542	289.75
334.771	277.75
334.999	286.75
335.227	276.75
335.455	271.75
335.684	308.75
335.912	275.75
336.14	284.75
336.369	302.75
336.597	276.75
336.825	278.75
337.053	272.75
337.281	257.75
337.51	282.75
337.738	261.75
337.966	263.75
338.194	262.75
338.422	262.75
338.65	270.75
338.878	276.75
339.106	269.75
339.334	262.75
339.562	265.75
339.79	251.75
340.018	260.75
340.246	252.75
340.474	263.75
340.702	250.75
340.93	264.75
341.158	260.75
341.386	248.75
341.614	252.75
341.842	262.75
342.07	261.75
342.298	251.75
342.526	266.75
342.754	261.75
342.981	267.75
343.209	260.75
343.437	280.75
343.665	280.75
343.893	284.75
344.12	289.75
344.348	279.75
344.576	284.75
344.804	290.75
345.031	261.75
345.259	268.75
345.487	258.75
345.714	270.75
345.942	268.75
346.17	253.75
346.397	247.75
346.625	260.75
346.853	265.75
347.08	262.75
347.308	252.75
347.535	256.75
347.763	252.75
347.99	254.75
348.218	269.75
348.445	255.75
348.673	259.75
348.9	253.75
349.128	256.75
349.355	242.75
349.583	261.75
349.81	238.75
350.037	248.75
350.265	242.75
350.492	241.75
350.72	229.75
350.947	241.75
351.174	250.75
351.402	243.75
351.629	240.75
351.856	250.75
352.083	256.75
352.311	240.75
352.538	245.75
352.765	269.75
352.992	262.75
353.22	254.75
353.447	240.75
353.674	245.75
353.901	258.75
354.128	250.75
354.355	249.75
354.583	241.75
354.81	241.75
355.037	245.75
355.264	237.75
355.491	249.75
355.718	236.75
355.945	232.75
356.172	240.75
356.399	255.75
356.626	263.75
356.853	254.75
357.08	241.75
357.307	259.75
357.534	254.75
357.761	244.75
357.988	285.75
358.215	258.75
358.441	280.75
358.668	243.75
358.895	258.75
359.122	236.75
359.349	264.75
359.576	267.75
359.802	251.75
360.029	251.75
360.256	248.75
360.483	255.75
360.709	252.75
360.936	256.75
361.163	269.75
361.39	239.75
361.616	246.75
361.843	241.75
362.07	265.75
362.296	268.75
362.523	260.75
362.749	260.75
362.976	256.75
363.203	261.75
363.429	253.75
363.656	249.75
363.882	237.75
364.109	262.75
364.335	265.75
364.562	246.75
364.788	247.75
365.015	260.75
365.241	254.75
365.468	247.75
365.694	253.75
365.92	237.75
366.147	256.75
366.373	237.75
366.599	272.75
366.826	253.75
367.052	254.75
367.278	245.75
367.505	260.75
367.731	265.75
367.957	289.75
368.184	262.75
368.41	267.75
368.636	270.75
368.862	275.75
369.089	265.75
369.315	256.75
369.541	269.75
369.767	266.75
369.993	257.75
370.219	259.75
370.445	271.75
370.672	275.75
370.898	270.75
371.124	264.75
371.35	284.75
371.576	266.75
371.802	270.75
372.028	262.75
372.254	268.75
372.48	278.75
372.706	286.75
372.932	278.75
373.158	276.75
373.384	275.75
373.61	281.75
373.835	292.75
374.061	258.75
374.287	284.75
374.513	283.75
374.739	289.75
374.965	289.75
375.191	273.75
375.416	274.75
375.642	273.75
375.868	294.75
376.094	289.75
376.319	289.75
376.545	280.75
376.771	285.75
376.997	288.75
377.222	271.75
377.448	270.75
377.674	264.75
377.899	258.75
378.125	292.75
378.35	282.75
378.576	258.75
378.802	256.75
379.027	263.75
379.253	278.75
379.478	273.75
379.704	260.75
379.929	273.75
380.155	250.75
380.38	256.75
380.606	274.75
380.831	266.75
381.057	284.75
381.282	259.75
381.507	283.75
381.733	295.75
381.958	296.75
382.184	286.75
382.409	278.75
382.634	282.75
382.86	296.75
383.085	273.75
383.31	275.75
383.535	290.75
383.761	303.75
383.986	294.75
384.211	293.75
384.436	292.75
384.662	270.75
384.887	286.75
385.112	299.75
385.337	288.75
385.562	293.75
385.787	288.75
386.013	299.75
386.238	299.75
386.463	311.75
386.688	310.75
386.913	302.75
387.138	305.75
387.363	297.75
387.588	298.75
387.813	325.75
388.038	321.75
388.263	314.75
388.488	318.75
388.713	300.75
388.938	309.75
389.163	304.75
389.387	297.75
389.612	302.75
389.837	313.75
390.062	317.75
390.287	308.75
390.512	309.75
390.736	299.75
390.961	307.75
391.186	315.75
391.411	306.75
391.636	304.75
391.86	331.75
392.085	322.75
392.31	326.75
392.534	335.75
392.759	306.75
392.984	302.75
393.208	302.75
393.433	327.75
393.658	337.75
393.882	297.75
394.107	309.75
394.331	315.75
394.556	316.75
394.78	328.75
395.005	312.75
395.229	319.75
395.454	322.75
395.678	329.75
395.903	326.75
396.127	341.75
396.352	322.75
396.576	333.75
396.801	324.75
397.025	304.75
397.249	343.75
397.474	332.75
397.698	341.75
397.922	352.75
398.147	330.75
398.371	334.75
398.595	359.75
398.82	346.75
399.044	354.75
399.268	389.75
399.492	390.75
399.717	414.75
399.941	413.75
400.165	397.75
400.389	418.75
400.613	383.75
400.837	382.75
401.062	376.75
401.286	361.75
401.51	353.75
401.734	370.75
401.958	346.75
402.182	350.75
402.406	345.75
402.63	343.75
402.854	360.75
403.078	354.75
403.302	349.75
403.526	381.75
403.75	388.75
403.974	384.75
404.198	364.75
404.422	354.75
404.645	375.75
404.869	357.75
405.093	354.75
405.317	376.75
405.541	362.75
405.765	346.75
405.988	367.75
406.212	354.75
406.436	366.75
406.66	386.75
406.883	379.75
407.107	397.75
407.331	409.75
407.555	426.75
407.778	389.75
408.002	407.75
408.226	395.75
408.449	388.75
408.673	394.75
408.896	398.75
409.12	394.75
409.344	389.75
409.567	379.75
409.791	379.75
410.014	380.75
410.238	388.75
410.461	375.75
410.685	373.75
410.908	376.75
411.132	371.75
411.355	344.75
411.578	372.75
411.802	371.75
412.025	374.75
412.249	361.75
412.472	374.75
412.695	378.75
412.919	362.75
413.142	349.75
413.365	374.75
413.589	355.75
413.812	350.75
414.035	360.75
414.258	356.75
414.482	365.75
414.705	357.75
414.928	361.75
415.151	357.75
415.374	368.75
415.597	360.75
415.821	340.75
416.044	352.75
416.267	370.75
416.49	352.75
416.713	354.75
416.936	337.75
417.159	339.75
417.382	326.75
417.605	341.75
417.828	334.75
418.051	358.75
418.274	340.75
418.497	333.75
418.72	365.75
418.943	346.75
419.166	362.75
419.389	365.75
419.611	386.75
419.834	345.75
420.057	371.75
420.28	332.75
420.503	349.75
420.726	344.75
420.948	340.75
421.171	340.75
421.394	350.75
421.617	313.75
421.839	349.75
422.062	334.75
422.285	334.75
422.507	344.75
422.73	337.75
422.953	331.75
423.175	329.75
423.398	346.75
423.621	325.75
423.843	324.75
424.066	348.75
424.288	351.75
424.511	347.75
424.733	346.75
424.956	352.75
425.178	341.75
425.401	339.75
425.623	328.75
425.846	326.75
426.068	346.75
426.291	336.75
426.513	340.75
426.735	336.75
426.958	318.75
427.18	327.75
427.402	332.75
427.625	338.75
427.847	317.75
428.069	334.75
428.292	313.75
428.514	329.75
428.736	320.75
428.958	332.75
429.181	308.75
429.403	332.75
429.625	325.75
429.847	316.75
430.069	326.75
430.292	323.75
430.514	319.75
430.736	325.75
430.958	327.75
431.18	314.75
431.402	314.75
431.624	309.75
431.846	316.75
432.068	297.75
432.29	323.75
432.512	339.75
432.734	331.75
432.956	337.75
433.178	330.75
433.4	338.75
433.622	340.75
433.844	334.75
434.066	316.75
434.287	314.75
434.509	328.75
434.731	329.75
434.953	344.75
435.175	341.75
435.397	352.75
435.618	317.75
435.84	320.75
436.062	332.75
436.284	329.75
436.505	325.75
436.727	323.75
436.949	320.75
437.17	328.75
437.392	319.75
437.614	309.75
437.835	315.75
438.057	324.75
438.278	322.75
438.5	318.75
438.721	314.75
438.943	326.75
439.165	311.75
439.386	309.75
439.608	315.75
439.829	327.75
440.05	308.75
440.272	320.75
440.493	309.75
440.715	331.75
440.936	327.75
441.158	329.75
441.379	332.75
441.6	323.75
441.822	350.75
442.043	343.75
442.264	325.75
442.486	330.75
442.707	324.75
442.928	333.75
443.149	348.75
443.371	351.75
443.592	360.75
443.813	331.75
444.034	334.75
444.255	355.75
444.476	355.75
444.698	345.75
444.919	344.75
445.14	462.75
445.361	416.75
445.582	336.75
445.803	332.75
446.024	328.75
446.245	343.75
446.466	348.75
446.687	299.75
446.908	323.75
447.129	318.75
447.35	306.75
447.571	324.75
447.792	302.75
448.013	306.75
448.234	313.75
448.455	306.75
448.675	308.75
448.896	292.75
449.117	303.75
449.338	290.75
449.559	312.75
449.779	299.75
450	295.75
450.221	309.75
450.442	306.75
450.662	309.75
450.883	295.75
451.104	314.75
451.324	296.75
451.545	306.75
451.766	301.75
451.986	290.75
452.207	285.75
452.428	306.75
452.648	313.75
452.869	305.75
453.089	290.75
453.31	287.75
453.53	278.75
453.751	276.75
453.971	270.75
454.192	281.75
454.412	286.75
454.633	282.75
454.853	290.75
455.073	283.75
455.294	296.75
455.514	296.75
455.734	295.75
455.955	300.75
456.175	283.75
456.395	285.75
456.616	277.75
456.836	283.75
457.056	286.75
457.276	295.75
457.497	288.75
457.717	289.75
457.937	289.75
458.157	288.75
458.377	313.75
458.598	306.75
458.818	309.75
459.038	300.75
459.258	310.75
459.478	320.75
459.698	334.75
459.918	326.75
460.138	345.75
460.358	330.75
460.578	343.75
460.798	332.75
461.018	352.75
461.238	340.75
461.458	345.75
461.678	321.75
461.898	342.75
462.118	344.75
462.338	360.75
462.558	364.75
462.777	373.75
462.997	382.75
463.217	383.75
463.437	380.75
463.657	380.75
463.876	380.75
464.096	379.75
464.316	381.75
464.536	382.75
464.755	378.75
464.975	347.75
465.195	364.75
465.414	355.75
465.634	343.75
465.854	331.75
466.073	316.75
466.293	319.75
466.512	319.75
466.732	307.75
466.951	317.75
467.171	307.75
467.391	335.75
467.61	312.75
467.829	328.75
468.049	313.75
468.268	296.75
468.488	304.75
468.707	306.75
468.927	283.75
469.146	313.75
469.365	326.75
469.585	298.75
469.804	320.75
470.023	313.75
470.243	306.75
470.462	293.75
470.681	328.75
470.901	320.75
471.12	326.75
471.339	322.75
471.558	317.75
471.777	308.75
471.997	320.75
472.216	330.75
472.435	309.75
472.654	308.75
472.873	320.75
473.092	310.75
473.311	309.75
473.53	325.75
473.749	307.75
473.968	296.75
474.187	304.75
474.406	308.75
474.625	304.75
474.844	305.75
475.063	320.75
475.282	291.75
475.501	327.75
475.72	332.75
475.939	305.75
476.158	325.75
476.377	322.75
476.596	336.75
476.814	324.75
477.033	334.75
477.252	322.75
477.471	315.75
477.69	330.75
477.908	331.75
478.127	340.75
478.346	348.75
478.564	346.75
478.783	349.75
479.002	361.75
479.22	366.75
479.439	359.75
479.658	356.75
479.876	369.75
480.095	349.75
480.313	368.75
480.532	388.75
480.751	356.75
480.969	367.75
481.188	386.75
481.406	380.75
481.624	356.75
481.843	392.75
482.061	364.75
482.28	365.75
482.498	330.75
482.717	361.75
482.935	365.75
483.153	356.75
483.372	372.75
483.59	368.75
483.808	373.75
484.027	370.75
484.245	374.75
484.463	369.75
484.681	373.75
484.9	368.75
485.118	372.75
485.336	377.75
485.554	382.75
485.772	381.75
485.99	374.75
486.209	364.75
486.427	372.75
486.645	378.75
486.863	366.75
487.081	378.75
487.299	383.75
487.517	385.75
487.735	372.75
487.953	384.75
488.171	383.75
488.389	363.75
488.607	380.75
488.825	386.75
489.043	376.75
489.261	374.75
489.479	380.75
489.696	366.75
489.914	376.75
490.132	376.75
490.35	364.75
490.568	358.75
490.786	385.75
491.003	376.75
491.221	391.75
491.439	369.75
491.657	388.75
491.874	371.75
492.092	373.75
492.31	385.75
492.527	378.75
492.745	373.75
492.963	380.75
493.18	379.75
493.398	375.75
493.615	384.75
493.833	385.75
494.05	389.75
494.268	391.75
494.485	382.75
494.703	396.75
494.92	372.75
495.138	389.75
495.355	375.75
495.573	406.75
495.79	403.75
496.008	395.75
496.225	402.75
496.442	406.75
496.66	403.75
496.877	426.75
497.094	416.75
497.312	422.75
497.529	436.75
497.746	431.75
497.963	444.75
498.181	436.75
498.398	454.75
498.615	477.75
498.832	504.75
499.049	530.75
499.267	502.75
499.484	544.75
499.701	592.75
499.918	595.75
500.135	631.75
500.352	656.75
500.569	657.75
500.786	656.75
501.003	644.75
501.22	619.75
501.437	594.75
501.654	558.75
501.871	535.75
