Data from Fe(NO3)3@0.05M.TitratingCurve.Agarose3%dH2O.NegLispCup.LampEnergy10.LIBS07252019_HRD10591_16-45-46-334.txt Node
Date: Thu Jul 25 16:45:46 EDT 2019
User: cochatt
Spectrometer: HR+D1059
Trigger mode: 1
Integration Time (sec): 1.000000E-1
Scans to average: 1
Electric dark correction enabled: true
Nonlinearity correction enabled: false
Boxcar width: 0
XAxis mode: Wavelengths
Number of Pixels in Spectrum: 2048
>>>>>Begin Spectral Data<<<<<
223.165	-12.5
223.4	-12.5
223.635	-12.5
223.869	-16.5
224.104	-17.5
224.338	-18.5
224.573	-8.5
224.808	-21.5
225.042	-5.5
225.277	-5.5
225.511	1.5
225.746	6.5
225.98	2.5
226.215	8.5
226.449	14.5
226.683	9.5
226.918	29.5
227.152	33.5
227.387	35.5
227.621	37.5
227.856	49.5
228.09	40.5
228.324	39.5
228.559	54.5
228.793	63.5
229.027	94.5
229.262	111.5
229.496	110.5
229.73	112.5
229.964	123.5
230.199	104.5
230.433	127.5
230.667	129.5
230.901	148.5
231.136	134.5
231.37	136.5
231.604	142.5
231.838	146.5
232.072	153.5
232.306	153.5
232.541	149.5
232.775	130.5
233.009	151.5
233.243	149.5
233.477	151.5
233.711	171.5
233.945	149.5
234.179	162.5
234.413	162.5
234.647	166.5
234.881	185.5
235.115	177.5
235.349	171.5
235.583	174.5
235.817	164.5
236.051	165.5
236.285	161.5
236.519	178.5
236.753	176.5
236.987	181.5
237.221	177.5
237.455	191.5
237.689	169.5
237.922	192.5
238.156	175.5
238.39	203.5
238.624	234.5
238.858	229.5
239.091	208.5
239.325	209.5
239.559	204.5
239.793	199.5
240.027	232.5
240.26	208.5
240.494	230.5
240.728	202.5
240.961	226.5
241.195	229.5
241.429	215.5
241.662	244.5
241.896	197.5
242.13	198.5
242.363	209.5
242.597	202.5
242.83	224.5
243.064	214.5
243.298	209.5
243.531	228.5
243.765	224.5
243.998	226.5
244.232	224.5
244.465	221.5
244.699	238.5
244.932	241.5
245.166	241.5
245.399	226.5
245.633	219.5
245.866	239.5
246.099	224.5
246.333	232.5
246.566	240.5
246.8	248.5
247.033	238.5
247.266	258.5
247.5	270.5
247.733	247.5
247.966	274.5
248.2	261.5
248.433	273.5
248.666	257.5
248.899	266.5
249.133	264.5
249.366	296.5
249.599	289.5
249.832	292.5
250.066	273.5
250.299	281.5
250.532	283.5
250.765	285.5
250.998	265.5
251.231	306.5
251.465	295.5
251.698	274.5
251.931	296.5
252.164	281.5
252.397	296.5
252.63	291.5
252.863	346.5
253.096	329.5
253.329	325.5
253.562	319.5
253.795	329.5
254.028	331.5
254.261	335.5
254.494	332.5
254.727	305.5
254.96	322.5
255.193	319.5
255.426	335.5
255.659	298.5
255.892	298.5
256.124	312.5
256.357	329.5
256.59	336.5
256.823	352.5
257.056	335.5
257.289	319.5
257.521	327.5
257.754	321.5
257.987	332.5
258.22	313.5
258.452	336.5
258.685	346.5
258.918	361.5
259.151	353.5
259.383	361.5
259.616	350.5
259.849	373.5
260.081	437.5
260.314	484.5
260.547	404.5
260.779	362.5
261.012	393.5
261.244	408.5
261.477	426.5
261.71	396.5
261.942	411.5
262.175	373.5
262.407	371.5
262.64	381.5
262.872	393.5
263.105	414.5
263.337	436.5
263.57	415.5
263.802	392.5
264.035	370.5
264.267	361.5
264.499	351.5
264.732	358.5
264.964	369.5
265.197	369.5
265.429	374.5
265.661	375.5
265.894	377.5
266.126	383.5
266.358	378.5
266.591	391.5
266.823	413.5
267.055	381.5
267.287	392.5
267.52	403.5
267.752	394.5
267.984	403.5
268.216	411.5
268.448	387.5
268.681	427.5
268.913	404.5
269.145	392.5
269.377	395.5
269.609	416.5
269.841	395.5
270.073	387.5
270.306	415.5
270.538	410.5
270.77	414.5
271.002	413.5
271.234	411.5
271.466	426.5
271.698	433.5
271.93	443.5
272.162	435.5
272.394	430.5
272.626	434.5
272.858	429.5
273.09	463.5
273.322	440.5
273.553	451.5
273.785	467.5
274.017	494.5
274.249	529.5
274.481	535.5
274.713	555.5
274.945	583.5
275.176	617.5
275.408	561.5
275.64	569.5
275.872	542.5
276.104	513.5
276.335	469.5
276.567	452.5
276.799	451.5
277.031	473.5
277.262	461.5
277.494	472.5
277.726	482.5
277.957	488.5
278.189	493.5
278.421	461.5
278.652	472.5
278.884	477.5
279.115	461.5
279.347	471.5
279.579	463.5
279.81	478.5
280.042	511.5
280.273	455.5
280.505	471.5
280.736	475.5
280.968	484.5
281.199	498.5
281.431	493.5
281.662	481.5
281.894	494.5
282.125	484.5
282.356	496.5
282.588	507.5
282.819	497.5
283.051	500.5
283.282	512.5
283.513	522.5
283.745	515.5
283.976	516.5
284.207	516.5
284.439	526.5
284.67	500.5
284.901	510.5
285.132	501.5
285.364	509.5
285.595	521.5
285.826	505.5
286.057	543.5
286.288	508.5
286.52	523.5
286.751	520.5
286.982	533.5
287.213	523.5
287.444	516.5
287.675	526.5
287.906	524.5
288.138	520.5
288.369	529.5
288.6	554.5
288.831	546.5
289.062	534.5
289.293	527.5
289.524	531.5
289.755	526.5
289.986	549.5
290.217	530.5
290.448	537.5
290.679	539.5
290.91	516.5
291.141	550.5
291.371	555.5
291.602	526.5
291.833	567.5
292.064	529.5
292.295	558.5
292.526	555.5
292.757	537.5
292.987	555.5
293.218	557.5
293.449	550.5
293.68	543.5
293.91	541.5
294.141	558.5
294.372	543.5
294.603	570.5
294.833	579.5
295.064	575.5
295.295	561.5
295.525	548.5
295.756	564.5
295.987	555.5
296.217	580.5
296.448	593.5
296.679	569.5
296.909	563.5
297.14	576.5
297.37	584.5
297.601	590.5
297.831	582.5
298.062	585.5
298.292	562.5
298.523	590.5
298.753	605.5
298.984	598.5
299.214	585.5
299.445	594.5
299.675	606.5
299.905	608.5
300.136	588.5
300.366	601.5
300.597	598.5
300.827	606.5
301.057	597.5
301.288	621.5
301.518	571.5
301.748	633.5
301.979	647.5
302.209	633.5
302.439	641.5
302.669	634.5
302.9	616.5
303.13	613.5
303.36	606.5
303.59	609.5
303.82	620.5
304.051	652.5
304.281	640.5
304.511	656.5
304.741	626.5
304.971	626.5
305.201	623.5
305.431	622.5
305.661	618.5
305.891	653.5
306.121	623.5
306.352	622.5
306.582	626.5
306.812	618.5
307.042	616.5
307.272	602.5
307.502	620.5
307.731	633.5
307.961	621.5
308.191	608.5
308.421	627.5
308.651	620.5
308.881	610.5
309.111	626.5
309.341	621.5
309.571	624.5
309.8	628.5
310.03	622.5
310.26	637.5
310.49	628.5
310.72	619.5
310.949	615.5
311.179	633.5
311.409	651.5
311.639	646.5
311.868	640.5
312.098	655.5
312.328	647.5
312.557	657.5
312.787	640.5
313.017	659.5
313.246	671.5
313.476	657.5
313.706	660.5
313.935	657.5
314.165	661.5
314.394	666.5
314.624	682.5
314.853	645.5
315.083	674.5
315.312	677.5
315.542	677.5
315.771	680.5
316.001	676.5
316.23	698.5
316.46	656.5
316.689	694.5
316.919	689.5
317.148	680.5
317.377	682.5
317.607	690.5
317.836	686.5
318.065	672.5
318.295	674.5
318.524	678.5
318.753	675.5
318.983	697.5
319.212	674.5
319.441	667.5
319.67	688.5
319.9	684.5
320.129	685.5
320.358	676.5
320.587	676.5
320.816	710.5
321.046	693.5
321.275	679.5
321.504	704.5
321.733	690.5
321.962	709.5
322.191	705.5
322.42	707.5
322.649	698.5
322.878	699.5
323.108	701.5
323.337	710.5
323.566	702.5
323.795	705.5
324.024	735.5
324.253	712.5
324.482	701.5
324.71	723.5
324.939	720.5
325.168	741.5
325.397	720.5
325.626	764.5
325.855	716.5
326.084	715.5
326.313	753.5
326.542	734.5
326.77	762.5
326.999	741.5
327.228	745.5
327.457	699.5
327.686	749.5
327.914	743.5
328.143	757.5
328.372	748.5
328.6	752.5
328.829	757.5
329.058	731.5
329.287	716.5
329.515	742.5
329.744	761.5
329.972	730.5
330.201	770.5
330.43	778.5
330.658	771.5
330.887	794.5
331.115	783.5
331.344	790.5
331.572	789.5
331.801	770.5
332.03	778.5
332.258	787.5
332.486	783.5
332.715	806.5
332.943	824.5
333.172	813.5
333.4	819.5
333.629	851.5
333.857	850.5
334.085	872.5
334.314	847.5
334.542	840.5
334.771	852.5
334.999	851.5
335.227	873.5
335.455	879.5
335.684	893.5
335.912	872.5
336.14	857.5
336.369	882.5
336.597	867.5
336.825	849.5
337.053	845.5
337.281	854.5
337.51	825.5
337.738	834.5
337.966	829.5
338.194	825.5
338.422	797.5
338.65	813.5
338.878	827.5
339.106	823.5
339.334	815.5
339.562	800.5
339.79	814.5
340.018	841.5
340.246	807.5
340.474	797.5
340.702	804.5
340.93	792.5
341.158	795.5
341.386	789.5
341.614	804.5
341.842	793.5
342.07	815.5
342.298	799.5
342.526	804.5
342.754	779.5
342.981	790.5
343.209	819.5
343.437	800.5
343.665	819.5
343.893	833.5
344.12	847.5
344.348	886.5
344.576	813.5
344.804	820.5
345.031	829.5
345.259	838.5
345.487	816.5
345.714	811.5
345.942	789.5
346.17	792.5
346.397	784.5
346.625	808.5
346.853	791.5
347.08	762.5
347.308	781.5
347.535	769.5
347.763	757.5
347.99	794.5
348.218	800.5
348.445	780.5
348.673	769.5
348.9	751.5
349.128	803.5
349.355	762.5
349.583	777.5
349.81	757.5
350.037	783.5
350.265	761.5
350.492	721.5
350.72	750.5
350.947	742.5
351.174	762.5
351.402	739.5
351.629	750.5
351.856	759.5
352.083	780.5
352.311	759.5
352.538	742.5
352.765	762.5
352.992	757.5
353.22	767.5
353.447	749.5
353.674	723.5
353.901	765.5
354.128	751.5
354.355	734.5
354.583	751.5
354.81	737.5
355.037	741.5
355.264	769.5
355.491	744.5
355.718	762.5
355.945	773.5
356.172	776.5
356.399	753.5
356.626	768.5
356.853	763.5
357.08	773.5
357.307	784.5
357.534	763.5
357.761	765.5
357.988	791.5
358.215	791.5
358.441	778.5
358.668	790.5
358.895	766.5
359.122	749.5
359.349	737.5
359.576	780.5
359.802	736.5
360.029	765.5
360.256	767.5
360.483	769.5
360.709	744.5
360.936	784.5
361.163	770.5
361.39	788.5
361.616	771.5
361.843	800.5
362.07	799.5
362.296	774.5
362.523	762.5
362.749	782.5
362.976	779.5
363.203	816.5
363.429	807.5
363.656	765.5
363.882	762.5
364.109	774.5
364.335	767.5
364.562	792.5
364.788	803.5
365.015	787.5
365.241	801.5
365.468	783.5
365.694	774.5
365.92	811.5
366.147	773.5
366.373	769.5
366.599	751.5
366.826	781.5
367.052	737.5
367.278	778.5
367.505	765.5
367.731	782.5
367.957	827.5
368.184	808.5
368.41	814.5
368.636	789.5
368.862	798.5
369.089	821.5
369.315	785.5
369.541	810.5
369.767	788.5
369.993	813.5
370.219	803.5
370.445	829.5
370.672	856.5
370.898	833.5
371.124	840.5
371.35	844.5
371.576	838.5
371.802	877.5
372.028	860.5
372.254	883.5
372.48	857.5
372.706	886.5
372.932	874.5
373.158	858.5
373.384	879.5
373.61	907.5
373.835	935.5
374.061	874.5
374.287	860.5
374.513	895.5
374.739	911.5
374.965	946.5
375.191	932.5
375.416	889.5
375.642	883.5
375.868	902.5
376.094	891.5
376.319	897.5
376.545	899.5
376.771	829.5
376.997	858.5
377.222	877.5
377.448	831.5
377.674	886.5
377.899	856.5
378.125	874.5
378.35	846.5
378.576	831.5
378.802	857.5
379.027	815.5
379.253	851.5
379.478	842.5
379.704	849.5
379.929	863.5
380.155	872.5
380.38	862.5
380.606	872.5
380.831	862.5
381.057	890.5
381.282	872.5
381.507	877.5
381.733	899.5
381.958	885.5
382.184	917.5
382.409	922.5
382.634	934.5
382.86	941.5
383.085	916.5
383.31	931.5
383.535	930.5
383.761	918.5
383.986	939.5
384.211	937.5
384.436	940.5
384.662	943.5
384.887	942.5
385.112	941.5
385.337	929.5
385.562	963.5
385.787	1008.5
386.013	985.5
386.238	1002.5
386.463	989.5
386.688	993.5
386.913	982.5
387.138	969.5
387.363	996.5
387.588	962.5
387.813	991.5
388.038	1033.5
388.263	1010.5
388.488	1020.5
388.713	1029.5
388.938	1020.5
389.163	1036.5
389.387	1050.5
389.612	1002.5
389.837	1025.5
390.062	1041.5
390.287	1002.5
390.512	987.5
390.736	1004.5
390.961	1003.5
391.186	1066.5
391.411	1045.5
391.636	1056.5
391.86	1087.5
392.085	1072.5
392.31	1077.5
392.534	1089.5
392.759	1081.5
392.984	1041.5
393.208	1064.5
393.433	1098.5
393.658	1058.5
393.882	1072.5
394.107	1066.5
394.331	1051.5
394.556	1060.5
394.78	1073.5
395.005	1065.5
395.229	1074.5
395.454	1106.5
395.678	1109.5
395.903	1101.5
396.127	1113.5
396.352	1110.5
396.576	1127.5
396.801	1113.5
397.025	1140.5
397.249	1097.5
397.474	1116.5
397.698	1146.5
397.922	1175.5
398.147	1152.5
398.371	1173.5
398.595	1201.5
398.82	1198.5
399.044	1257.5
399.268	1274.5
399.492	1354.5
399.717	1402.5
399.941	1400.5
400.165	1346.5
400.389	1383.5
400.613	1333.5
400.837	1307.5
401.062	1255.5
401.286	1242.5
401.51	1223.5
401.734	1206.5
401.958	1239.5
402.182	1210.5
402.406	1199.5
402.63	1211.5
402.854	1233.5
403.078	1221.5
403.302	1238.5
403.526	1239.5
403.75	1237.5
403.974	1243.5
404.198	1217.5
404.422	1282.5
404.645	1273.5
404.869	1281.5
405.093	1285.5
405.317	1258.5
405.541	1306.5
405.765	1268.5
405.988	1312.5
406.212	1306.5
406.436	1284.5
406.66	1334.5
406.883	1315.5
407.107	1335.5
407.331	1403.5
407.555	1439.5
407.778	1430.5
408.002	1406.5
408.226	1423.5
408.449	1441.5
408.673	1379.5
408.896	1368.5
409.12	1379.5
409.344	1358.5
409.567	1336.5
409.791	1372.5
410.014	1347.5
410.238	1342.5
410.461	1339.5
410.685	1313.5
410.908	1307.5
411.132	1328.5
411.355	1297.5
411.578	1319.5
411.802	1314.5
412.025	1296.5
412.249	1289.5
412.472	1329.5
412.695	1259.5
412.919	1307.5
413.142	1304.5
413.365	1272.5
413.589	1263.5
413.812	1239.5
414.035	1227.5
414.258	1257.5
414.482	1247.5
414.705	1256.5
414.928	1249.5
415.151	1263.5
415.374	1213.5
415.597	1268.5
415.821	1229.5
416.044	1215.5
416.267	1190.5
416.49	1201.5
416.713	1219.5
416.936	1235.5
417.159	1204.5
417.382	1173.5
417.605	1182.5
417.828	1203.5
418.051	1184.5
418.274	1221.5
418.497	1216.5
418.72	1214.5
418.943	1210.5
419.166	1258.5
419.389	1345.5
419.611	1338.5
419.834	1258.5
420.057	1265.5
420.28	1175.5
420.503	1197.5
420.726	1185.5
420.948	1149.5
421.171	1184.5
421.394	1175.5
421.617	1182.5
421.839	1175.5
422.062	1198.5
422.285	1158.5
422.507	1195.5
422.73	1223.5
422.953	1211.5
423.175	1187.5
423.398	1211.5
423.621	1172.5
423.843	1171.5
424.066	1226.5
424.288	1179.5
424.511	1187.5
424.733	1192.5
424.956	1167.5
425.178	1192.5
425.401	1189.5
425.623	1185.5
425.846	1179.5
426.068	1177.5
426.291	1158.5
426.513	1147.5
426.735	1161.5
426.958	1190.5
427.18	1163.5
427.402	1171.5
427.625	1149.5
427.847	1162.5
428.069	1134.5
428.292	1143.5
428.514	1114.5
428.736	1121.5
428.958	1137.5
429.181	1136.5
429.403	1124.5
429.625	1144.5
429.847	1158.5
430.069	1158.5
430.292	1110.5
430.514	1109.5
430.736	1143.5
430.958	1158.5
431.18	1141.5
431.402	1126.5
431.624	1133.5
431.846	1117.5
432.068	1131.5
432.29	1165.5
432.512	1130.5
432.734	1181.5
432.956	1137.5
433.178	1142.5
433.4	1145.5
433.622	1161.5
433.844	1179.5
434.066	1164.5
434.287	1165.5
434.509	1210.5
434.731	1188.5
434.953	1213.5
435.175	1211.5
435.397	1193.5
435.618	1204.5
435.84	1199.5
436.062	1174.5
436.284	1172.5
436.505	1173.5
436.727	1146.5
436.949	1155.5
437.17	1151.5
437.392	1155.5
437.614	1139.5
437.835	1114.5
438.057	1125.5
438.278	1098.5
438.5	1140.5
438.721	1165.5
438.943	1119.5
439.165	1117.5
439.386	1128.5
439.608	1133.5
439.829	1151.5
440.05	1138.5
440.272	1149.5
440.493	1154.5
440.715	1137.5
440.936	1147.5
441.158	1168.5
441.379	1197.5
441.6	1193.5
441.822	1164.5
442.043	1199.5
442.264	1186.5
442.486	1192.5
442.707	1207.5
442.928	1181.5
443.149	1203.5
443.371	1204.5
443.592	1217.5
443.813	1168.5
444.034	1197.5
444.255	1202.5
444.476	1210.5
444.698	1223.5
444.919	1238.5
445.14	1318.5
445.361	1267.5
445.582	1207.5
445.803	1175.5
446.024	1173.5
446.245	1174.5
446.466	1170.5
446.687	1151.5
446.908	1161.5
447.129	1143.5
447.35	1140.5
447.571	1085.5
447.792	1091.5
448.013	1106.5
448.234	1088.5
448.455	1081.5
448.675	1055.5
448.896	1084.5
449.117	1062.5
449.338	1078.5
449.559	1074.5
449.779	1062.5
450	1037.5
450.221	1046.5
450.442	1056.5
450.662	1042.5
450.883	1076.5
451.104	1067.5
451.324	1058.5
451.545	1060.5
451.766	1056.5
451.986	1025.5
452.207	1045.5
452.428	1033.5
452.648	1046.5
452.869	1039.5
453.089	1013.5
453.31	1055.5
453.53	1016.5
453.751	990.5
453.971	1047.5
454.192	1042.5
454.412	995.5
454.633	979.5
454.853	971.5
455.073	1025.5
455.294	1025.5
455.514	994.5
455.734	1008.5
455.955	991.5
456.175	993.5
456.395	1007.5
456.616	994.5
456.836	1010.5
457.056	987.5
457.276	1019.5
457.497	1041.5
457.717	1013.5
457.937	1010.5
458.157	1018.5
458.377	1049.5
458.598	1091.5
458.818	1103.5
459.038	1099.5
459.258	1107.5
459.478	1122.5
459.698	1139.5
459.918	1151.5
460.138	1169.5
460.358	1192.5
460.578	1185.5
460.798	1249.5
461.018	1219.5
461.238	1211.5
461.458	1226.5
461.678	1205.5
461.898	1271.5
462.118	1257.5
462.338	1281.5
462.558	1329.5
462.777	1375.5
462.997	1405.5
463.217	1363.5
463.437	1434.5
463.657	1395.5
463.876	1382.5
464.096	1380.5
464.316	1342.5
464.536	1326.5
464.755	1329.5
464.975	1298.5
465.195	1248.5
465.414	1237.5
465.634	1199.5
465.854	1208.5
466.073	1173.5
466.293	1157.5
466.512	1155.5
466.732	1159.5
466.951	1154.5
467.171	1109.5
467.391	1126.5
467.61	1117.5
467.829	1130.5
468.049	1115.5
468.268	1095.5
468.488	1103.5
468.707	1094.5
468.927	1134.5
469.146	1125.5
469.365	1121.5
469.585	1089.5
469.804	1111.5
470.023	1147.5
470.243	1104.5
470.462	1101.5
470.681	1106.5
470.901	1110.5
471.12	1147.5
471.339	1124.5
471.558	1097.5
471.777	1108.5
471.997	1119.5
472.216	1123.5
472.435	1106.5
472.654	1108.5
472.873	1089.5
473.092	1107.5
473.311	1094.5
473.53	1120.5
473.749	1107.5
473.968	1121.5
474.187	1102.5
474.406	1097.5
474.625	1087.5
474.844	1080.5
475.063	1129.5
475.282	1128.5
475.501	1134.5
475.72	1122.5
475.939	1126.5
476.158	1143.5
476.377	1150.5
476.596	1203.5
476.814	1219.5
477.033	1189.5
477.252	1170.5
477.471	1183.5
477.69	1199.5
477.908	1235.5
478.127	1221.5
478.346	1254.5
478.564	1264.5
478.783	1271.5
479.002	1306.5
479.22	1315.5
479.439	1329.5
479.658	1337.5
479.876	1323.5
480.095	1331.5
480.313	1343.5
480.532	1347.5
480.751	1354.5
480.969	1326.5
481.188	1311.5
481.406	1335.5
481.624	1299.5
481.843	1299.5
482.061	1293.5
482.28	1280.5
482.498	1296.5
482.717	1289.5
482.935	1293.5
483.153	1309.5
483.372	1312.5
483.59	1346.5
483.808	1313.5
484.027	1283.5
484.245	1358.5
484.463	1297.5
484.681	1321.5
484.9	1325.5
485.118	1330.5
485.336	1322.5
485.554	1294.5
485.772	1325.5
485.99	1299.5
486.209	1333.5
486.427	1347.5
486.645	1299.5
486.863	1373.5
487.081	1333.5
487.299	1356.5
487.517	1335.5
487.735	1311.5
487.953	1344.5
488.171	1313.5
488.389	1330.5
488.607	1350.5
488.825	1363.5
489.043	1298.5
489.261	1315.5
489.479	1323.5
489.696	1332.5
489.914	1334.5
490.132	1308.5
490.35	1331.5
490.568	1323.5
490.786	1336.5
491.003	1341.5
491.221	1341.5
491.439	1337.5
491.657	1378.5
491.874	1379.5
492.092	1394.5
492.31	1399.5
492.527	1373.5
492.745	1391.5
492.963	1398.5
493.18	1376.5
493.398	1381.5
493.615	1387.5
493.833	1398.5
494.05	1399.5
494.268	1404.5
494.485	1399.5
494.703	1397.5
494.92	1399.5
495.138	1376.5
495.355	1418.5
495.573	1378.5
495.79	1407.5
496.008	1495.5
496.225	1469.5
496.442	1480.5
496.66	1458.5
496.877	1475.5
497.094	1506.5
497.312	1502.5
497.529	1532.5
497.746	1545.5
497.963	1570.5
498.181	1639.5
498.398	1709.5
498.615	1787.5
498.832	1800.5
499.049	1858.5
499.267	1930.5
499.484	2018.5
499.701	2109.5
499.918	2161.5
500.135	2289.5
500.352	2331.5
500.569	2402.5
500.786	2423.5
501.003	2319.5
501.22	2323.5
501.437	2188.5
501.654	2088.5
501.871	1992.5
502.088	1917.5
502.305	1848.5
502.522	1762.5
502.739	1750.5
502.956	1675.5
503.172	1674.5
503.389	1614.5
503.606	1583.5
503.823	1540.5
504.04	1553.5
504.256	1518.5
504.473	1486.5
504.69	1482.5
504.907	1463.5
505.123	1416.5
505.34	1394.5
505.557	1354.5
505.773	1352.5
505.99	1337.5
506.207	1341.5
506.423	1312.5
506.64	1313.5
506.856	1251.5
507.073	1279.5
507.289	1228.5
507.506	1247.5
507.722	1237.5
507.939	1225.5
508.155	1217.5
508.372	1179.5
508.588	1208.5
508.805	1214.5
509.021	1165.5
509.238	1171.5
509.454	1146.5
509.67	1145.5
509.887	1140.5
510.103	1134.5
510.319	1171.5
510.536	1131.5
510.752	1115.5
510.968	1101.5
511.184	1101.5
511.401	1093.5
511.617	1089.5
