Data from Fe(NO3)3@0.1M.TitratingCurve.Agarose3%dH2O.NegLispCup.LampEnergy10.LIBS07252019_HRD10591_16-38-34-332.txt Node
Date: Thu Jul 25 16:38:34 EDT 2019
User: cochatt
Spectrometer: HR+D1059
Trigger mode: 1
Integration Time (sec): 1.000000E-1
Scans to average: 1
Electric dark correction enabled: true
Nonlinearity correction enabled: false
Boxcar width: 0
XAxis mode: Wavelengths
Number of Pixels in Spectrum: 2048
>>>>>Begin Spectral Data<<<<<
223.165	-2.56
223.4	-2.56
223.635	-2.56
223.869	-22.56
224.104	-15.56
224.338	-21.56
224.573	-11.56
224.808	-18.56
225.042	-6.56
225.277	-22.56
225.511	11.44
225.746	7.44
225.98	4.44
226.215	8.44
226.449	4.44
226.683	27.44
226.918	22.44
227.152	35.44
227.387	51.44
227.621	61.44
227.856	44.44
228.09	36.44
228.324	54.44
228.559	58.44
228.793	60.44
229.027	60.44
229.262	72.44
229.496	67.44
229.73	84.44
229.964	83.44
230.199	85.44
230.433	82.44
230.667	99.44
230.901	89.44
231.136	97.44
231.37	84.44
231.604	77.44
231.838	95.44
232.072	79.44
232.306	85.44
232.541	98.44
232.775	96.44
233.009	90.44
233.243	87.44
233.477	100.44
233.711	91.44
233.945	94.44
234.179	106.44
234.413	70.44
234.647	92.44
234.881	89.44
235.115	87.44
235.349	96.44
235.583	98.44
235.817	91.44
236.051	71.44
236.285	94.44
236.519	105.44
236.753	86.44
236.987	79.44
237.221	80.44
237.455	96.44
237.689	84.44
237.922	82.44
238.156	86.44
238.39	84.44
238.624	91.44
238.858	106.44
239.091	93.44
239.325	101.44
239.559	82.44
239.793	68.44
240.027	92.44
240.26	98.44
240.494	91.44
240.728	87.44
240.961	81.44
241.195	85.44
241.429	85.44
241.662	90.44
241.896	99.44
242.13	83.44
242.363	72.44
242.597	91.44
242.83	95.44
243.064	88.44
243.298	87.44
243.531	90.44
243.765	91.44
243.998	93.44
244.232	86.44
244.465	95.44
244.699	88.44
244.932	101.44
245.166	87.44
245.399	87.44
245.633	93.44
245.866	98.44
246.099	82.44
246.333	88.44
246.566	99.44
246.8	82.44
247.033	91.44
247.266	84.44
247.5	93.44
247.733	100.44
247.966	103.44
248.2	98.44
248.433	90.44
248.666	85.44
248.899	93.44
249.133	96.44
249.366	107.44
249.599	95.44
249.832	103.44
250.066	96.44
250.299	100.44
250.532	93.44
250.765	78.44
250.998	108.44
251.231	105.44
251.465	98.44
251.698	83.44
251.931	97.44
252.164	94.44
252.397	90.44
252.63	86.44
252.863	101.44
253.096	94.44
253.329	97.44
253.562	89.44
253.795	99.44
254.028	96.44
254.261	102.44
254.494	109.44
254.727	107.44
254.96	100.44
255.193	95.44
255.426	106.44
255.659	86.44
255.892	105.44
256.124	94.44
256.357	104.44
256.59	99.44
256.823	104.44
257.056	98.44
257.289	97.44
257.521	99.44
257.754	107.44
257.987	101.44
258.22	92.44
258.452	108.44
258.685	98.44
258.918	104.44
259.151	85.44
259.383	105.44
259.616	115.44
259.849	101.44
260.081	96.44
260.314	110.44
260.547	96.44
260.779	101.44
261.012	106.44
261.244	104.44
261.477	90.44
261.71	92.44
261.942	100.44
262.175	104.44
262.407	95.44
262.64	107.44
262.872	108.44
263.105	103.44
263.337	115.44
263.57	105.44
263.802	110.44
264.035	108.44
264.267	116.44
264.499	103.44
264.732	112.44
264.964	102.44
265.197	123.44
265.429	110.44
265.661	113.44
265.894	95.44
266.126	96.44
266.358	106.44
266.591	99.44
266.823	118.44
267.055	109.44
267.287	108.44
267.52	105.44
267.752	113.44
267.984	104.44
268.216	92.44
268.448	115.44
268.681	112.44
268.913	98.44
269.145	93.44
269.377	103.44
269.609	94.44
269.841	103.44
270.073	103.44
270.306	99.44
270.538	114.44
270.77	122.44
271.002	128.44
271.234	118.44
271.466	113.44
271.698	99.44
271.93	108.44
272.162	122.44
272.394	106.44
272.626	116.44
272.858	125.44
273.09	117.44
273.322	126.44
273.553	114.44
273.785	111.44
274.017	109.44
274.249	106.44
274.481	118.44
274.713	97.44
274.945	125.44
275.176	114.44
275.408	111.44
275.64	125.44
275.872	125.44
276.104	99.44
276.335	100.44
276.567	118.44
276.799	112.44
277.031	110.44
277.262	124.44
277.494	130.44
277.726	123.44
277.957	123.44
278.189	112.44
278.421	135.44
278.652	112.44
278.884	121.44
279.115	117.44
279.347	131.44
279.579	133.44
279.81	124.44
280.042	109.44
280.273	112.44
280.505	122.44
280.736	119.44
280.968	115.44
281.199	124.44
281.431	111.44
281.662	129.44
281.894	127.44
282.125	119.44
282.356	112.44
282.588	118.44
282.819	108.44
283.051	116.44
283.282	121.44
283.513	138.44
283.745	124.44
283.976	124.44
284.207	116.44
284.439	127.44
284.67	151.44
284.901	122.44
285.132	122.44
285.364	135.44
285.595	132.44
285.826	133.44
286.057	133.44
286.288	121.44
286.52	129.44
286.751	135.44
286.982	129.44
287.213	120.44
287.444	128.44
287.675	131.44
287.906	127.44
288.138	138.44
288.369	130.44
288.6	131.44
288.831	133.44
289.062	126.44
289.293	129.44
289.524	121.44
289.755	133.44
289.986	132.44
290.217	124.44
290.448	124.44
290.679	118.44
290.91	139.44
291.141	129.44
291.371	123.44
291.602	133.44
291.833	111.44
292.064	129.44
292.295	132.44
292.526	141.44
292.757	136.44
292.987	109.44
293.218	130.44
293.449	139.44
293.68	126.44
293.91	133.44
294.141	131.44
294.372	153.44
294.603	144.44
294.833	143.44
295.064	139.44
295.295	152.44
295.525	126.44
295.756	123.44
295.987	139.44
296.217	132.44
296.448	138.44
296.679	126.44
296.909	137.44
297.14	142.44
297.37	129.44
297.601	139.44
297.831	130.44
298.062	128.44
298.292	149.44
298.523	141.44
298.753	139.44
298.984	142.44
299.214	125.44
299.445	140.44
299.675	123.44
299.905	140.44
300.136	139.44
300.366	132.44
300.597	137.44
300.827	149.44
301.057	143.44
301.288	145.44
301.518	143.44
301.748	150.44
301.979	131.44
302.209	152.44
302.439	147.44
302.669	143.44
302.9	142.44
303.13	126.44
303.36	140.44
303.59	139.44
303.82	143.44
304.051	140.44
304.281	169.44
304.511	160.44
304.741	139.44
304.971	142.44
305.201	153.44
305.431	149.44
305.661	151.44
305.891	134.44
306.121	140.44
306.352	142.44
306.582	148.44
306.812	139.44
307.042	135.44
307.272	143.44
307.502	153.44
307.731	159.44
307.961	142.44
308.191	137.44
308.421	154.44
308.651	144.44
308.881	131.44
309.111	137.44
309.341	133.44
309.571	141.44
309.8	135.44
310.03	147.44
310.26	141.44
310.49	141.44
310.72	148.44
310.949	141.44
311.179	143.44
311.409	134.44
311.639	148.44
311.868	145.44
312.098	151.44
312.328	140.44
312.557	150.44
312.787	133.44
313.017	143.44
313.246	151.44
313.476	152.44
313.706	154.44
313.935	147.44
314.165	155.44
314.394	153.44
314.624	165.44
314.853	151.44
315.083	147.44
315.312	155.44
315.542	149.44
315.771	148.44
316.001	146.44
316.23	150.44
316.46	150.44
316.689	129.44
316.919	146.44
317.148	152.44
317.377	141.44
317.607	144.44
317.836	148.44
318.065	137.44
318.295	148.44
318.524	145.44
318.753	145.44
318.983	141.44
319.212	155.44
319.441	161.44
319.67	139.44
319.9	145.44
320.129	154.44
320.358	157.44
320.587	157.44
320.816	141.44
321.046	154.44
321.275	155.44
321.504	138.44
321.733	149.44
321.962	158.44
322.191	153.44
322.42	153.44
322.649	138.44
322.878	157.44
323.108	142.44
323.337	158.44
323.566	146.44
323.795	150.44
324.024	137.44
324.253	156.44
324.482	176.44
324.71	172.44
324.939	145.44
325.168	153.44
325.397	163.44
325.626	159.44
325.855	169.44
326.084	151.44
326.313	155.44
326.542	158.44
326.77	152.44
326.999	147.44
327.228	147.44
327.457	150.44
327.686	158.44
327.914	160.44
328.143	154.44
328.372	148.44
328.6	153.44
328.829	145.44
329.058	148.44
329.287	163.44
329.515	149.44
329.744	155.44
329.972	162.44
330.201	156.44
330.43	152.44
330.658	151.44
330.887	180.44
331.115	155.44
331.344	160.44
331.572	160.44
331.801	156.44
332.03	171.44
332.258	169.44
332.486	168.44
332.715	169.44
332.943	161.44
333.172	164.44
333.4	174.44
333.629	183.44
333.857	177.44
334.085	172.44
334.314	194.44
334.542	193.44
334.771	181.44
334.999	172.44
335.227	178.44
335.455	188.44
335.684	180.44
335.912	173.44
336.14	166.44
336.369	169.44
336.597	176.44
336.825	172.44
337.053	173.44
337.281	159.44
337.51	167.44
337.738	163.44
337.966	158.44
338.194	155.44
338.422	171.44
338.65	175.44
338.878	174.44
339.106	166.44
339.334	162.44
339.562	157.44
339.79	167.44
340.018	161.44
340.246	160.44
340.474	170.44
340.702	189.44
340.93	160.44
341.158	172.44
341.386	167.44
341.614	160.44
341.842	154.44
342.07	157.44
342.298	177.44
342.526	166.44
342.754	151.44
342.981	163.44
343.209	149.44
343.437	171.44
343.665	159.44
343.893	179.44
344.12	175.44
344.348	159.44
344.576	172.44
344.804	184.44
345.031	171.44
345.259	174.44
345.487	167.44
345.714	164.44
345.942	146.44
346.17	152.44
346.397	169.44
346.625	165.44
346.853	165.44
347.08	149.44
347.308	181.44
347.535	160.44
347.763	173.44
347.99	163.44
348.218	160.44
348.445	155.44
348.673	158.44
348.9	153.44
349.128	164.44
349.355	170.44
349.583	172.44
349.81	154.44
350.037	169.44
350.265	171.44
350.492	169.44
350.72	168.44
350.947	163.44
351.174	152.44
351.402	152.44
351.629	157.44
351.856	157.44
352.083	157.44
352.311	166.44
352.538	163.44
352.765	186.44
352.992	165.44
353.22	160.44
353.447	163.44
353.674	166.44
353.901	160.44
354.128	169.44
354.355	164.44
354.583	172.44
354.81	170.44
355.037	167.44
355.264	153.44
355.491	159.44
355.718	162.44
355.945	153.44
356.172	158.44
356.399	169.44
356.626	171.44
356.853	160.44
357.08	158.44
357.307	151.44
357.534	176.44
357.761	171.44
357.988	153.44
358.215	157.44
358.441	165.44
358.668	177.44
358.895	153.44
359.122	167.44
359.349	154.44
359.576	156.44
359.802	160.44
360.029	159.44
360.256	157.44
360.483	163.44
360.709	170.44
360.936	150.44
361.163	157.44
361.39	145.44
361.616	157.44
361.843	158.44
362.07	177.44
362.296	168.44
362.523	155.44
362.749	169.44
362.976	162.44
363.203	171.44
363.429	158.44
363.656	161.44
363.882	174.44
364.109	154.44
364.335	169.44
364.562	183.44
364.788	148.44
365.015	177.44
365.241	170.44
365.468	160.44
365.694	159.44
365.92	158.44
366.147	167.44
366.373	160.44
366.599	185.44
366.826	168.44
367.052	165.44
367.278	168.44
367.505	143.44
367.731	173.44
367.957	168.44
368.184	172.44
368.41	180.44
368.636	166.44
368.862	168.44
369.089	174.44
369.315	163.44
369.541	166.44
369.767	172.44
369.993	172.44
370.219	169.44
370.445	174.44
370.672	179.44
370.898	187.44
371.124	170.44
371.35	149.44
371.576	180.44
371.802	160.44
372.028	171.44
372.254	191.44
372.48	185.44
372.706	169.44
372.932	187.44
373.158	166.44
373.384	181.44
373.61	183.44
373.835	167.44
374.061	179.44
374.287	177.44
374.513	187.44
374.739	186.44
374.965	180.44
375.191	173.44
375.416	179.44
375.642	176.44
375.868	195.44
376.094	198.44
376.319	184.44
376.545	172.44
376.771	178.44
376.997	173.44
377.222	180.44
377.448	191.44
377.674	180.44
377.899	187.44
378.125	182.44
378.35	181.44
378.576	187.44
378.802	163.44
379.027	191.44
379.253	179.44
379.478	176.44
379.704	163.44
379.929	174.44
380.155	188.44
380.38	183.44
380.606	181.44
380.831	172.44
381.057	185.44
381.282	187.44
381.507	199.44
381.733	184.44
381.958	173.44
382.184	191.44
382.409	197.44
382.634	185.44
382.86	179.44
383.085	198.44
383.31	181.44
383.535	205.44
383.761	206.44
383.986	191.44
384.211	209.44
384.436	204.44
384.662	204.44
384.887	203.44
385.112	217.44
385.337	203.44
385.562	205.44
385.787	194.44
386.013	225.44
386.238	186.44
386.463	201.44
386.688	218.44
386.913	199.44
387.138	213.44
387.363	212.44
387.588	221.44
387.813	218.44
388.038	211.44
388.263	216.44
388.488	205.44
388.713	229.44
388.938	209.44
389.163	208.44
389.387	195.44
389.612	204.44
389.837	195.44
390.062	200.44
390.287	200.44
390.512	200.44
390.736	204.44
390.961	218.44
391.186	199.44
391.411	210.44
391.636	221.44
391.86	218.44
392.085	233.44
392.31	223.44
392.534	220.44
392.759	236.44
392.984	202.44
393.208	216.44
393.433	216.44
393.658	208.44
393.882	225.44
394.107	216.44
394.331	198.44
394.556	215.44
394.78	213.44
395.005	209.44
395.229	197.44
395.454	233.44
395.678	247.44
395.903	211.44
396.127	232.44
396.352	219.44
396.576	219.44
396.801	231.44
397.025	235.44
397.249	226.44
397.474	237.44
397.698	240.44
397.922	224.44
398.147	228.44
398.371	236.44
398.595	230.44
398.82	239.44
399.044	248.44
399.268	277.44
399.492	300.44
399.717	312.44
399.941	302.44
400.165	279.44
400.389	259.44
400.613	276.44
400.837	263.44
401.062	233.44
401.286	249.44
401.51	245.44
401.734	240.44
401.958	255.44
402.182	257.44
402.406	240.44
402.63	249.44
402.854	269.44
403.078	250.44
403.302	267.44
403.526	251.44
403.75	263.44
403.974	264.44
404.198	273.44
404.422	256.44
404.645	246.44
404.869	259.44
405.093	279.44
405.317	248.44
405.541	246.44
405.765	244.44
405.988	259.44
406.212	283.44
406.436	283.44
406.66	272.44
406.883	267.44
407.107	284.44
407.331	276.44
407.555	278.44
407.778	306.44
408.002	281.44
408.226	283.44
408.449	274.44
408.673	273.44
408.896	277.44
409.12	250.44
409.344	272.44
409.567	276.44
409.791	253.44
410.014	255.44
410.238	264.44
410.461	275.44
410.685	272.44
410.908	272.44
411.132	262.44
411.355	272.44
411.578	264.44
411.802	266.44
412.025	251.44
412.249	249.44
412.472	236.44
412.695	232.44
412.919	252.44
413.142	248.44
413.365	257.44
413.589	250.44
413.812	257.44
414.035	256.44
414.258	259.44
414.482	254.44
414.705	240.44
414.928	263.44
415.151	259.44
415.374	237.44
415.597	259.44
415.821	243.44
416.044	252.44
416.267	261.44
416.49	248.44
416.713	231.44
416.936	258.44
417.159	240.44
417.382	254.44
417.605	245.44
417.828	248.44
418.051	243.44
418.274	257.44
418.497	231.44
418.72	243.44
418.943	258.44
419.166	277.44
419.389	256.44
419.611	252.44
419.834	244.44
420.057	261.44
420.28	263.44
420.503	236.44
420.726	248.44
420.948	245.44
421.171	248.44
421.394	242.44
421.617	240.44
421.839	259.44
422.062	246.44
422.285	241.44
422.507	257.44
422.73	261.44
422.953	268.44
423.175	248.44
423.398	252.44
423.621	264.44
423.843	253.44
424.066	263.44
424.288	267.44
424.511	256.44
424.733	235.44
424.956	253.44
425.178	243.44
425.401	247.44
425.623	246.44
425.846	250.44
426.068	228.44
426.291	252.44
426.513	235.44
426.735	236.44
426.958	240.44
427.18	233.44
427.402	245.44
427.625	234.44
427.847	208.44
428.069	211.44
428.292	215.44
428.514	247.44
428.736	234.44
428.958	242.44
429.181	225.44
429.403	222.44
429.625	221.44
429.847	227.44
430.069	212.44
430.292	234.44
430.514	213.44
430.736	231.44
430.958	215.44
431.18	223.44
431.402	242.44
431.624	224.44
431.846	231.44
432.068	218.44
432.29	215.44
432.512	224.44
432.734	224.44
432.956	239.44
433.178	240.44
433.4	234.44
433.622	250.44
433.844	240.44
434.066	243.44
434.287	233.44
434.509	232.44
434.731	251.44
434.953	248.44
435.175	240.44
435.397	245.44
435.618	226.44
435.84	234.44
436.062	220.44
436.284	237.44
436.505	237.44
436.727	247.44
436.949	230.44
437.17	255.44
437.392	225.44
437.614	249.44
437.835	234.44
438.057	240.44
438.278	216.44
438.5	216.44
438.721	243.44
438.943	229.44
439.165	239.44
439.386	228.44
439.608	230.44
439.829	237.44
440.05	240.44
440.272	248.44
440.493	254.44
440.715	251.44
440.936	264.44
441.158	239.44
441.379	248.44
441.6	259.44
441.822	249.44
442.043	262.44
442.264	241.44
442.486	250.44
442.707	253.44
442.928	243.44
443.149	269.44
443.371	245.44
443.592	257.44
443.813	252.44
444.034	264.44
444.255	249.44
444.476	280.44
444.698	286.44
444.919	293.44
445.14	362.44
445.361	297.44
445.582	247.44
445.803	259.44
446.024	252.44
446.245	255.44
446.466	249.44
446.687	219.44
446.908	244.44
447.129	238.44
447.35	223.44
447.571	221.44
447.792	217.44
448.013	232.44
448.234	254.44
448.455	244.44
448.675	235.44
448.896	240.44
449.117	226.44
449.338	232.44
449.559	231.44
449.779	215.44
450	224.44
450.221	211.44
450.442	223.44
450.662	238.44
450.883	221.44
451.104	232.44
451.324	228.44
451.545	236.44
451.766	222.44
451.986	220.44
452.207	222.44
452.428	224.44
452.648	229.44
452.869	206.44
453.089	209.44
453.31	219.44
453.53	193.44
453.751	204.44
453.971	217.44
454.192	209.44
454.412	219.44
454.633	214.44
454.853	221.44
455.073	221.44
455.294	198.44
455.514	208.44
455.734	210.44
455.955	216.44
456.175	217.44
456.395	216.44
456.616	187.44
456.836	216.44
457.056	219.44
457.276	213.44
457.497	206.44
457.717	217.44
457.937	217.44
458.157	223.44
458.377	211.44
458.598	222.44
458.818	230.44
459.038	207.44
459.258	227.44
459.478	231.44
459.698	225.44
459.918	237.44
460.138	246.44
460.358	267.44
460.578	272.44
460.798	260.44
461.018	256.44
461.238	258.44
461.458	265.44
461.678	274.44
461.898	264.44
462.118	271.44
462.338	289.44
462.558	275.44
462.777	287.44
462.997	303.44
463.217	307.44
463.437	297.44
463.657	257.44
463.876	263.44
464.096	299.44
464.316	289.44
464.536	299.44
464.755	273.44
464.975	283.44
465.195	278.44
465.414	259.44
465.634	251.44
465.854	241.44
466.073	255.44
466.293	236.44
466.512	238.44
466.732	225.44
466.951	236.44
467.171	239.44
467.391	244.44
467.61	233.44
467.829	252.44
468.049	246.44
468.268	231.44
468.488	233.44
468.707	241.44
468.927	229.44
469.146	229.44
469.365	229.44
469.585	227.44
469.804	227.44
470.023	246.44
470.243	240.44
470.462	237.44
470.681	239.44
470.901	254.44
471.12	228.44
471.339	244.44
471.558	215.44
471.777	214.44
471.997	230.44
472.216	232.44
472.435	231.44
472.654	191.44
472.873	211.44
473.092	259.44
473.311	229.44
473.53	215.44
473.749	216.44
473.968	222.44
474.187	228.44
474.406	228.44
474.625	228.44
474.844	231.44
475.063	232.44
475.282	221.44
475.501	228.44
475.72	226.44
475.939	228.44
476.158	221.44
476.377	243.44
476.596	247.44
476.814	232.44
477.033	229.44
477.252	227.44
477.471	237.44
477.69	252.44
477.908	239.44
478.127	255.44
478.346	263.44
478.564	265.44
478.783	272.44
479.002	253.44
479.22	243.44
479.439	250.44
479.658	247.44
479.876	265.44
480.095	271.44
480.313	263.44
480.532	278.44
480.751	273.44
480.969	248.44
481.188	269.44
481.406	241.44
481.624	248.44
481.843	238.44
482.061	251.44
482.28	247.44
482.498	240.44
482.717	236.44
482.935	218.44
483.153	238.44
483.372	261.44
483.59	261.44
483.808	251.44
484.027	258.44
484.245	253.44
484.463	259.44
484.681	273.44
484.9	256.44
485.118	269.44
485.336	262.44
485.554	260.44
485.772	267.44
485.99	260.44
486.209	263.44
486.427	263.44
486.645	253.44
486.863	272.44
487.081	257.44
487.299	238.44
487.517	261.44
487.735	251.44
487.953	269.44
488.171	280.44
488.389	270.44
488.607	269.44
488.825	271.44
489.043	271.44
489.261	257.44
489.479	264.44
489.696	278.44
489.914	270.44
490.132	269.44
490.35	249.44
490.568	276.44
490.786	283.44
491.003	267.44
491.221	273.44
491.439	255.44
491.657	278.44
491.874	279.44
492.092	277.44
492.31	294.44
492.527	283.44
492.745	282.44
492.963	277.44
493.18	279.44
493.398	261.44
493.615	285.44
493.833	277.44
494.05	264.44
494.268	292.44
494.485	284.44
494.703	262.44
494.92	261.44
495.138	273.44
495.355	283.44
495.573	281.44
495.79	285.44
496.008	263.44
496.225	271.44
496.442	283.44
496.66	276.44
496.877	287.44
497.094	285.44
497.312	296.44
497.529	309.44
497.746	297.44
497.963	291.44
498.181	316.44
498.398	331.44
498.615	321.44
498.832	357.44
499.049	354.44
499.267	392.44
499.484	402.44
499.701	427.44
499.918	458.44
500.135	495.44
500.352	533.44
500.569	545.44
500.786	527.44
501.003	519.44
501.22	496.44
501.437	443.44
501.654	413.44
501.871	368.44
502.088	365.44
502.305	359.44
502.522	349.44
502.739	325.44
502.956	319.44
503.172	285.44
