Data from Fe(NO3)3@0.025M.TitratingCurve.Agarose3%dH2O.NegLispCup.LampEnergy10.LIBS07252019_HRD10591_16-55-30-335.txt Node
Date: Thu Jul 25 16:55:30 EDT 2019
User: cochatt
Spectrometer: HR+D1059
Trigger mode: 1
Integration Time (sec): 1.000000E-1
Scans to average: 1
Electric dark correction enabled: true
Nonlinearity correction enabled: false
Boxcar width: 0
XAxis mode: Wavelengths
Number of Pixels in Spectrum: 2048
>>>>>Begin Spectral Data<<<<<
223.165	-4.56
223.4	-4.56
223.635	-4.56
223.869	-13.56
224.104	3.44
224.338	-18.56
224.573	-6.56
224.808	-11.56
225.042	-2.56
225.277	-5.56
225.511	-9.56
225.746	-6.56
225.98	9.44
226.215	0.44
226.449	11.44
226.683	18.44
226.918	8.44
227.152	27.44
227.387	30.44
227.621	46.44
227.856	50.44
228.09	50.44
228.324	54.44
228.559	62.44
228.793	56.44
229.027	74.44
229.262	86.44
229.496	77.44
229.73	79.44
229.964	100.44
230.199	88.44
230.433	68.44
230.667	85.44
230.901	87.44
231.136	83.44
231.37	78.44
231.604	72.44
231.838	98.44
232.072	103.44
232.306	98.44
232.541	98.44
232.775	94.44
233.009	102.44
233.243	87.44
233.477	87.44
233.711	103.44
233.945	92.44
234.179	86.44
234.413	102.44
234.647	87.44
234.881	91.44
235.115	99.44
235.349	84.44
235.583	92.44
235.817	88.44
236.051	91.44
236.285	93.44
236.519	94.44
236.753	87.44
236.987	93.44
237.221	85.44
237.455	84.44
237.689	95.44
237.922	101.44
238.156	109.44
238.39	99.44
238.624	91.44
238.858	94.44
239.091	93.44
239.325	100.44
239.559	98.44
239.793	100.44
240.027	91.44
240.26	90.44
240.494	102.44
240.728	92.44
240.961	88.44
241.195	91.44
241.429	97.44
241.662	95.44
241.896	97.44
242.13	90.44
242.363	88.44
242.597	100.44
242.83	99.44
243.064	99.44
243.298	93.44
243.531	84.44
243.765	80.44
243.998	101.44
244.232	80.44
244.465	92.44
244.699	105.44
244.932	95.44
245.166	97.44
245.399	114.44
245.633	106.44
245.866	122.44
246.099	98.44
246.333	118.44
246.566	104.44
246.8	96.44
247.033	100.44
247.266	94.44
247.5	114.44
247.733	123.44
247.966	109.44
248.2	105.44
248.433	102.44
248.666	105.44
248.899	120.44
249.133	116.44
249.366	101.44
249.599	98.44
249.832	115.44
250.066	108.44
250.299	101.44
250.532	97.44
250.765	94.44
250.998	104.44
251.231	112.44
251.465	112.44
251.698	123.44
251.931	107.44
252.164	108.44
252.397	106.44
252.63	119.44
252.863	111.44
253.096	111.44
253.329	114.44
253.562	110.44
253.795	87.44
254.028	107.44
254.261	124.44
254.494	112.44
254.727	125.44
254.96	130.44
255.193	132.44
255.426	105.44
255.659	110.44
255.892	115.44
256.124	122.44
256.357	107.44
256.59	122.44
256.823	122.44
257.056	123.44
257.289	116.44
257.521	112.44
257.754	110.44
257.987	117.44
258.22	130.44
258.452	110.44
258.685	114.44
258.918	134.44
259.151	117.44
259.383	127.44
259.616	127.44
259.849	134.44
260.081	130.44
260.314	121.44
260.547	124.44
260.779	123.44
261.012	133.44
261.244	120.44
261.477	118.44
261.71	126.44
261.942	124.44
262.175	103.44
262.407	134.44
262.64	114.44
262.872	135.44
263.105	126.44
263.337	126.44
263.57	123.44
263.802	137.44
264.035	128.44
264.267	125.44
264.499	122.44
264.732	126.44
264.964	125.44
265.197	130.44
265.429	128.44
265.661	136.44
265.894	139.44
266.126	145.44
266.358	133.44
266.591	109.44
266.823	142.44
267.055	128.44
267.287	134.44
267.52	135.44
267.752	135.44
267.984	135.44
268.216	141.44
268.448	131.44
268.681	130.44
268.913	120.44
269.145	127.44
269.377	136.44
269.609	149.44
269.841	126.44
270.073	144.44
270.306	144.44
270.538	129.44
270.77	142.44
271.002	126.44
271.234	125.44
271.466	140.44
271.698	138.44
271.93	140.44
272.162	128.44
272.394	141.44
272.626	134.44
272.858	123.44
273.09	153.44
273.322	135.44
273.553	124.44
273.785	150.44
274.017	142.44
274.249	139.44
274.481	150.44
274.713	140.44
274.945	142.44
275.176	158.44
275.408	146.44
275.64	141.44
275.872	150.44
276.104	156.44
276.335	141.44
276.567	149.44
276.799	136.44
277.031	142.44
277.262	148.44
277.494	154.44
277.726	160.44
277.957	168.44
278.189	152.44
278.421	144.44
278.652	134.44
278.884	148.44
279.115	158.44
279.347	145.44
279.579	161.44
279.81	150.44
280.042	158.44
280.273	152.44
280.505	152.44
280.736	151.44
280.968	159.44
281.199	147.44
281.431	153.44
281.662	158.44
281.894	160.44
282.125	151.44
282.356	167.44
282.588	160.44
282.819	155.44
283.051	150.44
283.282	147.44
283.513	149.44
283.745	159.44
283.976	163.44
284.207	182.44
284.439	156.44
284.67	150.44
284.901	152.44
285.132	156.44
285.364	158.44
285.595	148.44
285.826	163.44
286.057	174.44
286.288	151.44
286.52	172.44
286.751	159.44
286.982	160.44
287.213	156.44
287.444	174.44
287.675	162.44
287.906	174.44
288.138	165.44
288.369	184.44
288.6	176.44
288.831	168.44
289.062	150.44
289.293	180.44
289.524	168.44
289.755	169.44
289.986	174.44
290.217	173.44
290.448	165.44
290.679	167.44
290.91	160.44
291.141	166.44
291.371	163.44
291.602	182.44
291.833	176.44
292.064	171.44
292.295	180.44
292.526	188.44
292.757	165.44
292.987	175.44
293.218	175.44
293.449	181.44
293.68	182.44
293.91	157.44
294.141	178.44
294.372	178.44
294.603	174.44
294.833	171.44
295.064	172.44
295.295	178.44
295.525	178.44
295.756	187.44
295.987	182.44
296.217	162.44
296.448	186.44
296.679	176.44
296.909	170.44
297.14	185.44
297.37	170.44
297.601	171.44
297.831	171.44
298.062	194.44
298.292	178.44
298.523	186.44
298.753	201.44
298.984	191.44
299.214	178.44
299.445	186.44
299.675	182.44
299.905	189.44
300.136	186.44
300.366	193.44
300.597	186.44
300.827	211.44
301.057	198.44
301.288	187.44
301.518	180.44
301.748	190.44
301.979	204.44
302.209	199.44
302.439	193.44
302.669	197.44
302.9	199.44
303.13	183.44
303.36	212.44
303.59	186.44
303.82	205.44
304.051	207.44
304.281	214.44
304.511	193.44
304.741	194.44
304.971	191.44
305.201	214.44
305.431	215.44
305.661	183.44
305.891	213.44
306.121	203.44
306.352	197.44
306.582	208.44
306.812	191.44
307.042	204.44
307.272	192.44
307.502	192.44
307.731	194.44
307.961	199.44
308.191	205.44
308.421	205.44
308.651	187.44
308.881	192.44
309.111	209.44
309.341	198.44
309.571	202.44
309.8	194.44
310.03	191.44
310.26	210.44
310.49	195.44
310.72	201.44
310.949	202.44
311.179	199.44
311.409	198.44
311.639	199.44
311.868	212.44
312.098	214.44
312.328	210.44
312.557	211.44
312.787	212.44
313.017	199.44
313.246	211.44
313.476	225.44
313.706	206.44
313.935	202.44
314.165	208.44
314.394	204.44
314.624	219.44
314.853	199.44
315.083	224.44
315.312	223.44
315.542	210.44
315.771	214.44
316.001	204.44
316.23	213.44
316.46	205.44
316.689	206.44
316.919	211.44
317.148	224.44
317.377	214.44
317.607	189.44
317.836	213.44
318.065	211.44
318.295	224.44
318.524	210.44
318.753	217.44
318.983	219.44
319.212	200.44
319.441	214.44
319.67	204.44
319.9	203.44
320.129	210.44
320.358	216.44
320.587	224.44
320.816	228.44
321.046	232.44
321.275	237.44
321.504	217.44
321.733	220.44
321.962	227.44
322.191	227.44
322.42	236.44
322.649	234.44
322.878	223.44
323.108	236.44
323.337	226.44
323.566	239.44
323.795	238.44
324.024	221.44
324.253	221.44
324.482	234.44
324.71	234.44
324.939	248.44
325.168	225.44
325.397	229.44
325.626	225.44
325.855	221.44
326.084	230.44
326.313	226.44
326.542	231.44
326.77	226.44
326.999	224.44
327.228	241.44
327.457	235.44
327.686	221.44
327.914	239.44
328.143	235.44
328.372	239.44
328.6	229.44
328.829	231.44
329.058	236.44
329.287	234.44
329.515	250.44
329.744	234.44
329.972	250.44
330.201	234.44
330.43	229.44
330.658	252.44
330.887	251.44
331.115	259.44
331.344	260.44
331.572	228.44
331.801	270.44
332.03	251.44
332.258	260.44
332.486	246.44
332.715	262.44
332.943	237.44
333.172	280.44
333.4	297.44
333.629	282.44
333.857	285.44
334.085	275.44
334.314	275.44
334.542	269.44
334.771	280.44
334.999	274.44
335.227	276.44
335.455	279.44
335.684	294.44
335.912	291.44
336.14	271.44
336.369	260.44
336.597	293.44
336.825	278.44
337.053	283.44
337.281	298.44
337.51	279.44
337.738	269.44
337.966	259.44
338.194	281.44
338.422	273.44
338.65	294.44
338.878	254.44
339.106	253.44
339.334	268.44
339.562	262.44
339.79	259.44
340.018	264.44
340.246	266.44
340.474	259.44
340.702	254.44
340.93	255.44
341.158	261.44
341.386	237.44
341.614	248.44
341.842	232.44
342.07	240.44
342.298	267.44
342.526	236.44
342.754	254.44
342.981	255.44
343.209	258.44
343.437	274.44
343.665	269.44
343.893	260.44
344.12	272.44
344.348	283.44
344.576	277.44
344.804	268.44
345.031	270.44
345.259	234.44
345.487	244.44
345.714	270.44
345.942	242.44
346.17	269.44
346.397	248.44
346.625	260.44
346.853	245.44
347.08	259.44
347.308	265.44
347.535	243.44
347.763	233.44
347.99	239.44
348.218	254.44
348.445	235.44
348.673	253.44
348.9	242.44
349.128	249.44
349.355	256.44
349.583	244.44
349.81	266.44
350.037	263.44
350.265	259.44
350.492	240.44
350.72	248.44
350.947	235.44
351.174	247.44
351.402	251.44
351.629	246.44
351.856	240.44
352.083	258.44
352.311	247.44
352.538	240.44
352.765	244.44
352.992	258.44
353.22	252.44
353.447	251.44
353.674	236.44
353.901	239.44
354.128	241.44
354.355	242.44
354.583	244.44
354.81	243.44
355.037	261.44
355.264	258.44
355.491	271.44
355.718	252.44
355.945	245.44
356.172	238.44
356.399	256.44
356.626	248.44
356.853	239.44
357.08	251.44
357.307	247.44
357.534	247.44
357.761	259.44
357.988	246.44
358.215	252.44
358.441	238.44
358.668	260.44
358.895	269.44
359.122	255.44
359.349	244.44
359.576	257.44
359.802	257.44
360.029	246.44
360.256	237.44
360.483	262.44
360.709	270.44
360.936	254.44
361.163	253.44
361.39	269.44
361.616	264.44
361.843	248.44
362.07	240.44
362.296	258.44
362.523	262.44
362.749	252.44
362.976	262.44
363.203	259.44
363.429	248.44
363.656	268.44
363.882	247.44
364.109	234.44
364.335	258.44
364.562	252.44
364.788	266.44
365.015	249.44
365.241	272.44
365.468	258.44
365.694	248.44
365.92	251.44
366.147	242.44
366.373	259.44
366.599	251.44
366.826	266.44
367.052	268.44
367.278	264.44
367.505	266.44
367.731	266.44
367.957	273.44
368.184	253.44
368.41	255.44
368.636	269.44
368.862	268.44
369.089	271.44
369.315	270.44
369.541	278.44
369.767	272.44
369.993	260.44
370.219	244.44
370.445	274.44
370.672	264.44
370.898	259.44
371.124	280.44
371.35	274.44
371.576	284.44
371.802	274.44
372.028	278.44
372.254	276.44
372.48	276.44
372.706	296.44
372.932	274.44
373.158	303.44
373.384	306.44
373.61	290.44
373.835	275.44
374.061	283.44
374.287	280.44
374.513	285.44
374.739	299.44
374.965	275.44
375.191	288.44
375.416	282.44
375.642	280.44
375.868	304.44
376.094	269.44
376.319	278.44
376.545	274.44
376.771	283.44
376.997	269.44
377.222	257.44
377.448	272.44
377.674	279.44
377.899	274.44
378.125	263.44
378.35	260.44
378.576	285.44
378.802	274.44
379.027	274.44
379.253	281.44
379.478	286.44
379.704	270.44
379.929	286.44
380.155	269.44
380.38	278.44
380.606	273.44
380.831	286.44
381.057	278.44
381.282	285.44
381.507	292.44
381.733	282.44
381.958	300.44
382.184	284.44
382.409	307.44
382.634	287.44
382.86	297.44
383.085	281.44
383.31	294.44
383.535	292.44
383.761	299.44
383.986	284.44
384.211	307.44
384.436	304.44
384.662	312.44
384.887	315.44
385.112	304.44
385.337	300.44
385.562	314.44
385.787	294.44
386.013	318.44
386.238	312.44
386.463	341.44
386.688	306.44
386.913	317.44
387.138	312.44
387.363	328.44
387.588	331.44
387.813	315.44
388.038	310.44
388.263	334.44
388.488	304.44
388.713	302.44
388.938	314.44
389.163	321.44
389.387	323.44
389.612	322.44
389.837	314.44
390.062	324.44
390.287	322.44
390.512	322.44
390.736	340.44
390.961	331.44
391.186	332.44
391.411	330.44
391.636	346.44
391.86	342.44
392.085	336.44
392.31	341.44
392.534	339.44
392.759	348.44
392.984	339.44
393.208	340.44
393.433	334.44
393.658	324.44
393.882	338.44
394.107	345.44
394.331	327.44
394.556	326.44
394.78	339.44
395.005	336.44
395.229	347.44
395.454	346.44
395.678	360.44
395.903	336.44
396.127	343.44
396.352	344.44
396.576	366.44
396.801	362.44
397.025	347.44
397.249	351.44
397.474	340.44
397.698	350.44
397.922	359.44
398.147	343.44
398.371	378.44
398.595	388.44
398.82	400.44
399.044	394.44
399.268	408.44
399.492	435.44
399.717	461.44
399.941	458.44
400.165	419.44
400.389	434.44
400.613	403.44
400.837	414.44
401.062	390.44
401.286	381.44
401.51	379.44
401.734	384.44
401.958	398.44
402.182	393.44
402.406	375.44
402.63	378.44
402.854	382.44
403.078	400.44
403.302	388.44
403.526	390.44
403.75	394.44
403.974	377.44
404.198	367.44
404.422	378.44
404.645	380.44
404.869	379.44
405.093	379.44
405.317	387.44
405.541	382.44
405.765	396.44
405.988	387.44
406.212	414.44
406.436	397.44
406.66	398.44
406.883	399.44
407.107	417.44
407.331	428.44
407.555	415.44
407.778	414.44
408.002	434.44
408.226	431.44
408.449	415.44
408.673	407.44
408.896	398.44
409.12	422.44
409.344	390.44
409.567	376.44
409.791	408.44
410.014	411.44
410.238	400.44
410.461	428.44
410.685	396.44
410.908	394.44
411.132	406.44
411.355	376.44
411.578	364.44
411.802	398.44
412.025	363.44
412.249	394.44
412.472	372.44
412.695	393.44
412.919	379.44
413.142	380.44
413.365	367.44
413.589	375.44
413.812	378.44
414.035	395.44
414.258	382.44
414.482	368.44
414.705	392.44
414.928	372.44
415.151	374.44
415.374	376.44
415.597	372.44
415.821	372.44
416.044	368.44
416.267	380.44
416.49	354.44
416.713	365.44
416.936	379.44
417.159	354.44
417.382	357.44
417.605	355.44
417.828	340.44
418.051	373.44
418.274	365.44
418.497	370.44
418.72	356.44
418.943	373.44
419.166	371.44
419.389	376.44
419.611	380.44
419.834	380.44
420.057	348.44
420.28	373.44
420.503	358.44
420.726	348.44
420.948	361.44
421.171	348.44
421.394	379.44
421.617	354.44
421.839	365.44
422.062	360.44
422.285	341.44
422.507	363.44
422.73	365.44
422.953	374.44
423.175	360.44
423.398	356.44
423.621	350.44
423.843	364.44
424.066	370.44
424.288	332.44
424.511	353.44
424.733	351.44
424.956	368.44
425.178	380.44
425.401	352.44
425.623	361.44
425.846	352.44
426.068	357.44
426.291	365.44
426.513	344.44
426.735	357.44
426.958	339.44
427.18	340.44
427.402	333.44
427.625	339.44
427.847	334.44
428.069	335.44
428.292	347.44
428.514	351.44
428.736	333.44
428.958	356.44
429.181	331.44
429.403	331.44
429.625	331.44
429.847	350.44
430.069	351.44
430.292	341.44
430.514	339.44
430.736	335.44
430.958	333.44
431.18	348.44
431.402	340.44
431.624	340.44
431.846	356.44
432.068	330.44
432.29	366.44
432.512	341.44
432.734	336.44
432.956	353.44
433.178	333.44
433.4	340.44
433.622	359.44
433.844	339.44
434.066	348.44
434.287	356.44
434.509	365.44
434.731	358.44
434.953	344.44
435.175	351.44
435.397	357.44
435.618	348.44
435.84	347.44
436.062	360.44
436.284	342.44
436.505	345.44
436.727	342.44
436.949	339.44
437.17	309.44
437.392	316.44
437.614	337.44
437.835	329.44
438.057	337.44
438.278	342.44
438.5	329.44
438.721	328.44
438.943	341.44
439.165	303.44
439.386	316.44
439.608	336.44
439.829	346.44
440.05	352.44
440.272	342.44
440.493	337.44
440.715	357.44
440.936	352.44
441.158	358.44
441.379	373.44
441.6	376.44
441.822	359.44
442.043	354.44
442.264	355.44
442.486	354.44
442.707	339.44
442.928	352.44
443.149	362.44
443.371	350.44
443.592	349.44
443.813	359.44
444.034	346.44
444.255	372.44
444.476	356.44
444.698	351.44
444.919	372.44
445.14	470.44
445.361	425.44
445.582	375.44
445.803	351.44
446.024	351.44
446.245	363.44
446.466	332.44
446.687	347.44
446.908	336.44
447.129	330.44
447.35	331.44
447.571	334.44
447.792	318.44
448.013	301.44
448.234	315.44
448.455	306.44
448.675	306.44
448.896	302.44
449.117	296.44
449.338	308.44
449.559	307.44
449.779	297.44
450	315.44
450.221	308.44
450.442	319.44
450.662	314.44
450.883	321.44
451.104	308.44
451.324	316.44
451.545	310.44
451.766	314.44
451.986	303.44
452.207	316.44
452.428	304.44
452.648	307.44
452.869	298.44
453.089	304.44
453.31	297.44
453.53	316.44
453.751	302.44
453.971	322.44
454.192	303.44
454.412	296.44
454.633	309.44
454.853	310.44
455.073	291.44
455.294	297.44
455.514	285.44
455.734	301.44
455.955	307.44
456.175	299.44
456.395	298.44
456.616	294.44
456.836	312.44
457.056	297.44
457.276	294.44
457.497	295.44
457.717	320.44
457.937	326.44
458.157	318.44
458.377	333.44
458.598	318.44
458.818	331.44
459.038	348.44
459.258	346.44
459.478	359.44
459.698	339.44
459.918	325.44
460.138	352.44
460.358	354.44
460.578	361.44
460.798	367.44
461.018	362.44
461.238	367.44
461.458	357.44
461.678	371.44
461.898	402.44
462.118	378.44
462.338	401.44
462.558	402.44
462.777	402.44
462.997	406.44
463.217	399.44
463.437	440.44
463.657	419.44
463.876	418.44
464.096	425.44
464.316	399.44
464.536	398.44
464.755	382.44
464.975	376.44
465.195	365.44
465.414	386.44
465.634	366.44
465.854	358.44
466.073	352.44
466.293	376.44
466.512	348.44
466.732	363.44
466.951	351.44
467.171	322.44
467.391	326.44
467.61	347.44
467.829	332.44
468.049	357.44
468.268	307.44
468.488	324.44
468.707	326.44
468.927	336.44
469.146	332.44
469.365	339.44
469.585	304.44
469.804	341.44
470.023	356.44
470.243	322.44
470.462	336.44
470.681	346.44
470.901	327.44
471.12	319.44
471.339	350.44
471.558	312.44
471.777	316.44
471.997	319.44
472.216	334.44
472.435	341.44
472.654	325.44
472.873	345.44
473.092	342.44
473.311	362.44
473.53	336.44
473.749	333.44
473.968	343.44
474.187	326.44
474.406	327.44
474.625	316.44
474.844	338.44
475.063	337.44
475.282	348.44
475.501	338.44
475.72	338.44
475.939	326.44
476.158	342.44
476.377	357.44
476.596	342.44
476.814	345.44
477.033	350.44
477.252	373.44
477.471	361.44
477.69	356.44
477.908	368.44
478.127	382.44
478.346	370.44
478.564	363.44
478.783	375.44
479.002	410.44
479.22	384.44
479.439	403.44
479.658	388.44
479.876	388.44
480.095	387.44
480.313	398.44
480.532	404.44
480.751	396.44
480.969	386.44
481.188	388.44
481.406	394.44
481.624	383.44
481.843	390.44
482.061	380.44
482.28	383.44
482.498	396.44
482.717	383.44
482.935	386.44
483.153	372.44
483.372	372.44
483.59	393.44
483.808	372.44
484.027	390.44
484.245	393.44
484.463	402.44
484.681	396.44
484.9	384.44
485.118	401.44
485.336	390.44
485.554	377.44
485.772	402.44
485.99	404.44
486.209	409.44
486.427	389.44
486.645	379.44
486.863	391.44
487.081	399.44
487.299	395.44
487.517	383.44
487.735	383.44
487.953	387.44
488.171	426.44
488.389	406.44
488.607	383.44
488.825	394.44
489.043	394.44
489.261	398.44
489.479	389.44
489.696	392.44
489.914	405.44
490.132	389.44
490.35	431.44
490.568	396.44
490.786	398.44
491.003	404.44
491.221	389.44
491.439	395.44
491.657	403.44
491.874	389.44
492.092	418.44
492.31	424.44
492.527	398.44
492.745	416.44
492.963	416.44
493.18	417.44
493.398	416.44
493.615	405.44
493.833	416.44
494.05	416.44
494.268	404.44
494.485	422.44
494.703	415.44
494.92	402.44
495.138	438.44
495.355	451.44
495.573	419.44
495.79	430.44
496.008	438.44
496.225	460.44
496.442	438.44
496.66	432.44
496.877	436.44
497.094	475.44
497.312	456.44
497.529	483.44
497.746	487.44
497.963	503.44
498.181	519.44
498.398	520.44
498.615	541.44
498.832	562.44
499.049	582.44
499.267	606.44
499.484	645.44
499.701	644.44
499.918	677.44
500.135	722.44
500.352	738.44
500.569	715.44
500.786	731.44
501.003	693.44
501.22	685.44
501.437	656.44
501.654	619.44
501.871	613.44
502.088	586.44
502.305	568.44
502.522	542.44
