Data from Fe(NO3)3@0.1M.TitratingCurve.Agarose3%dH2O.NegLispCup.LampEnergy10.LIBS07252019_HRD10591_16-41-46-333.txt Node
Date: Thu Jul 25 16:41:46 EDT 2019
User: cochatt
Spectrometer: HR+D1059
Trigger mode: 1
Integration Time (sec): 1.000000E-1
Scans to average: 1
Electric dark correction enabled: true
Nonlinearity correction enabled: false
Boxcar width: 0
XAxis mode: Wavelengths
Number of Pixels in Spectrum: 2048
>>>>>Begin Spectral Data<<<<<
223.165	-28.69
223.4	-28.69
223.635	-28.69
223.869	-19.69
224.104	-20.69
224.338	-7.69
224.573	-14.69
224.808	-17.69
225.042	2.31
225.277	-6.69
225.511	3.31
225.746	5.31
225.98	11.31
226.215	18.31
226.449	21.31
226.683	22.31
226.918	7.31
227.152	24.31
227.387	30.31
227.621	42.31
227.856	54.31
228.09	44.31
228.324	47.31
228.559	52.31
228.793	52.31
229.027	80.31
229.262	62.31
229.496	85.31
229.73	93.31
229.964	108.31
230.199	101.31
230.433	91.31
230.667	86.31
230.901	95.31
231.136	102.31
231.37	96.31
231.604	90.31
231.838	90.31
232.072	108.31
232.306	86.31
232.541	104.31
232.775	95.31
233.009	87.31
233.243	98.31
233.477	100.31
233.711	97.31
233.945	114.31
234.179	98.31
234.413	103.31
234.647	106.31
234.881	108.31
235.115	92.31
235.349	95.31
235.583	108.31
235.817	111.31
236.051	117.31
236.285	98.31
236.519	92.31
236.753	114.31
236.987	99.31
237.221	89.31
237.455	100.31
237.689	106.31
237.922	97.31
238.156	90.31
238.39	96.31
238.624	98.31
238.858	94.31
239.091	104.31
239.325	106.31
239.559	116.31
239.793	110.31
240.027	120.31
240.26	120.31
240.494	115.31
240.728	113.31
240.961	112.31
241.195	96.31
241.429	112.31
241.662	118.31
241.896	115.31
242.13	113.31
242.363	118.31
242.597	107.31
242.83	124.31
243.064	121.31
243.298	114.31
243.531	121.31
243.765	122.31
243.998	115.31
244.232	124.31
244.465	138.31
244.699	122.31
244.932	118.31
245.166	117.31
245.399	124.31
245.633	110.31
245.866	123.31
246.099	120.31
246.333	119.31
246.566	126.31
246.8	128.31
247.033	114.31
247.266	129.31
247.5	118.31
247.733	140.31
247.966	130.31
248.2	145.31
248.433	121.31
248.666	134.31
248.899	126.31
249.133	139.31
249.366	138.31
249.599	125.31
249.832	124.31
250.066	134.31
250.299	136.31
250.532	132.31
250.765	129.31
250.998	128.31
251.231	127.31
251.465	129.31
251.698	130.31
251.931	136.31
252.164	150.31
252.397	150.31
252.63	139.31
252.863	137.31
253.096	141.31
253.329	139.31
253.562	149.31
253.795	136.31
254.028	144.31
254.261	142.31
254.494	162.31
254.727	160.31
254.96	145.31
255.193	132.31
255.426	162.31
255.659	159.31
255.892	151.31
256.124	135.31
256.357	133.31
256.59	142.31
256.823	150.31
257.056	159.31
257.289	148.31
257.521	162.31
257.754	130.31
257.987	136.31
258.22	146.31
258.452	151.31
258.685	154.31
258.918	172.31
259.151	159.31
259.383	161.31
259.616	158.31
259.849	160.31
260.081	156.31
260.314	158.31
260.547	146.31
260.779	147.31
261.012	169.31
261.244	151.31
261.477	160.31
261.71	155.31
261.942	162.31
262.175	174.31
262.407	181.31
262.64	160.31
262.872	173.31
263.105	159.31
263.337	180.31
263.57	160.31
263.802	161.31
264.035	162.31
264.267	168.31
264.499	158.31
264.732	153.31
264.964	165.31
265.197	157.31
265.429	161.31
265.661	164.31
265.894	165.31
266.126	163.31
266.358	163.31
266.591	179.31
266.823	165.31
267.055	166.31
267.287	200.31
267.52	169.31
267.752	172.31
267.984	190.31
268.216	187.31
268.448	166.31
268.681	186.31
268.913	173.31
269.145	173.31
269.377	182.31
269.609	175.31
269.841	165.31
270.073	184.31
270.306	176.31
270.538	185.31
270.77	174.31
271.002	174.31
271.234	184.31
271.466	178.31
271.698	185.31
271.93	176.31
272.162	172.31
272.394	189.31
272.626	181.31
272.858	194.31
273.09	178.31
273.322	193.31
273.553	184.31
273.785	193.31
274.017	207.31
274.249	221.31
274.481	194.31
274.713	178.31
274.945	193.31
275.176	203.31
275.408	199.31
275.64	190.31
275.872	185.31
276.104	196.31
276.335	194.31
276.567	190.31
276.799	190.31
277.031	191.31
277.262	196.31
277.494	210.31
277.726	197.31
277.957	200.31
278.189	208.31
278.421	217.31
278.652	206.31
278.884	201.31
279.115	218.31
279.347	206.31
279.579	208.31
279.81	220.31
280.042	196.31
280.273	187.31
280.505	198.31
280.736	213.31
280.968	226.31
281.199	217.31
281.431	220.31
281.662	208.31
281.894	218.31
282.125	206.31
282.356	218.31
282.588	230.31
282.819	224.31
283.051	217.31
283.282	220.31
283.513	223.31
283.745	212.31
283.976	210.31
284.207	228.31
284.439	208.31
284.67	218.31
284.901	227.31
285.132	227.31
285.364	220.31
285.595	217.31
285.826	216.31
286.057	229.31
286.288	223.31
286.52	206.31
286.751	220.31
286.982	216.31
287.213	207.31
287.444	224.31
287.675	223.31
287.906	245.31
288.138	240.31
288.369	234.31
288.6	241.31
288.831	216.31
289.062	240.31
289.293	234.31
289.524	244.31
289.755	216.31
289.986	233.31
290.217	230.31
290.448	246.31
290.679	229.31
290.91	223.31
291.141	229.31
291.371	222.31
291.602	236.31
291.833	241.31
292.064	228.31
292.295	219.31
292.526	240.31
292.757	209.31
292.987	242.31
293.218	236.31
293.449	231.31
293.68	231.31
293.91	237.31
294.141	239.31
294.372	224.31
294.603	248.31
294.833	217.31
295.064	221.31
295.295	244.31
295.525	242.31
295.756	241.31
295.987	242.31
296.217	244.31
296.448	234.31
296.679	231.31
296.909	253.31
297.14	260.31
297.37	251.31
297.601	246.31
297.831	256.31
298.062	254.31
298.292	248.31
298.523	261.31
298.753	254.31
298.984	241.31
299.214	245.31
299.445	256.31
299.675	254.31
299.905	248.31
300.136	254.31
300.366	236.31
300.597	262.31
300.827	269.31
301.057	277.31
301.288	269.31
301.518	262.31
301.748	268.31
301.979	288.31
302.209	263.31
302.439	273.31
302.669	252.31
302.9	261.31
303.13	262.31
303.36	247.31
303.59	249.31
303.82	261.31
304.051	262.31
304.281	275.31
304.511	246.31
304.741	256.31
304.971	254.31
305.201	263.31
305.431	282.31
305.661	283.31
305.891	259.31
306.121	268.31
306.352	268.31
306.582	275.31
306.812	262.31
307.042	285.31
307.272	268.31
307.502	250.31
307.731	276.31
307.961	261.31
308.191	241.31
308.421	270.31
308.651	278.31
308.881	259.31
309.111	273.31
309.341	270.31
309.571	251.31
309.8	284.31
310.03	282.31
310.26	260.31
310.49	270.31
310.72	283.31
310.949	265.31
311.179	268.31
311.409	262.31
311.639	277.31
311.868	267.31
312.098	284.31
312.328	256.31
312.557	265.31
312.787	282.31
313.017	263.31
313.246	277.31
313.476	287.31
313.706	292.31
313.935	282.31
314.165	284.31
314.394	292.31
314.624	282.31
314.853	287.31
315.083	296.31
315.312	268.31
315.542	278.31
315.771	293.31
316.001	296.31
316.23	296.31
316.46	263.31
316.689	282.31
316.919	279.31
317.148	284.31
317.377	279.31
317.607	278.31
317.836	282.31
318.065	269.31
318.295	300.31
318.524	285.31
318.753	288.31
318.983	277.31
319.212	284.31
319.441	292.31
319.67	296.31
319.9	286.31
320.129	280.31
320.358	292.31
320.587	281.31
320.816	287.31
321.046	284.31
321.275	290.31
321.504	319.31
321.733	296.31
321.962	296.31
322.191	287.31
322.42	314.31
322.649	297.31
322.878	290.31
323.108	297.31
323.337	308.31
323.566	300.31
323.795	284.31
324.024	287.31
324.253	306.31
324.482	286.31
324.71	306.31
324.939	303.31
325.168	325.31
325.397	295.31
325.626	289.31
325.855	314.31
326.084	310.31
326.313	330.31
326.542	311.31
326.77	307.31
326.999	305.31
327.228	314.31
327.457	304.31
327.686	305.31
327.914	304.31
328.143	325.31
328.372	304.31
328.6	308.31
328.829	316.31
329.058	309.31
329.287	313.31
329.515	317.31
329.744	310.31
329.972	311.31
330.201	319.31
330.43	325.31
330.658	289.31
330.887	312.31
331.115	332.31
331.344	301.31
331.572	333.31
331.801	328.31
332.03	340.31
332.258	345.31
332.486	356.31
332.715	356.31
332.943	383.31
333.172	353.31
333.4	390.31
333.629	392.31
333.857	392.31
334.085	402.31
334.314	379.31
334.542	374.31
334.771	373.31
334.999	389.31
335.227	369.31
335.455	361.31
335.684	404.31
335.912	357.31
336.14	368.31
336.369	366.31
336.597	373.31
336.825	351.31
337.053	374.31
337.281	354.31
337.51	326.31
337.738	353.31
337.966	351.31
338.194	339.31
338.422	346.31
338.65	340.31
338.878	352.31
339.106	337.31
339.334	343.31
339.562	335.31
339.79	327.31
340.018	337.31
340.246	312.31
340.474	323.31
340.702	324.31
340.93	308.31
341.158	340.31
341.386	311.31
341.614	329.31
341.842	325.31
342.07	316.31
342.298	325.31
342.526	322.31
342.754	311.31
342.981	320.31
343.209	343.31
343.437	346.31
343.665	348.31
343.893	354.31
344.12	390.31
344.348	350.31
344.576	332.31
344.804	332.31
345.031	341.31
345.259	336.31
345.487	331.31
345.714	309.31
345.942	327.31
346.17	332.31
346.397	325.31
346.625	317.31
346.853	318.31
347.08	308.31
347.308	320.31
347.535	317.31
347.763	328.31
347.99	308.31
348.218	318.31
348.445	312.31
348.673	325.31
348.9	318.31
349.128	314.31
349.355	312.31
349.583	313.31
349.81	316.31
350.037	304.31
350.265	296.31
350.492	308.31
350.72	326.31
350.947	309.31
351.174	301.31
351.402	315.31
351.629	322.31
351.856	302.31
352.083	307.31
352.311	314.31
352.538	296.31
352.765	297.31
352.992	302.31
353.22	320.31
353.447	316.31
353.674	294.31
353.901	302.31
354.128	314.31
354.355	311.31
354.583	314.31
354.81	314.31
355.037	309.31
355.264	313.31
355.491	313.31
355.718	304.31
355.945	325.31
356.172	311.31
356.399	304.31
356.626	310.31
356.853	291.31
357.08	303.31
357.307	321.31
357.534	301.31
357.761	307.31
357.988	314.31
358.215	311.31
358.441	301.31
358.668	316.31
358.895	306.31
359.122	306.31
359.349	316.31
359.576	302.31
359.802	308.31
360.029	315.31
360.256	306.31
360.483	316.31
360.709	303.31
360.936	314.31
361.163	295.31
361.39	311.31
361.616	318.31
361.843	291.31
362.07	328.31
362.296	312.31
362.523	316.31
362.749	309.31
362.976	310.31
363.203	334.31
363.429	324.31
363.656	320.31
363.882	312.31
364.109	335.31
364.335	320.31
364.562	325.31
364.788	313.31
365.015	317.31
365.241	297.31
365.468	320.31
365.694	327.31
365.92	306.31
366.147	320.31
366.373	317.31
366.599	321.31
366.826	333.31
367.052	315.31
367.278	305.31
367.505	303.31
367.731	317.31
367.957	314.31
368.184	313.31
368.41	325.31
368.636	317.31
368.862	312.31
369.089	338.31
369.315	308.31
369.541	335.31
369.767	356.31
369.993	341.31
370.219	333.31
370.445	341.31
370.672	331.31
370.898	345.31
371.124	327.31
371.35	330.31
371.576	342.31
371.802	352.31
372.028	330.31
372.254	349.31
372.48	352.31
372.706	346.31
372.932	334.31
373.158	342.31
373.384	351.31
373.61	330.31
373.835	345.31
374.061	351.31
374.287	343.31
374.513	361.31
374.739	353.31
374.965	348.31
375.191	382.31
375.416	373.31
375.642	372.31
375.868	339.31
376.094	369.31
376.319	329.31
376.545	340.31
376.771	333.31
376.997	350.31
377.222	334.31
377.448	342.31
377.674	332.31
377.899	355.31
378.125	318.31
378.35	335.31
378.576	330.31
378.802	326.31
379.027	333.31
379.253	333.31
379.478	359.31
379.704	355.31
379.929	329.31
380.155	344.31
380.38	368.31
380.606	346.31
380.831	336.31
381.057	336.31
381.282	342.31
381.507	336.31
381.733	364.31
381.958	345.31
382.184	337.31
382.409	342.31
382.634	366.31
382.86	355.31
383.085	371.31
383.31	352.31
383.535	352.31
383.761	371.31
383.986	366.31
384.211	383.31
384.436	398.31
384.662	394.31
384.887	400.31
385.112	408.31
385.337	408.31
385.562	380.31
385.787	406.31
386.013	409.31
386.238	401.31
386.463	408.31
386.688	401.31
386.913	402.31
387.138	417.31
387.363	384.31
387.588	404.31
387.813	386.31
388.038	398.31
388.263	386.31
388.488	404.31
388.713	408.31
388.938	376.31
389.163	380.31
389.387	378.31
389.612	404.31
389.837	385.31
390.062	388.31
390.287	401.31
390.512	406.31
390.736	394.31
390.961	417.31
391.186	406.31
391.411	417.31
391.636	438.31
391.86	423.31
392.085	439.31
392.31	418.31
392.534	431.31
392.759	421.31
392.984	432.31
393.208	421.31
393.433	416.31
393.658	412.31
393.882	413.31
394.107	434.31
394.331	427.31
394.556	436.31
394.78	431.31
395.005	414.31
395.229	428.31
395.454	444.31
395.678	433.31
395.903	444.31
396.127	452.31
396.352	420.31
396.576	426.31
396.801	419.31
397.025	442.31
397.249	451.31
397.474	464.31
397.698	450.31
397.922	439.31
398.147	436.31
398.371	458.31
398.595	473.31
398.82	487.31
399.044	508.31
399.268	583.31
399.492	607.31
399.717	657.31
399.941	646.31
400.165	582.31
400.389	561.31
400.613	524.31
400.837	508.31
401.062	511.31
401.286	496.31
401.51	496.31
401.734	504.31
401.958	509.31
402.182	504.31
402.406	478.31
402.63	514.31
402.854	511.31
403.078	522.31
403.302	542.31
403.526	516.31
403.75	531.31
403.974	561.31
404.198	562.31
404.422	558.31
404.645	517.31
404.869	526.31
405.093	536.31
405.317	536.31
405.541	518.31
405.765	531.31
405.988	517.31
406.212	535.31
406.436	526.31
406.66	550.31
406.883	561.31
407.107	551.31
407.331	595.31
407.555	611.31
407.778	594.31
408.002	605.31
408.226	584.31
408.449	570.31
408.673	552.31
408.896	574.31
409.12	556.31
409.344	560.31
409.567	541.31
409.791	530.31
410.014	542.31
410.238	532.31
410.461	530.31
410.685	528.31
410.908	538.31
411.132	527.31
411.355	525.31
411.578	504.31
411.802	516.31
412.025	497.31
412.249	543.31
412.472	506.31
412.695	492.31
412.919	497.31
413.142	501.31
413.365	485.31
413.589	486.31
413.812	489.31
414.035	483.31
414.258	507.31
414.482	478.31
414.705	476.31
414.928	502.31
415.151	517.31
415.374	500.31
415.597	502.31
415.821	472.31
416.044	501.31
416.267	473.31
416.49	464.31
416.713	492.31
416.936	488.31
417.159	489.31
417.382	493.31
417.605	469.31
417.828	497.31
418.051	499.31
418.274	493.31
418.497	467.31
418.72	510.31
418.943	510.31
419.166	531.31
419.389	567.31
419.611	525.31
419.834	514.31
420.057	515.31
420.28	493.31
420.503	495.31
420.726	494.31
420.948	468.31
421.171	465.31
421.394	470.31
421.617	488.31
421.839	478.31
422.062	492.31
422.285	486.31
422.507	514.31
422.73	498.31
422.953	499.31
423.175	502.31
423.398	519.31
423.621	512.31
423.843	496.31
424.066	499.31
424.288	516.31
424.511	496.31
424.733	463.31
424.956	476.31
425.178	489.31
425.401	476.31
425.623	468.31
425.846	503.31
426.068	479.31
426.291	464.31
426.513	493.31
426.735	455.31
426.958	453.31
427.18	430.31
427.402	470.31
427.625	444.31
427.847	445.31
428.069	446.31
428.292	466.31
428.514	446.31
428.736	437.31
428.958	466.31
429.181	421.31
429.403	451.31
429.625	437.31
429.847	418.31
430.069	439.31
430.292	441.31
430.514	429.31
430.736	430.31
430.958	448.31
431.18	433.31
431.402	435.31
431.624	456.31
431.846	455.31
432.068	449.31
432.29	442.31
432.512	445.31
432.734	437.31
432.956	441.31
433.178	440.31
433.4	466.31
433.622	464.31
433.844	467.31
434.066	444.31
434.287	454.31
434.509	484.31
434.731	475.31
434.953	510.31
435.175	483.31
435.397	472.31
435.618	464.31
435.84	469.31
436.062	446.31
436.284	432.31
436.505	456.31
436.727	438.31
436.949	440.31
437.17	453.31
437.392	449.31
437.614	437.31
437.835	427.31
438.057	428.31
438.278	426.31
438.5	421.31
438.721	424.31
438.943	433.31
439.165	446.31
439.386	440.31
439.608	461.31
439.829	444.31
440.05	460.31
440.272	478.31
440.493	466.31
440.715	459.31
440.936	468.31
441.158	474.31
441.379	476.31
441.6	500.31
441.822	496.31
442.043	506.31
442.264	497.31
442.486	480.31
442.707	503.31
442.928	496.31
443.149	501.31
443.371	481.31
443.592	490.31
443.813	490.31
444.034	504.31
444.255	510.31
444.476	542.31
444.698	563.31
444.919	577.31
445.14	655.31
445.361	558.31
445.582	518.31
445.803	500.31
446.024	493.31
446.245	475.31
446.466	473.31
446.687	457.31
446.908	456.31
447.129	454.31
447.35	458.31
447.571	440.31
447.792	462.31
448.013	441.31
448.234	446.31
448.455	413.31
448.675	438.31
448.896	423.31
449.117	425.31
449.338	441.31
449.559	433.31
449.779	408.31
450	411.31
450.221	409.31
450.442	426.31
450.662	422.31
450.883	424.31
451.104	437.31
451.324	428.31
451.545	431.31
451.766	448.31
451.986	439.31
452.207	433.31
452.428	399.31
452.648	420.31
452.869	419.31
453.089	398.31
453.31	391.31
453.53	412.31
453.751	393.31
453.971	381.31
454.192	399.31
454.412	396.31
454.633	401.31
454.853	409.31
455.073	417.31
455.294	394.31
455.514	392.31
455.734	410.31
455.955	379.31
456.175	402.31
456.395	384.31
456.616	380.31
456.836	400.31
457.056	400.31
457.276	395.31
457.497	395.31
457.717	385.31
457.937	408.31
458.157	412.31
458.377	392.31
458.598	410.31
458.818	437.31
459.038	417.31
459.258	414.31
459.478	430.31
459.698	443.31
459.918	477.31
460.138	479.31
460.358	499.31
460.578	510.31
460.798	509.31
461.018	525.31
461.238	498.31
461.458	496.31
461.678	499.31
461.898	530.31
462.118	514.31
462.338	516.31
462.558	537.31
462.777	560.31
462.997	617.31
463.217	620.31
463.437	648.31
463.657	581.31
463.876	581.31
464.096	590.31
464.316	566.31
464.536	574.31
464.755	553.31
464.975	536.31
465.195	510.31
465.414	478.31
465.634	473.31
465.854	455.31
466.073	463.31
466.293	454.31
466.512	433.31
466.732	448.31
466.951	444.31
467.171	428.31
467.391	449.31
467.61	437.31
467.829	422.31
468.049	420.31
468.268	404.31
468.488	402.31
468.707	414.31
468.927	417.31
469.146	422.31
469.365	431.31
469.585	420.31
469.804	436.31
470.023	436.31
470.243	444.31
470.462	452.31
470.681	440.31
470.901	443.31
471.12	444.31
471.339	447.31
471.558	431.31
471.777	431.31
471.997	394.31
472.216	411.31
472.435	429.31
472.654	418.31
472.873	400.31
473.092	414.31
473.311	419.31
473.53	430.31
473.749	417.31
473.968	416.31
474.187	401.31
474.406	424.31
474.625	414.31
474.844	406.31
475.063	416.31
475.282	395.31
475.501	389.31
475.72	402.31
475.939	405.31
476.158	414.31
476.377	431.31
476.596	424.31
476.814	441.31
477.033	442.31
477.252	451.31
477.471	437.31
477.69	449.31
477.908	450.31
478.127	474.31
478.346	460.31
478.564	464.31
478.783	503.31
479.002	506.31
479.22	488.31
479.439	495.31
479.658	485.31
479.876	508.31
480.095	475.31
480.313	494.31
480.532	558.31
480.751	500.31
480.969	489.31
481.188	478.31
481.406	463.31
481.624	483.31
481.843	459.31
482.061	442.31
482.28	457.31
482.498	458.31
482.717	455.31
482.935	473.31
483.153	459.31
483.372	463.31
483.59	441.31
483.808	453.31
484.027	448.31
484.245	470.31
484.463	451.31
484.681	471.31
484.9	451.31
485.118	459.31
485.336	462.31
485.554	479.31
485.772	481.31
485.99	457.31
486.209	483.31
486.427	454.31
486.645	473.31
486.863	483.31
487.081	478.31
487.299	464.31
487.517	472.31
487.735	468.31
487.953	468.31
488.171	476.31
488.389	464.31
488.607	467.31
488.825	451.31
489.043	454.31
489.261	471.31
489.479	488.31
489.696	477.31
489.914	460.31
490.132	467.31
490.35	477.31
490.568	474.31
490.786	481.31
491.003	490.31
491.221	495.31
491.439	493.31
491.657	473.31
491.874	518.31
492.092	499.31
492.31	490.31
492.527	498.31
492.745	497.31
492.963	506.31
493.18	474.31
493.398	489.31
493.615	503.31
493.833	485.31
494.05	493.31
494.268	504.31
494.485	487.31
494.703	510.31
494.92	505.31
495.138	492.31
495.355	509.31
495.573	524.31
495.79	498.31
496.008	522.31
496.225	534.31
496.442	522.31
496.66	528.31
496.877	522.31
497.094	521.31
497.312	559.31
497.529	569.31
497.746	577.31
497.963	572.31
498.181	605.31
498.398	614.31
498.615	638.31
498.832	669.31
499.049	701.31
499.267	741.31
499.484	828.31
499.701	881.31
499.918	920.31
500.135	1105.31
500.352	1182.31
500.569	1215.31
500.786	1205.31
501.003	1125.31
501.22	1042.31
501.437	902.31
501.654	874.31
501.871	792.31
