Data from Fe(NO3)3@0.025M.TitratingCurve.Agarose3%dH2O.NegLispCup.LampEnergy10.LIBS07252019_HRD10591_16-55-35-335.txt Node
Date: Thu Jul 25 16:55:35 EDT 2019
User: cochatt
Spectrometer: HR+D1059
Trigger mode: 1
Integration Time (sec): 1.000000E-1
Scans to average: 1
Electric dark correction enabled: true
Nonlinearity correction enabled: false
Boxcar width: 0
XAxis mode: Wavelengths
Number of Pixels in Spectrum: 2048
>>>>>Begin Spectral Data<<<<<
223.165	-11.31
223.4	-11.31
223.635	-11.31
223.869	-9.31
224.104	-24.31
224.338	-23.31
224.573	-8.31
224.808	-10.31
225.042	-13.31
225.277	-5.31
225.511	4.69
225.746	-2.31
225.98	1.69
226.215	20.69
226.449	26.69
226.683	1.69
226.918	26.69
227.152	25.69
227.387	43.69
227.621	41.69
227.856	43.69
228.09	50.69
228.324	52.69
228.559	51.69
228.793	56.69
229.027	67.69
229.262	62.69
229.496	85.69
229.73	82.69
229.964	88.69
230.199	80.69
230.433	86.69
230.667	86.69
230.901	94.69
231.136	101.69
231.37	72.69
231.604	91.69
231.838	94.69
232.072	84.69
232.306	97.69
232.541	91.69
232.775	95.69
233.009	94.69
233.243	90.69
233.477	97.69
233.711	82.69
233.945	90.69
234.179	83.69
234.413	84.69
234.647	103.69
234.881	93.69
235.115	99.69
235.349	121.69
235.583	94.69
235.817	88.69
236.051	104.69
236.285	91.69
236.519	95.69
236.753	103.69
236.987	87.69
237.221	92.69
237.455	97.69
237.689	82.69
237.922	75.69
238.156	101.69
238.39	90.69
238.624	92.69
238.858	95.69
239.091	88.69
239.325	83.69
239.559	95.69
239.793	104.69
240.027	92.69
240.26	90.69
240.494	93.69
240.728	116.69
240.961	112.69
241.195	109.69
241.429	102.69
241.662	88.69
241.896	101.69
242.13	96.69
242.363	100.69
242.597	96.69
242.83	84.69
243.064	100.69
243.298	91.69
243.531	87.69
243.765	101.69
243.998	109.69
244.232	104.69
244.465	118.69
244.699	94.69
244.932	110.69
245.166	114.69
245.399	96.69
245.633	105.69
245.866	92.69
246.099	92.69
246.333	91.69
246.566	114.69
246.8	101.69
247.033	100.69
247.266	114.69
247.5	108.69
247.733	100.69
247.966	95.69
248.2	109.69
248.433	104.69
248.666	119.69
248.899	104.69
249.133	102.69
249.366	90.69
249.599	97.69
249.832	98.69
250.066	111.69
250.299	104.69
250.532	94.69
250.765	100.69
250.998	110.69
251.231	100.69
251.465	116.69
251.698	117.69
251.931	106.69
252.164	111.69
252.397	115.69
252.63	105.69
252.863	109.69
253.096	120.69
253.329	114.69
253.562	108.69
253.795	118.69
254.028	108.69
254.261	98.69
254.494	108.69
254.727	94.69
254.96	124.69
255.193	112.69
255.426	111.69
255.659	119.69
255.892	126.69
256.124	108.69
256.357	104.69
256.59	121.69
256.823	110.69
257.056	119.69
257.289	115.69
257.521	111.69
257.754	118.69
257.987	126.69
258.22	114.69
258.452	114.69
258.685	128.69
258.918	115.69
259.151	106.69
259.383	128.69
259.616	130.69
259.849	119.69
260.081	116.69
260.314	112.69
260.547	100.69
260.779	122.69
261.012	124.69
261.244	112.69
261.477	132.69
261.71	110.69
261.942	118.69
262.175	102.69
262.407	129.69
262.64	127.69
262.872	124.69
263.105	120.69
263.337	125.69
263.57	131.69
263.802	114.69
264.035	123.69
264.267	117.69
264.499	120.69
264.732	119.69
264.964	125.69
265.197	132.69
265.429	128.69
265.661	127.69
265.894	128.69
266.126	120.69
266.358	120.69
266.591	130.69
266.823	131.69
267.055	128.69
267.287	131.69
267.52	122.69
267.752	105.69
267.984	127.69
268.216	125.69
268.448	126.69
268.681	135.69
268.913	132.69
269.145	124.69
269.377	125.69
269.609	135.69
269.841	125.69
270.073	127.69
270.306	127.69
270.538	127.69
270.77	132.69
271.002	119.69
271.234	124.69
271.466	124.69
271.698	135.69
271.93	119.69
272.162	130.69
272.394	130.69
272.626	136.69
272.858	147.69
273.09	148.69
273.322	132.69
273.553	149.69
273.785	140.69
274.017	136.69
274.249	136.69
274.481	134.69
274.713	128.69
274.945	138.69
275.176	125.69
275.408	137.69
275.64	132.69
275.872	130.69
276.104	126.69
276.335	138.69
276.567	141.69
276.799	131.69
277.031	144.69
277.262	140.69
277.494	131.69
277.726	131.69
277.957	159.69
278.189	153.69
278.421	150.69
278.652	153.69
278.884	133.69
279.115	130.69
279.347	131.69
279.579	144.69
279.81	138.69
280.042	148.69
280.273	141.69
280.505	151.69
280.736	144.69
280.968	166.69
281.199	145.69
281.431	144.69
281.662	142.69
281.894	164.69
282.125	157.69
282.356	168.69
282.588	155.69
282.819	168.69
283.051	145.69
283.282	138.69
283.513	156.69
283.745	143.69
283.976	150.69
284.207	158.69
284.439	150.69
284.67	156.69
284.901	158.69
285.132	167.69
285.364	156.69
285.595	162.69
285.826	169.69
286.057	155.69
286.288	155.69
286.52	163.69
286.751	157.69
286.982	164.69
287.213	155.69
287.444	158.69
287.675	146.69
287.906	152.69
288.138	166.69
288.369	158.69
288.6	159.69
288.831	169.69
289.062	164.69
289.293	159.69
289.524	164.69
289.755	176.69
289.986	157.69
290.217	166.69
290.448	163.69
290.679	161.69
290.91	154.69
291.141	163.69
291.371	163.69
291.602	162.69
291.833	157.69
292.064	163.69
292.295	171.69
292.526	155.69
292.757	168.69
292.987	159.69
293.218	156.69
293.449	167.69
293.68	165.69
293.91	171.69
294.141	152.69
294.372	164.69
294.603	163.69
294.833	188.69
295.064	184.69
295.295	156.69
295.525	175.69
295.756	165.69
295.987	175.69
296.217	176.69
296.448	175.69
296.679	173.69
296.909	168.69
297.14	180.69
297.37	153.69
297.601	163.69
297.831	164.69
298.062	174.69
298.292	173.69
298.523	173.69
298.753	183.69
298.984	178.69
299.214	180.69
299.445	192.69
299.675	172.69
299.905	171.69
300.136	188.69
300.366	174.69
300.597	164.69
300.827	182.69
301.057	185.69
301.288	182.69
301.518	179.69
301.748	193.69
301.979	180.69
302.209	194.69
302.439	188.69
302.669	173.69
302.9	189.69
303.13	195.69
303.36	192.69
303.59	190.69
303.82	193.69
304.051	188.69
304.281	179.69
304.511	175.69
304.741	189.69
304.971	186.69
305.201	186.69
305.431	188.69
305.661	189.69
305.891	174.69
306.121	189.69
306.352	194.69
306.582	188.69
306.812	193.69
307.042	179.69
307.272	186.69
307.502	180.69
307.731	195.69
307.961	171.69
308.191	185.69
308.421	168.69
308.651	184.69
308.881	198.69
309.111	179.69
309.341	200.69
309.571	192.69
309.8	196.69
310.03	177.69
310.26	202.69
310.49	201.69
310.72	165.69
310.949	194.69
311.179	182.69
311.409	197.69
311.639	184.69
311.868	187.69
312.098	183.69
312.328	200.69
312.557	208.69
312.787	187.69
313.017	188.69
313.246	199.69
313.476	203.69
313.706	190.69
313.935	200.69
314.165	198.69
314.394	198.69
314.624	219.69
314.853	213.69
315.083	207.69
315.312	206.69
315.542	203.69
315.771	187.69
316.001	188.69
316.23	191.69
316.46	204.69
316.689	218.69
316.919	218.69
317.148	214.69
317.377	198.69
317.607	207.69
317.836	187.69
318.065	202.69
318.295	191.69
318.524	207.69
318.753	185.69
318.983	207.69
319.212	203.69
319.441	193.69
319.67	192.69
319.9	206.69
320.129	216.69
320.358	207.69
320.587	206.69
320.816	201.69
321.046	199.69
321.275	213.69
321.504	198.69
321.733	202.69
321.962	200.69
322.191	200.69
322.42	179.69
322.649	208.69
322.878	198.69
323.108	207.69
323.337	203.69
323.566	201.69
323.795	195.69
324.024	205.69
324.253	215.69
324.482	208.69
324.71	208.69
324.939	222.69
325.168	208.69
325.397	221.69
325.626	208.69
325.855	226.69
326.084	213.69
326.313	212.69
326.542	220.69
326.77	210.69
326.999	225.69
327.228	216.69
327.457	211.69
327.686	202.69
327.914	208.69
328.143	212.69
328.372	206.69
328.6	211.69
328.829	220.69
329.058	220.69
329.287	229.69
329.515	220.69
329.744	237.69
329.972	226.69
330.201	224.69
330.43	218.69
330.658	232.69
330.887	216.69
331.115	223.69
331.344	226.69
331.572	231.69
331.801	226.69
332.03	231.69
332.258	219.69
332.486	240.69
332.715	247.69
332.943	246.69
333.172	225.69
333.4	258.69
333.629	277.69
333.857	253.69
334.085	251.69
334.314	246.69
334.542	246.69
334.771	247.69
334.999	260.69
335.227	257.69
335.455	254.69
335.684	242.69
335.912	247.69
336.14	258.69
336.369	252.69
336.597	247.69
336.825	242.69
337.053	257.69
337.281	250.69
337.51	225.69
337.738	245.69
337.966	240.69
338.194	252.69
338.422	244.69
338.65	226.69
338.878	234.69
339.106	230.69
339.334	221.69
339.562	227.69
339.79	232.69
340.018	230.69
340.246	230.69
340.474	238.69
340.702	232.69
340.93	233.69
341.158	226.69
341.386	210.69
341.614	232.69
341.842	224.69
342.07	240.69
342.298	223.69
342.526	235.69
342.754	233.69
342.981	239.69
343.209	222.69
343.437	242.69
343.665	247.69
343.893	256.69
344.12	253.69
344.348	229.69
344.576	258.69
344.804	230.69
345.031	228.69
345.259	236.69
345.487	235.69
345.714	251.69
345.942	226.69
346.17	231.69
346.397	237.69
346.625	236.69
346.853	228.69
347.08	236.69
347.308	222.69
347.535	218.69
347.763	227.69
347.99	229.69
348.218	226.69
348.445	217.69
348.673	217.69
348.9	243.69
349.128	230.69
349.355	219.69
349.583	223.69
349.81	237.69
350.037	227.69
350.265	209.69
350.492	222.69
350.72	213.69
350.947	207.69
351.174	207.69
351.402	214.69
351.629	226.69
351.856	215.69
352.083	231.69
352.311	231.69
352.538	215.69
352.765	215.69
352.992	207.69
353.22	224.69
353.447	209.69
353.674	214.69
353.901	218.69
354.128	214.69
354.355	223.69
354.583	224.69
354.81	239.69
355.037	225.69
355.264	220.69
355.491	237.69
355.718	239.69
355.945	217.69
356.172	228.69
356.399	219.69
356.626	231.69
356.853	230.69
357.08	229.69
357.307	219.69
357.534	242.69
357.761	216.69
357.988	238.69
358.215	230.69
358.441	227.69
358.668	222.69
358.895	221.69
359.122	216.69
359.349	218.69
359.576	228.69
359.802	213.69
360.029	220.69
360.256	230.69
360.483	230.69
360.709	227.69
360.936	244.69
361.163	228.69
361.39	228.69
361.616	227.69
361.843	211.69
362.07	208.69
362.296	219.69
362.523	221.69
362.749	219.69
362.976	236.69
363.203	216.69
363.429	237.69
363.656	230.69
363.882	221.69
364.109	231.69
364.335	220.69
364.562	233.69
364.788	229.69
365.015	236.69
365.241	234.69
365.468	234.69
365.694	229.69
365.92	230.69
366.147	223.69
366.373	238.69
366.599	228.69
366.826	228.69
367.052	243.69
367.278	237.69
367.505	236.69
367.731	215.69
367.957	218.69
368.184	228.69
368.41	223.69
368.636	235.69
368.862	237.69
369.089	239.69
369.315	230.69
369.541	229.69
369.767	247.69
369.993	238.69
370.219	228.69
370.445	247.69
370.672	242.69
370.898	245.69
371.124	230.69
371.35	264.69
371.576	235.69
371.802	238.69
372.028	246.69
372.254	234.69
372.48	258.69
372.706	244.69
372.932	249.69
373.158	246.69
373.384	255.69
373.61	239.69
373.835	250.69
374.061	247.69
374.287	255.69
374.513	263.69
374.739	255.69
374.965	244.69
375.191	270.69
375.416	266.69
375.642	250.69
375.868	242.69
376.094	254.69
376.319	251.69
376.545	245.69
376.771	234.69
376.997	239.69
377.222	227.69
377.448	251.69
377.674	254.69
377.899	252.69
378.125	243.69
378.35	237.69
378.576	236.69
378.802	256.69
379.027	238.69
379.253	242.69
379.478	244.69
379.704	238.69
379.929	246.69
380.155	245.69
380.38	239.69
380.606	231.69
380.831	243.69
381.057	246.69
381.282	242.69
381.507	238.69
381.733	269.69
381.958	244.69
382.184	256.69
382.409	277.69
382.634	252.69
382.86	272.69
383.085	254.69
383.31	260.69
383.535	278.69
383.761	274.69
383.986	256.69
384.211	266.69
384.436	264.69
384.662	266.69
384.887	272.69
385.112	265.69
385.337	282.69
385.562	281.69
385.787	287.69
386.013	291.69
386.238	295.69
386.463	293.69
386.688	285.69
386.913	282.69
387.138	278.69
387.363	291.69
387.588	284.69
387.813	295.69
388.038	277.69
388.263	285.69
388.488	284.69
388.713	299.69
388.938	288.69
389.163	269.69
389.387	276.69
389.612	290.69
389.837	273.69
390.062	281.69
390.287	279.69
390.512	278.69
390.736	278.69
390.961	291.69
391.186	290.69
391.411	285.69
391.636	292.69
391.86	315.69
392.085	290.69
392.31	307.69
392.534	300.69
392.759	297.69
392.984	307.69
393.208	298.69
393.433	314.69
393.658	290.69
393.882	296.69
394.107	296.69
394.331	293.69
394.556	296.69
394.78	316.69
395.005	290.69
395.229	304.69
395.454	314.69
395.678	310.69
395.903	307.69
396.127	309.69
396.352	305.69
396.576	310.69
396.801	307.69
397.025	306.69
397.249	310.69
397.474	311.69
397.698	328.69
397.922	316.69
398.147	318.69
398.371	323.69
398.595	343.69
398.82	338.69
399.044	367.69
399.268	360.69
399.492	404.69
399.717	423.69
399.941	412.69
400.165	400.69
400.389	377.69
400.613	374.69
400.837	354.69
401.062	332.69
401.286	348.69
401.51	339.69
401.734	348.69
401.958	339.69
402.182	342.69
402.406	344.69
402.63	368.69
402.854	350.69
403.078	360.69
403.302	349.69
403.526	351.69
403.75	347.69
403.974	333.69
404.198	350.69
404.422	360.69
404.645	341.69
404.869	341.69
405.093	369.69
405.317	353.69
405.541	362.69
405.765	363.69
405.988	351.69
406.212	379.69
406.436	355.69
406.66	357.69
406.883	382.69
407.107	374.69
407.331	398.69
407.555	397.69
407.778	371.69
408.002	392.69
408.226	386.69
408.449	382.69
408.673	382.69
408.896	351.69
409.12	364.69
409.344	380.69
409.567	361.69
409.791	348.69
410.014	364.69
410.238	350.69
410.461	352.69
410.685	351.69
410.908	360.69
411.132	349.69
411.355	346.69
411.578	343.69
411.802	365.69
412.025	336.69
412.249	339.69
412.472	356.69
412.695	336.69
412.919	335.69
413.142	349.69
413.365	346.69
413.589	346.69
413.812	332.69
414.035	344.69
414.258	330.69
414.482	335.69
414.705	341.69
414.928	341.69
415.151	340.69
415.374	339.69
415.597	315.69
415.821	326.69
416.044	328.69
416.267	324.69
416.49	339.69
416.713	336.69
416.936	330.69
417.159	337.69
417.382	330.69
417.605	328.69
417.828	335.69
418.051	327.69
418.274	334.69
418.497	318.69
418.72	342.69
418.943	317.69
419.166	342.69
419.389	351.69
419.611	350.69
419.834	339.69
420.057	320.69
420.28	338.69
420.503	319.69
420.726	341.69
420.948	323.69
421.171	338.69
421.394	322.69
421.617	316.69
421.839	333.69
422.062	332.69
422.285	307.69
422.507	326.69
422.73	339.69
422.953	337.69
423.175	329.69
423.398	350.69
423.621	345.69
423.843	334.69
424.066	329.69
424.288	334.69
424.511	336.69
424.733	325.69
424.956	312.69
425.178	324.69
425.401	340.69
425.623	335.69
425.846	306.69
426.068	312.69
426.291	297.69
426.513	310.69
426.735	327.69
426.958	312.69
427.18	320.69
427.402	312.69
427.625	323.69
427.847	292.69
428.069	308.69
428.292	299.69
428.514	308.69
428.736	307.69
428.958	296.69
429.181	299.69
429.403	285.69
429.625	288.69
429.847	309.69
430.069	309.69
430.292	322.69
430.514	287.69
430.736	312.69
430.958	299.69
431.18	299.69
431.402	305.69
431.624	316.69
431.846	306.69
432.068	294.69
432.29	296.69
432.512	290.69
432.734	292.69
432.956	322.69
433.178	310.69
433.4	313.69
433.622	309.69
433.844	319.69
434.066	327.69
434.287	312.69
434.509	322.69
434.731	315.69
434.953	310.69
435.175	342.69
435.397	309.69
435.618	304.69
435.84	294.69
436.062	299.69
436.284	323.69
436.505	309.69
436.727	309.69
436.949	300.69
437.17	308.69
437.392	291.69
437.614	299.69
437.835	294.69
438.057	284.69
438.278	285.69
438.5	286.69
438.721	298.69
438.943	313.69
439.165	303.69
439.386	292.69
439.608	307.69
439.829	298.69
440.05	295.69
440.272	295.69
440.493	308.69
440.715	293.69
440.936	297.69
441.158	312.69
441.379	319.69
441.6	320.69
441.822	314.69
442.043	313.69
442.264	328.69
442.486	307.69
442.707	299.69
442.928	322.69
443.149	324.69
443.371	324.69
443.592	313.69
443.813	338.69
444.034	339.69
444.255	349.69
444.476	325.69
444.698	357.69
444.919	334.69
445.14	418.69
445.361	366.69
445.582	362.69
445.803	310.69
446.024	301.69
446.245	313.69
446.466	318.69
446.687	332.69
446.908	312.69
447.129	312.69
447.35	286.69
447.571	307.69
447.792	276.69
448.013	290.69
448.234	311.69
448.455	290.69
448.675	270.69
448.896	290.69
449.117	294.69
449.338	286.69
449.559	279.69
449.779	273.69
450	265.69
450.221	271.69
450.442	283.69
450.662	296.69
450.883	292.69
451.104	291.69
451.324	272.69
451.545	282.69
451.766	288.69
451.986	279.69
452.207	277.69
452.428	288.69
452.648	295.69
452.869	276.69
453.089	254.69
453.31	271.69
453.53	279.69
453.751	259.69
453.971	261.69
454.192	277.69
454.412	258.69
454.633	278.69
454.853	274.69
455.073	268.69
455.294	272.69
455.514	283.69
455.734	273.69
455.955	264.69
456.175	276.69
456.395	244.69
456.616	250.69
456.836	264.69
457.056	248.69
457.276	264.69
457.497	271.69
457.717	270.69
457.937	291.69
458.157	267.69
458.377	299.69
458.598	278.69
458.818	284.69
459.038	302.69
459.258	286.69
459.478	280.69
459.698	328.69
459.918	319.69
460.138	312.69
460.358	343.69
460.578	344.69
460.798	346.69
461.018	335.69
461.238	324.69
461.458	334.69
461.678	349.69
461.898	348.69
462.118	347.69
462.338	353.69
462.558	363.69
462.777	379.69
462.997	386.69
463.217	388.69
463.437	399.69
463.657	384.69
463.876	379.69
464.096	379.69
464.316	383.69
464.536	365.69
464.755	360.69
464.975	360.69
465.195	344.69
465.414	339.69
465.634	332.69
465.854	337.69
466.073	312.69
466.293	303.69
466.512	310.69
466.732	316.69
466.951	300.69
467.171	296.69
467.391	287.69
467.61	307.69
467.829	316.69
468.049	301.69
468.268	307.69
468.488	290.69
468.707	295.69
468.927	306.69
469.146	292.69
469.365	287.69
469.585	303.69
469.804	303.69
470.023	306.69
470.243	292.69
470.462	310.69
470.681	303.69
470.901	312.69
471.12	316.69
471.339	310.69
471.558	290.69
471.777	298.69
471.997	289.69
472.216	308.69
472.435	293.69
472.654	300.69
472.873	297.69
473.092	280.69
473.311	276.69
473.53	291.69
473.749	303.69
473.968	304.69
474.187	297.69
474.406	304.69
474.625	290.69
474.844	312.69
475.063	299.69
475.282	298.69
475.501	307.69
475.72	303.69
475.939	303.69
476.158	298.69
476.377	301.69
476.596	313.69
476.814	294.69
477.033	325.69
477.252	320.69
477.471	328.69
477.69	327.69
477.908	323.69
478.127	344.69
478.346	338.69
478.564	333.69
478.783	334.69
479.002	348.69
479.22	340.69
479.439	338.69
479.658	349.69
479.876	349.69
480.095	353.69
480.313	367.69
480.532	360.69
480.751	361.69
480.969	355.69
481.188	357.69
481.406	351.69
481.624	353.69
481.843	330.69
482.061	343.69
482.28	322.69
482.498	324.69
482.717	338.69
482.935	333.69
483.153	339.69
483.372	314.69
483.59	336.69
483.808	346.69
484.027	334.69
484.245	345.69
484.463	343.69
484.681	331.69
484.9	350.69
485.118	334.69
485.336	354.69
485.554	330.69
485.772	341.69
485.99	329.69
486.209	342.69
486.427	350.69
486.645	355.69
486.863	348.69
487.081	351.69
487.299	331.69
487.517	350.69
487.735	339.69
487.953	331.69
488.171	349.69
488.389	346.69
488.607	348.69
488.825	333.69
489.043	326.69
489.261	345.69
489.479	348.69
489.696	354.69
489.914	348.69
490.132	343.69
490.35	346.69
490.568	354.69
490.786	351.69
491.003	342.69
491.221	356.69
491.439	356.69
491.657	360.69
491.874	334.69
492.092	367.69
492.31	346.69
492.527	352.69
492.745	350.69
492.963	363.69
493.18	369.69
493.398	370.69
493.615	370.69
493.833	341.69
494.05	357.69
494.268	356.69
494.485	351.69
494.703	385.69
494.92	394.69
495.138	372.69
495.355	390.69
495.573	374.69
495.79	380.69
496.008	387.69
496.225	381.69
496.442	383.69
496.66	412.69
496.877	382.69
497.094	408.69
497.312	421.69
497.529	416.69
497.746	422.69
497.963	426.69
498.181	424.69
498.398	450.69
498.615	488.69
498.832	475.69
499.049	520.69
499.267	546.69
499.484	548.69
499.701	605.69
499.918	646.69
500.135	704.69
500.352	728.69
500.569	739.69
500.786	724.69
501.003	706.69
501.22	655.69
501.437	606.69
501.654	588.69
501.871	544.69
502.088	518.69
502.305	510.69
