Data from Fe(NO3)3@0.025M.TitratingCurve.Agarose3%dH2O.NegLispCup.LampEnergy10.LIBS07252019_HRD10591_16-54-30-335.txt Node
Date: Thu Jul 25 16:54:30 EDT 2019
User: cochatt
Spectrometer: HR+D1059
Trigger mode: 1
Integration Time (sec): 1.000000E-1
Scans to average: 1
Electric dark correction enabled: true
Nonlinearity correction enabled: false
Boxcar width: 0
XAxis mode: Wavelengths
Number of Pixels in Spectrum: 2048
>>>>>Begin Spectral Data<<<<<
223.165	-11.56
223.4	-11.56
223.635	-11.56
223.869	-25.56
224.104	0.44
224.338	-7.56
224.573	-27.56
224.808	-0.56
225.042	-1.56
225.277	-13.56
225.511	-7.56
225.746	-4.56
225.98	6.44
226.215	9.44
226.449	24.44
226.683	6.44
226.918	23.44
227.152	29.44
227.387	42.44
227.621	45.44
227.856	38.44
228.09	23.44
228.324	52.44
228.559	65.44
228.793	68.44
229.027	82.44
229.262	88.44
229.496	85.44
229.73	86.44
229.964	100.44
230.199	105.44
230.433	99.44
230.667	121.44
230.901	105.44
231.136	106.44
231.37	111.44
231.604	112.44
231.838	106.44
232.072	113.44
232.306	117.44
232.541	107.44
232.775	128.44
233.009	117.44
233.243	103.44
233.477	124.44
233.711	113.44
233.945	128.44
234.179	117.44
234.413	107.44
234.647	134.44
234.881	117.44
235.115	121.44
235.349	133.44
235.583	124.44
235.817	130.44
236.051	117.44
236.285	118.44
236.519	122.44
236.753	117.44
236.987	115.44
237.221	116.44
237.455	122.44
237.689	127.44
237.922	110.44
238.156	117.44
238.39	123.44
238.624	140.44
238.858	133.44
239.091	125.44
239.325	126.44
239.559	123.44
239.793	131.44
240.027	124.44
240.26	113.44
240.494	148.44
240.728	128.44
240.961	141.44
241.195	135.44
241.429	142.44
241.662	123.44
241.896	145.44
242.13	125.44
242.363	137.44
242.597	129.44
242.83	139.44
243.064	124.44
243.298	134.44
243.531	145.44
243.765	137.44
243.998	151.44
244.232	156.44
244.465	140.44
244.699	126.44
244.932	125.44
245.166	144.44
245.399	157.44
245.633	139.44
245.866	161.44
246.099	149.44
246.333	154.44
246.566	156.44
246.8	152.44
247.033	148.44
247.266	163.44
247.5	134.44
247.733	148.44
247.966	143.44
248.2	158.44
248.433	158.44
248.666	152.44
248.899	167.44
249.133	164.44
249.366	180.44
249.599	178.44
249.832	170.44
250.066	157.44
250.299	161.44
250.532	172.44
250.765	151.44
250.998	184.44
251.231	173.44
251.465	167.44
251.698	163.44
251.931	167.44
252.164	169.44
252.397	181.44
252.63	166.44
252.863	177.44
253.096	183.44
253.329	184.44
253.562	178.44
253.795	163.44
254.028	164.44
254.261	186.44
254.494	175.44
254.727	186.44
254.96	181.44
255.193	183.44
255.426	177.44
255.659	187.44
255.892	183.44
256.124	189.44
256.357	185.44
256.59	206.44
256.823	195.44
257.056	191.44
257.289	179.44
257.521	188.44
257.754	195.44
257.987	199.44
258.22	199.44
258.452	192.44
258.685	189.44
258.918	182.44
259.151	189.44
259.383	195.44
259.616	191.44
259.849	212.44
260.081	220.44
260.314	207.44
260.547	195.44
260.779	205.44
261.012	195.44
261.244	191.44
261.477	201.44
261.71	205.44
261.942	202.44
262.175	196.44
262.407	212.44
262.64	208.44
262.872	212.44
263.105	224.44
263.337	222.44
263.57	216.44
263.802	222.44
264.035	219.44
264.267	222.44
264.499	216.44
264.732	207.44
264.964	225.44
265.197	215.44
265.429	217.44
265.661	231.44
265.894	213.44
266.126	232.44
266.358	218.44
266.591	230.44
266.823	218.44
267.055	231.44
267.287	213.44
267.52	216.44
267.752	225.44
267.984	238.44
268.216	229.44
268.448	243.44
268.681	225.44
268.913	221.44
269.145	209.44
269.377	223.44
269.609	232.44
269.841	237.44
270.073	242.44
270.306	243.44
270.538	246.44
270.77	243.44
271.002	242.44
271.234	223.44
271.466	231.44
271.698	229.44
271.93	231.44
272.162	242.44
272.394	242.44
272.626	236.44
272.858	245.44
273.09	236.44
273.322	245.44
273.553	239.44
273.785	254.44
274.017	261.44
274.249	260.44
274.481	269.44
274.713	269.44
274.945	278.44
275.176	281.44
275.408	268.44
275.64	273.44
275.872	261.44
276.104	259.44
276.335	260.44
276.567	261.44
276.799	275.44
277.031	276.44
277.262	263.44
277.494	259.44
277.726	270.44
277.957	276.44
278.189	270.44
278.421	260.44
278.652	267.44
278.884	258.44
279.115	266.44
279.347	276.44
279.579	270.44
279.81	269.44
280.042	287.44
280.273	289.44
280.505	266.44
280.736	288.44
280.968	281.44
281.199	277.44
281.431	278.44
281.662	271.44
281.894	281.44
282.125	275.44
282.356	271.44
282.588	285.44
282.819	275.44
283.051	312.44
283.282	289.44
283.513	295.44
283.745	288.44
283.976	305.44
284.207	289.44
284.439	293.44
284.67	280.44
284.901	276.44
285.132	308.44
285.364	284.44
285.595	281.44
285.826	282.44
286.057	302.44
286.288	305.44
286.52	285.44
286.751	299.44
286.982	298.44
287.213	296.44
287.444	301.44
287.675	296.44
287.906	295.44
288.138	305.44
288.369	317.44
288.6	309.44
288.831	312.44
289.062	320.44
289.293	315.44
289.524	291.44
289.755	301.44
289.986	306.44
290.217	310.44
290.448	293.44
290.679	310.44
290.91	321.44
291.141	307.44
291.371	303.44
291.602	293.44
291.833	308.44
292.064	306.44
292.295	302.44
292.526	320.44
292.757	313.44
292.987	302.44
293.218	317.44
293.449	339.44
293.68	311.44
293.91	317.44
294.141	317.44
294.372	310.44
294.603	309.44
294.833	327.44
295.064	329.44
295.295	316.44
295.525	311.44
295.756	333.44
295.987	341.44
296.217	312.44
296.448	318.44
296.679	342.44
296.909	326.44
297.14	313.44
297.37	329.44
297.601	321.44
297.831	327.44
298.062	333.44
298.292	333.44
298.523	323.44
298.753	352.44
298.984	340.44
299.214	354.44
299.445	341.44
299.675	337.44
299.905	353.44
300.136	341.44
300.366	345.44
300.597	345.44
300.827	370.44
301.057	353.44
301.288	349.44
301.518	363.44
301.748	344.44
301.979	349.44
302.209	372.44
302.439	354.44
302.669	336.44
302.9	359.44
303.13	353.44
303.36	361.44
303.59	363.44
303.82	354.44
304.051	364.44
304.281	356.44
304.511	351.44
304.741	370.44
304.971	385.44
305.201	373.44
305.431	350.44
305.661	369.44
305.891	342.44
306.121	371.44
306.352	349.44
306.582	347.44
306.812	373.44
307.042	349.44
307.272	365.44
307.502	363.44
307.731	357.44
307.961	350.44
308.191	350.44
308.421	369.44
308.651	366.44
308.881	365.44
309.111	364.44
309.341	369.44
309.571	371.44
309.8	394.44
310.03	372.44
310.26	349.44
310.49	358.44
310.72	370.44
310.949	366.44
311.179	375.44
311.409	379.44
311.639	360.44
311.868	364.44
312.098	378.44
312.328	383.44
312.557	356.44
312.787	381.44
313.017	381.44
313.246	373.44
313.476	377.44
313.706	389.44
313.935	398.44
314.165	370.44
314.394	387.44
314.624	389.44
314.853	371.44
315.083	374.44
315.312	373.44
315.542	411.44
315.771	394.44
316.001	374.44
316.23	366.44
316.46	379.44
316.689	387.44
316.919	390.44
317.148	403.44
317.377	385.44
317.607	388.44
317.836	383.44
318.065	381.44
318.295	387.44
318.524	382.44
318.753	365.44
318.983	391.44
319.212	393.44
319.441	371.44
319.67	383.44
319.9	410.44
320.129	397.44
320.358	401.44
320.587	396.44
320.816	399.44
321.046	395.44
321.275	394.44
321.504	414.44
321.733	402.44
321.962	408.44
322.191	435.44
322.42	401.44
322.649	406.44
322.878	405.44
323.108	410.44
323.337	417.44
323.566	402.44
323.795	410.44
324.024	422.44
324.253	400.44
324.482	422.44
324.71	413.44
324.939	406.44
325.168	449.44
325.397	399.44
325.626	411.44
325.855	424.44
326.084	403.44
326.313	428.44
326.542	417.44
326.77	427.44
326.999	439.44
327.228	421.44
327.457	421.44
327.686	425.44
327.914	420.44
328.143	428.44
328.372	426.44
328.6	423.44
328.829	423.44
329.058	458.44
329.287	431.44
329.515	439.44
329.744	459.44
329.972	430.44
330.201	449.44
330.43	441.44
330.658	429.44
330.887	437.44
331.115	429.44
331.344	448.44
331.572	440.44
331.801	451.44
332.03	452.44
332.258	446.44
332.486	439.44
332.715	458.44
332.943	479.44
333.172	482.44
333.4	472.44
333.629	469.44
333.857	494.44
334.085	492.44
334.314	514.44
334.542	503.44
334.771	477.44
334.999	487.44
335.227	478.44
335.455	501.44
335.684	503.44
335.912	476.44
336.14	488.44
336.369	490.44
336.597	471.44
336.825	490.44
337.053	489.44
337.281	500.44
337.51	477.44
337.738	479.44
337.966	484.44
338.194	483.44
338.422	492.44
338.65	482.44
338.878	469.44
339.106	466.44
339.334	474.44
339.562	457.44
339.79	462.44
340.018	464.44
340.246	461.44
340.474	457.44
340.702	456.44
340.93	449.44
341.158	469.44
341.386	435.44
341.614	459.44
341.842	457.44
342.07	470.44
342.298	457.44
342.526	454.44
342.754	443.44
342.981	453.44
343.209	473.44
343.437	460.44
343.665	473.44
343.893	486.44
344.12	494.44
344.348	490.44
344.576	460.44
344.804	484.44
345.031	469.44
345.259	466.44
345.487	452.44
345.714	440.44
345.942	453.44
346.17	444.44
346.397	444.44
346.625	450.44
346.853	434.44
347.08	444.44
347.308	449.44
347.535	433.44
347.763	425.44
347.99	437.44
348.218	440.44
348.445	438.44
348.673	452.44
348.9	436.44
349.128	446.44
349.355	428.44
349.583	436.44
349.81	444.44
350.037	453.44
350.265	458.44
350.492	451.44
350.72	444.44
350.947	417.44
351.174	423.44
351.402	439.44
351.629	437.44
351.856	417.44
352.083	455.44
352.311	433.44
352.538	417.44
352.765	421.44
352.992	423.44
353.22	434.44
353.447	420.44
353.674	454.44
353.901	409.44
354.128	427.44
354.355	415.44
354.583	418.44
354.81	440.44
355.037	435.44
355.264	437.44
355.491	443.44
355.718	424.44
355.945	422.44
356.172	430.44
356.399	430.44
356.626	430.44
356.853	452.44
357.08	427.44
357.307	446.44
357.534	440.44
357.761	452.44
357.988	445.44
358.215	450.44
358.441	433.44
358.668	449.44
358.895	445.44
359.122	440.44
359.349	413.44
359.576	427.44
359.802	445.44
360.029	434.44
360.256	441.44
360.483	444.44
360.709	437.44
360.936	437.44
361.163	425.44
361.39	438.44
361.616	457.44
361.843	449.44
362.07	427.44
362.296	439.44
362.523	442.44
362.749	443.44
362.976	467.44
363.203	437.44
363.429	435.44
363.656	433.44
363.882	457.44
364.109	442.44
364.335	444.44
364.562	445.44
364.788	448.44
365.015	450.44
365.241	455.44
365.468	459.44
365.694	443.44
365.92	461.44
366.147	459.44
366.373	436.44
366.599	441.44
366.826	461.44
367.052	452.44
367.278	446.44
367.505	445.44
367.731	448.44
367.957	446.44
368.184	457.44
368.41	459.44
368.636	469.44
368.862	463.44
369.089	469.44
369.315	452.44
369.541	457.44
369.767	469.44
369.993	466.44
370.219	461.44
370.445	467.44
370.672	457.44
370.898	445.44
371.124	466.44
371.35	473.44
371.576	455.44
371.802	492.44
372.028	472.44
372.254	485.44
372.48	456.44
372.706	469.44
372.932	466.44
373.158	467.44
373.384	507.44
373.61	476.44
373.835	486.44
374.061	480.44
374.287	483.44
374.513	471.44
374.739	506.44
374.965	495.44
375.191	489.44
375.416	486.44
375.642	500.44
375.868	474.44
376.094	486.44
376.319	486.44
376.545	514.44
376.771	507.44
376.997	465.44
377.222	485.44
377.448	477.44
377.674	479.44
377.899	478.44
378.125	472.44
378.35	455.44
378.576	454.44
378.802	459.44
379.027	490.44
379.253	478.44
379.478	450.44
379.704	472.44
379.929	494.44
380.155	486.44
380.38	467.44
380.606	474.44
380.831	479.44
381.057	477.44
381.282	472.44
381.507	484.44
381.733	484.44
381.958	486.44
382.184	478.44
382.409	490.44
382.634	503.44
382.86	494.44
383.085	503.44
383.31	521.44
383.535	502.44
383.761	509.44
383.986	501.44
384.211	528.44
384.436	526.44
384.662	513.44
384.887	529.44
385.112	521.44
385.337	518.44
385.562	518.44
385.787	525.44
386.013	547.44
386.238	515.44
386.463	540.44
386.688	541.44
386.913	523.44
387.138	559.44
387.363	545.44
387.588	533.44
387.813	558.44
388.038	520.44
388.263	534.44
388.488	555.44
388.713	551.44
388.938	537.44
389.163	521.44
389.387	541.44
389.612	539.44
389.837	545.44
390.062	559.44
390.287	537.44
390.512	547.44
390.736	535.44
390.961	562.44
391.186	553.44
391.411	559.44
391.636	577.44
391.86	583.44
392.085	587.44
392.31	595.44
392.534	594.44
392.759	558.44
392.984	569.44
393.208	568.44
393.433	573.44
393.658	582.44
393.882	589.44
394.107	569.44
394.331	582.44
394.556	588.44
394.78	564.44
395.005	569.44
395.229	561.44
395.454	577.44
395.678	615.44
395.903	574.44
396.127	579.44
396.352	573.44
396.576	565.44
396.801	581.44
397.025	587.44
397.249	615.44
397.474	614.44
397.698	627.44
397.922	618.44
398.147	611.44
398.371	620.44
398.595	656.44
398.82	641.44
399.044	672.44
399.268	695.44
399.492	723.44
399.717	719.44
399.941	729.44
400.165	723.44
400.389	726.44
400.613	713.44
400.837	683.44
401.062	662.44
401.286	642.44
401.51	654.44
401.734	636.44
401.958	630.44
402.182	659.44
402.406	644.44
402.63	630.44
402.854	643.44
403.078	645.44
403.302	660.44
403.526	637.44
403.75	661.44
403.974	650.44
404.198	637.44
404.422	645.44
404.645	657.44
404.869	646.44
405.093	675.44
405.317	661.44
405.541	666.44
405.765	669.44
405.988	654.44
406.212	659.44
406.436	673.44
406.66	698.44
406.883	705.44
407.107	710.44
407.331	717.44
407.555	769.44
407.778	742.44
408.002	737.44
408.226	716.44
408.449	737.44
408.673	711.44
408.896	711.44
409.12	701.44
409.344	722.44
409.567	685.44
409.791	669.44
410.014	678.44
410.238	666.44
410.461	701.44
410.685	682.44
410.908	664.44
411.132	678.44
411.355	669.44
411.578	696.44
411.802	650.44
412.025	671.44
412.249	671.44
412.472	668.44
412.695	655.44
412.919	639.44
413.142	620.44
413.365	657.44
413.589	639.44
413.812	637.44
414.035	638.44
414.258	627.44
414.482	635.44
414.705	638.44
414.928	648.44
415.151	648.44
415.374	645.44
415.597	637.44
415.821	597.44
416.044	620.44
416.267	621.44
416.49	620.44
416.713	619.44
416.936	607.44
417.159	600.44
417.382	629.44
417.605	607.44
417.828	627.44
418.051	619.44
418.274	611.44
418.497	624.44
418.72	631.44
418.943	619.44
419.166	645.44
419.389	696.44
419.611	669.44
419.834	638.44
420.057	634.44
420.28	613.44
420.503	604.44
420.726	622.44
420.948	600.44
421.171	606.44
421.394	615.44
421.617	607.44
421.839	606.44
422.062	603.44
422.285	586.44
422.507	602.44
422.73	595.44
422.953	599.44
423.175	610.44
423.398	586.44
423.621	608.44
423.843	610.44
424.066	590.44
424.288	605.44
424.511	581.44
424.733	592.44
424.956	601.44
425.178	599.44
425.401	620.44
425.623	616.44
425.846	592.44
426.068	593.44
426.291	574.44
426.513	571.44
426.735	606.44
426.958	612.44
427.18	571.44
427.402	589.44
427.625	566.44
427.847	579.44
428.069	586.44
428.292	598.44
428.514	569.44
428.736	572.44
428.958	590.44
429.181	567.44
429.403	574.44
429.625	574.44
429.847	578.44
430.069	594.44
430.292	573.44
430.514	571.44
430.736	583.44
430.958	570.44
431.18	577.44
431.402	577.44
431.624	586.44
431.846	591.44
432.068	559.44
432.29	583.44
432.512	572.44
432.734	591.44
432.956	593.44
433.178	563.44
433.4	579.44
433.622	582.44
433.844	593.44
434.066	577.44
434.287	583.44
434.509	587.44
434.731	604.44
434.953	598.44
435.175	581.44
435.397	603.44
435.618	580.44
435.84	573.44
436.062	574.44
436.284	579.44
436.505	584.44
436.727	565.44
436.949	589.44
437.17	581.44
437.392	565.44
437.614	569.44
437.835	557.44
438.057	573.44
438.278	554.44
438.5	558.44
438.721	546.44
438.943	556.44
439.165	555.44
439.386	559.44
439.608	583.44
439.829	550.44
440.05	577.44
440.272	565.44
440.493	569.44
440.715	573.44
440.936	565.44
441.158	577.44
441.379	581.44
441.6	599.44
441.822	582.44
442.043	575.44
442.264	573.44
442.486	575.44
442.707	594.44
442.928	579.44
443.149	583.44
443.371	578.44
443.592	583.44
443.813	589.44
444.034	605.44
444.255	579.44
444.476	622.44
444.698	602.44
444.919	601.44
445.14	725.44
445.361	633.44
445.582	613.44
445.803	606.44
446.024	588.44
446.245	577.44
446.466	572.44
446.687	554.44
446.908	557.44
447.129	537.44
447.35	566.44
447.571	561.44
447.792	550.44
448.013	548.44
448.234	532.44
448.455	550.44
448.675	542.44
448.896	525.44
449.117	537.44
449.338	529.44
449.559	522.44
449.779	509.44
450	505.44
450.221	518.44
450.442	519.44
450.662	523.44
450.883	533.44
451.104	514.44
451.324	514.44
451.545	505.44
451.766	535.44
451.986	495.44
452.207	525.44
452.428	513.44
452.648	525.44
452.869	530.44
453.089	513.44
453.31	507.44
453.53	521.44
453.751	510.44
453.971	518.44
454.192	514.44
454.412	516.44
454.633	527.44
454.853	500.44
455.073	491.44
455.294	494.44
455.514	506.44
455.734	487.44
455.955	499.44
456.175	506.44
456.395	525.44
456.616	523.44
456.836	486.44
457.056	515.44
457.276	518.44
457.497	513.44
457.717	497.44
457.937	514.44
458.157	547.44
458.377	511.44
458.598	541.44
458.818	552.44
459.038	568.44
459.258	556.44
459.478	543.44
459.698	558.44
459.918	578.44
460.138	588.44
460.358	591.44
460.578	592.44
460.798	590.44
461.018	612.44
461.238	600.44
461.458	602.44
461.678	610.44
461.898	626.44
462.118	617.44
462.338	636.44
462.558	642.44
462.777	652.44
462.997	673.44
463.217	697.44
463.437	677.44
463.657	690.44
463.876	665.44
464.096	658.44
464.316	667.44
464.536	656.44
464.755	650.44
464.975	643.44
465.195	625.44
465.414	617.44
465.634	611.44
465.854	590.44
466.073	558.44
466.293	565.44
466.512	568.44
466.732	563.44
466.951	570.44
467.171	555.44
467.391	545.44
467.61	532.44
467.829	549.44
468.049	553.44
468.268	536.44
468.488	541.44
468.707	538.44
468.927	532.44
469.146	560.44
469.365	545.44
469.585	538.44
469.804	543.44
470.023	558.44
470.243	548.44
470.462	561.44
470.681	556.44
470.901	547.44
471.12	550.44
471.339	550.44
471.558	545.44
471.777	531.44
471.997	531.44
472.216	556.44
472.435	538.44
472.654	540.44
472.873	541.44
473.092	571.44
473.311	534.44
473.53	527.44
473.749	556.44
473.968	539.44
474.187	545.44
474.406	558.44
474.625	564.44
474.844	561.44
475.063	557.44
475.282	541.44
475.501	541.44
475.72	562.44
475.939	555.44
476.158	580.44
476.377	578.44
476.596	567.44
476.814	587.44
477.033	594.44
477.252	614.44
477.471	586.44
477.69	602.44
477.908	604.44
478.127	629.44
478.346	609.44
478.564	624.44
478.783	620.44
479.002	627.44
479.22	622.44
479.439	653.44
479.658	654.44
479.876	659.44
480.095	665.44
480.313	653.44
480.532	651.44
480.751	611.44
480.969	660.44
481.188	619.44
481.406	654.44
481.624	630.44
481.843	643.44
482.061	615.44
482.28	619.44
482.498	603.44
482.717	626.44
482.935	639.44
483.153	634.44
483.372	635.44
483.59	630.44
483.808	610.44
484.027	660.44
484.245	622.44
484.463	639.44
484.681	637.44
484.9	649.44
485.118	646.44
485.336	645.44
485.554	641.44
485.772	635.44
485.99	615.44
486.209	614.44
486.427	646.44
486.645	629.44
486.863	629.44
487.081	651.44
487.299	639.44
487.517	631.44
487.735	646.44
487.953	641.44
488.171	663.44
488.389	655.44
488.607	630.44
488.825	627.44
489.043	669.44
489.261	654.44
489.479	649.44
489.696	655.44
489.914	634.44
490.132	661.44
490.35	671.44
490.568	645.44
490.786	649.44
491.003	664.44
491.221	661.44
491.439	653.44
491.657	663.44
491.874	663.44
492.092	660.44
492.31	682.44
492.527	672.44
492.745	663.44
492.963	668.44
493.18	663.44
493.398	661.44
493.615	681.44
493.833	673.44
494.05	678.44
494.268	678.44
494.485	667.44
494.703	674.44
494.92	691.44
495.138	691.44
495.355	685.44
495.573	701.44
495.79	691.44
496.008	713.44
496.225	717.44
496.442	713.44
496.66	730.44
496.877	735.44
497.094	731.44
497.312	745.44
497.529	755.44
497.746	770.44
497.963	795.44
498.181	814.44
498.398	838.44
498.615	847.44
498.832	899.44
499.049	930.44
499.267	934.44
499.484	972.44
499.701	1041.44
499.918	1061.44
500.135	1102.44
500.352	1135.44
500.569	1163.44
500.786	1153.44
501.003	1132.44
501.22	1091.44
501.437	1050.44
