Data from Fe(NO3)3@0.1M.TitratingCurve.Agarose3%dH2O.NegLispCup.LampEnergy10.LIBS07252019_HRD10591_16-37-25-331.txt Node
Date: Thu Jul 25 16:37:25 EDT 2019
User: cochatt
Spectrometer: HR+D1059
Trigger mode: 1
Integration Time (sec): 1.000000E-1
Scans to average: 1
Electric dark correction enabled: true
Nonlinearity correction enabled: false
Boxcar width: 0
XAxis mode: Wavelengths
Number of Pixels in Spectrum: 2048
>>>>>Begin Spectral Data<<<<<
223.165	-13.69
223.4	-13.69
223.635	-13.69
223.869	-11.69
224.104	-13.69
224.338	-17.69
224.573	-13.69
224.808	-11.69
225.042	-10.69
225.277	-13.69
225.511	6.31
225.746	13.31
225.98	2.31
226.215	21.31
226.449	0.31
226.683	9.31
226.918	19.31
227.152	34.31
227.387	40.31
227.621	46.31
227.856	46.31
228.09	51.31
228.324	48.31
228.559	58.31
228.793	61.31
229.027	64.31
229.262	57.31
229.496	71.31
229.73	77.31
229.964	68.31
230.199	78.31
230.433	76.31
230.667	68.31
230.901	62.31
231.136	80.31
231.37	86.31
231.604	76.31
231.838	88.31
232.072	75.31
232.306	90.31
232.541	82.31
232.775	91.31
233.009	97.31
233.243	90.31
233.477	80.31
233.711	83.31
233.945	79.31
234.179	84.31
234.413	76.31
234.647	90.31
234.881	66.31
235.115	82.31
235.349	71.31
235.583	80.31
235.817	89.31
236.051	72.31
236.285	82.31
236.519	83.31
236.753	88.31
236.987	85.31
237.221	87.31
237.455	86.31
237.689	78.31
237.922	68.31
238.156	68.31
238.39	72.31
238.624	84.31
238.858	71.31
239.091	77.31
239.325	82.31
239.559	84.31
239.793	83.31
240.027	77.31
240.26	78.31
240.494	84.31
240.728	87.31
240.961	81.31
241.195	67.31
241.429	73.31
241.662	77.31
241.896	75.31
242.13	75.31
242.363	81.31
242.597	76.31
242.83	90.31
243.064	86.31
243.298	76.31
243.531	81.31
243.765	84.31
243.998	87.31
244.232	91.31
244.465	78.31
244.699	76.31
244.932	85.31
245.166	90.31
245.399	77.31
245.633	82.31
245.866	87.31
246.099	62.31
246.333	83.31
246.566	81.31
246.8	85.31
247.033	74.31
247.266	86.31
247.5	99.31
247.733	94.31
247.966	97.31
248.2	76.31
248.433	75.31
248.666	91.31
248.899	84.31
249.133	83.31
249.366	81.31
249.599	79.31
249.832	79.31
250.066	82.31
250.299	85.31
250.532	80.31
250.765	89.31
250.998	69.31
251.231	78.31
251.465	79.31
251.698	89.31
251.931	84.31
252.164	90.31
252.397	91.31
252.63	99.31
252.863	87.31
253.096	98.31
253.329	82.31
253.562	106.31
253.795	87.31
254.028	81.31
254.261	97.31
254.494	95.31
254.727	89.31
254.96	93.31
255.193	88.31
255.426	102.31
255.659	102.31
255.892	103.31
256.124	88.31
256.357	96.31
256.59	92.31
256.823	81.31
257.056	70.31
257.289	92.31
257.521	96.31
257.754	94.31
257.987	97.31
258.22	95.31
258.452	96.31
258.685	79.31
258.918	86.31
259.151	94.31
259.383	94.31
259.616	87.31
259.849	84.31
260.081	93.31
260.314	91.31
260.547	99.31
260.779	89.31
261.012	87.31
261.244	97.31
261.477	93.31
261.71	99.31
261.942	91.31
262.175	113.31
262.407	96.31
262.64	98.31
262.872	85.31
263.105	104.31
263.337	98.31
263.57	106.31
263.802	88.31
264.035	94.31
264.267	105.31
264.499	92.31
264.732	110.31
264.964	94.31
265.197	108.31
265.429	99.31
265.661	120.31
265.894	92.31
266.126	88.31
266.358	101.31
266.591	105.31
266.823	94.31
267.055	95.31
267.287	98.31
267.52	96.31
267.752	92.31
267.984	88.31
268.216	104.31
268.448	92.31
268.681	110.31
268.913	89.31
269.145	96.31
269.377	95.31
269.609	98.31
269.841	104.31
270.073	99.31
270.306	99.31
270.538	107.31
270.77	102.31
271.002	97.31
271.234	100.31
271.466	97.31
271.698	102.31
271.93	99.31
272.162	110.31
272.394	110.31
272.626	115.31
272.858	107.31
273.09	114.31
273.322	105.31
273.553	114.31
273.785	102.31
274.017	112.31
274.249	94.31
274.481	99.31
274.713	114.31
274.945	115.31
275.176	102.31
275.408	99.31
275.64	107.31
275.872	129.31
276.104	105.31
276.335	108.31
276.567	103.31
276.799	108.31
277.031	111.31
277.262	95.31
277.494	107.31
277.726	112.31
277.957	114.31
278.189	103.31
278.421	122.31
278.652	104.31
278.884	103.31
279.115	99.31
279.347	108.31
279.579	111.31
279.81	98.31
280.042	97.31
280.273	106.31
280.505	110.31
280.736	107.31
280.968	110.31
281.199	104.31
281.431	122.31
281.662	111.31
281.894	115.31
282.125	119.31
282.356	120.31
282.588	99.31
282.819	105.31
283.051	102.31
283.282	107.31
283.513	120.31
283.745	98.31
283.976	94.31
284.207	114.31
284.439	116.31
284.67	122.31
284.901	92.31
285.132	103.31
285.364	111.31
285.595	114.31
285.826	114.31
286.057	119.31
286.288	112.31
286.52	108.31
286.751	139.31
286.982	114.31
287.213	113.31
287.444	117.31
287.675	107.31
287.906	115.31
288.138	116.31
288.369	115.31
288.6	110.31
288.831	107.31
289.062	112.31
289.293	111.31
289.524	120.31
289.755	116.31
289.986	93.31
290.217	114.31
290.448	117.31
290.679	110.31
290.91	123.31
291.141	102.31
291.371	114.31
291.602	116.31
291.833	105.31
292.064	115.31
292.295	116.31
292.526	106.31
292.757	107.31
292.987	113.31
293.218	110.31
293.449	115.31
293.68	119.31
293.91	113.31
294.141	114.31
294.372	114.31
294.603	119.31
294.833	107.31
295.064	120.31
295.295	114.31
295.525	110.31
295.756	112.31
295.987	110.31
296.217	128.31
296.448	120.31
296.679	127.31
296.909	111.31
297.14	111.31
297.37	126.31
297.601	120.31
297.831	120.31
298.062	106.31
298.292	110.31
298.523	133.31
298.753	136.31
298.984	130.31
299.214	119.31
299.445	111.31
299.675	110.31
299.905	133.31
300.136	124.31
300.366	120.31
300.597	111.31
300.827	124.31
301.057	128.31
301.288	130.31
301.518	122.31
301.748	104.31
301.979	127.31
302.209	123.31
302.439	123.31
302.669	128.31
302.9	121.31
303.13	115.31
303.36	114.31
303.59	136.31
303.82	118.31
304.051	113.31
304.281	124.31
304.511	132.31
304.741	118.31
304.971	108.31
305.201	126.31
305.431	130.31
305.661	125.31
305.891	125.31
306.121	123.31
306.352	135.31
306.582	138.31
306.812	122.31
307.042	113.31
307.272	114.31
307.502	119.31
307.731	118.31
307.961	145.31
308.191	130.31
308.421	128.31
308.651	123.31
308.881	111.31
309.111	142.31
309.341	146.31
309.571	116.31
309.8	131.31
310.03	119.31
310.26	115.31
310.49	128.31
310.72	131.31
310.949	131.31
311.179	125.31
311.409	114.31
311.639	128.31
311.868	119.31
312.098	130.31
312.328	127.31
312.557	139.31
312.787	129.31
313.017	131.31
313.246	145.31
313.476	130.31
313.706	130.31
313.935	142.31
314.165	135.31
314.394	135.31
314.624	143.31
314.853	144.31
315.083	137.31
315.312	115.31
315.542	139.31
315.771	122.31
316.001	129.31
316.23	124.31
316.46	128.31
316.689	138.31
316.919	140.31
317.148	130.31
317.377	126.31
317.607	121.31
317.836	134.31
318.065	133.31
318.295	158.31
318.524	136.31
318.753	124.31
318.983	139.31
319.212	148.31
319.441	129.31
319.67	123.31
319.9	124.31
320.129	135.31
320.358	142.31
320.587	122.31
320.816	118.31
321.046	120.31
321.275	144.31
321.504	124.31
321.733	129.31
321.962	143.31
322.191	132.31
322.42	130.31
322.649	142.31
322.878	133.31
323.108	139.31
323.337	128.31
323.566	131.31
323.795	130.31
324.024	129.31
324.253	129.31
324.482	128.31
324.71	120.31
324.939	128.31
325.168	135.31
325.397	130.31
325.626	143.31
325.855	130.31
326.084	128.31
326.313	138.31
326.542	139.31
326.77	131.31
326.999	129.31
327.228	137.31
327.457	136.31
327.686	134.31
327.914	135.31
328.143	122.31
328.372	132.31
328.6	161.31
328.829	119.31
329.058	134.31
329.287	132.31
329.515	131.31
329.744	139.31
329.972	132.31
330.201	120.31
330.43	134.31
330.658	136.31
330.887	140.31
331.115	146.31
331.344	152.31
331.572	143.31
331.801	138.31
332.03	138.31
332.258	127.31
332.486	158.31
332.715	149.31
332.943	151.31
333.172	155.31
333.4	155.31
333.629	157.31
333.857	151.31
334.085	138.31
334.314	160.31
334.542	152.31
334.771	154.31
334.999	134.31
335.227	123.31
335.455	133.31
335.684	139.31
335.912	144.31
336.14	136.31
336.369	145.31
336.597	134.31
336.825	151.31
337.053	144.31
337.281	144.31
337.51	132.31
337.738	151.31
337.966	145.31
338.194	121.31
338.422	130.31
338.65	123.31
338.878	148.31
339.106	153.31
339.334	137.31
339.562	134.31
339.79	134.31
340.018	132.31
340.246	149.31
340.474	135.31
340.702	145.31
340.93	134.31
341.158	131.31
341.386	135.31
341.614	130.31
341.842	137.31
342.07	139.31
342.298	147.31
342.526	149.31
342.754	140.31
342.981	134.31
343.209	146.31
343.437	143.31
343.665	143.31
343.893	140.31
344.12	163.31
344.348	159.31
344.576	151.31
344.804	129.31
345.031	146.31
345.259	148.31
345.487	156.31
345.714	141.31
345.942	140.31
346.17	144.31
346.397	136.31
346.625	134.31
346.853	151.31
347.08	152.31
347.308	150.31
347.535	138.31
347.763	137.31
347.99	126.31
348.218	150.31
348.445	124.31
348.673	145.31
348.9	137.31
349.128	141.31
349.355	140.31
349.583	138.31
349.81	138.31
350.037	146.31
350.265	145.31
350.492	139.31
350.72	150.31
350.947	144.31
351.174	152.31
351.402	141.31
351.629	140.31
351.856	150.31
352.083	138.31
352.311	136.31
352.538	139.31
352.765	150.31
352.992	142.31
353.22	148.31
353.447	158.31
353.674	135.31
353.901	131.31
354.128	143.31
354.355	133.31
354.583	130.31
354.81	126.31
355.037	126.31
355.264	132.31
355.491	155.31
355.718	142.31
355.945	144.31
356.172	147.31
356.399	143.31
356.626	134.31
356.853	148.31
357.08	128.31
357.307	152.31
357.534	150.31
357.761	138.31
357.988	146.31
358.215	142.31
358.441	163.31
358.668	136.31
358.895	143.31
359.122	158.31
359.349	138.31
359.576	144.31
359.802	154.31
360.029	152.31
360.256	133.31
360.483	146.31
360.709	136.31
360.936	147.31
361.163	129.31
361.39	140.31
361.616	135.31
361.843	156.31
362.07	138.31
362.296	150.31
362.523	150.31
362.749	138.31
362.976	140.31
363.203	148.31
363.429	166.31
363.656	136.31
363.882	124.31
364.109	138.31
364.335	149.31
364.562	150.31
364.788	141.31
365.015	159.31
365.241	147.31
365.468	148.31
365.694	141.31
365.92	161.31
366.147	147.31
366.373	166.31
366.599	156.31
366.826	147.31
367.052	157.31
367.278	164.31
367.505	148.31
367.731	147.31
367.957	152.31
368.184	161.31
368.41	142.31
368.636	165.31
368.862	152.31
369.089	154.31
369.315	145.31
369.541	163.31
369.767	141.31
369.993	162.31
370.219	147.31
370.445	139.31
370.672	156.31
370.898	143.31
371.124	162.31
371.35	157.31
371.576	165.31
371.802	161.31
372.028	156.31
372.254	164.31
372.48	159.31
372.706	160.31
372.932	164.31
373.158	162.31
373.384	163.31
373.61	171.31
373.835	165.31
374.061	162.31
374.287	162.31
374.513	176.31
374.739	190.31
374.965	177.31
375.191	154.31
375.416	170.31
375.642	165.31
375.868	171.31
376.094	176.31
376.319	166.31
376.545	181.31
376.771	160.31
376.997	165.31
377.222	168.31
377.448	154.31
377.674	159.31
377.899	158.31
378.125	164.31
378.35	155.31
378.576	181.31
378.802	173.31
379.027	168.31
379.253	155.31
379.478	161.31
379.704	168.31
379.929	169.31
380.155	172.31
380.38	170.31
380.606	182.31
380.831	175.31
381.057	182.31
381.282	155.31
381.507	179.31
381.733	177.31
381.958	174.31
382.184	186.31
382.409	205.31
382.634	195.31
382.86	195.31
383.085	188.31
383.31	194.31
383.535	188.31
383.761	190.31
383.986	192.31
384.211	179.31
384.436	186.31
384.662	179.31
384.887	195.31
385.112	194.31
385.337	208.31
385.562	198.31
385.787	200.31
386.013	205.31
386.238	208.31
386.463	201.31
386.688	197.31
386.913	179.31
387.138	199.31
387.363	208.31
387.588	205.31
387.813	187.31
388.038	195.31
388.263	197.31
388.488	198.31
388.713	214.31
388.938	200.31
389.163	190.31
389.387	188.31
389.612	185.31
389.837	200.31
390.062	203.31
390.287	227.31
390.512	197.31
390.736	202.31
390.961	222.31
391.186	212.31
391.411	204.31
391.636	189.31
391.86	225.31
392.085	209.31
392.31	207.31
392.534	226.31
392.759	206.31
392.984	216.31
393.208	220.31
393.433	213.31
393.658	217.31
393.882	188.31
394.107	208.31
394.331	218.31
394.556	204.31
394.78	238.31
395.005	215.31
395.229	207.31
395.454	217.31
395.678	234.31
395.903	226.31
396.127	213.31
396.352	209.31
396.576	213.31
396.801	221.31
397.025	203.31
397.249	219.31
397.474	230.31
397.698	231.31
397.922	222.31
398.147	221.31
398.371	231.31
398.595	245.31
398.82	255.31
399.044	266.31
399.268	279.31
399.492	302.31
399.717	306.31
399.941	284.31
400.165	288.31
400.389	276.31
400.613	280.31
400.837	258.31
401.062	244.31
401.286	218.31
401.51	252.31
401.734	244.31
401.958	244.31
402.182	266.31
402.406	250.31
402.63	259.31
402.854	246.31
403.078	252.31
403.302	243.31
403.526	253.31
403.75	241.31
403.974	264.31
404.198	262.31
404.422	250.31
404.645	241.31
404.869	269.31
405.093	270.31
405.317	240.31
405.541	249.31
405.765	227.31
405.988	254.31
406.212	264.31
406.436	250.31
406.66	268.31
406.883	282.31
407.107	265.31
407.331	263.31
407.555	281.31
407.778	288.31
408.002	270.31
408.226	273.31
408.449	253.31
408.673	246.31
408.896	266.31
409.12	281.31
409.344	258.31
409.567	259.31
409.791	249.31
410.014	267.31
410.238	268.31
410.461	257.31
410.685	267.31
410.908	246.31
411.132	248.31
411.355	230.31
411.578	265.31
411.802	264.31
412.025	263.31
412.249	259.31
412.472	254.31
412.695	249.31
412.919	244.31
413.142	239.31
413.365	266.31
413.589	236.31
413.812	267.31
414.035	243.31
414.258	256.31
414.482	241.31
414.705	251.31
414.928	262.31
415.151	243.31
415.374	250.31
415.597	240.31
415.821	251.31
416.044	248.31
416.267	253.31
416.49	240.31
416.713	252.31
416.936	255.31
417.159	254.31
417.382	238.31
417.605	233.31
417.828	258.31
418.051	250.31
418.274	240.31
418.497	262.31
418.72	268.31
418.943	244.31
419.166	260.31
419.389	270.31
419.611	275.31
419.834	259.31
420.057	276.31
420.28	243.31
420.503	251.31
420.726	254.31
420.948	238.31
421.171	248.31
421.394	225.31
421.617	254.31
421.839	251.31
422.062	253.31
422.285	257.31
422.507	260.31
422.73	260.31
422.953	228.31
423.175	273.31
423.398	252.31
423.621	254.31
423.843	255.31
424.066	267.31
424.288	246.31
424.511	268.31
424.733	252.31
424.956	267.31
425.178	244.31
425.401	247.31
425.623	252.31
425.846	255.31
426.068	233.31
426.291	247.31
426.513	224.31
426.735	229.31
426.958	222.31
427.18	230.31
427.402	225.31
427.625	216.31
427.847	239.31
428.069	241.31
428.292	231.31
428.514	226.31
428.736	225.31
428.958	220.31
429.181	238.31
429.403	210.31
429.625	211.31
429.847	238.31
430.069	224.31
430.292	227.31
430.514	208.31
430.736	231.31
430.958	229.31
431.18	232.31
431.402	255.31
431.624	237.31
431.846	238.31
432.068	207.31
432.29	225.31
432.512	227.31
432.734	215.31
432.956	240.31
433.178	232.31
433.4	234.31
433.622	232.31
433.844	258.31
434.066	238.31
434.287	241.31
434.509	240.31
434.731	241.31
434.953	256.31
435.175	262.31
435.397	259.31
435.618	242.31
435.84	233.31
436.062	236.31
436.284	210.31
436.505	217.31
436.727	236.31
436.949	240.31
437.17	219.31
437.392	235.31
437.614	242.31
437.835	219.31
438.057	226.31
438.278	222.31
438.5	213.31
438.721	222.31
438.943	217.31
439.165	245.31
439.386	216.31
439.608	246.31
439.829	235.31
440.05	223.31
440.272	254.31
440.493	228.31
440.715	260.31
440.936	230.31
441.158	247.31
441.379	258.31
441.6	237.31
441.822	262.31
442.043	234.31
442.264	249.31
442.486	251.31
442.707	269.31
442.928	264.31
443.149	249.31
443.371	244.31
443.592	251.31
443.813	258.31
444.034	259.31
444.255	254.31
444.476	282.31
444.698	274.31
444.919	285.31
445.14	389.31
445.361	313.31
445.582	241.31
445.803	247.31
446.024	240.31
446.245	234.31
446.466	247.31
446.687	247.31
446.908	260.31
447.129	245.31
447.35	257.31
447.571	236.31
447.792	252.31
448.013	229.31
448.234	234.31
448.455	233.31
448.675	211.31
448.896	229.31
449.117	221.31
449.338	219.31
449.559	226.31
449.779	219.31
450	230.31
450.221	222.31
450.442	229.31
450.662	226.31
450.883	222.31
451.104	233.31
451.324	218.31
451.545	230.31
451.766	219.31
451.986	214.31
452.207	224.31
452.428	230.31
452.648	228.31
452.869	225.31
453.089	224.31
453.31	210.31
453.53	215.31
453.751	208.31
453.971	200.31
454.192	218.31
454.412	220.31
454.633	210.31
454.853	222.31
455.073	212.31
455.294	210.31
455.514	226.31
455.734	215.31
455.955	235.31
456.175	197.31
456.395	209.31
456.616	210.31
456.836	207.31
457.056	219.31
457.276	212.31
457.497	212.31
457.717	215.31
457.937	213.31
458.157	224.31
458.377	219.31
458.598	214.31
458.818	217.31
459.038	219.31
459.258	234.31
459.478	233.31
459.698	239.31
459.918	231.31
460.138	256.31
460.358	260.31
460.578	251.31
460.798	281.31
461.018	264.31
461.238	246.31
461.458	266.31
461.678	250.31
461.898	260.31
462.118	268.31
462.338	284.31
462.558	274.31
462.777	298.31
462.997	306.31
463.217	311.31
463.437	308.31
463.657	281.31
463.876	293.31
464.096	278.31
464.316	280.31
464.536	294.31
464.755	286.31
464.975	277.31
465.195	281.31
465.414	268.31
465.634	252.31
465.854	245.31
466.073	246.31
466.293	249.31
466.512	248.31
466.732	240.31
466.951	253.31
467.171	234.31
467.391	216.31
467.61	225.31
467.829	240.31
468.049	233.31
468.268	254.31
468.488	232.31
468.707	250.31
468.927	234.31
469.146	231.31
469.365	236.31
469.585	235.31
469.804	239.31
470.023	238.31
470.243	235.31
470.462	247.31
470.681	243.31
470.901	232.31
471.12	234.31
471.339	250.31
471.558	242.31
471.777	228.31
471.997	239.31
472.216	246.31
472.435	222.31
472.654	233.31
472.873	240.31
473.092	233.31
473.311	227.31
473.53	242.31
473.749	230.31
473.968	244.31
474.187	225.31
474.406	232.31
474.625	225.31
474.844	226.31
475.063	234.31
475.282	234.31
475.501	239.31
475.72	234.31
475.939	234.31
476.158	234.31
476.377	258.31
476.596	236.31
476.814	250.31
477.033	229.31
477.252	250.31
477.471	255.31
477.69	247.31
477.908	230.31
478.127	264.31
478.346	267.31
478.564	259.31
478.783	283.31
479.002	267.31
479.22	266.31
479.439	287.31
479.658	270.31
479.876	274.31
480.095	280.31
480.313	304.31
480.532	294.31
480.751	276.31
480.969	260.31
481.188	264.31
481.406	256.31
481.624	257.31
481.843	260.31
482.061	275.31
482.28	269.31
482.498	271.31
482.717	258.31
482.935	265.31
483.153	272.31
483.372	280.31
483.59	264.31
483.808	266.31
484.027	264.31
484.245	261.31
484.463	265.31
484.681	278.31
484.9	262.31
485.118	267.31
485.336	266.31
485.554	268.31
485.772	266.31
485.99	265.31
486.209	274.31
486.427	268.31
486.645	269.31
486.863	263.31
487.081	254.31
487.299	278.31
487.517	286.31
487.735	277.31
487.953	276.31
488.171	292.31
488.389	278.31
488.607	268.31
488.825	267.31
489.043	258.31
489.261	269.31
489.479	286.31
489.696	297.31
489.914	263.31
490.132	287.31
490.35	270.31
490.568	264.31
490.786	280.31
491.003	289.31
491.221	270.31
491.439	288.31
491.657	271.31
491.874	294.31
492.092	293.31
492.31	291.31
492.527	302.31
492.745	280.31
492.963	286.31
493.18	291.31
493.398	283.31
493.615	306.31
493.833	282.31
494.05	298.31
494.268	278.31
494.485	280.31
494.703	298.31
494.92	295.31
495.138	287.31
495.355	292.31
495.573	302.31
495.79	318.31
496.008	292.31
496.225	313.31
496.442	284.31
496.66	306.31
496.877	271.31
497.094	309.31
497.312	309.31
497.529	309.31
497.746	315.31
497.963	329.31
498.181	321.31
498.398	332.31
498.615	355.31
498.832	368.31
499.049	366.31
499.267	411.31
499.484	397.31
499.701	450.31
499.918	455.31
500.135	518.31
500.352	536.31
500.569	548.31
500.786	566.31
501.003	505.31
501.22	480.31
501.437	464.31
501.654	393.31
501.871	410.31
502.088	381.31
502.305	376.31
502.522	345.31
502.739	328.31
502.956	341.31
503.172	320.31
503.389	318.31
503.606	306.31
503.823	305.31
504.04	308.31
