Data from Fe(NO3)3@0.1M.TitratingCurve.Agarose3%dH2O.NegLispCup.LampEnergy10.LIBS07252019_HRD10591_16-41-30-335.txt Node
Date: Thu Jul 25 16:41:30 EDT 2019
User: cochatt
Spectrometer: HR+D1059
Trigger mode: 1
Integration Time (sec): 1.000000E-1
Scans to average: 1
Electric dark correction enabled: true
Nonlinearity correction enabled: false
Boxcar width: 0
XAxis mode: Wavelengths
Number of Pixels in Spectrum: 2048
>>>>>Begin Spectral Data<<<<<
223.165	-16.5
223.4	-16.5
223.635	-16.5
223.869	-28.5
224.104	-14.5
224.338	-7.5
224.573	-24.5
224.808	-8.5
225.042	-13.5
225.277	3.5
225.511	2.5
225.746	5.5
225.98	1.5
226.215	14.5
226.449	11.5
226.683	26.5
226.918	16.5
227.152	31.5
227.387	30.5
227.621	35.5
227.856	42.5
228.09	42.5
228.324	49.5
228.559	52.5
228.793	56.5
229.027	86.5
229.262	86.5
229.496	82.5
229.73	86.5
229.964	92.5
230.199	88.5
230.433	80.5
230.667	96.5
230.901	93.5
231.136	99.5
231.37	94.5
231.604	102.5
231.838	103.5
232.072	77.5
232.306	99.5
232.541	105.5
232.775	99.5
233.009	98.5
233.243	100.5
233.477	114.5
233.711	102.5
233.945	108.5
234.179	108.5
234.413	110.5
234.647	107.5
234.881	88.5
235.115	105.5
235.349	112.5
235.583	118.5
235.817	101.5
236.051	89.5
236.285	99.5
236.519	111.5
236.753	90.5
236.987	103.5
237.221	101.5
237.455	94.5
237.689	106.5
237.922	111.5
238.156	116.5
238.39	103.5
238.624	112.5
238.858	112.5
239.091	94.5
239.325	95.5
239.559	99.5
239.793	112.5
240.027	122.5
240.26	97.5
240.494	113.5
240.728	96.5
240.961	117.5
241.195	110.5
241.429	113.5
241.662	99.5
241.896	114.5
242.13	110.5
242.363	111.5
242.597	116.5
242.83	126.5
243.064	124.5
243.298	115.5
243.531	107.5
243.765	103.5
243.998	106.5
244.232	119.5
244.465	99.5
244.699	117.5
244.932	128.5
245.166	128.5
245.399	119.5
245.633	133.5
245.866	117.5
246.099	122.5
246.333	122.5
246.566	120.5
246.8	115.5
247.033	120.5
247.266	130.5
247.5	120.5
247.733	131.5
247.966	126.5
248.2	136.5
248.433	122.5
248.666	122.5
248.899	115.5
249.133	142.5
249.366	119.5
249.599	114.5
249.832	138.5
250.066	142.5
250.299	131.5
250.532	129.5
250.765	123.5
250.998	126.5
251.231	134.5
251.465	150.5
251.698	134.5
251.931	148.5
252.164	148.5
252.397	144.5
252.63	146.5
252.863	134.5
253.096	148.5
253.329	144.5
253.562	126.5
253.795	143.5
254.028	146.5
254.261	140.5
254.494	129.5
254.727	142.5
254.96	132.5
255.193	148.5
255.426	140.5
255.659	138.5
255.892	146.5
256.124	145.5
256.357	142.5
256.59	140.5
256.823	131.5
257.056	139.5
257.289	134.5
257.521	145.5
257.754	151.5
257.987	162.5
258.22	172.5
258.452	149.5
258.685	160.5
258.918	152.5
259.151	151.5
259.383	141.5
259.616	153.5
259.849	154.5
260.081	162.5
260.314	155.5
260.547	146.5
260.779	160.5
261.012	142.5
261.244	143.5
261.477	153.5
261.71	144.5
261.942	164.5
262.175	165.5
262.407	169.5
262.64	166.5
262.872	161.5
263.105	175.5
263.337	170.5
263.57	160.5
263.802	170.5
264.035	167.5
264.267	170.5
264.499	150.5
264.732	160.5
264.964	168.5
265.197	164.5
265.429	171.5
265.661	152.5
265.894	165.5
266.126	171.5
266.358	159.5
266.591	179.5
266.823	184.5
267.055	154.5
267.287	159.5
267.52	162.5
267.752	166.5
267.984	186.5
268.216	177.5
268.448	169.5
268.681	180.5
268.913	171.5
269.145	179.5
269.377	174.5
269.609	160.5
269.841	162.5
270.073	169.5
270.306	155.5
270.538	171.5
270.77	170.5
271.002	168.5
271.234	160.5
271.466	170.5
271.698	180.5
271.93	190.5
272.162	186.5
272.394	188.5
272.626	183.5
272.858	178.5
273.09	173.5
273.322	185.5
273.553	189.5
273.785	176.5
274.017	178.5
274.249	179.5
274.481	209.5
274.713	204.5
274.945	188.5
275.176	190.5
275.408	175.5
275.64	198.5
275.872	183.5
276.104	195.5
276.335	199.5
276.567	196.5
276.799	201.5
277.031	211.5
277.262	195.5
277.494	206.5
277.726	186.5
277.957	202.5
278.189	211.5
278.421	193.5
278.652	203.5
278.884	202.5
279.115	200.5
279.347	202.5
279.579	208.5
279.81	219.5
280.042	210.5
280.273	229.5
280.505	206.5
280.736	197.5
280.968	212.5
281.199	198.5
281.431	188.5
281.662	214.5
281.894	234.5
282.125	203.5
282.356	233.5
282.588	195.5
282.819	210.5
283.051	194.5
283.282	214.5
283.513	219.5
283.745	207.5
283.976	218.5
284.207	230.5
284.439	224.5
284.67	207.5
284.901	214.5
285.132	210.5
285.364	207.5
285.595	238.5
285.826	224.5
286.057	234.5
286.288	217.5
286.52	212.5
286.751	216.5
286.982	202.5
287.213	231.5
287.444	227.5
287.675	214.5
287.906	206.5
288.138	229.5
288.369	222.5
288.6	222.5
288.831	217.5
289.062	245.5
289.293	227.5
289.524	222.5
289.755	240.5
289.986	217.5
290.217	230.5
290.448	238.5
290.679	234.5
290.91	204.5
291.141	232.5
291.371	218.5
291.602	238.5
291.833	228.5
292.064	230.5
292.295	232.5
292.526	240.5
292.757	231.5
292.987	245.5
293.218	244.5
293.449	234.5
293.68	243.5
293.91	244.5
294.141	222.5
294.372	240.5
294.603	240.5
294.833	238.5
295.064	245.5
295.295	221.5
295.525	232.5
295.756	230.5
295.987	224.5
296.217	245.5
296.448	238.5
296.679	236.5
296.909	229.5
297.14	230.5
297.37	257.5
297.601	258.5
297.831	248.5
298.062	251.5
298.292	248.5
298.523	252.5
298.753	244.5
298.984	255.5
299.214	238.5
299.445	256.5
299.675	238.5
299.905	238.5
300.136	239.5
300.366	233.5
300.597	229.5
300.827	242.5
301.057	270.5
301.288	263.5
301.518	263.5
301.748	255.5
301.979	258.5
302.209	264.5
302.439	264.5
302.669	261.5
302.9	259.5
303.13	251.5
303.36	257.5
303.59	270.5
303.82	272.5
304.051	273.5
304.281	254.5
304.511	240.5
304.741	255.5
304.971	255.5
305.201	251.5
305.431	264.5
305.661	253.5
305.891	256.5
306.121	266.5
306.352	266.5
306.582	263.5
306.812	273.5
307.042	256.5
307.272	265.5
307.502	251.5
307.731	261.5
307.961	243.5
308.191	254.5
308.421	256.5
308.651	267.5
308.881	270.5
309.111	252.5
309.341	278.5
309.571	255.5
309.8	259.5
310.03	250.5
310.26	272.5
310.49	260.5
310.72	277.5
310.949	261.5
311.179	265.5
311.409	280.5
311.639	259.5
311.868	238.5
312.098	254.5
312.328	263.5
312.557	273.5
312.787	260.5
313.017	280.5
313.246	257.5
313.476	287.5
313.706	269.5
313.935	262.5
314.165	274.5
314.394	277.5
314.624	278.5
314.853	270.5
315.083	286.5
315.312	278.5
315.542	284.5
315.771	288.5
316.001	278.5
316.23	265.5
316.46	286.5
316.689	289.5
316.919	283.5
317.148	288.5
317.377	272.5
317.607	251.5
317.836	248.5
318.065	260.5
318.295	274.5
318.524	268.5
318.753	264.5
318.983	279.5
319.212	277.5
319.441	289.5
319.67	286.5
319.9	270.5
320.129	289.5
320.358	265.5
320.587	285.5
320.816	282.5
321.046	272.5
321.275	266.5
321.504	272.5
321.733	266.5
321.962	289.5
322.191	282.5
322.42	279.5
322.649	291.5
322.878	296.5
323.108	294.5
323.337	297.5
323.566	272.5
323.795	287.5
324.024	290.5
324.253	278.5
324.482	287.5
324.71	295.5
324.939	285.5
325.168	303.5
325.397	283.5
325.626	294.5
325.855	292.5
326.084	294.5
326.313	293.5
326.542	309.5
326.77	310.5
326.999	310.5
327.228	304.5
327.457	320.5
327.686	303.5
327.914	302.5
328.143	289.5
328.372	284.5
328.6	306.5
328.829	296.5
329.058	308.5
329.287	304.5
329.515	295.5
329.744	309.5
329.972	319.5
330.201	303.5
330.43	310.5
330.658	294.5
330.887	308.5
331.115	327.5
331.344	315.5
331.572	318.5
331.801	314.5
332.03	329.5
332.258	326.5
332.486	337.5
332.715	336.5
332.943	361.5
333.172	381.5
333.4	368.5
333.629	377.5
333.857	379.5
334.085	372.5
334.314	382.5
334.542	356.5
334.771	374.5
334.999	343.5
335.227	374.5
335.455	370.5
335.684	354.5
335.912	345.5
336.14	362.5
336.369	359.5
336.597	371.5
336.825	332.5
337.053	360.5
337.281	336.5
337.51	355.5
337.738	338.5
337.966	338.5
338.194	306.5
338.422	322.5
338.65	316.5
338.878	307.5
339.106	339.5
339.334	310.5
339.562	329.5
339.79	322.5
340.018	324.5
340.246	303.5
340.474	338.5
340.702	324.5
340.93	329.5
341.158	310.5
341.386	304.5
341.614	320.5
341.842	318.5
342.07	313.5
342.298	322.5
342.526	314.5
342.754	298.5
342.981	305.5
343.209	339.5
343.437	333.5
343.665	342.5
343.893	348.5
344.12	380.5
344.348	376.5
344.576	355.5
344.804	329.5
345.031	302.5
345.259	319.5
345.487	332.5
345.714	318.5
345.942	320.5
346.17	321.5
346.397	286.5
346.625	274.5
346.853	318.5
347.08	306.5
347.308	312.5
347.535	342.5
347.763	303.5
347.99	305.5
348.218	304.5
348.445	305.5
348.673	282.5
348.9	303.5
349.128	311.5
349.355	294.5
349.583	310.5
349.81	294.5
350.037	284.5
350.265	283.5
350.492	295.5
350.72	289.5
350.947	302.5
351.174	312.5
351.402	290.5
351.629	291.5
351.856	298.5
352.083	312.5
352.311	288.5
352.538	298.5
352.765	315.5
352.992	283.5
353.22	286.5
353.447	285.5
353.674	311.5
353.901	299.5
354.128	298.5
354.355	302.5
354.583	275.5
354.81	311.5
355.037	299.5
355.264	310.5
355.491	299.5
355.718	330.5
355.945	306.5
356.172	304.5
356.399	308.5
356.626	310.5
356.853	288.5
357.08	302.5
357.307	308.5
357.534	297.5
357.761	304.5
357.988	308.5
358.215	317.5
358.441	307.5
358.668	294.5
358.895	310.5
359.122	300.5
359.349	299.5
359.576	310.5
359.802	297.5
360.029	305.5
360.256	297.5
360.483	296.5
360.709	310.5
360.936	297.5
361.163	292.5
361.39	304.5
361.616	312.5
361.843	299.5
362.07	306.5
362.296	312.5
362.523	297.5
362.749	276.5
362.976	289.5
363.203	290.5
363.429	307.5
363.656	289.5
363.882	294.5
364.109	286.5
364.335	294.5
364.562	302.5
364.788	317.5
365.015	315.5
365.241	288.5
365.468	294.5
365.694	295.5
365.92	293.5
366.147	298.5
366.373	292.5
366.599	311.5
366.826	306.5
367.052	312.5
367.278	322.5
367.505	315.5
367.731	329.5
367.957	320.5
368.184	303.5
368.41	326.5
368.636	318.5
368.862	316.5
369.089	313.5
369.315	312.5
369.541	314.5
369.767	319.5
369.993	328.5
370.219	319.5
370.445	312.5
370.672	321.5
370.898	338.5
371.124	328.5
371.35	325.5
371.576	342.5
371.802	328.5
372.028	327.5
372.254	311.5
372.48	328.5
372.706	335.5
372.932	344.5
373.158	330.5
373.384	337.5
373.61	338.5
373.835	336.5
374.061	320.5
374.287	341.5
374.513	352.5
374.739	350.5
374.965	369.5
375.191	340.5
375.416	364.5
375.642	362.5
375.868	356.5
376.094	328.5
376.319	318.5
376.545	349.5
376.771	322.5
376.997	327.5
377.222	336.5
377.448	325.5
377.674	328.5
377.899	334.5
378.125	309.5
378.35	328.5
378.576	335.5
378.802	327.5
379.027	331.5
379.253	355.5
379.478	325.5
379.704	324.5
379.929	341.5
380.155	340.5
380.38	313.5
380.606	323.5
380.831	330.5
381.057	314.5
381.282	337.5
381.507	325.5
381.733	327.5
381.958	330.5
382.184	334.5
382.409	333.5
382.634	354.5
382.86	357.5
383.085	347.5
383.31	352.5
383.535	372.5
383.761	353.5
383.986	370.5
384.211	381.5
384.436	358.5
384.662	368.5
384.887	386.5
385.112	388.5
385.337	391.5
385.562	378.5
385.787	376.5
386.013	384.5
386.238	375.5
386.463	380.5
386.688	368.5
386.913	383.5
387.138	384.5
387.363	370.5
387.588	386.5
387.813	402.5
388.038	378.5
388.263	392.5
388.488	383.5
388.713	394.5
388.938	397.5
389.163	387.5
389.387	391.5
389.612	370.5
389.837	366.5
390.062	400.5
390.287	379.5
390.512	382.5
390.736	389.5
390.961	418.5
391.186	413.5
391.411	422.5
391.636	430.5
391.86	422.5
392.085	428.5
392.31	434.5
392.534	432.5
392.759	440.5
392.984	417.5
393.208	397.5
393.433	391.5
393.658	416.5
393.882	394.5
394.107	442.5
394.331	426.5
394.556	414.5
394.78	430.5
395.005	421.5
395.229	420.5
395.454	432.5
395.678	444.5
395.903	425.5
396.127	438.5
396.352	412.5
396.576	400.5
396.801	408.5
397.025	431.5
397.249	420.5
397.474	440.5
397.698	449.5
397.922	443.5
398.147	414.5
398.371	450.5
398.595	446.5
398.82	491.5
399.044	519.5
399.268	556.5
399.492	588.5
399.717	649.5
399.941	615.5
400.165	593.5
400.389	544.5
400.613	513.5
400.837	504.5
401.062	482.5
401.286	482.5
401.51	490.5
401.734	483.5
401.958	466.5
402.182	485.5
402.406	490.5
402.63	471.5
402.854	502.5
403.078	496.5
403.302	538.5
403.526	522.5
403.75	522.5
403.974	516.5
404.198	508.5
404.422	522.5
404.645	549.5
404.869	519.5
405.093	539.5
405.317	520.5
405.541	507.5
405.765	497.5
405.988	511.5
406.212	536.5
406.436	508.5
406.66	560.5
406.883	523.5
407.107	557.5
407.331	576.5
407.555	596.5
407.778	593.5
408.002	590.5
408.226	577.5
408.449	563.5
408.673	561.5
408.896	539.5
409.12	555.5
409.344	547.5
409.567	555.5
409.791	549.5
410.014	517.5
410.238	530.5
410.461	548.5
410.685	527.5
410.908	523.5
411.132	518.5
411.355	507.5
411.578	511.5
411.802	494.5
412.025	485.5
412.249	507.5
412.472	502.5
412.695	483.5
412.919	496.5
413.142	512.5
413.365	491.5
413.589	490.5
413.812	473.5
414.035	487.5
414.258	471.5
414.482	501.5
414.705	488.5
414.928	489.5
415.151	483.5
415.374	479.5
415.597	484.5
415.821	485.5
416.044	476.5
416.267	469.5
416.49	478.5
416.713	462.5
416.936	484.5
417.159	483.5
417.382	478.5
417.605	465.5
417.828	490.5
418.051	483.5
418.274	485.5
418.497	484.5
418.72	479.5
418.943	471.5
419.166	508.5
419.389	543.5
419.611	552.5
419.834	501.5
420.057	482.5
420.28	474.5
420.503	472.5
420.726	477.5
420.948	507.5
421.171	462.5
421.394	471.5
421.617	469.5
421.839	488.5
422.062	504.5
422.285	458.5
422.507	457.5
422.73	490.5
422.953	480.5
423.175	494.5
423.398	519.5
423.621	500.5
423.843	496.5
424.066	506.5
424.288	500.5
424.511	497.5
424.733	492.5
424.956	465.5
425.178	492.5
425.401	487.5
425.623	483.5
425.846	446.5
426.068	467.5
426.291	490.5
426.513	470.5
426.735	462.5
426.958	446.5
427.18	450.5
427.402	466.5
427.625	450.5
427.847	438.5
428.069	426.5
428.292	414.5
428.514	418.5
428.736	442.5
428.958	438.5
429.181	438.5
429.403	443.5
429.625	411.5
429.847	435.5
430.069	429.5
430.292	437.5
430.514	436.5
430.736	436.5
430.958	431.5
431.18	436.5
431.402	446.5
431.624	445.5
431.846	444.5
432.068	441.5
432.29	458.5
432.512	441.5
432.734	437.5
432.956	427.5
433.178	434.5
433.4	453.5
433.622	448.5
433.844	442.5
434.066	443.5
434.287	450.5
434.509	463.5
434.731	460.5
434.953	462.5
435.175	473.5
435.397	464.5
435.618	444.5
435.84	449.5
436.062	454.5
436.284	460.5
436.505	454.5
436.727	442.5
436.949	426.5
437.17	464.5
437.392	446.5
437.614	427.5
437.835	423.5
438.057	432.5
438.278	445.5
438.5	427.5
438.721	420.5
438.943	428.5
439.165	417.5
439.386	441.5
439.608	446.5
439.829	473.5
440.05	463.5
440.272	445.5
440.493	453.5
440.715	464.5
440.936	447.5
441.158	481.5
441.379	496.5
441.6	498.5
441.822	488.5
442.043	475.5
442.264	490.5
442.486	477.5
442.707	469.5
442.928	485.5
443.149	472.5
443.371	450.5
443.592	461.5
443.813	486.5
444.034	500.5
444.255	491.5
444.476	515.5
444.698	528.5
444.919	558.5
445.14	640.5
445.361	555.5
445.582	506.5
445.803	485.5
446.024	467.5
446.245	475.5
446.466	459.5
446.687	454.5
446.908	451.5
447.129	442.5
447.35	460.5
447.571	443.5
447.792	426.5
448.013	420.5
448.234	433.5
448.455	421.5
448.675	434.5
448.896	419.5
449.117	412.5
449.338	419.5
449.559	433.5
449.779	410.5
450	416.5
450.221	448.5
450.442	427.5
450.662	421.5
450.883	427.5
451.104	415.5
451.324	417.5
451.545	411.5
451.766	420.5
451.986	391.5
452.207	411.5
452.428	429.5
452.648	415.5
452.869	403.5
453.089	396.5
453.31	396.5
453.53	411.5
453.751	411.5
453.971	400.5
454.192	406.5
454.412	389.5
454.633	410.5
454.853	395.5
455.073	381.5
455.294	403.5
455.514	384.5
455.734	374.5
455.955	389.5
456.175	391.5
456.395	393.5
456.616	390.5
456.836	385.5
457.056	397.5
457.276	381.5
457.497	386.5
457.717	383.5
457.937	404.5
458.157	388.5
458.377	399.5
458.598	411.5
458.818	397.5
459.038	436.5
459.258	430.5
459.478	438.5
459.698	434.5
459.918	445.5
460.138	475.5
460.358	503.5
460.578	505.5
460.798	499.5
461.018	515.5
461.238	496.5
461.458	483.5
461.678	489.5
461.898	519.5
462.118	524.5
462.338	523.5
462.558	544.5
462.777	562.5
462.997	618.5
463.217	633.5
463.437	627.5
463.657	598.5
463.876	591.5
464.096	578.5
464.316	565.5
464.536	550.5
464.755	528.5
464.975	529.5
465.195	515.5
465.414	478.5
465.634	458.5
465.854	432.5
466.073	450.5
466.293	443.5
466.512	446.5
466.732	432.5
466.951	426.5
467.171	418.5
467.391	421.5
467.61	447.5
467.829	434.5
468.049	403.5
468.268	416.5
468.488	421.5
468.707	418.5
468.927	418.5
469.146	418.5
469.365	395.5
469.585	425.5
469.804	415.5
470.023	433.5
470.243	448.5
470.462	420.5
470.681	439.5
470.901	445.5
471.12	438.5
471.339	425.5
471.558	404.5
471.777	411.5
471.997	435.5
472.216	396.5
472.435	420.5
472.654	399.5
472.873	398.5
473.092	398.5
473.311	415.5
473.53	402.5
473.749	400.5
473.968	400.5
474.187	366.5
474.406	387.5
474.625	415.5
474.844	394.5
475.063	395.5
475.282	392.5
475.501	411.5
475.72	405.5
475.939	409.5
476.158	423.5
476.377	418.5
476.596	423.5
476.814	403.5
477.033	411.5
477.252	431.5
477.471	439.5
477.69	447.5
477.908	466.5
478.127	464.5
478.346	461.5
478.564	467.5
478.783	469.5
479.002	481.5
479.22	474.5
479.439	498.5
479.658	485.5
479.876	446.5
480.095	466.5
480.313	505.5
480.532	512.5
480.751	500.5
480.969	491.5
481.188	472.5
481.406	455.5
481.624	475.5
481.843	436.5
482.061	442.5
482.28	434.5
482.498	457.5
482.717	455.5
482.935	459.5
483.153	451.5
483.372	454.5
483.59	468.5
483.808	436.5
484.027	453.5
484.245	447.5
484.463	442.5
484.681	454.5
484.9	474.5
485.118	456.5
485.336	446.5
485.554	450.5
485.772	440.5
485.99	464.5
486.209	479.5
486.427	457.5
486.645	474.5
486.863	464.5
487.081	444.5
487.299	464.5
487.517	452.5
487.735	458.5
487.953	476.5
488.171	461.5
488.389	469.5
488.607	448.5
488.825	447.5
489.043	469.5
489.261	456.5
489.479	458.5
489.696	468.5
489.914	443.5
490.132	470.5
490.35	452.5
490.568	466.5
490.786	473.5
491.003	476.5
491.221	452.5
491.439	462.5
491.657	466.5
491.874	486.5
492.092	488.5
492.31	486.5
492.527	513.5
492.745	507.5
492.963	496.5
493.18	490.5
493.398	494.5
493.615	498.5
493.833	507.5
494.05	494.5
494.268	499.5
494.485	485.5
494.703	506.5
494.92	481.5
495.138	508.5
495.355	494.5
495.573	480.5
495.79	499.5
496.008	487.5
496.225	486.5
496.442	500.5
496.66	489.5
496.877	520.5
497.094	512.5
497.312	555.5
497.529	535.5
497.746	560.5
497.963	582.5
498.181	595.5
498.398	608.5
498.615	630.5
498.832	670.5
499.049	694.5
499.267	735.5
499.484	814.5
499.701	874.5
499.918	981.5
500.135	1054.5
500.352	1182.5
500.569	1218.5
500.786	1210.5
501.003	1136.5
501.22	1046.5
501.437	934.5
501.654	828.5
501.871	758.5
502.088	743.5
502.305	701.5
502.522	655.5
502.739	670.5
502.956	638.5
503.172	607.5
503.389	562.5
503.606	567.5
503.823	550.5
504.04	576.5
504.256	546.5
504.473	553.5
504.69	561.5
504.907	557.5
505.123	515.5
505.34	511.5
505.557	500.5
505.773	488.5
505.99	479.5
506.207	473.5
506.423	470.5
506.64	449.5
506.856	442.5
507.073	434.5
507.289	447.5
507.506	440.5
507.722	435.5
507.939	438.5
508.155	436.5
508.372	420.5
508.588	412.5
508.805	406.5
509.021	438.5
509.238	395.5
509.454	399.5
509.67	390.5
509.887	406.5
510.103	390.5
510.319	402.5
510.536	417.5
510.752	397.5
510.968	395.5
511.184	400.5
511.401	375.5
511.617	388.5
511.833	397.5
512.049	377.5
512.265	392.5
512.481	394.5
512.698	406.5
512.914	411.5
513.13	397.5
513.346	402.5
513.562	404.5
513.778	415.5
513.994	408.5
514.21	383.5
514.426	400.5
514.642	407.5
514.858	412.5
515.074	405.5
515.29	400.5
515.506	418.5
515.721	402.5
515.937	433.5
516.153	448.5
516.369	443.5
516.585	463.5
516.801	472.5
517.016	486.5
517.232	508.5
517.448	521.5
517.664	544.5
517.879	530.5
518.095	526.5
518.311	497.5
518.527	478.5
518.742	464.5
518.958	459.5
519.173	444.5
519.389	437.5
519.605	435.5
519.82	413.5
