Data from Fe(NO3)3@0.025M.TitratingCurve.Agarose3%dH2O.NegLispCup.LampEnergy10.LIBS07252019_HRD10591_16-54-48-335.txt Node
Date: Thu Jul 25 16:54:48 EDT 2019
User: cochatt
Spectrometer: HR+D1059
Trigger mode: 1
Integration Time (sec): 1.000000E-1
Scans to average: 1
Electric dark correction enabled: true
Nonlinearity correction enabled: false
Boxcar width: 0
XAxis mode: Wavelengths
Number of Pixels in Spectrum: 2048
>>>>>Begin Spectral Data<<<<<
223.165	1.5
223.4	1.5
223.635	1.5
223.869	-22.5
224.104	-36.5
224.338	-4.5
224.573	-3.5
224.808	-13.5
225.042	1.5
225.277	-6.5
225.511	-9.5
225.746	-8.5
225.98	14.5
226.215	6.5
226.449	11.5
226.683	11.5
226.918	23.5
227.152	34.5
227.387	37.5
227.621	31.5
227.856	42.5
228.09	54.5
228.324	62.5
228.559	59.5
228.793	69.5
229.027	80.5
229.262	83.5
229.496	72.5
229.73	94.5
229.964	93.5
230.199	92.5
230.433	105.5
230.667	107.5
230.901	106.5
231.136	106.5
231.37	101.5
231.604	105.5
231.838	114.5
232.072	98.5
232.306	92.5
232.541	123.5
232.775	115.5
233.009	121.5
233.243	117.5
233.477	109.5
233.711	92.5
233.945	105.5
234.179	93.5
234.413	105.5
234.647	118.5
234.881	103.5
235.115	114.5
235.349	115.5
235.583	110.5
235.817	111.5
236.051	120.5
236.285	124.5
236.519	99.5
236.753	105.5
236.987	113.5
237.221	122.5
237.455	101.5
237.689	101.5
237.922	100.5
238.156	115.5
238.39	110.5
238.624	116.5
238.858	118.5
239.091	114.5
239.325	127.5
239.559	120.5
239.793	124.5
240.027	124.5
240.26	127.5
240.494	123.5
240.728	110.5
240.961	120.5
241.195	123.5
241.429	115.5
241.662	118.5
241.896	129.5
242.13	107.5
242.363	120.5
242.597	125.5
242.83	127.5
243.064	122.5
243.298	131.5
243.531	136.5
243.765	125.5
243.998	145.5
244.232	130.5
244.465	113.5
244.699	117.5
244.932	121.5
245.166	130.5
245.399	135.5
245.633	134.5
245.866	143.5
246.099	126.5
246.333	134.5
246.566	128.5
246.8	129.5
247.033	148.5
247.266	145.5
247.5	129.5
247.733	131.5
247.966	132.5
248.2	137.5
248.433	130.5
248.666	138.5
248.899	137.5
249.133	150.5
249.366	139.5
249.599	142.5
249.832	147.5
250.066	143.5
250.299	141.5
250.532	149.5
250.765	151.5
250.998	153.5
251.231	130.5
251.465	154.5
251.698	166.5
251.931	149.5
252.164	141.5
252.397	170.5
252.63	151.5
252.863	152.5
253.096	154.5
253.329	158.5
253.562	156.5
253.795	157.5
254.028	164.5
254.261	151.5
254.494	169.5
254.727	159.5
254.96	161.5
255.193	157.5
255.426	134.5
255.659	163.5
255.892	163.5
256.124	169.5
256.357	163.5
256.59	156.5
256.823	165.5
257.056	169.5
257.289	165.5
257.521	155.5
257.754	157.5
257.987	165.5
258.22	170.5
258.452	166.5
258.685	162.5
258.918	175.5
259.151	179.5
259.383	182.5
259.616	188.5
259.849	175.5
260.081	174.5
260.314	185.5
260.547	158.5
260.779	161.5
261.012	173.5
261.244	195.5
261.477	190.5
261.71	188.5
261.942	194.5
262.175	173.5
262.407	170.5
262.64	182.5
262.872	190.5
263.105	184.5
263.337	178.5
263.57	174.5
263.802	170.5
264.035	191.5
264.267	181.5
264.499	177.5
264.732	171.5
264.964	187.5
265.197	184.5
265.429	173.5
265.661	186.5
265.894	197.5
266.126	181.5
266.358	198.5
266.591	208.5
266.823	195.5
267.055	188.5
267.287	203.5
267.52	209.5
267.752	192.5
267.984	189.5
268.216	197.5
268.448	201.5
268.681	194.5
268.913	212.5
269.145	190.5
269.377	195.5
269.609	197.5
269.841	202.5
270.073	201.5
270.306	206.5
270.538	206.5
270.77	188.5
271.002	207.5
271.234	202.5
271.466	186.5
271.698	204.5
271.93	205.5
272.162	216.5
272.394	205.5
272.626	221.5
272.858	217.5
273.09	220.5
273.322	225.5
273.553	222.5
273.785	231.5
274.017	214.5
274.249	222.5
274.481	238.5
274.713	232.5
274.945	242.5
275.176	242.5
275.408	230.5
275.64	238.5
275.872	220.5
276.104	233.5
276.335	221.5
276.567	231.5
276.799	236.5
277.031	225.5
277.262	236.5
277.494	233.5
277.726	243.5
277.957	226.5
278.189	231.5
278.421	232.5
278.652	227.5
278.884	223.5
279.115	237.5
279.347	231.5
279.579	234.5
279.81	236.5
280.042	246.5
280.273	245.5
280.505	229.5
280.736	238.5
280.968	236.5
281.199	235.5
281.431	247.5
281.662	250.5
281.894	262.5
282.125	254.5
282.356	257.5
282.588	259.5
282.819	260.5
283.051	268.5
283.282	257.5
283.513	249.5
283.745	244.5
283.976	240.5
284.207	274.5
284.439	263.5
284.67	268.5
284.901	260.5
285.132	253.5
285.364	264.5
285.595	262.5
285.826	250.5
286.057	280.5
286.288	246.5
286.52	272.5
286.751	262.5
286.982	261.5
287.213	235.5
287.444	268.5
287.675	275.5
287.906	277.5
288.138	274.5
288.369	259.5
288.6	281.5
288.831	278.5
289.062	263.5
289.293	277.5
289.524	272.5
289.755	277.5
289.986	273.5
290.217	271.5
290.448	273.5
290.679	273.5
290.91	289.5
291.141	295.5
291.371	284.5
291.602	285.5
291.833	256.5
292.064	282.5
292.295	286.5
292.526	300.5
292.757	293.5
292.987	266.5
293.218	301.5
293.449	290.5
293.68	293.5
293.91	287.5
294.141	291.5
294.372	285.5
294.603	294.5
294.833	280.5
295.064	283.5
295.295	290.5
295.525	318.5
295.756	302.5
295.987	289.5
296.217	289.5
296.448	298.5
296.679	306.5
296.909	297.5
297.14	284.5
297.37	308.5
297.601	313.5
297.831	291.5
298.062	314.5
298.292	297.5
298.523	321.5
298.753	299.5
298.984	294.5
299.214	321.5
299.445	306.5
299.675	315.5
299.905	304.5
300.136	307.5
300.366	315.5
300.597	307.5
300.827	313.5
301.057	321.5
301.288	331.5
301.518	330.5
301.748	309.5
301.979	342.5
302.209	355.5
302.439	322.5
302.669	325.5
302.9	330.5
303.13	321.5
303.36	331.5
303.59	330.5
303.82	317.5
304.051	325.5
304.281	330.5
304.511	338.5
304.741	335.5
304.971	320.5
305.201	317.5
305.431	330.5
305.661	319.5
305.891	333.5
306.121	335.5
306.352	340.5
306.582	318.5
306.812	326.5
307.042	332.5
307.272	322.5
307.502	336.5
307.731	316.5
307.961	321.5
308.191	350.5
308.421	333.5
308.651	332.5
308.881	340.5
309.111	318.5
309.341	345.5
309.571	342.5
309.8	338.5
310.03	355.5
310.26	343.5
310.49	328.5
310.72	347.5
310.949	340.5
311.179	344.5
311.409	360.5
311.639	348.5
311.868	372.5
312.098	336.5
312.328	346.5
312.557	353.5
312.787	358.5
313.017	347.5
313.246	367.5
313.476	350.5
313.706	353.5
313.935	362.5
314.165	351.5
314.394	376.5
314.624	362.5
314.853	369.5
315.083	373.5
315.312	384.5
315.542	361.5
315.771	363.5
316.001	380.5
316.23	366.5
316.46	369.5
316.689	359.5
316.919	374.5
317.148	389.5
317.377	365.5
317.607	379.5
317.836	354.5
318.065	370.5
318.295	363.5
318.524	395.5
318.753	339.5
318.983	367.5
319.212	348.5
319.441	366.5
319.67	355.5
319.9	365.5
320.129	393.5
320.358	364.5
320.587	377.5
320.816	387.5
321.046	371.5
321.275	370.5
321.504	377.5
321.733	381.5
321.962	371.5
322.191	398.5
322.42	374.5
322.649	394.5
322.878	399.5
323.108	389.5
323.337	407.5
323.566	387.5
323.795	377.5
324.024	378.5
324.253	389.5
324.482	387.5
324.71	385.5
324.939	396.5
325.168	393.5
325.397	382.5
325.626	396.5
325.855	417.5
326.084	395.5
326.313	404.5
326.542	406.5
326.77	420.5
326.999	417.5
327.228	425.5
327.457	412.5
327.686	407.5
327.914	407.5
328.143	421.5
328.372	404.5
328.6	400.5
328.829	419.5
329.058	399.5
329.287	411.5
329.515	414.5
329.744	439.5
329.972	439.5
330.201	430.5
330.43	425.5
330.658	424.5
330.887	421.5
331.115	415.5
331.344	424.5
331.572	429.5
331.801	437.5
332.03	420.5
332.258	439.5
332.486	447.5
332.715	447.5
332.943	459.5
333.172	453.5
333.4	461.5
333.629	462.5
333.857	476.5
334.085	504.5
334.314	486.5
334.542	495.5
334.771	476.5
334.999	470.5
335.227	486.5
335.455	476.5
335.684	490.5
335.912	487.5
336.14	465.5
336.369	468.5
336.597	451.5
336.825	474.5
337.053	476.5
337.281	461.5
337.51	463.5
337.738	468.5
337.966	452.5
338.194	453.5
338.422	456.5
338.65	447.5
338.878	449.5
339.106	447.5
339.334	452.5
339.562	430.5
339.79	429.5
340.018	423.5
340.246	444.5
340.474	424.5
340.702	433.5
340.93	446.5
341.158	428.5
341.386	441.5
341.614	436.5
341.842	454.5
342.07	428.5
342.298	441.5
342.526	425.5
342.754	433.5
342.981	445.5
343.209	460.5
343.437	447.5
343.665	473.5
343.893	497.5
344.12	477.5
344.348	483.5
344.576	485.5
344.804	474.5
345.031	457.5
345.259	474.5
345.487	467.5
345.714	461.5
345.942	453.5
346.17	450.5
346.397	456.5
346.625	437.5
346.853	444.5
347.08	435.5
347.308	450.5
347.535	441.5
347.763	420.5
347.99	443.5
348.218	454.5
348.445	432.5
348.673	418.5
348.9	421.5
349.128	443.5
349.355	428.5
349.583	424.5
349.81	429.5
350.037	421.5
350.265	409.5
350.492	405.5
350.72	408.5
350.947	441.5
351.174	426.5
351.402	413.5
351.629	424.5
351.856	437.5
352.083	448.5
352.311	415.5
352.538	424.5
352.765	417.5
352.992	394.5
353.22	399.5
353.447	425.5
353.674	427.5
353.901	423.5
354.128	427.5
354.355	422.5
354.583	426.5
354.81	425.5
355.037	435.5
355.264	416.5
355.491	406.5
355.718	435.5
355.945	420.5
356.172	421.5
356.399	438.5
356.626	419.5
356.853	425.5
357.08	403.5
357.307	429.5
357.534	461.5
357.761	419.5
357.988	425.5
358.215	433.5
358.441	437.5
358.668	431.5
358.895	428.5
359.122	435.5
359.349	455.5
359.576	422.5
359.802	427.5
360.029	439.5
360.256	433.5
360.483	429.5
360.709	442.5
360.936	439.5
361.163	428.5
361.39	423.5
361.616	425.5
361.843	436.5
362.07	433.5
362.296	435.5
362.523	427.5
362.749	437.5
362.976	435.5
363.203	450.5
363.429	453.5
363.656	450.5
363.882	426.5
364.109	441.5
364.335	442.5
364.562	442.5
364.788	422.5
365.015	429.5
365.241	435.5
365.468	431.5
365.694	443.5
365.92	422.5
366.147	415.5
366.373	434.5
366.599	409.5
366.826	429.5
367.052	463.5
367.278	450.5
367.505	447.5
367.731	430.5
367.957	439.5
368.184	475.5
368.41	433.5
368.636	445.5
368.862	453.5
369.089	459.5
369.315	433.5
369.541	449.5
369.767	474.5
369.993	437.5
370.219	451.5
370.445	449.5
370.672	462.5
370.898	462.5
371.124	444.5
371.35	455.5
371.576	451.5
371.802	470.5
372.028	474.5
372.254	473.5
372.48	485.5
372.706	479.5
372.932	475.5
373.158	474.5
373.384	491.5
373.61	484.5
373.835	486.5
374.061	471.5
374.287	487.5
374.513	480.5
374.739	497.5
374.965	490.5
375.191	490.5
375.416	481.5
375.642	494.5
375.868	510.5
376.094	483.5
376.319	481.5
376.545	495.5
376.771	473.5
376.997	469.5
377.222	468.5
377.448	466.5
377.674	467.5
377.899	454.5
378.125	476.5
378.35	481.5
378.576	502.5
378.802	484.5
379.027	486.5
379.253	469.5
379.478	467.5
379.704	472.5
379.929	482.5
380.155	470.5
380.38	478.5
380.606	499.5
380.831	487.5
381.057	488.5
381.282	463.5
381.507	483.5
381.733	466.5
381.958	478.5
382.184	509.5
382.409	509.5
382.634	500.5
382.86	489.5
383.085	487.5
383.31	507.5
383.535	493.5
383.761	499.5
383.986	510.5
384.211	521.5
384.436	519.5
384.662	513.5
384.887	539.5
385.112	504.5
385.337	521.5
385.562	525.5
385.787	549.5
386.013	562.5
386.238	533.5
386.463	558.5
386.688	527.5
386.913	561.5
387.138	551.5
387.363	545.5
387.588	550.5
387.813	558.5
388.038	563.5
388.263	548.5
388.488	559.5
388.713	539.5
388.938	549.5
389.163	568.5
389.387	563.5
389.612	556.5
389.837	539.5
390.062	541.5
390.287	567.5
390.512	561.5
390.736	554.5
390.961	565.5
391.186	571.5
391.411	565.5
391.636	572.5
391.86	608.5
392.085	594.5
392.31	603.5
392.534	558.5
392.759	556.5
392.984	562.5
393.208	578.5
393.433	571.5
393.658	565.5
393.882	577.5
394.107	579.5
394.331	583.5
394.556	563.5
394.78	593.5
395.005	575.5
395.229	584.5
395.454	616.5
395.678	604.5
395.903	575.5
396.127	589.5
396.352	598.5
396.576	599.5
396.801	615.5
397.025	611.5
397.249	636.5
397.474	621.5
397.698	629.5
397.922	644.5
398.147	638.5
398.371	625.5
398.595	653.5
398.82	649.5
399.044	703.5
399.268	717.5
399.492	739.5
399.717	764.5
399.941	769.5
400.165	771.5
400.389	733.5
400.613	721.5
400.837	709.5
401.062	713.5
401.286	683.5
401.51	665.5
401.734	659.5
401.958	675.5
402.182	661.5
402.406	657.5
402.63	686.5
402.854	667.5
403.078	652.5
403.302	653.5
403.526	655.5
403.75	667.5
403.974	673.5
404.198	670.5
404.422	665.5
404.645	641.5
404.869	671.5
405.093	671.5
405.317	675.5
405.541	683.5
405.765	678.5
405.988	658.5
406.212	685.5
406.436	710.5
406.66	725.5
406.883	705.5
407.107	730.5
407.331	753.5
407.555	767.5
407.778	730.5
408.002	725.5
408.226	711.5
408.449	741.5
408.673	737.5
408.896	699.5
409.12	705.5
409.344	701.5
409.567	684.5
409.791	716.5
410.014	697.5
410.238	686.5
410.461	692.5
410.685	675.5
410.908	671.5
411.132	671.5
411.355	683.5
411.578	677.5
411.802	665.5
412.025	668.5
412.249	687.5
412.472	674.5
412.695	684.5
412.919	649.5
413.142	677.5
413.365	637.5
413.589	674.5
413.812	638.5
414.035	659.5
414.258	644.5
414.482	645.5
414.705	646.5
414.928	656.5
415.151	661.5
415.374	660.5
415.597	651.5
415.821	639.5
416.044	617.5
416.267	630.5
416.49	634.5
416.713	618.5
416.936	635.5
417.159	627.5
417.382	618.5
417.605	626.5
417.828	645.5
418.051	633.5
418.274	643.5
418.497	633.5
418.72	636.5
418.943	660.5
419.166	649.5
419.389	659.5
419.611	667.5
419.834	654.5
420.057	619.5
420.28	631.5
420.503	623.5
420.726	618.5
420.948	627.5
421.171	628.5
421.394	633.5
421.617	630.5
421.839	610.5
422.062	623.5
422.285	619.5
422.507	641.5
422.73	617.5
422.953	602.5
423.175	585.5
423.398	627.5
423.621	598.5
423.843	599.5
424.066	627.5
424.288	618.5
424.511	611.5
424.733	616.5
424.956	635.5
425.178	606.5
425.401	598.5
425.623	614.5
425.846	605.5
426.068	595.5
426.291	593.5
426.513	593.5
426.735	583.5
426.958	580.5
427.18	589.5
427.402	586.5
427.625	599.5
427.847	571.5
428.069	590.5
428.292	595.5
428.514	596.5
428.736	579.5
428.958	562.5
429.181	569.5
429.403	605.5
429.625	601.5
429.847	585.5
430.069	565.5
430.292	589.5
430.514	582.5
430.736	584.5
430.958	569.5
431.18	585.5
431.402	563.5
431.624	583.5
431.846	581.5
432.068	586.5
432.29	586.5
432.512	572.5
432.734	592.5
432.956	593.5
433.178	598.5
433.4	590.5
433.622	595.5
433.844	603.5
434.066	598.5
434.287	582.5
434.509	615.5
434.731	628.5
434.953	609.5
435.175	645.5
435.397	635.5
435.618	580.5
435.84	625.5
436.062	590.5
436.284	595.5
436.505	602.5
436.727	582.5
436.949	566.5
437.17	571.5
437.392	563.5
437.614	561.5
437.835	569.5
438.057	571.5
438.278	589.5
438.5	565.5
438.721	566.5
438.943	531.5
439.165	559.5
439.386	554.5
439.608	583.5
439.829	571.5
440.05	565.5
440.272	570.5
440.493	585.5
440.715	586.5
440.936	600.5
441.158	586.5
441.379	589.5
441.6	589.5
441.822	581.5
442.043	596.5
442.264	592.5
442.486	603.5
442.707	581.5
442.928	597.5
443.149	598.5
443.371	596.5
443.592	607.5
443.813	616.5
444.034	605.5
444.255	631.5
444.476	629.5
444.698	626.5
444.919	631.5
445.14	770.5
445.361	683.5
445.582	611.5
445.803	622.5
446.024	590.5
446.245	591.5
446.466	606.5
446.687	588.5
446.908	557.5
447.129	577.5
447.35	561.5
447.571	552.5
447.792	537.5
448.013	543.5
448.234	548.5
448.455	533.5
448.675	554.5
448.896	537.5
449.117	520.5
449.338	517.5
449.559	527.5
449.779	516.5
450	509.5
450.221	529.5
450.442	528.5
450.662	536.5
450.883	513.5
451.104	515.5
451.324	521.5
451.545	520.5
451.766	513.5
451.986	499.5
452.207	526.5
452.428	506.5
452.648	513.5
452.869	509.5
453.089	508.5
453.31	488.5
453.53	509.5
453.751	497.5
453.971	529.5
454.192	525.5
454.412	507.5
454.633	505.5
454.853	513.5
455.073	503.5
455.294	503.5
455.514	514.5
455.734	516.5
455.955	484.5
456.175	500.5
456.395	494.5
456.616	516.5
456.836	501.5
457.056	497.5
457.276	517.5
457.497	533.5
457.717	503.5
457.937	545.5
458.157	507.5
458.377	542.5
458.598	539.5
458.818	545.5
459.038	570.5
459.258	571.5
459.478	581.5
459.698	577.5
459.918	604.5
460.138	583.5
460.358	598.5
460.578	622.5
460.798	619.5
461.018	628.5
461.238	626.5
461.458	621.5
461.678	637.5
461.898	645.5
462.118	641.5
462.338	665.5
462.558	679.5
462.777	689.5
462.997	708.5
463.217	744.5
463.437	726.5
463.657	706.5
463.876	726.5
464.096	659.5
464.316	657.5
464.536	665.5
464.755	682.5
464.975	647.5
465.195	646.5
465.414	630.5
465.634	638.5
465.854	611.5
466.073	614.5
466.293	595.5
466.512	545.5
466.732	561.5
466.951	556.5
467.171	542.5
467.391	553.5
467.61	557.5
467.829	576.5
468.049	547.5
468.268	545.5
468.488	553.5
468.707	537.5
468.927	557.5
469.146	550.5
469.365	555.5
469.585	561.5
469.804	564.5
470.023	574.5
470.243	567.5
470.462	581.5
470.681	558.5
470.901	574.5
471.12	585.5
471.339	562.5
471.558	551.5
471.777	564.5
471.997	537.5
472.216	566.5
472.435	565.5
472.654	577.5
472.873	564.5
473.092	557.5
473.311	547.5
473.53	574.5
473.749	553.5
473.968	575.5
474.187	559.5
474.406	550.5
474.625	580.5
474.844	568.5
475.063	552.5
475.282	540.5
475.501	549.5
475.72	555.5
475.939	566.5
476.158	558.5
476.377	585.5
476.596	603.5
476.814	571.5
477.033	582.5
477.252	581.5
477.471	622.5
477.69	599.5
477.908	612.5
478.127	636.5
478.346	633.5
478.564	634.5
478.783	634.5
479.002	661.5
479.22	663.5
479.439	669.5
479.658	644.5
479.876	637.5
480.095	653.5
480.313	723.5
480.532	667.5
480.751	668.5
480.969	670.5
481.188	644.5
481.406	651.5
481.624	665.5
481.843	659.5
482.061	654.5
482.28	643.5
482.498	669.5
482.717	647.5
482.935	645.5
483.153	682.5
483.372	649.5
483.59	649.5
483.808	664.5
484.027	628.5
484.245	645.5
484.463	665.5
484.681	651.5
484.9	643.5
485.118	659.5
485.336	634.5
485.554	655.5
485.772	643.5
485.99	631.5
486.209	654.5
486.427	664.5
486.645	676.5
486.863	655.5
487.081	659.5
487.299	647.5
487.517	661.5
487.735	658.5
487.953	646.5
488.171	671.5
488.389	648.5
488.607	684.5
488.825	679.5
489.043	643.5
489.261	652.5
489.479	675.5
489.696	653.5
489.914	657.5
490.132	643.5
490.35	660.5
490.568	659.5
490.786	668.5
491.003	696.5
491.221	673.5
491.439	669.5
491.657	673.5
491.874	674.5
492.092	676.5
492.31	668.5
492.527	697.5
492.745	707.5
492.963	677.5
493.18	719.5
493.398	698.5
493.615	687.5
493.833	681.5
494.05	709.5
494.268	712.5
494.485	718.5
494.703	706.5
494.92	725.5
495.138	691.5
495.355	702.5
495.573	710.5
495.79	716.5
496.008	732.5
496.225	742.5
496.442	737.5
496.66	746.5
496.877	753.5
497.094	775.5
497.312	823.5
497.529	799.5
497.746	821.5
497.963	846.5
498.181	851.5
498.398	884.5
498.615	923.5
498.832	940.5
499.049	979.5
499.267	1020.5
499.484	1047.5
499.701	1116.5
499.918	1125.5
500.135	1188.5
500.352	1243.5
500.569	1265.5
500.786	1235.5
501.003	1204.5
501.22	1147.5
501.437	1130.5
501.654	1073.5
501.871	1035.5
502.088	987.5
502.305	979.5
502.522	972.5
502.739	921.5
502.956	889.5
503.172	859.5
503.389	848.5
503.606	799.5
503.823	825.5
504.04	793.5
504.256	775.5
504.473	760.5
504.69	757.5
504.907	744.5
505.123	738.5
505.34	731.5
505.557	701.5
505.773	703.5
505.99	697.5
506.207	679.5
506.423	670.5
506.64	674.5
506.856	649.5
507.073	657.5
507.289	641.5
507.506	625.5
507.722	622.5
507.939	627.5
508.155	615.5
508.372	622.5
508.588	597.5
508.805	606.5
509.021	608.5
509.238	577.5
509.454	587.5
509.67	582.5
509.887	581.5
510.103	595.5
510.319	604.5
510.536	593.5
510.752	575.5
510.968	578.5
511.184	592.5
511.401	594.5
511.617	582.5
511.833	580.5
512.049	583.5
512.265	557.5
512.481	581.5
512.698	589.5
512.914	578.5
513.13	575.5
513.346	599.5
513.562	612.5
513.778	598.5
513.994	599.5
514.21	569.5
514.426	589.5
514.642	581.5
514.858	602.5
515.074	606.5
515.29	597.5
515.506	594.5
515.721	605.5
515.937	620.5
516.153	617.5
516.369	614.5
516.585	638.5
516.801	637.5
517.016	659.5
517.232	661.5
517.448	661.5
517.664	671.5
517.879	683.5
518.095	683.5
518.311	682.5
518.527	643.5
518.742	649.5
518.958	598.5
519.173	643.5
519.389	622.5
519.605	620.5
