Data from Fe(NO3)3@0.0125M.TitratingCurve.Agarose3%dH2O.NegLispCup.LampEnergy10.LIBS07252019_HRD10591_17-01-48-341.txt Node
Date: Thu Jul 25 17:01:48 EDT 2019
User: cochatt
Spectrometer: HR+D1059
Trigger mode: 1
Integration Time (sec): 1.000000E-1
Scans to average: 1
Electric dark correction enabled: true
Nonlinearity correction enabled: false
Boxcar width: 0
XAxis mode: Wavelengths
Number of Pixels in Spectrum: 2048
>>>>>Begin Spectral Data<<<<<
223.165	-27.62
223.4	-27.62
223.635	-27.62
223.869	-27.62
224.104	-13.62
224.338	-6.62
224.573	-10.62
224.808	-1.62
225.042	-1.62
225.277	-19.62
225.511	-9.62
225.746	-5.62
225.98	18.38
226.215	6.38
226.449	24.38
226.683	22.38
226.918	26.38
227.152	26.38
227.387	35.38
227.621	41.38
227.856	50.38
228.09	33.38
228.324	58.38
228.559	49.38
228.793	56.38
229.027	74.38
229.262	63.38
229.496	82.38
229.73	91.38
229.964	94.38
230.199	85.38
230.433	104.38
230.667	97.38
230.901	86.38
231.136	112.38
231.37	95.38
231.604	95.38
231.838	85.38
232.072	83.38
232.306	102.38
232.541	88.38
232.775	96.38
233.009	113.38
233.243	111.38
233.477	96.38
233.711	96.38
233.945	93.38
234.179	102.38
234.413	89.38
234.647	115.38
234.881	119.38
235.115	102.38
235.349	107.38
235.583	116.38
235.817	113.38
236.051	93.38
236.285	109.38
236.519	110.38
236.753	96.38
236.987	106.38
237.221	110.38
237.455	99.38
237.689	87.38
237.922	111.38
238.156	113.38
238.39	100.38
238.624	104.38
238.858	101.38
239.091	111.38
239.325	117.38
239.559	121.38
239.793	118.38
240.027	101.38
240.26	111.38
240.494	116.38
240.728	111.38
240.961	122.38
241.195	112.38
241.429	118.38
241.662	116.38
241.896	109.38
242.13	94.38
242.363	111.38
242.597	109.38
242.83	102.38
243.064	107.38
243.298	127.38
243.531	130.38
243.765	125.38
243.998	126.38
244.232	129.38
244.465	112.38
244.699	124.38
244.932	129.38
245.166	130.38
245.399	128.38
245.633	115.38
245.866	130.38
246.099	138.38
246.333	125.38
246.566	122.38
246.8	121.38
247.033	123.38
247.266	132.38
247.5	136.38
247.733	127.38
247.966	124.38
248.2	124.38
248.433	136.38
248.666	125.38
248.899	147.38
249.133	130.38
249.366	111.38
249.599	139.38
249.832	137.38
250.066	138.38
250.299	142.38
250.532	123.38
250.765	126.38
250.998	115.38
251.231	153.38
251.465	163.38
251.698	146.38
251.931	145.38
252.164	130.38
252.397	122.38
252.63	123.38
252.863	137.38
253.096	150.38
253.329	133.38
253.562	139.38
253.795	139.38
254.028	144.38
254.261	128.38
254.494	136.38
254.727	152.38
254.96	137.38
255.193	153.38
255.426	140.38
255.659	147.38
255.892	145.38
256.124	152.38
256.357	139.38
256.59	155.38
256.823	164.38
257.056	143.38
257.289	154.38
257.521	143.38
257.754	144.38
257.987	152.38
258.22	158.38
258.452	149.38
258.685	163.38
258.918	171.38
259.151	155.38
259.383	176.38
259.616	157.38
259.849	154.38
260.081	177.38
260.314	174.38
260.547	166.38
260.779	177.38
261.012	157.38
261.244	145.38
261.477	173.38
261.71	151.38
261.942	159.38
262.175	171.38
262.407	168.38
262.64	173.38
262.872	184.38
263.105	153.38
263.337	179.38
263.57	175.38
263.802	170.38
264.035	145.38
264.267	179.38
264.499	170.38
264.732	165.38
264.964	193.38
265.197	166.38
265.429	186.38
265.661	173.38
265.894	173.38
266.126	174.38
266.358	178.38
266.591	166.38
266.823	175.38
267.055	179.38
267.287	186.38
267.52	174.38
267.752	177.38
267.984	179.38
268.216	187.38
268.448	171.38
268.681	195.38
268.913	188.38
269.145	186.38
269.377	189.38
269.609	194.38
269.841	180.38
270.073	184.38
270.306	183.38
270.538	178.38
270.77	181.38
271.002	174.38
271.234	169.38
271.466	191.38
271.698	181.38
271.93	183.38
272.162	184.38
272.394	189.38
272.626	188.38
272.858	210.38
273.09	193.38
273.322	193.38
273.553	196.38
273.785	210.38
274.017	194.38
274.249	195.38
274.481	201.38
274.713	194.38
274.945	203.38
275.176	200.38
275.408	212.38
275.64	220.38
275.872	198.38
276.104	206.38
276.335	203.38
276.567	210.38
276.799	191.38
277.031	208.38
277.262	215.38
277.494	212.38
277.726	220.38
277.957	202.38
278.189	211.38
278.421	214.38
278.652	209.38
278.884	198.38
279.115	217.38
279.347	214.38
279.579	199.38
279.81	228.38
280.042	221.38
280.273	209.38
280.505	215.38
280.736	223.38
280.968	215.38
281.199	226.38
281.431	213.38
281.662	224.38
281.894	203.38
282.125	217.38
282.356	220.38
282.588	220.38
282.819	228.38
283.051	219.38
283.282	230.38
283.513	233.38
283.745	239.38
283.976	220.38
284.207	237.38
284.439	232.38
284.67	228.38
284.901	241.38
285.132	231.38
285.364	235.38
285.595	230.38
285.826	229.38
286.057	254.38
286.288	243.38
286.52	243.38
286.751	248.38
286.982	260.38
287.213	255.38
287.444	231.38
287.675	222.38
287.906	238.38
288.138	249.38
288.369	244.38
288.6	244.38
288.831	245.38
289.062	249.38
289.293	239.38
289.524	243.38
289.755	229.38
289.986	259.38
290.217	253.38
290.448	251.38
290.679	253.38
290.91	246.38
291.141	241.38
291.371	253.38
291.602	271.38
291.833	249.38
292.064	265.38
292.295	243.38
292.526	263.38
292.757	246.38
292.987	246.38
293.218	237.38
293.449	246.38
293.68	254.38
293.91	229.38
294.141	243.38
294.372	264.38
294.603	264.38
294.833	262.38
295.064	264.38
295.295	277.38
295.525	254.38
295.756	270.38
295.987	278.38
296.217	277.38
296.448	251.38
296.679	250.38
296.909	242.38
297.14	271.38
297.37	271.38
297.601	270.38
297.831	265.38
298.062	267.38
298.292	266.38
298.523	280.38
298.753	277.38
298.984	276.38
299.214	267.38
299.445	279.38
299.675	270.38
299.905	279.38
300.136	281.38
300.366	273.38
300.597	270.38
300.827	283.38
301.057	287.38
301.288	262.38
301.518	280.38
301.748	291.38
301.979	279.38
302.209	270.38
302.439	287.38
302.669	282.38
302.9	287.38
303.13	303.38
303.36	296.38
303.59	294.38
303.82	289.38
304.051	290.38
304.281	275.38
304.511	313.38
304.741	290.38
304.971	290.38
305.201	296.38
305.431	292.38
305.661	290.38
305.891	288.38
306.121	296.38
306.352	296.38
306.582	295.38
306.812	281.38
307.042	299.38
307.272	289.38
307.502	281.38
307.731	286.38
307.961	292.38
308.191	287.38
308.421	295.38
308.651	299.38
308.881	291.38
309.111	274.38
309.341	273.38
309.571	302.38
309.8	299.38
310.03	298.38
310.26	288.38
310.49	308.38
310.72	322.38
310.949	299.38
311.179	281.38
311.409	302.38
311.639	303.38
311.868	318.38
312.098	310.38
312.328	316.38
312.557	320.38
312.787	323.38
313.017	333.38
313.246	308.38
313.476	308.38
313.706	303.38
313.935	312.38
314.165	299.38
314.394	319.38
314.624	325.38
314.853	331.38
315.083	303.38
315.312	334.38
315.542	335.38
315.771	325.38
316.001	320.38
316.23	319.38
316.46	316.38
316.689	321.38
316.919	330.38
317.148	331.38
317.377	328.38
317.607	316.38
317.836	311.38
318.065	324.38
318.295	307.38
318.524	339.38
318.753	334.38
318.983	319.38
319.212	313.38
319.441	327.38
319.67	319.38
319.9	334.38
320.129	323.38
320.358	330.38
320.587	343.38
320.816	313.38
321.046	326.38
321.275	346.38
321.504	333.38
321.733	331.38
321.962	321.38
322.191	325.38
322.42	314.38
322.649	334.38
322.878	329.38
323.108	324.38
323.337	329.38
323.566	330.38
323.795	330.38
324.024	322.38
324.253	324.38
324.482	343.38
324.71	353.38
324.939	338.38
325.168	330.38
325.397	339.38
325.626	347.38
325.855	344.38
326.084	329.38
326.313	343.38
326.542	329.38
326.77	339.38
326.999	335.38
327.228	352.38
327.457	337.38
327.686	366.38
327.914	348.38
328.143	360.38
328.372	360.38
328.6	345.38
328.829	340.38
329.058	343.38
329.287	355.38
329.515	360.38
329.744	356.38
329.972	373.38
330.201	353.38
330.43	344.38
330.658	371.38
330.887	362.38
331.115	358.38
331.344	366.38
331.572	376.38
331.801	361.38
332.03	373.38
332.258	375.38
332.486	392.38
332.715	395.38
332.943	402.38
333.172	386.38
333.4	393.38
333.629	399.38
333.857	407.38
334.085	435.38
334.314	427.38
334.542	415.38
334.771	434.38
334.999	418.38
335.227	410.38
335.455	434.38
335.684	421.38
335.912	432.38
336.14	411.38
336.369	410.38
336.597	404.38
336.825	446.38
337.053	413.38
337.281	402.38
337.51	412.38
337.738	389.38
337.966	392.38
338.194	406.38
338.422	384.38
338.65	409.38
338.878	388.38
339.106	389.38
339.334	362.38
339.562	389.38
339.79	374.38
340.018	381.38
340.246	372.38
340.474	366.38
340.702	379.38
340.93	376.38
341.158	368.38
341.386	383.38
341.614	384.38
341.842	365.38
342.07	389.38
342.298	377.38
342.526	387.38
342.754	385.38
342.981	403.38
343.209	393.38
343.437	372.38
343.665	398.38
343.893	409.38
344.12	409.38
344.348	414.38
344.576	411.38
344.804	401.38
345.031	395.38
345.259	401.38
345.487	399.38
345.714	382.38
345.942	378.38
346.17	358.38
346.397	353.38
346.625	366.38
346.853	368.38
347.08	349.38
347.308	375.38
347.535	383.38
347.763	367.38
347.99	362.38
348.218	327.38
348.445	377.38
348.673	355.38
348.9	367.38
349.128	372.38
349.355	376.38
349.583	368.38
349.81	358.38
350.037	369.38
350.265	355.38
350.492	365.38
350.72	360.38
350.947	375.38
351.174	363.38
351.402	371.38
351.629	352.38
351.856	387.38
352.083	358.38
352.311	375.38
352.538	346.38
352.765	353.38
352.992	358.38
353.22	369.38
353.447	363.38
353.674	360.38
353.901	357.38
354.128	353.38
354.355	368.38
354.583	377.38
354.81	362.38
355.037	354.38
355.264	369.38
355.491	372.38
355.718	358.38
355.945	370.38
356.172	369.38
356.399	375.38
356.626	360.38
356.853	375.38
357.08	364.38
357.307	376.38
357.534	374.38
357.761	377.38
357.988	380.38
358.215	359.38
358.441	367.38
358.668	375.38
358.895	369.38
359.122	371.38
359.349	359.38
359.576	358.38
359.802	347.38
360.029	377.38
360.256	377.38
360.483	359.38
360.709	370.38
360.936	359.38
361.163	381.38
361.39	359.38
361.616	373.38
361.843	367.38
362.07	366.38
362.296	364.38
362.523	378.38
362.749	352.38
362.976	370.38
363.203	381.38
363.429	355.38
363.656	377.38
363.882	373.38
364.109	375.38
364.335	399.38
364.562	375.38
364.788	367.38
365.015	404.38
365.241	368.38
365.468	369.38
365.694	372.38
365.92	379.38
366.147	352.38
366.373	360.38
366.599	373.38
366.826	363.38
367.052	380.38
367.278	357.38
367.505	377.38
367.731	392.38
367.957	382.38
368.184	381.38
368.41	375.38
368.636	390.38
368.862	384.38
369.089	391.38
369.315	389.38
369.541	385.38
369.767	385.38
369.993	390.38
370.219	382.38
370.445	383.38
370.672	394.38
370.898	402.38
371.124	384.38
371.35	407.38
371.576	405.38
371.802	382.38
372.028	423.38
372.254	408.38
372.48	391.38
372.706	417.38
372.932	427.38
373.158	417.38
373.384	417.38
373.61	413.38
373.835	421.38
374.061	409.38
374.287	410.38
374.513	411.38
374.739	440.38
374.965	426.38
375.191	452.38
375.416	429.38
375.642	419.38
375.868	422.38
376.094	416.38
376.319	405.38
376.545	409.38
376.771	405.38
376.997	407.38
377.222	418.38
377.448	393.38
377.674	413.38
377.899	389.38
378.125	375.38
378.35	393.38
378.576	407.38
378.802	392.38
379.027	397.38
379.253	415.38
379.478	426.38
379.704	384.38
379.929	407.38
380.155	408.38
380.38	395.38
380.606	406.38
380.831	399.38
381.057	423.38
381.282	419.38
381.507	402.38
381.733	417.38
381.958	432.38
382.184	407.38
382.409	438.38
382.634	419.38
382.86	440.38
383.085	415.38
383.31	429.38
383.535	429.38
383.761	431.38
383.986	441.38
384.211	450.38
384.436	429.38
384.662	450.38
384.887	451.38
385.112	459.38
385.337	468.38
385.562	470.38
385.787	463.38
386.013	477.38
386.238	479.38
386.463	444.38
386.688	449.38
386.913	463.38
387.138	468.38
387.363	460.38
387.588	479.38
387.813	470.38
388.038	436.38
388.263	463.38
388.488	491.38
388.713	462.38
388.938	467.38
389.163	458.38
389.387	467.38
389.612	484.38
389.837	491.38
390.062	480.38
390.287	471.38
390.512	485.38
390.736	491.38
390.961	480.38
391.186	478.38
391.411	493.38
391.636	507.38
391.86	486.38
392.085	507.38
392.31	479.38
392.534	492.38
392.759	498.38
392.984	493.38
393.208	498.38
393.433	487.38
393.658	479.38
393.882	493.38
394.107	479.38
394.331	502.38
394.556	474.38
394.78	503.38
395.005	478.38
395.229	508.38
395.454	518.38
395.678	521.38
395.903	513.38
396.127	508.38
396.352	518.38
396.576	501.38
396.801	493.38
397.025	532.38
397.249	484.38
397.474	529.38
397.698	527.38
397.922	527.38
398.147	536.38
398.371	572.38
398.595	584.38
398.82	607.38
399.044	621.38
399.268	607.38
399.492	688.38
399.717	692.38
399.941	708.38
400.165	654.38
400.389	638.38
400.613	629.38
400.837	608.38
401.062	596.38
401.286	606.38
401.51	591.38
401.734	585.38
401.958	578.38
402.182	558.38
402.406	551.38
402.63	580.38
402.854	583.38
403.078	595.38
403.302	568.38
403.526	590.38
403.75	569.38
403.974	597.38
404.198	584.38
404.422	582.38
404.645	608.38
404.869	595.38
405.093	587.38
405.317	609.38
405.541	584.38
405.765	609.38
405.988	621.38
406.212	608.38
406.436	621.38
406.66	613.38
406.883	631.38
407.107	638.38
407.331	651.38
407.555	651.38
407.778	656.38
408.002	651.38
408.226	637.38
408.449	638.38
408.673	634.38
408.896	626.38
409.12	611.38
409.344	614.38
409.567	616.38
409.791	608.38
410.014	641.38
410.238	601.38
410.461	603.38
410.685	608.38
410.908	599.38
411.132	586.38
411.355	582.38
411.578	581.38
411.802	582.38
412.025	585.38
412.249	589.38
412.472	612.38
412.695	570.38
412.919	550.38
413.142	576.38
413.365	583.38
413.589	583.38
413.812	547.38
414.035	570.38
414.258	567.38
414.482	565.38
414.705	576.38
414.928	572.38
415.151	582.38
415.374	565.38
415.597	538.38
415.821	543.38
416.044	546.38
416.267	564.38
416.49	554.38
416.713	552.38
416.936	540.38
417.159	544.38
417.382	530.38
417.605	563.38
417.828	539.38
418.051	537.38
418.274	549.38
418.497	561.38
418.72	563.38
418.943	550.38
419.166	565.38
419.389	611.38
419.611	593.38
419.834	563.38
420.057	583.38
420.28	550.38
420.503	530.38
420.726	569.38
420.948	546.38
421.171	541.38
421.394	545.38
421.617	546.38
421.839	548.38
422.062	557.38
422.285	524.38
422.507	548.38
422.73	568.38
422.953	559.38
423.175	561.38
423.398	557.38
423.621	548.38
423.843	542.38
424.066	537.38
424.288	558.38
424.511	545.38
424.733	541.38
424.956	532.38
425.178	546.38
425.401	568.38
425.623	554.38
425.846	517.38
426.068	523.38
426.291	527.38
426.513	549.38
426.735	551.38
426.958	528.38
427.18	513.38
427.402	517.38
427.625	526.38
427.847	502.38
428.069	505.38
428.292	506.38
428.514	493.38
428.736	518.38
428.958	542.38
429.181	487.38
429.403	496.38
429.625	484.38
429.847	509.38
430.069	524.38
430.292	502.38
430.514	488.38
430.736	507.38
430.958	506.38
431.18	520.38
431.402	514.38
431.624	485.38
431.846	494.38
432.068	515.38
432.29	514.38
432.512	538.38
432.734	518.38
432.956	506.38
433.178	514.38
433.4	501.38
433.622	503.38
433.844	514.38
434.066	526.38
434.287	515.38
434.509	535.38
434.731	531.38
434.953	536.38
435.175	543.38
435.397	541.38
435.618	527.38
435.84	526.38
436.062	519.38
436.284	518.38
436.505	515.38
436.727	507.38
436.949	494.38
437.17	495.38
437.392	518.38
437.614	498.38
437.835	490.38
438.057	468.38
438.278	475.38
438.5	522.38
438.721	486.38
438.943	509.38
439.165	489.38
439.386	484.38
439.608	495.38
439.829	485.38
440.05	513.38
440.272	499.38
440.493	496.38
440.715	512.38
440.936	510.38
441.158	531.38
441.379	502.38
441.6	534.38
441.822	503.38
442.043	527.38
442.264	535.38
442.486	533.38
442.707	540.38
442.928	532.38
443.149	524.38
443.371	503.38
443.592	531.38
443.813	554.38
444.034	540.38
444.255	557.38
444.476	563.38
444.698	567.38
444.919	565.38
445.14	663.38
445.361	597.38
445.582	591.38
445.803	529.38
446.024	533.38
446.245	527.38
446.466	505.38
446.687	493.38
446.908	514.38
447.129	505.38
447.35	482.38
447.571	501.38
447.792	493.38
448.013	482.38
448.234	481.38
448.455	488.38
448.675	477.38
448.896	487.38
449.117	480.38
449.338	457.38
449.559	470.38
449.779	462.38
450	465.38
450.221	465.38
450.442	467.38
450.662	470.38
450.883	460.38
451.104	481.38
451.324	480.38
451.545	464.38
451.766	468.38
451.986	463.38
452.207	451.38
452.428	466.38
452.648	453.38
452.869	426.38
453.089	439.38
453.31	425.38
453.53	457.38
453.751	452.38
453.971	443.38
454.192	445.38
454.412	444.38
454.633	445.38
454.853	463.38
455.073	446.38
455.294	458.38
455.514	460.38
455.734	440.38
455.955	422.38
456.175	447.38
456.395	449.38
456.616	445.38
456.836	435.38
457.056	470.38
457.276	452.38
457.497	471.38
457.717	449.38
457.937	471.38
458.157	458.38
458.377	458.38
458.598	466.38
458.818	503.38
459.038	509.38
459.258	486.38
459.478	516.38
459.698	523.38
459.918	549.38
460.138	541.38
460.358	540.38
460.578	541.38
460.798	575.38
461.018	577.38
461.238	563.38
461.458	570.38
461.678	574.38
461.898	576.38
462.118	561.38
462.338	581.38
462.558	616.38
462.777	618.38
462.997	636.38
463.217	665.38
463.437	661.38
463.657	654.38
463.876	640.38
464.096	634.38
464.316	633.38
464.536	630.38
464.755	607.38
464.975	577.38
465.195	557.38
465.414	567.38
465.634	549.38
465.854	515.38
466.073	541.38
466.293	512.38
466.512	504.38
466.732	489.38
466.951	511.38
467.171	489.38
467.391	501.38
467.61	498.38
467.829	474.38
468.049	499.38
468.268	500.38
468.488	487.38
468.707	475.38
468.927	489.38
469.146	469.38
469.365	485.38
469.585	464.38
469.804	507.38
470.023	499.38
470.243	506.38
470.462	528.38
470.681	493.38
470.901	488.38
471.12	487.38
471.339	504.38
471.558	507.38
471.777	473.38
471.997	474.38
472.216	511.38
472.435	495.38
472.654	482.38
472.873	477.38
473.092	497.38
473.311	512.38
473.53	475.38
473.749	482.38
473.968	497.38
474.187	476.38
474.406	475.38
474.625	488.38
474.844	481.38
475.063	507.38
475.282	509.38
475.501	489.38
475.72	511.38
475.939	503.38
476.158	499.38
476.377	497.38
476.596	503.38
476.814	506.38
477.033	494.38
477.252	527.38
477.471	513.38
477.69	534.38
477.908	534.38
478.127	579.38
478.346	580.38
478.564	567.38
478.783	562.38
479.002	572.38
479.22	551.38
479.439	568.38
479.658	553.38
479.876	581.38
480.095	588.38
480.313	603.38
480.532	623.38
480.751	578.38
480.969	587.38
481.188	561.38
481.406	588.38
481.624	553.38
481.843	543.38
482.061	554.38
482.28	543.38
482.498	571.38
482.717	549.38
482.935	545.38
483.153	559.38
483.372	547.38
483.59	542.38
483.808	554.38
484.027	549.38
484.245	590.38
484.463	557.38
484.681	581.38
484.9	566.38
485.118	573.38
485.336	558.38
485.554	561.38
485.772	560.38
485.99	559.38
486.209	568.38
486.427	554.38
486.645	561.38
486.863	583.38
487.081	609.38
487.299	569.38
487.517	563.38
487.735	566.38
487.953	581.38
488.171	571.38
488.389	562.38
488.607	596.38
488.825	577.38
489.043	589.38
489.261	595.38
489.479	557.38
489.696	586.38
489.914	573.38
490.132	581.38
490.35	555.38
490.568	563.38
490.786	589.38
491.003	595.38
491.221	592.38
491.439	608.38
491.657	593.38
491.874	583.38
492.092	601.38
492.31	609.38
492.527	611.38
492.745	612.38
492.963	580.38
493.18	590.38
493.398	633.38
493.615	594.38
493.833	612.38
494.05	597.38
494.268	619.38
494.485	603.38
494.703	617.38
494.92	612.38
495.138	603.38
495.355	639.38
495.573	645.38
495.79	627.38
496.008	661.38
496.225	633.38
496.442	662.38
496.66	682.38
496.877	687.38
497.094	689.38
497.312	720.38
497.529	711.38
497.746	712.38
497.963	739.38
498.181	752.38
498.398	789.38
498.615	795.38
498.832	856.38
499.049	908.38
499.267	902.38
499.484	984.38
499.701	1015.38
499.918	1087.38
500.135	1153.38
500.352	1194.38
500.569	1219.38
500.786	1207.38
501.003	1215.38
501.22	1144.38
501.437	1057.38
501.654	983.38
