Data from Fe(NO3)3@0.1M.TitratingCurve.Agarose3%dH2O.NegLispCup.LampEnergy10.LIBS07252019_HRD10591_16-41-39-333.txt Node
Date: Thu Jul 25 16:41:39 EDT 2019
User: cochatt
Spectrometer: HR+D1059
Trigger mode: 1
Integration Time (sec): 1.000000E-1
Scans to average: 1
Electric dark correction enabled: true
Nonlinearity correction enabled: false
Boxcar width: 0
XAxis mode: Wavelengths
Number of Pixels in Spectrum: 2048
>>>>>Begin Spectral Data<<<<<
223.165	-11.5
223.4	-11.5
223.635	-11.5
223.869	-12.5
224.104	-26.5
224.338	-26.5
224.573	-16.5
224.808	-4.5
225.042	3.5
225.277	-7.5
225.511	2.5
225.746	12.5
225.98	9.5
226.215	14.5
226.449	11.5
226.683	14.5
226.918	9.5
227.152	27.5
227.387	38.5
227.621	38.5
227.856	45.5
228.09	52.5
228.324	54.5
228.559	62.5
228.793	62.5
229.027	63.5
229.262	87.5
229.496	74.5
229.73	77.5
229.964	82.5
230.199	70.5
230.433	91.5
230.667	93.5
230.901	100.5
231.136	84.5
231.37	100.5
231.604	91.5
231.838	84.5
232.072	84.5
232.306	98.5
232.541	99.5
232.775	91.5
233.009	105.5
233.243	88.5
233.477	99.5
233.711	90.5
233.945	93.5
234.179	93.5
234.413	90.5
234.647	97.5
234.881	84.5
235.115	110.5
235.349	88.5
235.583	92.5
235.817	91.5
236.051	94.5
236.285	97.5
236.519	102.5
236.753	103.5
236.987	99.5
237.221	97.5
237.455	88.5
237.689	106.5
237.922	100.5
238.156	100.5
238.39	100.5
238.624	87.5
238.858	91.5
239.091	104.5
239.325	84.5
239.559	96.5
239.793	96.5
240.027	112.5
240.26	107.5
240.494	109.5
240.728	120.5
240.961	100.5
241.195	118.5
241.429	102.5
241.662	106.5
241.896	88.5
242.13	93.5
242.363	116.5
242.597	97.5
242.83	98.5
243.064	94.5
243.298	105.5
243.531	109.5
243.765	101.5
243.998	102.5
244.232	110.5
244.465	123.5
244.699	105.5
244.932	115.5
245.166	121.5
245.399	102.5
245.633	121.5
245.866	117.5
246.099	108.5
246.333	105.5
246.566	114.5
246.8	107.5
247.033	110.5
247.266	116.5
247.5	102.5
247.733	111.5
247.966	100.5
248.2	103.5
248.433	109.5
248.666	116.5
248.899	121.5
249.133	125.5
249.366	128.5
249.599	119.5
249.832	109.5
250.066	124.5
250.299	112.5
250.532	128.5
250.765	113.5
250.998	110.5
251.231	124.5
251.465	122.5
251.698	125.5
251.931	117.5
252.164	106.5
252.397	126.5
252.63	129.5
252.863	114.5
253.096	138.5
253.329	124.5
253.562	112.5
253.795	119.5
254.028	123.5
254.261	129.5
254.494	132.5
254.727	134.5
254.96	109.5
255.193	128.5
255.426	126.5
255.659	135.5
255.892	118.5
256.124	137.5
256.357	124.5
256.59	112.5
256.823	140.5
257.056	127.5
257.289	142.5
257.521	124.5
257.754	129.5
257.987	126.5
258.22	138.5
258.452	127.5
258.685	141.5
258.918	128.5
259.151	128.5
259.383	132.5
259.616	132.5
259.849	131.5
260.081	141.5
260.314	133.5
260.547	130.5
260.779	135.5
261.012	130.5
261.244	134.5
261.477	138.5
261.71	136.5
261.942	130.5
262.175	132.5
262.407	139.5
262.64	137.5
262.872	137.5
263.105	153.5
263.337	138.5
263.57	141.5
263.802	126.5
264.035	128.5
264.267	132.5
264.499	133.5
264.732	124.5
264.964	129.5
265.197	149.5
265.429	140.5
265.661	154.5
265.894	139.5
266.126	146.5
266.358	137.5
266.591	154.5
266.823	147.5
267.055	128.5
267.287	144.5
267.52	139.5
267.752	158.5
267.984	151.5
268.216	143.5
268.448	146.5
268.681	156.5
268.913	155.5
269.145	153.5
269.377	152.5
269.609	163.5
269.841	171.5
270.073	165.5
270.306	161.5
270.538	158.5
270.77	141.5
271.002	133.5
271.234	164.5
271.466	152.5
271.698	146.5
271.93	152.5
272.162	157.5
272.394	152.5
272.626	151.5
272.858	151.5
273.09	157.5
273.322	138.5
273.553	139.5
273.785	158.5
274.017	160.5
274.249	148.5
274.481	156.5
274.713	157.5
274.945	163.5
275.176	172.5
275.408	160.5
275.64	165.5
275.872	155.5
276.104	140.5
276.335	150.5
276.567	159.5
276.799	168.5
277.031	156.5
277.262	177.5
277.494	164.5
277.726	157.5
277.957	171.5
278.189	167.5
278.421	166.5
278.652	165.5
278.884	154.5
279.115	155.5
279.347	162.5
279.579	170.5
279.81	157.5
280.042	157.5
280.273	161.5
280.505	158.5
280.736	177.5
280.968	170.5
281.199	180.5
281.431	174.5
281.662	178.5
281.894	163.5
282.125	168.5
282.356	173.5
282.588	170.5
282.819	164.5
283.051	179.5
283.282	194.5
283.513	180.5
283.745	194.5
283.976	171.5
284.207	183.5
284.439	172.5
284.67	182.5
284.901	167.5
285.132	181.5
285.364	157.5
285.595	176.5
285.826	179.5
286.057	190.5
286.288	172.5
286.52	176.5
286.751	179.5
286.982	164.5
287.213	167.5
287.444	186.5
287.675	174.5
287.906	201.5
288.138	182.5
288.369	164.5
288.6	181.5
288.831	184.5
289.062	194.5
289.293	187.5
289.524	196.5
289.755	176.5
289.986	179.5
290.217	179.5
290.448	169.5
290.679	185.5
290.91	164.5
291.141	187.5
291.371	186.5
291.602	172.5
291.833	184.5
292.064	196.5
292.295	158.5
292.526	182.5
292.757	183.5
292.987	195.5
293.218	182.5
293.449	184.5
293.68	198.5
293.91	183.5
294.141	176.5
294.372	186.5
294.603	200.5
294.833	210.5
295.064	183.5
295.295	189.5
295.525	178.5
295.756	188.5
295.987	178.5
296.217	180.5
296.448	196.5
296.679	190.5
296.909	194.5
297.14	194.5
297.37	195.5
297.601	188.5
297.831	201.5
298.062	190.5
298.292	202.5
298.523	195.5
298.753	183.5
298.984	201.5
299.214	205.5
299.445	201.5
299.675	194.5
299.905	205.5
300.136	203.5
300.366	214.5
300.597	199.5
300.827	193.5
301.057	213.5
301.288	217.5
301.518	197.5
301.748	204.5
301.979	216.5
302.209	216.5
302.439	219.5
302.669	197.5
302.9	203.5
303.13	198.5
303.36	213.5
303.59	201.5
303.82	204.5
304.051	210.5
304.281	209.5
304.511	206.5
304.741	204.5
304.971	210.5
305.201	217.5
305.431	181.5
305.661	202.5
305.891	197.5
306.121	212.5
306.352	213.5
306.582	200.5
306.812	203.5
307.042	207.5
307.272	198.5
307.502	196.5
307.731	196.5
307.961	211.5
308.191	191.5
308.421	195.5
308.651	196.5
308.881	200.5
309.111	196.5
309.341	198.5
309.571	210.5
309.8	222.5
310.03	212.5
310.26	205.5
310.49	215.5
310.72	210.5
310.949	197.5
311.179	210.5
311.409	202.5
311.639	213.5
311.868	210.5
312.098	213.5
312.328	216.5
312.557	219.5
312.787	221.5
313.017	214.5
313.246	219.5
313.476	223.5
313.706	228.5
313.935	226.5
314.165	206.5
314.394	199.5
314.624	210.5
314.853	225.5
315.083	220.5
315.312	213.5
315.542	201.5
315.771	222.5
316.001	202.5
316.23	224.5
316.46	224.5
316.689	219.5
316.919	219.5
317.148	218.5
317.377	212.5
317.607	229.5
317.836	217.5
318.065	213.5
318.295	195.5
318.524	221.5
318.753	214.5
318.983	216.5
319.212	202.5
319.441	197.5
319.67	208.5
319.9	201.5
320.129	207.5
320.358	216.5
320.587	233.5
320.816	226.5
321.046	186.5
321.275	210.5
321.504	209.5
321.733	203.5
321.962	228.5
322.191	234.5
322.42	230.5
322.649	231.5
322.878	215.5
323.108	212.5
323.337	224.5
323.566	227.5
323.795	230.5
324.024	217.5
324.253	218.5
324.482	222.5
324.71	204.5
324.939	229.5
325.168	218.5
325.397	222.5
325.626	232.5
325.855	228.5
326.084	217.5
326.313	232.5
326.542	222.5
326.77	219.5
326.999	237.5
327.228	222.5
327.457	240.5
327.686	214.5
327.914	231.5
328.143	219.5
328.372	225.5
328.6	223.5
328.829	227.5
329.058	240.5
329.287	229.5
329.515	232.5
329.744	216.5
329.972	243.5
330.201	246.5
330.43	246.5
330.658	242.5
330.887	231.5
331.115	246.5
331.344	237.5
331.572	225.5
331.801	235.5
332.03	226.5
332.258	257.5
332.486	267.5
332.715	272.5
332.943	263.5
333.172	264.5
333.4	281.5
333.629	280.5
333.857	290.5
334.085	286.5
334.314	285.5
334.542	267.5
334.771	282.5
334.999	278.5
335.227	275.5
335.455	271.5
335.684	296.5
335.912	259.5
336.14	254.5
336.369	268.5
336.597	278.5
336.825	271.5
337.053	258.5
337.281	260.5
337.51	246.5
337.738	247.5
337.966	267.5
338.194	261.5
338.422	256.5
338.65	248.5
338.878	229.5
339.106	236.5
339.334	262.5
339.562	243.5
339.79	242.5
340.018	246.5
340.246	232.5
340.474	229.5
340.702	242.5
340.93	240.5
341.158	230.5
341.386	249.5
341.614	251.5
341.842	242.5
342.07	227.5
342.298	257.5
342.526	257.5
342.754	250.5
342.981	261.5
343.209	231.5
343.437	266.5
343.665	259.5
343.893	266.5
344.12	283.5
344.348	292.5
344.576	259.5
344.804	258.5
345.031	265.5
345.259	228.5
345.487	233.5
345.714	228.5
345.942	252.5
346.17	235.5
346.397	253.5
346.625	247.5
346.853	249.5
347.08	228.5
347.308	240.5
347.535	236.5
347.763	249.5
347.99	243.5
348.218	236.5
348.445	244.5
348.673	218.5
348.9	229.5
349.128	235.5
349.355	227.5
349.583	231.5
349.81	227.5
350.037	234.5
350.265	220.5
350.492	236.5
350.72	226.5
350.947	242.5
351.174	251.5
351.402	226.5
351.629	233.5
351.856	214.5
352.083	212.5
352.311	251.5
352.538	231.5
352.765	210.5
352.992	237.5
353.22	220.5
353.447	212.5
353.674	238.5
353.901	220.5
354.128	234.5
354.355	207.5
354.583	240.5
354.81	225.5
355.037	225.5
355.264	225.5
355.491	218.5
355.718	222.5
355.945	229.5
356.172	250.5
356.399	224.5
356.626	245.5
356.853	241.5
357.08	230.5
357.307	240.5
357.534	235.5
357.761	233.5
357.988	232.5
358.215	231.5
358.441	221.5
358.668	235.5
358.895	237.5
359.122	222.5
359.349	234.5
359.576	237.5
359.802	227.5
360.029	249.5
360.256	242.5
360.483	220.5
360.709	235.5
360.936	250.5
361.163	227.5
361.39	230.5
361.616	242.5
361.843	223.5
362.07	233.5
362.296	229.5
362.523	230.5
362.749	237.5
362.976	227.5
363.203	229.5
363.429	244.5
363.656	246.5
363.882	221.5
364.109	221.5
364.335	238.5
364.562	233.5
364.788	238.5
365.015	233.5
365.241	223.5
365.468	231.5
365.694	220.5
365.92	235.5
366.147	225.5
366.373	229.5
366.599	232.5
366.826	206.5
367.052	225.5
367.278	227.5
367.505	235.5
367.731	245.5
367.957	243.5
368.184	229.5
368.41	228.5
368.636	246.5
368.862	256.5
369.089	238.5
369.315	235.5
369.541	256.5
369.767	244.5
369.993	252.5
370.219	249.5
370.445	260.5
370.672	236.5
370.898	241.5
371.124	249.5
371.35	248.5
371.576	246.5
371.802	233.5
372.028	260.5
372.254	250.5
372.48	230.5
372.706	257.5
372.932	233.5
373.158	264.5
373.384	256.5
373.61	258.5
373.835	245.5
374.061	251.5
374.287	262.5
374.513	255.5
374.739	271.5
374.965	266.5
375.191	279.5
375.416	270.5
375.642	267.5
375.868	270.5
376.094	276.5
376.319	253.5
376.545	252.5
376.771	248.5
376.997	243.5
377.222	263.5
377.448	245.5
377.674	240.5
377.899	239.5
378.125	260.5
378.35	260.5
378.576	249.5
378.802	240.5
379.027	252.5
379.253	249.5
379.478	251.5
379.704	230.5
379.929	240.5
380.155	266.5
380.38	222.5
380.606	258.5
380.831	254.5
381.057	249.5
381.282	248.5
381.507	258.5
381.733	262.5
381.958	259.5
382.184	247.5
382.409	257.5
382.634	249.5
382.86	272.5
383.085	276.5
383.31	277.5
383.535	278.5
383.761	281.5
383.986	270.5
384.211	284.5
384.436	268.5
384.662	280.5
384.887	292.5
385.112	286.5
385.337	280.5
385.562	311.5
385.787	304.5
386.013	318.5
386.238	284.5
386.463	291.5
386.688	290.5
386.913	286.5
387.138	283.5
387.363	272.5
387.588	258.5
387.813	272.5
388.038	293.5
388.263	295.5
388.488	290.5
388.713	288.5
388.938	284.5
389.163	283.5
389.387	295.5
389.612	276.5
389.837	295.5
390.062	284.5
390.287	296.5
390.512	288.5
390.736	298.5
390.961	301.5
391.186	292.5
391.411	293.5
391.636	315.5
391.86	333.5
392.085	315.5
392.31	313.5
392.534	331.5
392.759	287.5
392.984	306.5
393.208	327.5
393.433	297.5
393.658	307.5
393.882	312.5
394.107	317.5
394.331	325.5
394.556	304.5
394.78	324.5
395.005	318.5
395.229	315.5
395.454	318.5
395.678	325.5
395.903	328.5
396.127	332.5
396.352	320.5
396.576	314.5
396.801	322.5
397.025	294.5
397.249	309.5
397.474	334.5
397.698	328.5
397.922	330.5
398.147	330.5
398.371	327.5
398.595	336.5
398.82	346.5
399.044	366.5
399.268	382.5
399.492	426.5
399.717	482.5
399.941	469.5
400.165	438.5
400.389	412.5
400.613	402.5
400.837	357.5
401.062	376.5
401.286	356.5
401.51	376.5
401.734	360.5
401.958	342.5
402.182	345.5
402.406	349.5
402.63	376.5
402.854	370.5
403.078	376.5
403.302	366.5
403.526	380.5
403.75	375.5
403.974	397.5
404.198	379.5
404.422	380.5
404.645	421.5
404.869	396.5
405.093	380.5
405.317	388.5
405.541	404.5
405.765	371.5
405.988	374.5
406.212	392.5
406.436	397.5
406.66	402.5
406.883	380.5
407.107	414.5
407.331	428.5
407.555	444.5
407.778	425.5
408.002	416.5
408.226	408.5
408.449	417.5
408.673	406.5
408.896	399.5
409.12	398.5
409.344	415.5
409.567	408.5
409.791	388.5
410.014	406.5
410.238	400.5
410.461	386.5
410.685	382.5
410.908	378.5
411.132	405.5
411.355	386.5
411.578	372.5
411.802	371.5
412.025	373.5
412.249	389.5
412.472	381.5
412.695	346.5
412.919	360.5
413.142	368.5
413.365	354.5
413.589	360.5
413.812	363.5
414.035	359.5
414.258	377.5
414.482	368.5
414.705	356.5
414.928	368.5
415.151	356.5
415.374	371.5
415.597	363.5
415.821	348.5
416.044	363.5
416.267	358.5
416.49	352.5
416.713	354.5
416.936	359.5
417.159	353.5
417.382	360.5
417.605	355.5
417.828	364.5
418.051	340.5
418.274	370.5
418.497	378.5
418.72	370.5
418.943	371.5
419.166	378.5
419.389	404.5
419.611	399.5
419.834	375.5
420.057	362.5
420.28	365.5
420.503	335.5
420.726	378.5
420.948	360.5
421.171	360.5
421.394	354.5
421.617	345.5
421.839	390.5
422.062	370.5
422.285	349.5
422.507	377.5
422.73	354.5
422.953	360.5
423.175	357.5
423.398	362.5
423.621	372.5
423.843	364.5
424.066	372.5
424.288	374.5
424.511	379.5
424.733	378.5
424.956	379.5
425.178	359.5
425.401	371.5
425.623	364.5
425.846	355.5
426.068	364.5
426.291	359.5
426.513	363.5
426.735	342.5
426.958	333.5
427.18	346.5
427.402	355.5
427.625	341.5
427.847	340.5
428.069	346.5
428.292	328.5
428.514	348.5
428.736	334.5
428.958	361.5
429.181	356.5
429.403	329.5
429.625	339.5
429.847	337.5
430.069	320.5
430.292	331.5
430.514	315.5
430.736	345.5
430.958	354.5
431.18	329.5
431.402	346.5
431.624	332.5
431.846	338.5
432.068	328.5
432.29	338.5
432.512	333.5
432.734	330.5
432.956	340.5
433.178	340.5
433.4	352.5
433.622	359.5
433.844	337.5
434.066	340.5
434.287	342.5
434.509	344.5
434.731	363.5
434.953	363.5
435.175	369.5
435.397	386.5
435.618	374.5
435.84	350.5
436.062	346.5
436.284	341.5
436.505	326.5
436.727	343.5
436.949	366.5
437.17	338.5
437.392	327.5
437.614	349.5
437.835	319.5
438.057	336.5
438.278	312.5
438.5	343.5
438.721	332.5
438.943	324.5
439.165	312.5
439.386	318.5
439.608	349.5
439.829	345.5
440.05	347.5
440.272	345.5
440.493	351.5
440.715	336.5
440.936	358.5
441.158	365.5
441.379	363.5
441.6	385.5
441.822	389.5
442.043	377.5
442.264	367.5
442.486	380.5
442.707	377.5
442.928	359.5
443.149	388.5
443.371	394.5
443.592	383.5
443.813	382.5
444.034	379.5
444.255	403.5
444.476	387.5
444.698	449.5
444.919	414.5
445.14	502.5
445.361	440.5
445.582	380.5
445.803	366.5
446.024	370.5
446.245	360.5
446.466	357.5
446.687	358.5
446.908	362.5
447.129	359.5
447.35	376.5
447.571	344.5
447.792	339.5
448.013	350.5
448.234	317.5
448.455	346.5
448.675	343.5
448.896	329.5
449.117	321.5
449.338	320.5
449.559	321.5
449.779	331.5
450	318.5
450.221	326.5
450.442	331.5
450.662	322.5
450.883	322.5
451.104	334.5
451.324	329.5
451.545	325.5
451.766	335.5
451.986	314.5
452.207	333.5
452.428	325.5
452.648	323.5
452.869	329.5
453.089	305.5
453.31	291.5
453.53	300.5
453.751	317.5
453.971	296.5
454.192	308.5
454.412	305.5
454.633	297.5
454.853	301.5
455.073	325.5
455.294	308.5
455.514	309.5
455.734	301.5
455.955	314.5
456.175	323.5
456.395	308.5
456.616	300.5
456.836	312.5
457.056	297.5
457.276	299.5
457.497	315.5
457.717	302.5
457.937	303.5
458.157	284.5
458.377	309.5
458.598	304.5
458.818	315.5
459.038	328.5
459.258	316.5
459.478	314.5
459.698	336.5
459.918	325.5
460.138	352.5
460.358	371.5
460.578	390.5
460.798	388.5
461.018	392.5
461.238	388.5
461.458	398.5
461.678	382.5
461.898	392.5
462.118	393.5
462.338	414.5
462.558	414.5
462.777	425.5
462.997	463.5
463.217	469.5
463.437	487.5
463.657	458.5
463.876	448.5
464.096	423.5
464.316	440.5
464.536	437.5
464.755	413.5
464.975	404.5
465.195	424.5
465.414	384.5
465.634	363.5
465.854	375.5
466.073	349.5
466.293	342.5
466.512	327.5
466.732	333.5
466.951	345.5
467.171	349.5
467.391	327.5
467.61	332.5
467.829	342.5
468.049	324.5
468.268	323.5
468.488	316.5
468.707	322.5
468.927	321.5
469.146	319.5
469.365	332.5
469.585	329.5
469.804	338.5
470.023	344.5
470.243	352.5
470.462	352.5
470.681	363.5
470.901	355.5
471.12	337.5
471.339	346.5
471.558	323.5
471.777	348.5
471.997	338.5
472.216	334.5
472.435	318.5
472.654	315.5
472.873	304.5
473.092	321.5
473.311	331.5
473.53	312.5
473.749	304.5
473.968	314.5
474.187	307.5
474.406	326.5
474.625	293.5
474.844	314.5
475.063	308.5
475.282	315.5
475.501	318.5
475.72	322.5
475.939	304.5
476.158	338.5
476.377	323.5
476.596	312.5
476.814	316.5
477.033	344.5
477.252	322.5
477.471	328.5
477.69	348.5
477.908	355.5
478.127	364.5
478.346	370.5
478.564	364.5
478.783	349.5
479.002	372.5
479.22	362.5
479.439	390.5
479.658	373.5
479.876	377.5
480.095	363.5
480.313	361.5
480.532	393.5
480.751	378.5
480.969	362.5
481.188	380.5
481.406	364.5
481.624	341.5
481.843	355.5
482.061	361.5
482.28	340.5
482.498	340.5
482.717	346.5
482.935	360.5
483.153	359.5
483.372	342.5
483.59	359.5
483.808	331.5
484.027	359.5
484.245	326.5
484.463	372.5
484.681	380.5
484.9	376.5
485.118	340.5
485.336	352.5
485.554	355.5
485.772	357.5
485.99	347.5
486.209	379.5
486.427	349.5
486.645	377.5
486.863	384.5
487.081	381.5
487.299	372.5
487.517	355.5
487.735	366.5
487.953	370.5
488.171	379.5
488.389	365.5
488.607	356.5
488.825	356.5
489.043	364.5
489.261	340.5
489.479	351.5
489.696	353.5
489.914	366.5
490.132	354.5
490.35	376.5
490.568	370.5
490.786	360.5
491.003	365.5
491.221	378.5
491.439	350.5
491.657	388.5
491.874	376.5
492.092	370.5
492.31	388.5
492.527	368.5
492.745	386.5
492.963	368.5
493.18	381.5
493.398	365.5
493.615	390.5
493.833	394.5
494.05	374.5
494.268	356.5
494.485	358.5
494.703	382.5
494.92	392.5
495.138	379.5
495.355	398.5
495.573	371.5
495.79	394.5
496.008	388.5
496.225	363.5
496.442	374.5
496.66	397.5
496.877	398.5
497.094	397.5
497.312	399.5
497.529	409.5
497.746	421.5
497.963	437.5
498.181	437.5
498.398	449.5
498.615	469.5
498.832	497.5
499.049	540.5
499.267	549.5
499.484	619.5
499.701	679.5
499.918	714.5
500.135	797.5
500.352	862.5
500.569	914.5
500.786	876.5
501.003	841.5
501.22	757.5
501.437	704.5
501.654	644.5
501.871	580.5
502.088	537.5
502.305	512.5
502.522	481.5
502.739	480.5
502.956	452.5
503.172	415.5
503.389	446.5
503.606	421.5
503.823	410.5
504.04	413.5
504.256	420.5
504.473	425.5
504.69	420.5
504.907	414.5
505.123	395.5
505.34	398.5
505.557	360.5
505.773	371.5
505.99	358.5
506.207	356.5
506.423	352.5
506.64	352.5
506.856	347.5
507.073	328.5
507.289	343.5
507.506	344.5
507.722	333.5
507.939	344.5
508.155	324.5
508.372	323.5
508.588	308.5
508.805	326.5
509.021	332.5
509.238	316.5
509.454	310.5
509.67	311.5
509.887	288.5
510.103	310.5
510.319	311.5
510.536	311.5
510.752	307.5
510.968	296.5
511.184	318.5
511.401	308.5
511.617	314.5
511.833	316.5
512.049	297.5
512.265	317.5
512.481	297.5
512.698	307.5
512.914	297.5
513.13	310.5
513.346	313.5
513.562	299.5
513.778	295.5
513.994	305.5
514.21	290.5
514.426	297.5
514.642	325.5
514.858	312.5
515.074	330.5
515.29	316.5
515.506	338.5
515.721	327.5
515.937	324.5
516.153	322.5
516.369	336.5
516.585	339.5
516.801	370.5
517.016	364.5
517.232	365.5
517.448	376.5
517.664	387.5
517.879	391.5
518.095	398.5
518.311	388.5
518.527	384.5
518.742	372.5
518.958	354.5
519.173	352.5
519.389	330.5
519.605	336.5
519.82	333.5
520.036	316.5
