Data from Fe(NO3)3@0.025M.TitratingCurve.Agarose3%dH2O.NegLispCup.LampEnergy10.LIBS07252019_HRD10591_16-55-09-335.txt Node
Date: Thu Jul 25 16:55:09 EDT 2019
User: cochatt
Spectrometer: HR+D1059
Trigger mode: 1
Integration Time (sec): 1.000000E-1
Scans to average: 1
Electric dark correction enabled: true
Nonlinearity correction enabled: false
Boxcar width: 0
XAxis mode: Wavelengths
Number of Pixels in Spectrum: 2048
>>>>>Begin Spectral Data<<<<<
223.165	-20.44
223.4	-20.44
223.635	-20.44
223.869	-5.44
224.104	-24.44
224.338	-12.44
224.573	-19.44
224.808	-12.44
225.042	5.56
225.277	4.56
225.511	-2.44
225.746	0.56
225.98	8.56
226.215	5.56
226.449	7.56
226.683	10.56
226.918	18.56
227.152	35.56
227.387	24.56
227.621	33.56
227.856	51.56
228.09	51.56
228.324	48.56
228.559	48.56
228.793	54.56
229.027	72.56
229.262	68.56
229.496	71.56
229.73	81.56
229.964	79.56
230.199	76.56
230.433	72.56
230.667	71.56
230.901	80.56
231.136	92.56
231.37	83.56
231.604	87.56
231.838	89.56
232.072	95.56
232.306	88.56
232.541	87.56
232.775	78.56
233.009	98.56
233.243	94.56
233.477	90.56
233.711	95.56
233.945	96.56
234.179	93.56
234.413	84.56
234.647	90.56
234.881	76.56
235.115	88.56
235.349	75.56
235.583	80.56
235.817	77.56
236.051	98.56
236.285	84.56
236.519	101.56
236.753	92.56
236.987	97.56
237.221	75.56
237.455	83.56
237.689	93.56
237.922	83.56
238.156	77.56
238.39	98.56
238.624	95.56
238.858	81.56
239.091	71.56
239.325	93.56
239.559	91.56
239.793	87.56
240.027	89.56
240.26	101.56
240.494	99.56
240.728	103.56
240.961	83.56
241.195	95.56
241.429	87.56
241.662	99.56
241.896	95.56
242.13	92.56
242.363	89.56
242.597	91.56
242.83	83.56
243.064	86.56
243.298	84.56
243.531	97.56
243.765	91.56
243.998	98.56
244.232	87.56
244.465	99.56
244.699	77.56
244.932	100.56
245.166	100.56
245.399	88.56
245.633	87.56
245.866	102.56
246.099	111.56
246.333	100.56
246.566	95.56
246.8	90.56
247.033	100.56
247.266	95.56
247.5	103.56
247.733	89.56
247.966	95.56
248.2	90.56
248.433	89.56
248.666	96.56
248.899	101.56
249.133	91.56
249.366	102.56
249.599	98.56
249.832	105.56
250.066	104.56
250.299	95.56
250.532	97.56
250.765	97.56
250.998	102.56
251.231	98.56
251.465	102.56
251.698	108.56
251.931	108.56
252.164	97.56
252.397	102.56
252.63	112.56
252.863	119.56
253.096	99.56
253.329	113.56
253.562	104.56
253.795	100.56
254.028	106.56
254.261	105.56
254.494	110.56
254.727	103.56
254.96	124.56
255.193	111.56
255.426	99.56
255.659	99.56
255.892	106.56
256.124	113.56
256.357	115.56
256.59	115.56
256.823	117.56
257.056	120.56
257.289	122.56
257.521	109.56
257.754	120.56
257.987	111.56
258.22	104.56
258.452	111.56
258.685	93.56
258.918	113.56
259.151	108.56
259.383	119.56
259.616	117.56
259.849	120.56
260.081	121.56
260.314	108.56
260.547	107.56
260.779	107.56
261.012	113.56
261.244	124.56
261.477	119.56
261.71	125.56
261.942	116.56
262.175	124.56
262.407	106.56
262.64	117.56
262.872	115.56
263.105	117.56
263.337	120.56
263.57	127.56
263.802	119.56
264.035	121.56
264.267	116.56
264.499	120.56
264.732	125.56
264.964	127.56
265.197	123.56
265.429	103.56
265.661	117.56
265.894	116.56
266.126	119.56
266.358	112.56
266.591	122.56
266.823	127.56
267.055	124.56
267.287	138.56
267.52	123.56
267.752	120.56
267.984	126.56
268.216	112.56
268.448	119.56
268.681	117.56
268.913	125.56
269.145	119.56
269.377	136.56
269.609	121.56
269.841	144.56
270.073	136.56
270.306	149.56
270.538	122.56
270.77	132.56
271.002	119.56
271.234	129.56
271.466	136.56
271.698	127.56
271.93	133.56
272.162	127.56
272.394	147.56
272.626	114.56
272.858	127.56
273.09	131.56
273.322	130.56
273.553	115.56
273.785	144.56
274.017	140.56
274.249	119.56
274.481	137.56
274.713	137.56
274.945	143.56
275.176	158.56
275.408	142.56
275.64	116.56
275.872	121.56
276.104	144.56
276.335	123.56
276.567	133.56
276.799	133.56
277.031	148.56
277.262	139.56
277.494	149.56
277.726	125.56
277.957	131.56
278.189	140.56
278.421	163.56
278.652	149.56
278.884	138.56
279.115	141.56
279.347	140.56
279.579	139.56
279.81	144.56
280.042	146.56
280.273	138.56
280.505	134.56
280.736	144.56
280.968	133.56
281.199	142.56
281.431	144.56
281.662	157.56
281.894	145.56
282.125	141.56
282.356	146.56
282.588	145.56
282.819	153.56
283.051	136.56
283.282	142.56
283.513	140.56
283.745	165.56
283.976	141.56
284.207	162.56
284.439	146.56
284.67	152.56
284.901	149.56
285.132	142.56
285.364	145.56
285.595	151.56
285.826	140.56
286.057	135.56
286.288	137.56
286.52	149.56
286.751	153.56
286.982	137.56
287.213	141.56
287.444	146.56
287.675	163.56
287.906	172.56
288.138	147.56
288.369	151.56
288.6	142.56
288.831	152.56
289.062	138.56
289.293	163.56
289.524	151.56
289.755	162.56
289.986	150.56
290.217	153.56
290.448	161.56
290.679	153.56
290.91	167.56
291.141	164.56
291.371	166.56
291.602	162.56
291.833	153.56
292.064	161.56
292.295	160.56
292.526	168.56
292.757	152.56
292.987	142.56
293.218	149.56
293.449	144.56
293.68	160.56
293.91	170.56
294.141	189.56
294.372	163.56
294.603	146.56
294.833	158.56
295.064	180.56
295.295	151.56
295.525	155.56
295.756	153.56
295.987	159.56
296.217	168.56
296.448	170.56
296.679	182.56
296.909	168.56
297.14	168.56
297.37	145.56
297.601	169.56
297.831	176.56
298.062	164.56
298.292	184.56
298.523	169.56
298.753	172.56
298.984	175.56
299.214	173.56
299.445	187.56
299.675	172.56
299.905	165.56
300.136	189.56
300.366	178.56
300.597	181.56
300.827	180.56
301.057	167.56
301.288	180.56
301.518	162.56
301.748	176.56
301.979	194.56
302.209	203.56
302.439	176.56
302.669	172.56
302.9	175.56
303.13	157.56
303.36	185.56
303.59	172.56
303.82	179.56
304.051	168.56
304.281	177.56
304.511	181.56
304.741	186.56
304.971	182.56
305.201	191.56
305.431	172.56
305.661	179.56
305.891	172.56
306.121	183.56
306.352	187.56
306.582	180.56
306.812	169.56
307.042	170.56
307.272	175.56
307.502	175.56
307.731	183.56
307.961	184.56
308.191	187.56
308.421	184.56
308.651	189.56
308.881	181.56
309.111	173.56
309.341	183.56
309.571	173.56
309.8	181.56
310.03	177.56
310.26	187.56
310.49	186.56
310.72	186.56
310.949	184.56
311.179	175.56
311.409	187.56
311.639	189.56
311.868	199.56
312.098	198.56
312.328	186.56
312.557	181.56
312.787	184.56
313.017	212.56
313.246	202.56
313.476	195.56
313.706	192.56
313.935	194.56
314.165	181.56
314.394	184.56
314.624	202.56
314.853	199.56
315.083	183.56
315.312	181.56
315.542	189.56
315.771	195.56
316.001	190.56
316.23	210.56
316.46	191.56
316.689	193.56
316.919	213.56
317.148	203.56
317.377	214.56
317.607	211.56
317.836	203.56
318.065	192.56
318.295	183.56
318.524	195.56
318.753	208.56
318.983	196.56
319.212	199.56
319.441	198.56
319.67	196.56
319.9	201.56
320.129	200.56
320.358	199.56
320.587	197.56
320.816	194.56
321.046	191.56
321.275	199.56
321.504	208.56
321.733	202.56
321.962	194.56
322.191	191.56
322.42	201.56
322.649	216.56
322.878	196.56
323.108	205.56
323.337	213.56
323.566	202.56
323.795	211.56
324.024	211.56
324.253	229.56
324.482	211.56
324.71	216.56
324.939	201.56
325.168	207.56
325.397	212.56
325.626	218.56
325.855	191.56
326.084	204.56
326.313	215.56
326.542	204.56
326.77	216.56
326.999	215.56
327.228	208.56
327.457	221.56
327.686	222.56
327.914	218.56
328.143	218.56
328.372	219.56
328.6	203.56
328.829	213.56
329.058	216.56
329.287	211.56
329.515	228.56
329.744	231.56
329.972	224.56
330.201	233.56
330.43	232.56
330.658	214.56
330.887	215.56
331.115	241.56
331.344	225.56
331.572	204.56
331.801	229.56
332.03	212.56
332.258	223.56
332.486	219.56
332.715	234.56
332.943	250.56
333.172	246.56
333.4	251.56
333.629	252.56
333.857	236.56
334.085	257.56
334.314	235.56
334.542	258.56
334.771	269.56
334.999	258.56
335.227	262.56
335.455	255.56
335.684	245.56
335.912	263.56
336.14	236.56
336.369	248.56
336.597	253.56
336.825	250.56
337.053	253.56
337.281	260.56
337.51	244.56
337.738	238.56
337.966	236.56
338.194	228.56
338.422	223.56
338.65	235.56
338.878	225.56
339.106	238.56
339.334	223.56
339.562	232.56
339.79	220.56
340.018	238.56
340.246	231.56
340.474	251.56
340.702	228.56
340.93	227.56
341.158	225.56
341.386	232.56
341.614	225.56
341.842	217.56
342.07	218.56
342.298	223.56
342.526	216.56
342.754	250.56
342.981	218.56
343.209	243.56
343.437	246.56
343.665	237.56
343.893	261.56
344.12	262.56
344.348	249.56
344.576	234.56
344.804	228.56
345.031	227.56
345.259	225.56
345.487	234.56
345.714	233.56
345.942	220.56
346.17	241.56
346.397	220.56
346.625	224.56
346.853	234.56
347.08	219.56
347.308	215.56
347.535	232.56
347.763	219.56
347.99	236.56
348.218	231.56
348.445	212.56
348.673	229.56
348.9	207.56
349.128	235.56
349.355	225.56
349.583	222.56
349.81	216.56
350.037	216.56
350.265	226.56
350.492	212.56
350.72	231.56
350.947	231.56
351.174	221.56
351.402	216.56
351.629	241.56
351.856	234.56
352.083	229.56
352.311	228.56
352.538	218.56
352.765	223.56
352.992	233.56
353.22	231.56
353.447	232.56
353.674	221.56
353.901	237.56
354.128	199.56
354.355	231.56
354.583	227.56
354.81	225.56
355.037	241.56
355.264	239.56
355.491	242.56
355.718	232.56
355.945	233.56
356.172	218.56
356.399	225.56
356.626	235.56
356.853	226.56
357.08	219.56
357.307	241.56
357.534	240.56
357.761	230.56
357.988	230.56
358.215	210.56
358.441	223.56
358.668	223.56
358.895	228.56
359.122	237.56
359.349	230.56
359.576	205.56
359.802	228.56
360.029	243.56
360.256	221.56
360.483	230.56
360.709	214.56
360.936	224.56
361.163	235.56
361.39	232.56
361.616	231.56
361.843	226.56
362.07	229.56
362.296	236.56
362.523	245.56
362.749	227.56
362.976	239.56
363.203	225.56
363.429	220.56
363.656	220.56
363.882	215.56
364.109	228.56
364.335	234.56
364.562	212.56
364.788	225.56
365.015	239.56
365.241	241.56
365.468	240.56
365.694	219.56
365.92	239.56
366.147	231.56
366.373	224.56
366.599	232.56
366.826	228.56
367.052	230.56
367.278	231.56
367.505	252.56
367.731	247.56
367.957	220.56
368.184	229.56
368.41	240.56
368.636	223.56
368.862	242.56
369.089	236.56
369.315	253.56
369.541	241.56
369.767	236.56
369.993	244.56
370.219	230.56
370.445	240.56
370.672	233.56
370.898	242.56
371.124	245.56
371.35	241.56
371.576	256.56
371.802	248.56
372.028	252.56
372.254	239.56
372.48	244.56
372.706	251.56
372.932	263.56
373.158	256.56
373.384	255.56
373.61	247.56
373.835	257.56
374.061	252.56
374.287	267.56
374.513	256.56
374.739	255.56
374.965	259.56
375.191	264.56
375.416	260.56
375.642	265.56
375.868	249.56
376.094	249.56
376.319	247.56
376.545	244.56
376.771	273.56
376.997	267.56
377.222	269.56
377.448	256.56
377.674	244.56
377.899	272.56
378.125	248.56
378.35	226.56
378.576	231.56
378.802	249.56
379.027	257.56
379.253	263.56
379.478	265.56
379.704	233.56
379.929	253.56
380.155	236.56
380.38	247.56
380.606	249.56
380.831	257.56
381.057	242.56
381.282	245.56
381.507	255.56
381.733	262.56
381.958	259.56
382.184	251.56
382.409	278.56
382.634	297.56
382.86	261.56
383.085	261.56
383.31	245.56
383.535	275.56
383.761	277.56
383.986	272.56
384.211	266.56
384.436	279.56
384.662	271.56
384.887	276.56
385.112	282.56
385.337	272.56
385.562	267.56
385.787	295.56
386.013	289.56
386.238	286.56
386.463	289.56
386.688	293.56
386.913	288.56
387.138	296.56
387.363	282.56
387.588	292.56
387.813	277.56
388.038	300.56
388.263	300.56
388.488	289.56
388.713	280.56
388.938	277.56
389.163	267.56
389.387	276.56
389.612	291.56
389.837	293.56
390.062	287.56
390.287	288.56
390.512	275.56
390.736	299.56
390.961	296.56
391.186	312.56
391.411	314.56
391.636	314.56
391.86	285.56
392.085	307.56
392.31	303.56
392.534	310.56
392.759	309.56
392.984	313.56
393.208	296.56
393.433	297.56
393.658	306.56
393.882	288.56
394.107	326.56
394.331	322.56
394.556	308.56
394.78	294.56
395.005	307.56
395.229	298.56
395.454	303.56
395.678	325.56
395.903	324.56
396.127	327.56
396.352	308.56
396.576	329.56
396.801	319.56
397.025	331.56
397.249	317.56
397.474	340.56
397.698	328.56
397.922	340.56
398.147	322.56
398.371	339.56
398.595	353.56
398.82	328.56
399.044	363.56
399.268	369.56
399.492	394.56
399.717	403.56
399.941	398.56
400.165	413.56
400.389	390.56
400.613	385.56
400.837	358.56
401.062	367.56
401.286	360.56
401.51	359.56
401.734	339.56
401.958	341.56
402.182	358.56
402.406	332.56
402.63	346.56
402.854	349.56
403.078	337.56
403.302	328.56
403.526	352.56
403.75	362.56
403.974	353.56
404.198	360.56
404.422	376.56
404.645	364.56
404.869	368.56
405.093	343.56
405.317	360.56
405.541	357.56
405.765	337.56
405.988	360.56
406.212	360.56
406.436	355.56
406.66	385.56
406.883	389.56
407.107	388.56
407.331	389.56
407.555	404.56
407.778	419.56
408.002	408.56
408.226	381.56
408.449	383.56
408.673	376.56
408.896	368.56
409.12	376.56
409.344	364.56
409.567	359.56
409.791	367.56
410.014	351.56
410.238	339.56
410.461	361.56
410.685	351.56
410.908	338.56
411.132	344.56
411.355	321.56
411.578	340.56
411.802	351.56
412.025	358.56
412.249	354.56
412.472	355.56
412.695	341.56
412.919	341.56
413.142	338.56
413.365	355.56
413.589	349.56
413.812	325.56
414.035	346.56
414.258	332.56
414.482	339.56
414.705	327.56
414.928	348.56
415.151	332.56
415.374	341.56
415.597	321.56
415.821	344.56
416.044	337.56
416.267	336.56
416.49	334.56
416.713	314.56
416.936	324.56
417.159	333.56
417.382	328.56
417.605	331.56
417.828	344.56
418.051	328.56
418.274	343.56
418.497	333.56
418.72	331.56
418.943	339.56
419.166	341.56
419.389	339.56
419.611	350.56
419.834	332.56
420.057	337.56
420.28	346.56
420.503	314.56
420.726	309.56
420.948	339.56
421.171	333.56
421.394	349.56
421.617	307.56
421.839	328.56
422.062	349.56
422.285	329.56
422.507	335.56
422.73	356.56
422.953	346.56
423.175	320.56
423.398	341.56
423.621	357.56
423.843	339.56
424.066	328.56
424.288	314.56
424.511	329.56
424.733	313.56
424.956	325.56
425.178	341.56
425.401	318.56
425.623	333.56
425.846	315.56
426.068	325.56
426.291	324.56
426.513	322.56
426.735	342.56
426.958	331.56
427.18	315.56
427.402	321.56
427.625	297.56
427.847	295.56
428.069	309.56
428.292	320.56
428.514	296.56
428.736	297.56
428.958	299.56
429.181	323.56
429.403	320.56
429.625	290.56
429.847	305.56
430.069	292.56
430.292	296.56
430.514	312.56
430.736	309.56
430.958	320.56
431.18	312.56
431.402	294.56
431.624	297.56
431.846	309.56
432.068	319.56
432.29	307.56
432.512	309.56
432.734	311.56
432.956	303.56
433.178	324.56
433.4	309.56
433.622	327.56
433.844	309.56
434.066	317.56
434.287	309.56
434.509	326.56
434.731	324.56
434.953	348.56
435.175	316.56
435.397	326.56
435.618	329.56
435.84	322.56
436.062	309.56
436.284	310.56
436.505	301.56
436.727	309.56
436.949	308.56
437.17	320.56
437.392	316.56
437.614	316.56
437.835	290.56
438.057	317.56
438.278	295.56
438.5	315.56
438.721	299.56
438.943	306.56
439.165	315.56
439.386	305.56
439.608	296.56
439.829	319.56
440.05	326.56
440.272	319.56
440.493	324.56
440.715	306.56
440.936	317.56
441.158	318.56
441.379	322.56
441.6	327.56
441.822	312.56
442.043	338.56
442.264	306.56
442.486	322.56
442.707	317.56
442.928	331.56
443.149	322.56
443.371	329.56
443.592	331.56
443.813	317.56
444.034	322.56
444.255	328.56
444.476	350.56
444.698	338.56
444.919	350.56
445.14	426.56
445.361	377.56
445.582	338.56
445.803	313.56
446.024	328.56
446.245	317.56
446.466	315.56
446.687	315.56
446.908	313.56
447.129	292.56
447.35	308.56
447.571	313.56
447.792	300.56
448.013	321.56
448.234	289.56
448.455	299.56
448.675	287.56
448.896	296.56
449.117	273.56
449.338	291.56
449.559	308.56
449.779	266.56
450	287.56
450.221	279.56
450.442	287.56
450.662	287.56
450.883	285.56
451.104	292.56
451.324	277.56
451.545	305.56
451.766	287.56
451.986	266.56
452.207	287.56
452.428	285.56
452.648	278.56
452.869	292.56
453.089	279.56
453.31	267.56
453.53	280.56
453.751	273.56
453.971	291.56
454.192	266.56
454.412	292.56
454.633	286.56
454.853	292.56
455.073	266.56
455.294	253.56
455.514	284.56
455.734	279.56
455.955	275.56
456.175	261.56
456.395	268.56
456.616	278.56
456.836	283.56
457.056	293.56
457.276	286.56
457.497	281.56
457.717	283.56
457.937	276.56
458.157	303.56
458.377	281.56
458.598	282.56
458.818	279.56
459.038	282.56
459.258	308.56
459.478	311.56
459.698	332.56
459.918	344.56
460.138	330.56
460.358	319.56
460.578	346.56
460.798	346.56
461.018	349.56
461.238	356.56
461.458	350.56
461.678	375.56
461.898	359.56
462.118	364.56
462.338	379.56
462.558	375.56
462.777	373.56
462.997	392.56
463.217	394.56
463.437	403.56
463.657	372.56
463.876	379.56
464.096	384.56
464.316	371.56
464.536	385.56
464.755	378.56
464.975	351.56
465.195	360.56
465.414	349.56
465.634	327.56
465.854	304.56
466.073	316.56
466.293	336.56
466.512	299.56
466.732	316.56
466.951	285.56
467.171	312.56
467.391	307.56
467.61	317.56
467.829	304.56
468.049	322.56
468.268	314.56
468.488	308.56
468.707	289.56
468.927	305.56
469.146	295.56
469.365	311.56
469.585	314.56
469.804	319.56
470.023	307.56
470.243	303.56
470.462	291.56
470.681	329.56
470.901	300.56
471.12	310.56
471.339	298.56
471.558	303.56
471.777	299.56
471.997	307.56
472.216	308.56
472.435	292.56
472.654	300.56
472.873	317.56
473.092	315.56
473.311	326.56
473.53	304.56
473.749	314.56
473.968	303.56
474.187	313.56
474.406	287.56
474.625	303.56
474.844	329.56
475.063	311.56
475.282	310.56
475.501	307.56
475.72	314.56
475.939	301.56
476.158	322.56
476.377	338.56
476.596	327.56
476.814	307.56
477.033	307.56
477.252	331.56
477.471	319.56
477.69	332.56
477.908	345.56
478.127	355.56
478.346	351.56
478.564	344.56
478.783	355.56
479.002	346.56
479.22	359.56
479.439	374.56
479.658	363.56
479.876	346.56
480.095	358.56
480.313	385.56
480.532	363.56
480.751	353.56
480.969	368.56
481.188	352.56
481.406	362.56
481.624	363.56
481.843	337.56
482.061	338.56
482.28	337.56
482.498	349.56
482.717	347.56
482.935	336.56
483.153	351.56
483.372	348.56
483.59	344.56
483.808	352.56
484.027	351.56
484.245	367.56
484.463	346.56
484.681	349.56
484.9	344.56
485.118	343.56
485.336	337.56
485.554	360.56
485.772	335.56
485.99	358.56
486.209	365.56
486.427	356.56
486.645	356.56
486.863	359.56
487.081	358.56
487.299	368.56
487.517	354.56
487.735	351.56
487.953	364.56
488.171	353.56
488.389	346.56
488.607	344.56
488.825	343.56
489.043	364.56
489.261	354.56
489.479	363.56
489.696	358.56
489.914	375.56
490.132	361.56
490.35	344.56
490.568	370.56
490.786	360.56
491.003	354.56
491.221	365.56
491.439	346.56
491.657	360.56
491.874	368.56
492.092	381.56
492.31	394.56
492.527	383.56
492.745	379.56
492.963	395.56
493.18	376.56
493.398	351.56
493.615	363.56
493.833	371.56
494.05	389.56
494.268	376.56
494.485	383.56
494.703	392.56
494.92	396.56
495.138	378.56
495.355	392.56
495.573	389.56
495.79	381.56
496.008	386.56
496.225	407.56
496.442	412.56
496.66	413.56
496.877	418.56
497.094	432.56
497.312	461.56
497.529	429.56
497.746	439.56
497.963	447.56
498.181	491.56
498.398	476.56
498.615	465.56
498.832	526.56
499.049	548.56
499.267	571.56
499.484	583.56
499.701	629.56
499.918	651.56
500.135	663.56
500.352	708.56
500.569	701.56
500.786	674.56
501.003	698.56
501.22	654.56
501.437	625.56
501.654	603.56
501.871	568.56
502.088	550.56
502.305	517.56
502.522	516.56
502.739	501.56
