Data from Fe(NO3)3@0.0125M.TitratingCurve.Agarose3%dH2O.NegLispCup.LampEnergy10.LIBS07252019_HRD10591_17-00-16-336.txt Node
Date: Thu Jul 25 17:00:16 EDT 2019
User: cochatt
Spectrometer: HR+D1059
Trigger mode: 1
Integration Time (sec): 1.000000E-1
Scans to average: 1
Electric dark correction enabled: true
Nonlinearity correction enabled: false
Boxcar width: 0
XAxis mode: Wavelengths
Number of Pixels in Spectrum: 2048
>>>>>Begin Spectral Data<<<<<
223.165	-12.75
223.4	-12.75
223.635	-12.75
223.869	-8.75
224.104	-32.75
224.338	-22.75
224.573	-0.75
224.808	-4.75
225.042	-5.75
225.277	-3.75
225.511	-8.75
225.746	-8.75
225.98	-4.75
226.215	8.25
226.449	2.25
226.683	15.25
226.918	40.25
227.152	48.25
227.387	28.25
227.621	47.25
227.856	44.25
228.09	51.25
228.324	40.25
228.559	51.25
228.793	63.25
229.027	75.25
229.262	74.25
229.496	85.25
229.73	92.25
229.964	107.25
230.199	114.25
230.433	103.25
230.667	96.25
230.901	100.25
231.136	100.25
231.37	104.25
231.604	103.25
231.838	122.25
232.072	112.25
232.306	93.25
232.541	107.25
232.775	121.25
233.009	111.25
233.243	106.25
233.477	112.25
233.711	122.25
233.945	122.25
234.179	127.25
234.413	111.25
234.647	110.25
234.881	126.25
235.115	103.25
235.349	127.25
235.583	119.25
235.817	120.25
236.051	109.25
236.285	120.25
236.519	129.25
236.753	119.25
236.987	114.25
237.221	114.25
237.455	126.25
237.689	122.25
237.922	124.25
238.156	122.25
238.39	132.25
238.624	153.25
238.858	129.25
239.091	136.25
239.325	132.25
239.559	114.25
239.793	131.25
240.027	139.25
240.26	140.25
240.494	131.25
240.728	123.25
240.961	126.25
241.195	147.25
241.429	137.25
241.662	131.25
241.896	141.25
242.13	136.25
242.363	132.25
242.597	145.25
242.83	136.25
243.064	127.25
243.298	153.25
243.531	141.25
243.765	141.25
243.998	137.25
244.232	148.25
244.465	141.25
244.699	133.25
244.932	144.25
245.166	145.25
245.399	146.25
245.633	161.25
245.866	161.25
246.099	135.25
246.333	149.25
246.566	167.25
246.8	142.25
247.033	142.25
247.266	148.25
247.5	141.25
247.733	130.25
247.966	157.25
248.2	163.25
248.433	173.25
248.666	146.25
248.899	161.25
249.133	159.25
249.366	160.25
249.599	161.25
249.832	165.25
250.066	161.25
250.299	160.25
250.532	160.25
250.765	164.25
250.998	165.25
251.231	157.25
251.465	158.25
251.698	149.25
251.931	179.25
252.164	170.25
252.397	172.25
252.63	182.25
252.863	184.25
253.096	183.25
253.329	167.25
253.562	183.25
253.795	175.25
254.028	177.25
254.261	195.25
254.494	187.25
254.727	180.25
254.96	183.25
255.193	191.25
255.426	165.25
255.659	191.25
255.892	189.25
256.124	168.25
256.357	167.25
256.59	195.25
256.823	196.25
257.056	172.25
257.289	198.25
257.521	191.25
257.754	205.25
257.987	193.25
258.22	179.25
258.452	203.25
258.685	211.25
258.918	208.25
259.151	195.25
259.383	193.25
259.616	207.25
259.849	211.25
260.081	233.25
260.314	240.25
260.547	223.25
260.779	206.25
261.012	219.25
261.244	212.25
261.477	235.25
261.71	223.25
261.942	218.25
262.175	218.25
262.407	216.25
262.64	213.25
262.872	216.25
263.105	224.25
263.337	233.25
263.57	224.25
263.802	209.25
264.035	206.25
264.267	209.25
264.499	213.25
264.732	206.25
264.964	204.25
265.197	220.25
265.429	208.25
265.661	220.25
265.894	196.25
266.126	195.25
266.358	215.25
266.591	218.25
266.823	213.25
267.055	210.25
267.287	207.25
267.52	226.25
267.752	216.25
267.984	215.25
268.216	213.25
268.448	221.25
268.681	229.25
268.913	250.25
269.145	241.25
269.377	231.25
269.609	236.25
269.841	241.25
270.073	224.25
270.306	228.25
270.538	228.25
270.77	240.25
271.002	231.25
271.234	239.25
271.466	241.25
271.698	235.25
271.93	252.25
272.162	231.25
272.394	259.25
272.626	259.25
272.858	246.25
273.09	257.25
273.322	246.25
273.553	236.25
273.785	280.25
274.017	279.25
274.249	288.25
274.481	297.25
274.713	310.25
274.945	312.25
275.176	311.25
275.408	283.25
275.64	285.25
275.872	270.25
276.104	291.25
276.335	273.25
276.567	243.25
276.799	278.25
277.031	268.25
277.262	261.25
277.494	264.25
277.726	273.25
277.957	263.25
278.189	271.25
278.421	270.25
278.652	282.25
278.884	273.25
279.115	271.25
279.347	275.25
279.579	275.25
279.81	283.25
280.042	246.25
280.273	281.25
280.505	253.25
280.736	262.25
280.968	276.25
281.199	277.25
281.431	270.25
281.662	271.25
281.894	296.25
282.125	292.25
282.356	312.25
282.588	288.25
282.819	275.25
283.051	287.25
283.282	284.25
283.513	287.25
283.745	307.25
283.976	300.25
284.207	293.25
284.439	287.25
284.67	299.25
284.901	289.25
285.132	303.25
285.364	310.25
285.595	277.25
285.826	304.25
286.057	299.25
286.288	301.25
286.52	292.25
286.751	294.25
286.982	324.25
287.213	308.25
287.444	312.25
287.675	308.25
287.906	300.25
288.138	327.25
288.369	320.25
288.6	332.25
288.831	307.25
289.062	297.25
289.293	286.25
289.524	321.25
289.755	320.25
289.986	323.25
290.217	308.25
290.448	306.25
290.679	325.25
290.91	330.25
291.141	322.25
291.371	315.25
291.602	336.25
291.833	326.25
292.064	319.25
292.295	307.25
292.526	318.25
292.757	335.25
292.987	325.25
293.218	305.25
293.449	313.25
293.68	317.25
293.91	326.25
294.141	315.25
294.372	313.25
294.603	334.25
294.833	327.25
295.064	347.25
295.295	325.25
295.525	315.25
295.756	322.25
295.987	319.25
296.217	344.25
296.448	337.25
296.679	315.25
296.909	343.25
297.14	350.25
297.37	348.25
297.601	345.25
297.831	325.25
298.062	356.25
298.292	323.25
298.523	343.25
298.753	342.25
298.984	338.25
299.214	343.25
299.445	362.25
299.675	352.25
299.905	363.25
300.136	356.25
300.366	347.25
300.597	345.25
300.827	356.25
301.057	357.25
301.288	342.25
301.518	345.25
301.748	349.25
301.979	363.25
302.209	378.25
302.439	373.25
302.669	373.25
302.9	372.25
303.13	358.25
303.36	375.25
303.59	356.25
303.82	373.25
304.051	367.25
304.281	369.25
304.511	364.25
304.741	359.25
304.971	368.25
305.201	368.25
305.431	373.25
305.661	372.25
305.891	378.25
306.121	359.25
306.352	365.25
306.582	368.25
306.812	369.25
307.042	379.25
307.272	353.25
307.502	363.25
307.731	381.25
307.961	352.25
308.191	374.25
308.421	369.25
308.651	379.25
308.881	355.25
309.111	383.25
309.341	364.25
309.571	391.25
309.8	383.25
310.03	384.25
310.26	377.25
310.49	379.25
310.72	394.25
310.949	391.25
311.179	400.25
311.409	391.25
311.639	383.25
311.868	396.25
312.098	401.25
312.328	391.25
312.557	377.25
312.787	380.25
313.017	370.25
313.246	391.25
313.476	380.25
313.706	397.25
313.935	406.25
314.165	421.25
314.394	391.25
314.624	431.25
314.853	399.25
315.083	401.25
315.312	400.25
315.542	402.25
315.771	403.25
316.001	409.25
316.23	395.25
316.46	403.25
316.689	406.25
316.919	407.25
317.148	421.25
317.377	424.25
317.607	410.25
317.836	408.25
318.065	417.25
318.295	427.25
318.524	414.25
318.753	397.25
318.983	402.25
319.212	392.25
319.441	414.25
319.67	419.25
319.9	414.25
320.129	420.25
320.358	409.25
320.587	432.25
320.816	443.25
321.046	438.25
321.275	424.25
321.504	408.25
321.733	437.25
321.962	411.25
322.191	425.25
322.42	412.25
322.649	428.25
322.878	411.25
323.108	422.25
323.337	431.25
323.566	438.25
323.795	428.25
324.024	440.25
324.253	440.25
324.482	443.25
324.71	431.25
324.939	469.25
325.168	431.25
325.397	420.25
325.626	431.25
325.855	443.25
326.084	456.25
326.313	442.25
326.542	458.25
326.77	464.25
326.999	442.25
327.228	465.25
327.457	437.25
327.686	439.25
327.914	469.25
328.143	454.25
328.372	447.25
328.6	429.25
328.829	437.25
329.058	449.25
329.287	477.25
329.515	454.25
329.744	452.25
329.972	465.25
330.201	458.25
330.43	466.25
330.658	457.25
330.887	469.25
331.115	479.25
331.344	457.25
331.572	453.25
331.801	465.25
332.03	473.25
332.258	473.25
332.486	470.25
332.715	487.25
332.943	479.25
333.172	488.25
333.4	492.25
333.629	503.25
333.857	515.25
334.085	531.25
334.314	487.25
334.542	510.25
334.771	520.25
334.999	512.25
335.227	508.25
335.455	507.25
335.684	495.25
335.912	511.25
336.14	516.25
336.369	499.25
336.597	511.25
336.825	531.25
337.053	485.25
337.281	501.25
337.51	494.25
337.738	487.25
337.966	478.25
338.194	490.25
338.422	487.25
338.65	490.25
338.878	476.25
339.106	469.25
339.334	496.25
339.562	492.25
339.79	497.25
340.018	473.25
340.246	501.25
340.474	492.25
340.702	501.25
340.93	498.25
341.158	482.25
341.386	481.25
341.614	495.25
341.842	513.25
342.07	483.25
342.298	471.25
342.526	487.25
342.754	484.25
342.981	499.25
343.209	482.25
343.437	499.25
343.665	478.25
343.893	490.25
344.12	526.25
344.348	498.25
344.576	512.25
344.804	497.25
345.031	500.25
345.259	498.25
345.487	500.25
345.714	491.25
345.942	488.25
346.17	502.25
346.397	509.25
346.625	497.25
346.853	485.25
347.08	481.25
347.308	467.25
347.535	482.25
347.763	481.25
347.99	469.25
348.218	490.25
348.445	474.25
348.673	476.25
348.9	456.25
349.128	458.25
349.355	464.25
349.583	477.25
349.81	456.25
350.037	480.25
350.265	471.25
350.492	473.25
350.72	456.25
350.947	457.25
351.174	497.25
351.402	473.25
351.629	487.25
351.856	466.25
352.083	465.25
352.311	492.25
352.538	480.25
352.765	476.25
352.992	465.25
353.22	467.25
353.447	474.25
353.674	459.25
353.901	481.25
354.128	487.25
354.355	482.25
354.583	462.25
354.81	478.25
355.037	475.25
355.264	475.25
355.491	480.25
355.718	491.25
355.945	485.25
356.172	471.25
356.399	465.25
356.626	498.25
356.853	487.25
357.08	475.25
357.307	492.25
357.534	474.25
357.761	477.25
357.988	493.25
358.215	512.25
358.441	488.25
358.668	495.25
358.895	482.25
359.122	466.25
359.349	488.25
359.576	487.25
359.802	458.25
360.029	469.25
360.256	482.25
360.483	486.25
360.709	482.25
360.936	483.25
361.163	476.25
361.39	494.25
361.616	500.25
361.843	470.25
362.07	484.25
362.296	506.25
362.523	468.25
362.749	482.25
362.976	489.25
363.203	496.25
363.429	472.25
363.656	496.25
363.882	492.25
364.109	476.25
364.335	477.25
364.562	495.25
364.788	509.25
365.015	506.25
365.241	514.25
365.468	495.25
365.694	496.25
365.92	500.25
366.147	483.25
366.373	476.25
366.599	493.25
366.826	505.25
367.052	485.25
367.278	499.25
367.505	499.25
367.731	490.25
367.957	519.25
368.184	515.25
368.41	507.25
368.636	521.25
368.862	488.25
369.089	505.25
369.315	541.25
369.541	536.25
369.767	505.25
369.993	495.25
370.219	496.25
370.445	529.25
370.672	519.25
370.898	521.25
371.124	512.25
371.35	515.25
371.576	499.25
371.802	519.25
372.028	536.25
372.254	537.25
372.48	536.25
372.706	520.25
372.932	542.25
373.158	520.25
373.384	542.25
373.61	532.25
373.835	572.25
374.061	541.25
374.287	547.25
374.513	528.25
374.739	548.25
374.965	569.25
375.191	547.25
375.416	544.25
375.642	519.25
375.868	551.25
376.094	530.25
376.319	522.25
376.545	530.25
376.771	529.25
376.997	512.25
377.222	515.25
377.448	514.25
377.674	512.25
377.899	525.25
378.125	543.25
378.35	535.25
378.576	519.25
378.802	506.25
379.027	506.25
379.253	512.25
379.478	520.25
379.704	525.25
379.929	553.25
380.155	543.25
380.38	527.25
380.606	537.25
380.831	514.25
381.057	514.25
381.282	531.25
381.507	523.25
381.733	545.25
381.958	531.25
382.184	540.25
382.409	547.25
382.634	563.25
382.86	569.25
383.085	546.25
383.31	561.25
383.535	599.25
383.761	559.25
383.986	552.25
384.211	580.25
384.436	589.25
384.662	578.25
384.887	572.25
385.112	574.25
385.337	580.25
385.562	553.25
385.787	584.25
386.013	587.25
386.238	602.25
386.463	605.25
386.688	590.25
386.913	567.25
387.138	581.25
387.363	574.25
387.588	578.25
387.813	605.25
388.038	607.25
388.263	585.25
388.488	581.25
388.713	596.25
388.938	608.25
389.163	588.25
389.387	597.25
389.612	606.25
389.837	601.25
390.062	583.25
390.287	599.25
390.512	594.25
390.736	599.25
390.961	598.25
391.186	598.25
391.411	578.25
391.636	626.25
391.86	593.25
392.085	614.25
392.31	601.25
392.534	616.25
392.759	621.25
392.984	631.25
393.208	644.25
393.433	665.25
393.658	672.25
393.882	628.25
394.107	586.25
394.331	627.25
394.556	618.25
394.78	618.25
395.005	606.25
395.229	624.25
395.454	636.25
395.678	623.25
395.903	618.25
396.127	635.25
396.352	633.25
396.576	637.25
396.801	653.25
397.025	665.25
397.249	664.25
397.474	672.25
397.698	657.25
397.922	650.25
398.147	640.25
398.371	652.25
398.595	662.25
398.82	651.25
399.044	692.25
399.268	695.25
399.492	716.25
399.717	711.25
399.941	747.25
400.165	726.25
400.389	739.25
400.613	709.25
400.837	698.25
401.062	691.25
401.286	677.25
401.51	709.25
401.734	662.25
401.958	665.25
402.182	690.25
402.406	655.25
402.63	672.25
402.854	657.25
403.078	649.25
403.302	676.25
403.526	699.25
403.75	675.25
403.974	684.25
404.198	670.25
404.422	665.25
404.645	672.25
404.869	690.25
405.093	688.25
405.317	693.25
405.541	715.25
405.765	706.25
405.988	691.25
406.212	713.25
406.436	727.25
406.66	752.25
406.883	723.25
407.107	739.25
407.331	748.25
407.555	748.25
407.778	752.25
408.002	757.25
408.226	753.25
408.449	769.25
408.673	721.25
408.896	755.25
409.12	734.25
409.344	755.25
409.567	714.25
409.791	727.25
410.014	740.25
410.238	727.25
410.461	750.25
410.685	736.25
410.908	692.25
411.132	710.25
411.355	707.25
411.578	716.25
411.802	686.25
412.025	707.25
412.249	710.25
412.472	713.25
412.695	700.25
412.919	714.25
413.142	685.25
413.365	697.25
413.589	691.25
413.812	672.25
414.035	680.25
414.258	717.25
414.482	702.25
414.705	696.25
414.928	687.25
415.151	700.25
415.374	671.25
415.597	662.25
415.821	666.25
416.044	655.25
416.267	667.25
416.49	664.25
416.713	666.25
416.936	677.25
417.159	664.25
417.382	656.25
417.605	648.25
417.828	652.25
418.051	652.25
418.274	647.25
418.497	660.25
418.72	678.25
418.943	666.25
419.166	682.25
419.389	741.25
419.611	711.25
419.834	685.25
420.057	673.25
420.28	658.25
420.503	643.25
420.726	635.25
420.948	641.25
421.171	645.25
421.394	636.25
421.617	630.25
421.839	628.25
422.062	668.25
422.285	639.25
422.507	654.25
422.73	656.25
422.953	639.25
423.175	651.25
423.398	660.25
423.621	657.25
423.843	654.25
424.066	660.25
424.288	654.25
424.511	650.25
424.733	637.25
424.956	640.25
425.178	643.25
425.401	654.25
425.623	644.25
425.846	630.25
426.068	642.25
426.291	635.25
426.513	627.25
426.735	635.25
426.958	647.25
427.18	623.25
427.402	627.25
427.625	629.25
427.847	621.25
428.069	637.25
428.292	612.25
428.514	602.25
428.736	615.25
428.958	615.25
429.181	614.25
429.403	605.25
429.625	613.25
429.847	639.25
430.069	625.25
430.292	637.25
430.514	630.25
430.736	620.25
430.958	645.25
431.18	648.25
431.402	625.25
431.624	636.25
431.846	639.25
432.068	635.25
432.29	620.25
432.512	634.25
432.734	659.25
432.956	617.25
433.178	652.25
433.4	632.25
433.622	645.25
433.844	639.25
434.066	654.25
434.287	659.25
434.509	603.25
434.731	639.25
434.953	640.25
435.175	637.25
435.397	639.25
435.618	643.25
435.84	668.25
436.062	639.25
436.284	653.25
436.505	621.25
436.727	632.25
436.949	625.25
437.17	635.25
437.392	632.25
437.614	611.25
437.835	601.25
438.057	623.25
438.278	603.25
438.5	617.25
438.721	607.25
438.943	633.25
439.165	617.25
439.386	613.25
439.608	614.25
439.829	626.25
440.05	625.25
440.272	612.25
440.493	635.25
440.715	635.25
440.936	644.25
441.158	619.25
441.379	629.25
441.6	663.25
441.822	652.25
442.043	631.25
442.264	627.25
442.486	638.25
442.707	642.25
442.928	668.25
443.149	629.25
443.371	639.25
443.592	665.25
443.813	648.25
444.034	638.25
444.255	640.25
444.476	660.25
444.698	667.25
444.919	673.25
445.14	729.25
445.361	708.25
445.582	639.25
445.803	653.25
446.024	626.25
446.245	625.25
446.466	628.25
446.687	608.25
446.908	621.25
447.129	632.25
447.35	626.25
447.571	612.25
447.792	580.25
448.013	609.25
448.234	612.25
448.455	580.25
448.675	599.25
448.896	603.25
449.117	574.25
449.338	598.25
449.559	596.25
449.779	577.25
450	590.25
450.221	587.25
450.442	568.25
450.662	591.25
450.883	597.25
451.104	572.25
451.324	589.25
451.545	577.25
451.766	597.25
451.986	602.25
452.207	577.25
452.428	594.25
452.648	612.25
452.869	603.25
453.089	568.25
453.31	575.25
453.53	578.25
453.751	573.25
453.971	567.25
454.192	575.25
454.412	554.25
454.633	545.25
454.853	571.25
455.073	551.25
455.294	563.25
455.514	579.25
455.734	572.25
455.955	567.25
456.175	587.25
456.395	556.25
456.616	577.25
456.836	573.25
457.056	571.25
457.276	561.25
457.497	575.25
457.717	570.25
457.937	571.25
458.157	592.25
458.377	596.25
458.598	582.25
458.818	581.25
459.038	579.25
459.258	601.25
459.478	615.25
459.698	625.25
459.918	607.25
460.138	634.25
460.358	636.25
460.578	658.25
460.798	675.25
461.018	669.25
461.238	665.25
461.458	680.25
461.678	666.25
461.898	668.25
462.118	671.25
462.338	678.25
462.558	707.25
462.777	699.25
462.997	723.25
463.217	738.25
463.437	720.25
463.657	692.25
463.876	702.25
464.096	698.25
464.316	713.25
464.536	700.25
464.755	687.25
464.975	687.25
465.195	688.25
465.414	676.25
465.634	632.25
465.854	642.25
466.073	639.25
466.293	637.25
466.512	624.25
466.732	624.25
466.951	626.25
467.171	625.25
467.391	618.25
467.61	649.25
467.829	621.25
468.049	597.25
468.268	612.25
468.488	613.25
468.707	597.25
468.927	620.25
469.146	608.25
469.365	626.25
469.585	618.25
469.804	648.25
470.023	625.25
470.243	630.25
470.462	617.25
470.681	604.25
470.901	615.25
471.12	642.25
471.339	597.25
471.558	667.25
471.777	634.25
471.997	632.25
472.216	645.25
472.435	633.25
472.654	623.25
472.873	637.25
473.092	638.25
473.311	629.25
473.53	616.25
473.749	629.25
473.968	658.25
474.187	648.25
474.406	647.25
474.625	633.25
474.844	655.25
475.063	657.25
475.282	651.25
475.501	650.25
475.72	659.25
475.939	665.25
476.158	669.25
476.377	672.25
476.596	669.25
476.814	708.25
477.033	676.25
477.252	672.25
477.471	714.25
477.69	693.25
477.908	711.25
478.127	677.25
478.346	713.25
478.564	721.25
478.783	719.25
479.002	735.25
479.22	739.25
479.439	767.25
479.658	741.25
479.876	756.25
480.095	736.25
480.313	753.25
480.532	751.25
480.751	744.25
480.969	753.25
481.188	759.25
481.406	760.25
481.624	773.25
481.843	742.25
482.061	770.25
482.28	765.25
482.498	757.25
482.717	780.25
482.935	758.25
483.153	764.25
483.372	769.25
483.59	760.25
483.808	754.25
484.027	776.25
484.245	763.25
484.463	799.25
484.681	782.25
484.9	783.25
485.118	811.25
485.336	775.25
485.554	787.25
485.772	811.25
485.99	789.25
486.209	780.25
486.427	798.25
486.645	799.25
486.863	805.25
487.081	794.25
487.299	797.25
487.517	762.25
487.735	803.25
487.953	809.25
488.171	802.25
488.389	797.25
488.607	799.25
488.825	795.25
489.043	791.25
489.261	781.25
489.479	827.25
489.696	785.25
489.914	761.25
490.132	793.25
490.35	795.25
490.568	776.25
490.786	790.25
491.003	778.25
491.221	772.25
491.439	801.25
491.657	808.25
491.874	822.25
492.092	801.25
492.31	810.25
492.527	833.25
492.745	828.25
492.963	795.25
493.18	820.25
493.398	807.25
493.615	815.25
493.833	823.25
494.05	833.25
494.268	828.25
494.485	824.25
494.703	821.25
494.92	821.25
495.138	838.25
495.355	850.25
495.573	856.25
495.79	841.25
496.008	856.25
496.225	836.25
496.442	860.25
496.66	843.25
496.877	854.25
497.094	879.25
497.312	866.25
497.529	888.25
497.746	905.25
497.963	900.25
498.181	922.25
498.398	930.25
498.615	995.25
498.832	977.25
499.049	1004.25
499.267	1035.25
499.484	1056.25
499.701	1066.25
499.918	1121.25
500.135	1135.25
500.352	1152.25
500.569	1185.25
500.786	1179.25
501.003	1155.25
501.22	1179.25
501.437	1088.25
