Data from Fe(NO3)3@0.05M.TitratingCurve.Agarose3%dH2O.NegLispCup.LampEnergy10.LIBS07252019_HRD10591_16-48-32-334.txt Node
Date: Thu Jul 25 16:48:32 EDT 2019
User: cochatt
Spectrometer: HR+D1059
Trigger mode: 1
Integration Time (sec): 1.000000E-1
Scans to average: 1
Electric dark correction enabled: true
Nonlinearity correction enabled: false
Boxcar width: 0
XAxis mode: Wavelengths
Number of Pixels in Spectrum: 2048
>>>>>Begin Spectral Data<<<<<
223.165	-10.12
223.4	-10.12
223.635	-10.12
223.869	-22.12
224.104	-19.12
224.338	-18.12
224.573	-18.12
224.808	-0.12
225.042	-4.12
225.277	-12.12
225.511	-22.12
225.746	5.88
225.98	6.88
226.215	19.88
226.449	16.88
226.683	22.88
226.918	12.88
227.152	40.88
227.387	41.88
227.621	38.88
227.856	19.88
228.09	46.88
228.324	41.88
228.559	57.88
228.793	54.88
229.027	64.88
229.262	74.88
229.496	70.88
229.73	74.88
229.964	86.88
230.199	64.88
230.433	70.88
230.667	97.88
230.901	95.88
231.136	68.88
231.37	81.88
231.604	91.88
231.838	95.88
232.072	83.88
232.306	109.88
232.541	94.88
232.775	86.88
233.009	77.88
233.243	70.88
233.477	90.88
233.711	90.88
233.945	82.88
234.179	79.88
234.413	105.88
234.647	83.88
234.881	86.88
235.115	81.88
235.349	66.88
235.583	80.88
235.817	94.88
236.051	96.88
236.285	82.88
236.519	73.88
236.753	86.88
236.987	98.88
237.221	83.88
237.455	76.88
237.689	89.88
237.922	77.88
238.156	99.88
238.39	89.88
238.624	87.88
238.858	94.88
239.091	85.88
239.325	82.88
239.559	83.88
239.793	91.88
240.027	90.88
240.26	83.88
240.494	97.88
240.728	96.88
240.961	89.88
241.195	87.88
241.429	89.88
241.662	71.88
241.896	103.88
242.13	97.88
242.363	93.88
242.597	84.88
242.83	96.88
243.064	87.88
243.298	83.88
243.531	90.88
243.765	76.88
243.998	87.88
244.232	92.88
244.465	86.88
244.699	89.88
244.932	90.88
245.166	89.88
245.399	104.88
245.633	93.88
245.866	81.88
246.099	87.88
246.333	104.88
246.566	98.88
246.8	89.88
247.033	86.88
247.266	87.88
247.5	104.88
247.733	104.88
247.966	82.88
248.2	95.88
248.433	77.88
248.666	98.88
248.899	90.88
249.133	109.88
249.366	100.88
249.599	95.88
249.832	87.88
250.066	103.88
250.299	98.88
250.532	104.88
250.765	96.88
250.998	92.88
251.231	87.88
251.465	96.88
251.698	92.88
251.931	113.88
252.164	93.88
252.397	92.88
252.63	100.88
252.863	103.88
253.096	119.88
253.329	117.88
253.562	100.88
253.795	98.88
254.028	110.88
254.261	102.88
254.494	89.88
254.727	106.88
254.96	105.88
255.193	96.88
255.426	111.88
255.659	113.88
255.892	112.88
256.124	111.88
256.357	109.88
256.59	101.88
256.823	117.88
257.056	103.88
257.289	101.88
257.521	95.88
257.754	104.88
257.987	99.88
258.22	98.88
258.452	90.88
258.685	106.88
258.918	104.88
259.151	110.88
259.383	109.88
259.616	103.88
259.849	112.88
260.081	120.88
260.314	120.88
260.547	115.88
260.779	120.88
261.012	95.88
261.244	106.88
261.477	111.88
261.71	114.88
261.942	126.88
262.175	122.88
262.407	101.88
262.64	100.88
262.872	126.88
263.105	103.88
263.337	111.88
263.57	122.88
263.802	119.88
264.035	102.88
264.267	114.88
264.499	118.88
264.732	118.88
264.964	105.88
265.197	105.88
265.429	113.88
265.661	119.88
265.894	111.88
266.126	130.88
266.358	109.88
266.591	114.88
266.823	104.88
267.055	95.88
267.287	111.88
267.52	103.88
267.752	109.88
267.984	114.88
268.216	123.88
268.448	131.88
268.681	113.88
268.913	118.88
269.145	119.88
269.377	128.88
269.609	117.88
269.841	133.88
270.073	125.88
270.306	117.88
270.538	114.88
270.77	125.88
271.002	114.88
271.234	112.88
271.466	125.88
271.698	122.88
271.93	112.88
272.162	137.88
272.394	132.88
272.626	123.88
272.858	115.88
273.09	123.88
273.322	126.88
273.553	127.88
273.785	128.88
274.017	116.88
274.249	129.88
274.481	120.88
274.713	116.88
274.945	119.88
275.176	121.88
275.408	135.88
275.64	139.88
275.872	133.88
276.104	120.88
276.335	119.88
276.567	138.88
276.799	126.88
277.031	130.88
277.262	126.88
277.494	123.88
277.726	118.88
277.957	127.88
278.189	121.88
278.421	126.88
278.652	118.88
278.884	121.88
279.115	142.88
279.347	131.88
279.579	118.88
279.81	124.88
280.042	117.88
280.273	125.88
280.505	130.88
280.736	127.88
280.968	131.88
281.199	123.88
281.431	123.88
281.662	128.88
281.894	120.88
282.125	128.88
282.356	121.88
282.588	120.88
282.819	126.88
283.051	127.88
283.282	133.88
283.513	118.88
283.745	122.88
283.976	123.88
284.207	129.88
284.439	141.88
284.67	134.88
284.901	137.88
285.132	131.88
285.364	135.88
285.595	135.88
285.826	114.88
286.057	135.88
286.288	125.88
286.52	127.88
286.751	123.88
286.982	127.88
287.213	119.88
287.444	130.88
287.675	133.88
287.906	126.88
288.138	128.88
288.369	120.88
288.6	130.88
288.831	138.88
289.062	137.88
289.293	120.88
289.524	136.88
289.755	147.88
289.986	127.88
290.217	147.88
290.448	134.88
290.679	156.88
290.91	136.88
291.141	150.88
291.371	122.88
291.602	134.88
291.833	139.88
292.064	121.88
292.295	136.88
292.526	144.88
292.757	131.88
292.987	126.88
293.218	123.88
293.449	144.88
293.68	145.88
293.91	129.88
294.141	133.88
294.372	128.88
294.603	121.88
294.833	138.88
295.064	142.88
295.295	136.88
295.525	138.88
295.756	145.88
295.987	150.88
296.217	154.88
296.448	148.88
296.679	147.88
296.909	139.88
297.14	151.88
297.37	140.88
297.601	146.88
297.831	143.88
298.062	142.88
298.292	146.88
298.523	137.88
298.753	145.88
298.984	134.88
299.214	143.88
299.445	155.88
299.675	145.88
299.905	148.88
300.136	130.88
300.366	142.88
300.597	143.88
300.827	154.88
301.057	125.88
301.288	143.88
301.518	139.88
301.748	165.88
301.979	139.88
302.209	143.88
302.439	143.88
302.669	150.88
302.9	147.88
303.13	140.88
303.36	138.88
303.59	133.88
303.82	148.88
304.051	136.88
304.281	152.88
304.511	143.88
304.741	153.88
304.971	161.88
305.201	159.88
305.431	143.88
305.661	155.88
305.891	143.88
306.121	140.88
306.352	151.88
306.582	149.88
306.812	121.88
307.042	142.88
307.272	141.88
307.502	148.88
307.731	143.88
307.961	147.88
308.191	125.88
308.421	147.88
308.651	149.88
308.881	130.88
309.111	155.88
309.341	153.88
309.571	160.88
309.8	162.88
310.03	152.88
310.26	152.88
310.49	146.88
310.72	142.88
310.949	158.88
311.179	147.88
311.409	155.88
311.639	139.88
311.868	153.88
312.098	148.88
312.328	149.88
312.557	143.88
312.787	169.88
313.017	147.88
313.246	151.88
313.476	156.88
313.706	153.88
313.935	151.88
314.165	153.88
314.394	149.88
314.624	149.88
314.853	140.88
315.083	149.88
315.312	152.88
315.542	152.88
315.771	143.88
316.001	169.88
316.23	147.88
316.46	153.88
316.689	155.88
316.919	177.88
317.148	155.88
317.377	171.88
317.607	155.88
317.836	135.88
318.065	146.88
318.295	145.88
318.524	156.88
318.753	138.88
318.983	158.88
319.212	141.88
319.441	153.88
319.67	147.88
319.9	136.88
320.129	139.88
320.358	144.88
320.587	159.88
320.816	165.88
321.046	148.88
321.275	157.88
321.504	147.88
321.733	152.88
321.962	156.88
322.191	158.88
322.42	147.88
322.649	160.88
322.878	149.88
323.108	148.88
323.337	143.88
323.566	158.88
323.795	155.88
324.024	158.88
324.253	160.88
324.482	147.88
324.71	164.88
324.939	145.88
325.168	157.88
325.397	174.88
325.626	170.88
325.855	160.88
326.084	154.88
326.313	173.88
326.542	158.88
326.77	152.88
326.999	177.88
327.228	159.88
327.457	157.88
327.686	166.88
327.914	153.88
328.143	163.88
328.372	143.88
328.6	150.88
328.829	161.88
329.058	160.88
329.287	148.88
329.515	174.88
329.744	161.88
329.972	158.88
330.201	152.88
330.43	159.88
330.658	166.88
330.887	178.88
331.115	164.88
331.344	175.88
331.572	173.88
331.801	170.88
332.03	175.88
332.258	165.88
332.486	149.88
332.715	183.88
332.943	188.88
333.172	169.88
333.4	178.88
333.629	199.88
333.857	179.88
334.085	194.88
334.314	188.88
334.542	178.88
334.771	179.88
334.999	192.88
335.227	192.88
335.455	186.88
335.684	187.88
335.912	196.88
336.14	179.88
336.369	193.88
336.597	184.88
336.825	182.88
337.053	198.88
337.281	173.88
337.51	173.88
337.738	168.88
337.966	164.88
338.194	177.88
338.422	177.88
338.65	184.88
338.878	195.88
339.106	191.88
339.334	186.88
339.562	162.88
339.79	152.88
340.018	144.88
340.246	170.88
340.474	156.88
340.702	181.88
340.93	148.88
341.158	168.88
341.386	154.88
341.614	159.88
341.842	156.88
342.07	169.88
342.298	166.88
342.526	156.88
342.754	152.88
342.981	170.88
343.209	179.88
343.437	179.88
343.665	177.88
343.893	196.88
344.12	177.88
344.348	178.88
344.576	182.88
344.804	177.88
345.031	181.88
345.259	178.88
345.487	197.88
345.714	157.88
345.942	161.88
346.17	169.88
346.397	183.88
346.625	170.88
346.853	159.88
347.08	153.88
347.308	173.88
347.535	160.88
347.763	169.88
347.99	167.88
348.218	148.88
348.445	165.88
348.673	147.88
348.9	169.88
349.128	177.88
349.355	161.88
349.583	166.88
349.81	167.88
350.037	156.88
350.265	155.88
350.492	174.88
350.72	160.88
350.947	161.88
351.174	171.88
351.402	160.88
351.629	174.88
351.856	167.88
352.083	154.88
352.311	167.88
352.538	167.88
352.765	159.88
352.992	170.88
353.22	175.88
353.447	172.88
353.674	159.88
353.901	166.88
354.128	165.88
354.355	162.88
354.583	156.88
354.81	173.88
355.037	170.88
355.264	158.88
355.491	177.88
355.718	157.88
355.945	177.88
356.172	181.88
356.399	154.88
356.626	169.88
356.853	163.88
357.08	179.88
357.307	171.88
357.534	159.88
357.761	159.88
357.988	164.88
358.215	165.88
358.441	173.88
358.668	173.88
358.895	164.88
359.122	165.88
359.349	179.88
359.576	163.88
359.802	161.88
360.029	182.88
360.256	164.88
360.483	172.88
360.709	166.88
360.936	184.88
361.163	169.88
361.39	166.88
361.616	163.88
361.843	179.88
362.07	158.88
362.296	177.88
362.523	159.88
362.749	165.88
362.976	169.88
363.203	157.88
363.429	157.88
363.656	166.88
363.882	164.88
364.109	157.88
364.335	152.88
364.562	155.88
364.788	169.88
365.015	174.88
365.241	157.88
365.468	149.88
365.694	169.88
365.92	168.88
366.147	158.88
366.373	162.88
366.599	149.88
366.826	167.88
367.052	171.88
367.278	184.88
367.505	156.88
367.731	161.88
367.957	159.88
368.184	173.88
368.41	176.88
368.636	176.88
368.862	173.88
369.089	180.88
369.315	170.88
369.541	173.88
369.767	189.88
369.993	178.88
370.219	159.88
370.445	173.88
370.672	179.88
370.898	160.88
371.124	175.88
371.35	170.88
371.576	184.88
371.802	164.88
372.028	179.88
372.254	193.88
372.48	185.88
372.706	177.88
372.932	194.88
373.158	189.88
373.384	179.88
373.61	192.88
373.835	177.88
374.061	167.88
374.287	186.88
374.513	195.88
374.739	187.88
374.965	198.88
375.191	209.88
375.416	191.88
375.642	186.88
375.868	192.88
376.094	173.88
376.319	185.88
376.545	199.88
376.771	187.88
376.997	188.88
377.222	193.88
377.448	191.88
377.674	182.88
377.899	186.88
378.125	174.88
378.35	169.88
378.576	181.88
378.802	175.88
379.027	178.88
379.253	181.88
379.478	179.88
379.704	171.88
379.929	189.88
380.155	177.88
380.38	182.88
380.606	180.88
380.831	177.88
381.057	191.88
381.282	184.88
381.507	207.88
381.733	187.88
381.958	177.88
382.184	193.88
382.409	185.88
382.634	198.88
382.86	191.88
383.085	210.88
383.31	207.88
383.535	222.88
383.761	205.88
383.986	215.88
384.211	200.88
384.436	206.88
384.662	200.88
384.887	196.88
385.112	212.88
385.337	209.88
385.562	210.88
385.787	225.88
386.013	216.88
386.238	217.88
386.463	213.88
386.688	212.88
386.913	201.88
387.138	204.88
387.363	224.88
387.588	221.88
387.813	217.88
388.038	219.88
388.263	220.88
388.488	200.88
388.713	211.88
388.938	224.88
389.163	208.88
389.387	214.88
389.612	222.88
389.837	227.88
390.062	210.88
390.287	221.88
390.512	215.88
390.736	214.88
390.961	199.88
391.186	229.88
391.411	213.88
391.636	233.88
391.86	240.88
392.085	232.88
392.31	242.88
392.534	234.88
392.759	230.88
392.984	219.88
393.208	231.88
393.433	247.88
393.658	215.88
393.882	217.88
394.107	222.88
394.331	228.88
394.556	239.88
394.78	224.88
395.005	227.88
395.229	234.88
395.454	239.88
395.678	246.88
395.903	238.88
396.127	230.88
396.352	242.88
396.576	229.88
396.801	220.88
397.025	223.88
397.249	233.88
397.474	255.88
397.698	254.88
397.922	247.88
398.147	241.88
398.371	239.88
398.595	266.88
398.82	256.88
399.044	270.88
399.268	293.88
399.492	317.88
399.717	343.88
399.941	329.88
400.165	304.88
400.389	281.88
400.613	285.88
400.837	285.88
401.062	276.88
401.286	276.88
401.51	265.88
401.734	272.88
401.958	276.88
402.182	276.88
402.406	277.88
402.63	265.88
402.854	279.88
403.078	286.88
403.302	274.88
403.526	297.88
403.75	281.88
403.974	284.88
404.198	263.88
404.422	286.88
404.645	281.88
404.869	291.88
405.093	295.88
405.317	304.88
405.541	268.88
405.765	291.88
405.988	287.88
406.212	303.88
406.436	287.88
406.66	297.88
406.883	301.88
407.107	305.88
407.331	305.88
407.555	312.88
407.778	342.88
408.002	311.88
408.226	314.88
408.449	302.88
408.673	291.88
408.896	297.88
409.12	280.88
409.344	277.88
409.567	298.88
409.791	284.88
410.014	301.88
410.238	273.88
410.461	317.88
410.685	293.88
410.908	288.88
411.132	274.88
411.355	282.88
411.578	292.88
411.802	273.88
412.025	286.88
412.249	258.88
412.472	268.88
412.695	285.88
412.919	278.88
413.142	277.88
413.365	285.88
413.589	275.88
413.812	283.88
414.035	274.88
414.258	274.88
414.482	296.88
414.705	291.88
414.928	272.88
415.151	284.88
415.374	287.88
415.597	287.88
415.821	274.88
416.044	264.88
416.267	258.88
416.49	267.88
416.713	266.88
416.936	275.88
417.159	265.88
417.382	274.88
417.605	270.88
417.828	274.88
418.051	280.88
418.274	273.88
418.497	269.88
418.72	273.88
418.943	304.88
419.166	287.88
419.389	293.88
419.611	301.88
419.834	282.88
420.057	280.88
420.28	278.88
420.503	267.88
420.726	261.88
420.948	295.88
421.171	286.88
421.394	273.88
421.617	277.88
421.839	254.88
422.062	276.88
422.285	261.88
422.507	274.88
422.73	285.88
422.953	286.88
423.175	273.88
423.398	289.88
423.621	289.88
423.843	299.88
424.066	303.88
424.288	268.88
424.511	295.88
424.733	259.88
424.956	287.88
425.178	266.88
425.401	291.88
425.623	285.88
425.846	264.88
426.068	277.88
426.291	251.88
426.513	275.88
426.735	270.88
426.958	259.88
427.18	262.88
427.402	277.88
427.625	276.88
427.847	265.88
428.069	264.88
428.292	259.88
428.514	270.88
428.736	269.88
428.958	274.88
429.181	261.88
429.403	275.88
429.625	263.88
429.847	249.88
430.069	230.88
430.292	267.88
430.514	262.88
430.736	252.88
430.958	238.88
431.18	243.88
431.402	245.88
431.624	250.88
431.846	269.88
432.068	259.88
432.29	256.88
432.512	269.88
432.734	260.88
432.956	279.88
433.178	280.88
433.4	264.88
433.622	276.88
433.844	280.88
434.066	264.88
434.287	274.88
434.509	284.88
434.731	285.88
434.953	273.88
435.175	282.88
435.397	283.88
435.618	274.88
435.84	262.88
436.062	256.88
436.284	253.88
436.505	254.88
436.727	266.88
436.949	271.88
437.17	273.88
437.392	264.88
437.614	254.88
437.835	265.88
438.057	257.88
438.278	231.88
438.5	265.88
438.721	257.88
438.943	261.88
439.165	251.88
439.386	270.88
439.608	259.88
439.829	264.88
440.05	265.88
440.272	272.88
440.493	265.88
440.715	273.88
440.936	286.88
441.158	273.88
441.379	277.88
441.6	305.88
441.822	287.88
442.043	306.88
442.264	289.88
442.486	291.88
442.707	303.88
442.928	285.88
443.149	302.88
443.371	303.88
443.592	302.88
443.813	286.88
444.034	296.88
444.255	319.88
444.476	292.88
444.698	328.88
444.919	320.88
445.14	449.88
445.361	361.88
445.582	306.88
445.803	285.88
446.024	282.88
446.245	285.88
446.466	279.88
446.687	289.88
446.908	283.88
447.129	294.88
447.35	286.88
447.571	255.88
447.792	271.88
448.013	277.88
448.234	267.88
448.455	269.88
448.675	265.88
448.896	253.88
449.117	251.88
449.338	266.88
449.559	255.88
449.779	250.88
450	255.88
450.221	259.88
450.442	256.88
450.662	267.88
450.883	261.88
451.104	256.88
451.324	237.88
451.545	248.88
451.766	256.88
451.986	230.88
452.207	257.88
452.428	263.88
452.648	254.88
452.869	237.88
453.089	258.88
453.31	258.88
453.53	240.88
453.751	242.88
453.971	243.88
454.192	237.88
454.412	243.88
454.633	248.88
454.853	242.88
455.073	253.88
455.294	230.88
455.514	241.88
455.734	245.88
455.955	240.88
456.175	246.88
456.395	230.88
456.616	235.88
456.836	240.88
457.056	245.88
457.276	230.88
457.497	271.88
457.717	256.88
457.937	241.88
458.157	226.88
458.377	237.88
458.598	251.88
458.818	257.88
459.038	250.88
459.258	239.88
459.478	246.88
459.698	255.88
459.918	268.88
460.138	301.88
460.358	287.88
460.578	285.88
460.798	295.88
461.018	303.88
461.238	286.88
461.458	306.88
461.678	295.88
461.898	305.88
462.118	303.88
462.338	330.88
462.558	330.88
462.777	318.88
462.997	350.88
463.217	344.88
463.437	361.88
463.657	345.88
463.876	319.88
464.096	343.88
464.316	318.88
464.536	324.88
464.755	334.88
464.975	311.88
465.195	288.88
465.414	296.88
465.634	268.88
465.854	278.88
466.073	265.88
466.293	279.88
466.512	264.88
466.732	261.88
466.951	285.88
467.171	257.88
467.391	260.88
467.61	282.88
467.829	264.88
468.049	262.88
468.268	268.88
468.488	272.88
468.707	264.88
468.927	274.88
469.146	261.88
469.365	268.88
469.585	258.88
469.804	256.88
470.023	259.88
470.243	279.88
470.462	279.88
470.681	262.88
470.901	291.88
471.12	258.88
471.339	277.88
471.558	229.88
471.777	261.88
471.997	262.88
472.216	257.88
472.435	256.88
472.654	245.88
472.873	247.88
473.092	248.88
473.311	277.88
473.53	245.88
473.749	255.88
473.968	268.88
474.187	261.88
474.406	248.88
474.625	266.88
474.844	261.88
475.063	253.88
475.282	230.88
475.501	239.88
475.72	263.88
475.939	262.88
476.158	252.88
476.377	264.88
476.596	270.88
476.814	287.88
477.033	260.88
477.252	262.88
477.471	282.88
477.69	285.88
477.908	275.88
478.127	284.88
478.346	275.88
478.564	299.88
478.783	292.88
479.002	291.88
479.22	298.88
479.439	288.88
479.658	296.88
479.876	290.88
480.095	305.88
480.313	304.88
480.532	306.88
480.751	300.88
480.969	280.88
481.188	278.88
481.406	270.88
481.624	258.88
481.843	272.88
482.061	272.88
482.28	288.88
482.498	272.88
482.717	265.88
482.935	274.88
483.153	272.88
483.372	288.88
483.59	278.88
483.808	283.88
484.027	285.88
484.245	293.88
484.463	290.88
484.681	294.88
484.9	288.88
485.118	292.88
485.336	261.88
485.554	278.88
485.772	277.88
485.99	271.88
486.209	293.88
486.427	278.88
486.645	281.88
486.863	288.88
487.081	303.88
487.299	294.88
487.517	303.88
487.735	304.88
487.953	296.88
488.171	300.88
488.389	291.88
488.607	287.88
488.825	281.88
489.043	271.88
489.261	283.88
489.479	282.88
489.696	288.88
489.914	298.88
490.132	283.88
490.35	299.88
490.568	287.88
490.786	279.88
491.003	307.88
491.221	280.88
491.439	296.88
491.657	309.88
491.874	309.88
492.092	317.88
492.31	311.88
492.527	323.88
492.745	309.88
492.963	309.88
493.18	311.88
493.398	315.88
493.615	300.88
493.833	298.88
494.05	307.88
494.268	305.88
494.485	329.88
494.703	310.88
494.92	310.88
495.138	319.88
495.355	293.88
495.573	317.88
495.79	301.88
496.008	315.88
496.225	313.88
496.442	320.88
496.66	322.88
496.877	311.88
497.094	323.88
497.312	324.88
497.529	343.88
497.746	339.88
497.963	346.88
498.181	371.88
498.398	347.88
498.615	381.88
498.832	375.88
499.049	412.88
499.267	434.88
499.484	466.88
499.701	517.88
499.918	559.88
500.135	573.88
500.352	643.88
500.569	682.88
500.786	656.88
501.003	605.88
501.22	586.88
501.437	539.88
501.654	473.88
501.871	453.88
502.088	409.88
502.305	409.88
502.522	379.88
502.739	377.88
502.956	377.88
