Data from Fe(NO3)3@0.0125M.TitratingCurve.Agarose3%dH2O.NegLispCup.LampEnergy10.LIBS07252019_HRD10591_16-59-41-336.txt Node
Date: Thu Jul 25 16:59:41 EDT 2019
User: cochatt
Spectrometer: HR+D1059
Trigger mode: 1
Integration Time (sec): 1.000000E-1
Scans to average: 1
Electric dark correction enabled: true
Nonlinearity correction enabled: false
Boxcar width: 0
XAxis mode: Wavelengths
Number of Pixels in Spectrum: 2048
>>>>>Begin Spectral Data<<<<<
223.165	-5.62
223.4	-5.62
223.635	-5.62
223.869	-15.62
224.104	-31.62
224.338	-11.62
224.573	-16.62
224.808	-14.62
225.042	-9.62
225.277	-7.62
225.511	6.38
225.746	7.38
225.98	17.38
226.215	7.38
226.449	14.38
226.683	18.38
226.918	18.38
227.152	23.38
227.387	36.38
227.621	36.38
227.856	41.38
228.09	56.38
228.324	62.38
228.559	58.38
228.793	69.38
229.027	73.38
229.262	81.38
229.496	80.38
229.73	64.38
229.964	89.38
230.199	82.38
230.433	79.38
230.667	86.38
230.901	97.38
231.136	103.38
231.37	95.38
231.604	105.38
231.838	84.38
232.072	96.38
232.306	102.38
232.541	106.38
232.775	105.38
233.009	102.38
233.243	116.38
233.477	112.38
233.711	102.38
233.945	106.38
234.179	109.38
234.413	97.38
234.647	92.38
234.881	99.38
235.115	101.38
235.349	90.38
235.583	102.38
235.817	97.38
236.051	113.38
236.285	96.38
236.519	98.38
236.753	117.38
236.987	111.38
237.221	104.38
237.455	114.38
237.689	104.38
237.922	105.38
238.156	109.38
238.39	100.38
238.624	108.38
238.858	119.38
239.091	93.38
239.325	111.38
239.559	104.38
239.793	95.38
240.027	105.38
240.26	93.38
240.494	104.38
240.728	105.38
240.961	110.38
241.195	112.38
241.429	103.38
241.662	103.38
241.896	109.38
242.13	109.38
242.363	101.38
242.597	110.38
242.83	113.38
243.064	109.38
243.298	92.38
243.531	102.38
243.765	119.38
243.998	114.38
244.232	114.38
244.465	116.38
244.699	101.38
244.932	100.38
245.166	120.38
245.399	115.38
245.633	114.38
245.866	106.38
246.099	108.38
246.333	118.38
246.566	124.38
246.8	99.38
247.033	119.38
247.266	112.38
247.5	113.38
247.733	126.38
247.966	116.38
248.2	117.38
248.433	118.38
248.666	131.38
248.899	120.38
249.133	122.38
249.366	127.38
249.599	110.38
249.832	121.38
250.066	124.38
250.299	121.38
250.532	139.38
250.765	118.38
250.998	119.38
251.231	130.38
251.465	139.38
251.698	121.38
251.931	135.38
252.164	140.38
252.397	130.38
252.63	128.38
252.863	128.38
253.096	125.38
253.329	125.38
253.562	131.38
253.795	144.38
254.028	143.38
254.261	137.38
254.494	132.38
254.727	144.38
254.96	143.38
255.193	134.38
255.426	147.38
255.659	131.38
255.892	139.38
256.124	134.38
256.357	128.38
256.59	136.38
256.823	136.38
257.056	140.38
257.289	140.38
257.521	144.38
257.754	150.38
257.987	145.38
258.22	143.38
258.452	156.38
258.685	126.38
258.918	146.38
259.151	152.38
259.383	156.38
259.616	167.38
259.849	147.38
260.081	154.38
260.314	154.38
260.547	153.38
260.779	149.38
261.012	158.38
261.244	160.38
261.477	156.38
261.71	177.38
261.942	143.38
262.175	149.38
262.407	146.38
262.64	153.38
262.872	153.38
263.105	157.38
263.337	180.38
263.57	167.38
263.802	156.38
264.035	162.38
264.267	160.38
264.499	146.38
264.732	162.38
264.964	165.38
265.197	158.38
265.429	140.38
265.661	166.38
265.894	162.38
266.126	175.38
266.358	154.38
266.591	146.38
266.823	158.38
267.055	163.38
267.287	158.38
267.52	165.38
267.752	168.38
267.984	184.38
268.216	160.38
268.448	171.38
268.681	161.38
268.913	174.38
269.145	163.38
269.377	173.38
269.609	169.38
269.841	172.38
270.073	171.38
270.306	173.38
270.538	167.38
270.77	169.38
271.002	165.38
271.234	191.38
271.466	173.38
271.698	180.38
271.93	191.38
272.162	180.38
272.394	194.38
272.626	171.38
272.858	184.38
273.09	181.38
273.322	193.38
273.553	176.38
273.785	213.38
274.017	196.38
274.249	201.38
274.481	212.38
274.713	216.38
274.945	205.38
275.176	196.38
275.408	197.38
275.64	204.38
275.872	192.38
276.104	203.38
276.335	210.38
276.567	212.38
276.799	209.38
277.031	215.38
277.262	201.38
277.494	205.38
277.726	209.38
277.957	220.38
278.189	215.38
278.421	196.38
278.652	192.38
278.884	193.38
279.115	202.38
279.347	211.38
279.579	222.38
279.81	193.38
280.042	223.38
280.273	199.38
280.505	212.38
280.736	218.38
280.968	231.38
281.199	218.38
281.431	201.38
281.662	204.38
281.894	232.38
282.125	226.38
282.356	231.38
282.588	221.38
282.819	202.38
283.051	241.38
283.282	245.38
283.513	232.38
283.745	216.38
283.976	234.38
284.207	237.38
284.439	239.38
284.67	238.38
284.901	234.38
285.132	232.38
285.364	239.38
285.595	247.38
285.826	248.38
286.057	258.38
286.288	251.38
286.52	249.38
286.751	240.38
286.982	251.38
287.213	246.38
287.444	240.38
287.675	248.38
287.906	243.38
288.138	253.38
288.369	257.38
288.6	247.38
288.831	246.38
289.062	259.38
289.293	253.38
289.524	269.38
289.755	273.38
289.986	285.38
290.217	264.38
290.448	266.38
290.679	259.38
290.91	260.38
291.141	262.38
291.371	271.38
291.602	272.38
291.833	257.38
292.064	290.38
292.295	279.38
292.526	268.38
292.757	274.38
292.987	273.38
293.218	280.38
293.449	268.38
293.68	270.38
293.91	272.38
294.141	277.38
294.372	274.38
294.603	272.38
294.833	272.38
295.064	285.38
295.295	280.38
295.525	263.38
295.756	280.38
295.987	290.38
296.217	290.38
296.448	281.38
296.679	283.38
296.909	287.38
297.14	293.38
297.37	290.38
297.601	287.38
297.831	293.38
298.062	292.38
298.292	294.38
298.523	310.38
298.753	306.38
298.984	284.38
299.214	296.38
299.445	296.38
299.675	292.38
299.905	321.38
300.136	286.38
300.366	305.38
300.597	298.38
300.827	305.38
301.057	299.38
301.288	347.38
301.518	321.38
301.748	303.38
301.979	330.38
302.209	331.38
302.439	310.38
302.669	314.38
302.9	312.38
303.13	323.38
303.36	322.38
303.59	341.38
303.82	324.38
304.051	343.38
304.281	332.38
304.511	338.38
304.741	329.38
304.971	332.38
305.201	329.38
305.431	324.38
305.661	335.38
305.891	335.38
306.121	322.38
306.352	337.38
306.582	317.38
306.812	322.38
307.042	334.38
307.272	343.38
307.502	349.38
307.731	352.38
307.961	346.38
308.191	343.38
308.421	336.38
308.651	342.38
308.881	346.38
309.111	350.38
309.341	336.38
309.571	330.38
309.8	334.38
310.03	329.38
310.26	343.38
310.49	343.38
310.72	326.38
310.949	363.38
311.179	354.38
311.409	372.38
311.639	361.38
311.868	355.38
312.098	354.38
312.328	368.38
312.557	374.38
312.787	358.38
313.017	350.38
313.246	350.38
313.476	374.38
313.706	358.38
313.935	378.38
314.165	381.38
314.394	394.38
314.624	400.38
314.853	375.38
315.083	371.38
315.312	385.38
315.542	390.38
315.771	376.38
316.001	384.38
316.23	384.38
316.46	384.38
316.689	389.38
316.919	398.38
317.148	400.38
317.377	396.38
317.607	378.38
317.836	403.38
318.065	394.38
318.295	422.38
318.524	401.38
318.753	413.38
318.983	388.38
319.212	398.38
319.441	403.38
319.67	389.38
319.9	397.38
320.129	405.38
320.358	408.38
320.587	400.38
320.816	409.38
321.046	410.38
321.275	424.38
321.504	413.38
321.733	397.38
321.962	405.38
322.191	424.38
322.42	397.38
322.649	411.38
322.878	393.38
323.108	415.38
323.337	423.38
323.566	422.38
323.795	424.38
324.024	416.38
324.253	409.38
324.482	416.38
324.71	427.38
324.939	450.38
325.168	430.38
325.397	428.38
325.626	431.38
325.855	436.38
326.084	438.38
326.313	455.38
326.542	440.38
326.77	467.38
326.999	445.38
327.228	450.38
327.457	440.38
327.686	454.38
327.914	429.38
328.143	448.38
328.372	431.38
328.6	442.38
328.829	440.38
329.058	418.38
329.287	448.38
329.515	459.38
329.744	452.38
329.972	443.38
330.201	433.38
330.43	441.38
330.658	439.38
330.887	439.38
331.115	439.38
331.344	447.38
331.572	455.38
331.801	441.38
332.03	477.38
332.258	463.38
332.486	467.38
332.715	434.38
332.943	450.38
333.172	454.38
333.4	463.38
333.629	485.38
333.857	476.38
334.085	491.38
334.314	477.38
334.542	473.38
334.771	493.38
334.999	481.38
335.227	476.38
335.455	474.38
335.684	454.38
335.912	465.38
336.14	484.38
336.369	494.38
336.597	499.38
336.825	482.38
337.053	481.38
337.281	484.38
337.51	476.38
337.738	479.38
337.966	474.38
338.194	466.38
338.422	452.38
338.65	506.38
338.878	498.38
339.106	494.38
339.334	490.38
339.562	463.38
339.79	457.38
340.018	478.38
340.246	468.38
340.474	466.38
340.702	497.38
340.93	494.38
341.158	476.38
341.386	473.38
341.614	453.38
341.842	471.38
342.07	488.38
342.298	473.38
342.526	473.38
342.754	476.38
342.981	481.38
343.209	490.38
343.437	500.38
343.665	480.38
343.893	471.38
344.12	489.38
344.348	509.38
344.576	495.38
344.804	504.38
345.031	470.38
345.259	494.38
345.487	489.38
345.714	463.38
345.942	475.38
346.17	488.38
346.397	485.38
346.625	439.38
346.853	472.38
347.08	465.38
347.308	469.38
347.535	470.38
347.763	484.38
347.99	470.38
348.218	464.38
348.445	463.38
348.673	462.38
348.9	501.38
349.128	504.38
349.355	471.38
349.583	474.38
349.81	468.38
350.037	453.38
350.265	457.38
350.492	457.38
350.72	462.38
350.947	484.38
351.174	521.38
351.402	458.38
351.629	474.38
351.856	464.38
352.083	471.38
352.311	492.38
352.538	489.38
352.765	498.38
352.992	497.38
353.22	461.38
353.447	470.38
353.674	471.38
353.901	474.38
354.128	495.38
354.355	481.38
354.583	497.38
354.81	475.38
355.037	495.38
355.264	455.38
355.491	499.38
355.718	480.38
355.945	489.38
356.172	483.38
356.399	504.38
356.626	475.38
356.853	491.38
357.08	474.38
357.307	482.38
357.534	497.38
357.761	480.38
357.988	510.38
358.215	489.38
358.441	484.38
358.668	498.38
358.895	477.38
359.122	506.38
359.349	503.38
359.576	481.38
359.802	489.38
360.029	462.38
360.256	482.38
360.483	476.38
360.709	485.38
360.936	496.38
361.163	480.38
361.39	505.38
361.616	476.38
361.843	486.38
362.07	489.38
362.296	476.38
362.523	506.38
362.749	489.38
362.976	487.38
363.203	511.38
363.429	491.38
363.656	512.38
363.882	478.38
364.109	510.38
364.335	471.38
364.562	502.38
364.788	516.38
365.015	512.38
365.241	504.38
365.468	497.38
365.694	510.38
365.92	506.38
366.147	512.38
366.373	494.38
366.599	501.38
366.826	490.38
367.052	494.38
367.278	503.38
367.505	528.38
367.731	504.38
367.957	503.38
368.184	528.38
368.41	531.38
368.636	532.38
368.862	511.38
369.089	513.38
369.315	535.38
369.541	526.38
369.767	529.38
369.993	543.38
370.219	536.38
370.445	541.38
370.672	541.38
370.898	530.38
371.124	516.38
371.35	506.38
371.576	551.38
371.802	505.38
372.028	548.38
372.254	534.38
372.48	516.38
372.706	538.38
372.932	548.38
373.158	527.38
373.384	553.38
373.61	560.38
373.835	538.38
374.061	512.38
374.287	548.38
374.513	539.38
374.739	538.38
374.965	545.38
375.191	530.38
375.416	542.38
375.642	530.38
375.868	545.38
376.094	551.38
376.319	557.38
376.545	550.38
376.771	549.38
376.997	550.38
377.222	525.38
377.448	522.38
377.674	537.38
377.899	541.38
378.125	559.38
378.35	546.38
378.576	535.38
378.802	543.38
379.027	537.38
379.253	518.38
379.478	541.38
379.704	526.38
379.929	538.38
380.155	541.38
380.38	545.38
380.606	542.38
380.831	528.38
381.057	531.38
381.282	553.38
381.507	535.38
381.733	545.38
381.958	554.38
382.184	535.38
382.409	527.38
382.634	555.38
382.86	540.38
383.085	566.38
383.31	544.38
383.535	549.38
383.761	558.38
383.986	555.38
384.211	558.38
384.436	584.38
384.662	562.38
384.887	545.38
385.112	570.38
385.337	560.38
385.562	571.38
385.787	551.38
386.013	554.38
386.238	557.38
386.463	608.38
386.688	573.38
386.913	599.38
387.138	567.38
387.363	598.38
387.588	579.38
387.813	592.38
388.038	589.38
388.263	581.38
388.488	580.38
388.713	587.38
388.938	589.38
389.163	574.38
389.387	591.38
389.612	596.38
389.837	598.38
390.062	572.38
390.287	579.38
390.512	578.38
390.736	603.38
390.961	586.38
391.186	586.38
391.411	578.38
391.636	592.38
391.86	583.38
392.085	597.38
392.31	606.38
392.534	613.38
392.759	594.38
392.984	607.38
393.208	595.38
393.433	602.38
393.658	583.38
393.882	605.38
394.107	597.38
394.331	603.38
394.556	575.38
394.78	621.38
395.005	594.38
395.229	588.38
395.454	605.38
395.678	579.38
395.903	608.38
396.127	597.38
396.352	610.38
396.576	608.38
396.801	630.38
397.025	621.38
397.249	599.38
397.474	619.38
397.698	628.38
397.922	612.38
398.147	604.38
398.371	631.38
398.595	618.38
398.82	626.38
399.044	639.38
399.268	621.38
399.492	666.38
399.717	676.38
399.941	686.38
400.165	666.38
400.389	657.38
400.613	651.38
400.837	648.38
401.062	662.38
401.286	660.38
401.51	645.38
401.734	630.38
401.958	644.38
402.182	642.38
402.406	640.38
402.63	633.38
402.854	639.38
403.078	635.38
403.302	653.38
403.526	663.38
403.75	666.38
403.974	656.38
404.198	642.38
404.422	664.38
404.645	666.38
404.869	636.38
405.093	650.38
405.317	665.38
405.541	631.38
405.765	654.38
405.988	642.38
406.212	680.38
406.436	680.38
406.66	669.38
406.883	663.38
407.107	687.38
407.331	685.38
407.555	656.38
407.778	683.38
408.002	673.38
408.226	678.38
408.449	688.38
408.673	680.38
408.896	687.38
409.12	654.38
409.344	696.38
409.567	665.38
409.791	706.38
410.014	685.38
410.238	676.38
410.461	657.38
410.685	662.38
410.908	660.38
411.132	662.38
411.355	639.38
411.578	653.38
411.802	648.38
412.025	629.38
412.249	638.38
412.472	664.38
412.695	648.38
412.919	682.38
413.142	661.38
413.365	644.38
413.589	634.38
413.812	642.38
414.035	653.38
414.258	648.38
414.482	651.38
414.705	650.38
414.928	654.38
415.151	645.38
415.374	645.38
415.597	625.38
415.821	623.38
416.044	637.38
416.267	634.38
416.49	615.38
416.713	638.38
416.936	658.38
417.159	615.38
417.382	622.38
417.605	605.38
417.828	617.38
418.051	604.38
418.274	632.38
418.497	617.38
418.72	638.38
418.943	594.38
419.166	650.38
419.389	667.38
419.611	664.38
419.834	655.38
420.057	636.38
420.28	639.38
420.503	632.38
420.726	621.38
420.948	618.38
421.171	622.38
421.394	608.38
421.617	609.38
421.839	622.38
422.062	636.38
422.285	604.38
422.507	630.38
422.73	605.38
422.953	603.38
423.175	614.38
423.398	614.38
423.621	624.38
423.843	609.38
424.066	605.38
424.288	625.38
424.511	626.38
424.733	614.38
424.956	593.38
425.178	625.38
425.401	620.38
425.623	631.38
425.846	605.38
426.068	633.38
426.291	605.38
426.513	607.38
426.735	624.38
426.958	624.38
427.18	597.38
427.402	648.38
427.625	619.38
427.847	616.38
428.069	613.38
428.292	605.38
428.514	615.38
428.736	613.38
428.958	626.38
429.181	642.38
429.403	602.38
429.625	630.38
429.847	610.38
430.069	611.38
430.292	633.38
430.514	609.38
430.736	625.38
430.958	604.38
431.18	619.38
431.402	636.38
431.624	600.38
431.846	607.38
432.068	623.38
432.29	620.38
432.512	593.38
432.734	620.38
432.956	615.38
433.178	621.38
433.4	613.38
433.622	623.38
433.844	608.38
434.066	634.38
434.287	604.38
434.509	620.38
434.731	639.38
434.953	638.38
435.175	619.38
435.397	608.38
435.618	612.38
435.84	620.38
436.062	606.38
436.284	638.38
436.505	621.38
436.727	640.38
436.949	614.38
437.17	607.38
437.392	631.38
437.614	601.38
437.835	599.38
438.057	613.38
438.278	613.38
438.5	614.38
438.721	585.38
438.943	619.38
439.165	603.38
439.386	619.38
439.608	601.38
439.829	618.38
440.05	625.38
440.272	620.38
440.493	629.38
440.715	600.38
440.936	603.38
441.158	621.38
441.379	620.38
441.6	622.38
441.822	621.38
442.043	631.38
442.264	624.38
442.486	620.38
442.707	614.38
442.928	636.38
443.149	580.38
443.371	585.38
443.592	603.38
443.813	624.38
444.034	608.38
444.255	595.38
444.476	612.38
444.698	620.38
444.919	633.38
445.14	708.38
445.361	683.38
445.582	615.38
445.803	620.38
446.024	617.38
446.245	631.38
446.466	608.38
446.687	606.38
446.908	629.38
447.129	584.38
447.35	590.38
447.571	612.38
447.792	598.38
448.013	581.38
448.234	606.38
448.455	588.38
448.675	574.38
448.896	616.38
449.117	588.38
449.338	585.38
449.559	577.38
449.779	575.38
450	571.38
450.221	555.38
450.442	605.38
450.662	598.38
450.883	572.38
451.104	577.38
451.324	553.38
451.545	567.38
451.766	571.38
451.986	574.38
452.207	577.38
452.428	560.38
452.648	588.38
452.869	557.38
453.089	554.38
453.31	568.38
453.53	590.38
453.751	559.38
453.971	570.38
454.192	562.38
454.412	558.38
454.633	572.38
454.853	562.38
455.073	578.38
455.294	561.38
455.514	576.38
455.734	565.38
455.955	579.38
456.175	576.38
456.395	576.38
456.616	574.38
456.836	584.38
457.056	597.38
457.276	579.38
457.497	575.38
457.717	578.38
457.937	572.38
458.157	582.38
458.377	580.38
458.598	587.38
458.818	572.38
459.038	605.38
459.258	580.38
459.478	594.38
459.698	602.38
459.918	597.38
460.138	590.38
460.358	614.38
460.578	609.38
460.798	622.38
461.018	647.38
461.238	596.38
461.458	582.38
461.678	624.38
461.898	641.38
462.118	621.38
462.338	630.38
462.558	630.38
462.777	637.38
462.997	652.38
463.217	660.38
463.437	637.38
463.657	653.38
463.876	662.38
464.096	669.38
464.316	646.38
464.536	655.38
464.755	655.38
464.975	645.38
465.195	630.38
465.414	621.38
465.634	621.38
465.854	633.38
466.073	630.38
466.293	617.38
466.512	644.38
466.732	621.38
466.951	644.38
467.171	632.38
467.391	605.38
467.61	602.38
467.829	625.38
468.049	608.38
468.268	614.38
468.488	599.38
468.707	617.38
468.927	593.38
469.146	618.38
469.365	628.38
469.585	626.38
469.804	616.38
470.023	623.38
470.243	618.38
470.462	610.38
470.681	623.38
470.901	657.38
471.12	640.38
471.339	623.38
471.558	598.38
471.777	661.38
471.997	644.38
472.216	652.38
472.435	642.38
472.654	614.38
472.873	640.38
473.092	658.38
473.311	653.38
473.53	639.38
473.749	656.38
473.968	653.38
474.187	631.38
474.406	638.38
474.625	641.38
474.844	658.38
475.063	676.38
475.282	677.38
475.501	665.38
475.72	664.38
475.939	680.38
476.158	669.38
476.377	685.38
476.596	673.38
476.814	687.38
477.033	688.38
477.252	670.38
477.471	687.38
477.69	699.38
477.908	704.38
478.127	714.38
478.346	704.38
478.564	696.38
478.783	704.38
479.002	717.38
479.22	721.38
479.439	732.38
479.658	744.38
479.876	732.38
480.095	736.38
480.313	760.38
480.532	734.38
480.751	729.38
480.969	737.38
481.188	777.38
481.406	769.38
481.624	740.38
481.843	724.38
482.061	771.38
482.28	761.38
482.498	749.38
482.717	764.38
482.935	744.38
483.153	771.38
483.372	768.38
483.59	788.38
483.808	754.38
484.027	786.38
484.245	752.38
484.463	762.38
484.681	790.38
484.9	775.38
485.118	791.38
485.336	792.38
485.554	783.38
485.772	795.38
485.99	790.38
486.209	776.38
486.427	768.38
486.645	768.38
486.863	827.38
487.081	785.38
487.299	777.38
487.517	798.38
487.735	790.38
487.953	776.38
488.171	821.38
488.389	822.38
488.607	818.38
488.825	808.38
489.043	804.38
489.261	786.38
489.479	796.38
489.696	778.38
489.914	803.38
490.132	816.38
490.35	787.38
490.568	805.38
490.786	831.38
491.003	804.38
491.221	812.38
491.439	821.38
491.657	809.38
491.874	817.38
492.092	815.38
492.31	821.38
492.527	846.38
492.745	817.38
492.963	833.38
493.18	851.38
493.398	844.38
493.615	822.38
493.833	826.38
494.05	824.38
494.268	844.38
494.485	813.38
494.703	842.38
494.92	836.38
495.138	834.38
495.355	834.38
495.573	829.38
495.79	847.38
496.008	848.38
496.225	864.38
496.442	825.38
496.66	849.38
496.877	865.38
497.094	892.38
497.312	850.38
497.529	896.38
497.746	893.38
497.963	865.38
498.181	902.38
498.398	894.38
498.615	909.38
498.832	893.38
499.049	938.38
499.267	928.38
499.484	934.38
499.701	977.38
499.918	985.38
500.135	981.38
500.352	1002.38
500.569	1018.38
500.786	1003.38
501.003	985.38
501.22	970.38
501.437	974.38
501.654	932.38
501.871	920.38
