Data from Fe(NO3)3@0.05M.TitratingCurve.Agarose3%dH2O.NegLispCup.LampEnergy10.LIBS07252019_HRD10591_16-46-52-334.txt Node
Date: Thu Jul 25 16:46:52 EDT 2019
User: cochatt
Spectrometer: HR+D1059
Trigger mode: 1
Integration Time (sec): 1.000000E-1
Scans to average: 1
Electric dark correction enabled: true
Nonlinearity correction enabled: false
Boxcar width: 0
XAxis mode: Wavelengths
Number of Pixels in Spectrum: 2048
>>>>>Begin Spectral Data<<<<<
223.165	-14.81
223.4	-14.81
223.635	-14.81
223.869	-7.81
224.104	-20.81
224.338	-21.81
224.573	-19.81
224.808	-9.81
225.042	-14.81
225.277	-6.81
225.511	1.19
225.746	2.19
225.98	12.19
226.215	15.19
226.449	11.19
226.683	23.19
226.918	23.19
227.152	28.19
227.387	39.19
227.621	37.19
227.856	51.19
228.09	61.19
228.324	41.19
228.559	67.19
228.793	81.19
229.027	108.19
229.262	123.19
229.496	135.19
229.73	129.19
229.964	118.19
230.199	139.19
230.433	135.19
230.667	144.19
230.901	151.19
231.136	149.19
231.37	151.19
231.604	147.19
231.838	153.19
232.072	158.19
232.306	161.19
232.541	147.19
232.775	166.19
233.009	160.19
233.243	175.19
233.477	170.19
233.711	157.19
233.945	175.19
234.179	163.19
234.413	167.19
234.647	184.19
234.881	185.19
235.115	188.19
235.349	190.19
235.583	170.19
235.817	169.19
236.051	178.19
236.285	178.19
236.519	191.19
236.753	199.19
236.987	176.19
237.221	200.19
237.455	198.19
237.689	189.19
237.922	195.19
238.156	193.19
238.39	191.19
238.624	217.19
238.858	215.19
239.091	189.19
239.325	218.19
239.559	219.19
239.793	217.19
240.027	228.19
240.26	217.19
240.494	215.19
240.728	245.19
240.961	245.19
241.195	222.19
241.429	221.19
241.662	235.19
241.896	224.19
242.13	221.19
242.363	212.19
242.597	219.19
242.83	227.19
243.064	228.19
243.298	238.19
243.531	239.19
243.765	244.19
243.998	251.19
244.232	231.19
244.465	240.19
244.699	221.19
244.932	254.19
245.166	247.19
245.399	272.19
245.633	267.19
245.866	260.19
246.099	244.19
246.333	261.19
246.566	269.19
246.8	247.19
247.033	266.19
247.266	257.19
247.5	253.19
247.733	266.19
247.966	259.19
248.2	286.19
248.433	295.19
248.666	287.19
248.899	299.19
249.133	281.19
249.366	309.19
249.599	312.19
249.832	317.19
250.066	309.19
250.299	299.19
250.532	318.19
250.765	288.19
250.998	301.19
251.231	298.19
251.465	310.19
251.698	309.19
251.931	299.19
252.164	303.19
252.397	331.19
252.63	334.19
252.863	345.19
253.096	343.19
253.329	328.19
253.562	323.19
253.795	373.19
254.028	356.19
254.261	364.19
254.494	347.19
254.727	335.19
254.96	332.19
255.193	340.19
255.426	359.19
255.659	326.19
255.892	323.19
256.124	349.19
256.357	352.19
256.59	360.19
256.823	350.19
257.056	369.19
257.289	349.19
257.521	340.19
257.754	361.19
257.987	351.19
258.22	344.19
258.452	351.19
258.685	367.19
258.918	391.19
259.151	393.19
259.383	378.19
259.616	387.19
259.849	411.19
260.081	451.19
260.314	483.19
260.547	414.19
260.779	386.19
261.012	428.19
261.244	413.19
261.477	447.19
261.71	443.19
261.942	382.19
262.175	380.19
262.407	390.19
262.64	383.19
262.872	436.19
263.105	437.19
263.337	468.19
263.57	443.19
263.802	425.19
264.035	387.19
264.267	388.19
264.499	385.19
264.732	386.19
264.964	387.19
265.197	395.19
265.429	405.19
265.661	368.19
265.894	383.19
266.126	407.19
266.358	390.19
266.591	393.19
266.823	424.19
267.055	415.19
267.287	409.19
267.52	414.19
267.752	405.19
267.984	414.19
268.216	426.19
268.448	426.19
268.681	431.19
268.913	414.19
269.145	417.19
269.377	436.19
269.609	446.19
269.841	450.19
270.073	427.19
270.306	439.19
270.538	439.19
270.77	448.19
271.002	463.19
271.234	453.19
271.466	456.19
271.698	449.19
271.93	476.19
272.162	465.19
272.394	485.19
272.626	467.19
272.858	479.19
273.09	475.19
273.322	460.19
273.553	486.19
273.785	492.19
274.017	519.19
274.249	556.19
274.481	565.19
274.713	597.19
274.945	648.19
275.176	644.19
275.408	600.19
275.64	573.19
275.872	562.19
276.104	544.19
276.335	516.19
276.567	515.19
276.799	495.19
277.031	507.19
277.262	521.19
277.494	528.19
277.726	491.19
277.957	512.19
278.189	526.19
278.421	525.19
278.652	510.19
278.884	506.19
279.115	513.19
279.347	520.19
279.579	511.19
279.81	495.19
280.042	517.19
280.273	526.19
280.505	524.19
280.736	523.19
280.968	538.19
281.199	517.19
281.431	509.19
281.662	552.19
281.894	544.19
282.125	524.19
282.356	545.19
282.588	527.19
282.819	520.19
283.051	542.19
283.282	539.19
283.513	551.19
283.745	531.19
283.976	566.19
284.207	549.19
284.439	541.19
284.67	579.19
284.901	565.19
285.132	572.19
285.364	562.19
285.595	585.19
285.826	581.19
286.057	588.19
286.288	569.19
286.52	585.19
286.751	577.19
286.982	586.19
287.213	567.19
287.444	584.19
287.675	589.19
287.906	590.19
288.138	581.19
288.369	601.19
288.6	616.19
288.831	577.19
289.062	588.19
289.293	607.19
289.524	593.19
289.755	579.19
289.986	604.19
290.217	571.19
290.448	577.19
290.679	589.19
290.91	589.19
291.141	589.19
291.371	587.19
291.602	599.19
291.833	594.19
292.064	611.19
292.295	588.19
292.526	611.19
292.757	595.19
292.987	582.19
293.218	595.19
293.449	593.19
293.68	620.19
293.91	607.19
294.141	616.19
294.372	591.19
294.603	609.19
294.833	603.19
295.064	616.19
295.295	616.19
295.525	638.19
295.756	591.19
295.987	617.19
296.217	635.19
296.448	614.19
296.679	649.19
296.909	652.19
297.14	616.19
297.37	635.19
297.601	643.19
297.831	621.19
298.062	644.19
298.292	636.19
298.523	654.19
298.753	656.19
298.984	648.19
299.214	647.19
299.445	664.19
299.675	659.19
299.905	667.19
300.136	648.19
300.366	651.19
300.597	670.19
300.827	668.19
301.057	642.19
301.288	658.19
301.518	640.19
301.748	670.19
301.979	688.19
302.209	695.19
302.439	681.19
302.669	668.19
302.9	696.19
303.13	672.19
303.36	709.19
303.59	688.19
303.82	689.19
304.051	693.19
304.281	673.19
304.511	673.19
304.741	680.19
304.971	688.19
305.201	697.19
305.431	679.19
305.661	689.19
305.891	681.19
306.121	694.19
306.352	683.19
306.582	695.19
306.812	680.19
307.042	668.19
307.272	678.19
307.502	691.19
307.731	715.19
307.961	671.19
308.191	677.19
308.421	704.19
308.651	675.19
308.881	685.19
309.111	701.19
309.341	681.19
309.571	707.19
309.8	684.19
310.03	694.19
310.26	677.19
310.49	690.19
310.72	727.19
310.949	700.19
311.179	719.19
311.409	714.19
311.639	708.19
311.868	727.19
312.098	682.19
312.328	715.19
312.557	721.19
312.787	709.19
313.017	723.19
313.246	731.19
313.476	726.19
313.706	744.19
313.935	741.19
314.165	737.19
314.394	738.19
314.624	730.19
314.853	741.19
315.083	730.19
315.312	740.19
315.542	740.19
315.771	736.19
316.001	757.19
316.23	745.19
316.46	742.19
316.689	741.19
316.919	749.19
317.148	756.19
317.377	744.19
317.607	731.19
317.836	757.19
318.065	738.19
318.295	785.19
318.524	757.19
318.753	741.19
318.983	765.19
319.212	767.19
319.441	749.19
319.67	732.19
319.9	762.19
320.129	752.19
320.358	773.19
320.587	756.19
320.816	770.19
321.046	747.19
321.275	796.19
321.504	785.19
321.733	773.19
321.962	785.19
322.191	774.19
322.42	779.19
322.649	773.19
322.878	782.19
323.108	790.19
323.337	769.19
323.566	801.19
323.795	799.19
324.024	808.19
324.253	800.19
324.482	773.19
324.71	763.19
324.939	785.19
325.168	805.19
325.397	795.19
325.626	815.19
325.855	811.19
326.084	811.19
326.313	817.19
326.542	816.19
326.77	824.19
326.999	830.19
327.228	817.19
327.457	814.19
327.686	837.19
327.914	834.19
328.143	835.19
328.372	812.19
328.6	811.19
328.829	802.19
329.058	813.19
329.287	854.19
329.515	854.19
329.744	854.19
329.972	832.19
330.201	852.19
330.43	825.19
330.658	847.19
330.887	857.19
331.115	879.19
331.344	873.19
331.572	852.19
331.801	869.19
332.03	868.19
332.258	887.19
332.486	899.19
332.715	888.19
332.943	884.19
333.172	925.19
333.4	938.19
333.629	950.19
333.857	955.19
334.085	964.19
334.314	966.19
334.542	959.19
334.771	953.19
334.999	967.19
335.227	959.19
335.455	960.19
335.684	976.19
335.912	959.19
336.14	960.19
336.369	936.19
336.597	964.19
336.825	931.19
337.053	982.19
337.281	959.19
337.51	925.19
337.738	952.19
337.966	916.19
338.194	925.19
338.422	876.19
338.65	912.19
338.878	875.19
339.106	931.19
339.334	913.19
339.562	926.19
339.79	893.19
340.018	901.19
340.246	885.19
340.474	880.19
340.702	903.19
340.93	905.19
341.158	874.19
341.386	931.19
341.614	881.19
341.842	859.19
342.07	896.19
342.298	895.19
342.526	898.19
342.754	892.19
342.981	873.19
343.209	893.19
343.437	929.19
343.665	949.19
343.893	940.19
344.12	982.19
344.348	961.19
344.576	961.19
344.804	951.19
345.031	947.19
345.259	919.19
345.487	866.19
345.714	892.19
345.942	894.19
346.17	873.19
346.397	867.19
346.625	856.19
346.853	866.19
347.08	876.19
347.308	841.19
347.535	853.19
347.763	852.19
347.99	824.19
348.218	857.19
348.445	863.19
348.673	846.19
348.9	850.19
349.128	815.19
349.355	834.19
349.583	842.19
349.81	829.19
350.037	833.19
350.265	835.19
350.492	862.19
350.72	847.19
350.947	824.19
351.174	809.19
351.402	831.19
351.629	835.19
351.856	803.19
352.083	848.19
352.311	835.19
352.538	829.19
352.765	839.19
352.992	835.19
353.22	826.19
353.447	833.19
353.674	835.19
353.901	840.19
354.128	848.19
354.355	839.19
354.583	843.19
354.81	835.19
355.037	840.19
355.264	836.19
355.491	825.19
355.718	844.19
355.945	858.19
356.172	865.19
356.399	845.19
356.626	882.19
356.853	875.19
357.08	853.19
357.307	867.19
357.534	879.19
357.761	841.19
357.988	867.19
358.215	891.19
358.441	909.19
358.668	883.19
358.895	862.19
359.122	855.19
359.349	813.19
359.576	829.19
359.802	833.19
360.029	859.19
360.256	859.19
360.483	856.19
360.709	870.19
360.936	872.19
361.163	873.19
361.39	837.19
361.616	887.19
361.843	853.19
362.07	877.19
362.296	879.19
362.523	881.19
362.749	824.19
362.976	869.19
363.203	888.19
363.429	877.19
363.656	856.19
363.882	873.19
364.109	852.19
364.335	849.19
364.562	865.19
364.788	851.19
365.015	883.19
365.241	876.19
365.468	859.19
365.694	841.19
365.92	868.19
366.147	847.19
366.373	862.19
366.599	870.19
366.826	857.19
367.052	867.19
367.278	878.19
367.505	846.19
367.731	871.19
367.957	870.19
368.184	878.19
368.41	861.19
368.636	891.19
368.862	885.19
369.089	904.19
369.315	895.19
369.541	878.19
369.767	884.19
369.993	907.19
370.219	921.19
370.445	900.19
370.672	934.19
370.898	921.19
371.124	944.19
371.35	926.19
371.576	946.19
371.802	926.19
372.028	963.19
372.254	942.19
372.48	934.19
372.706	938.19
372.932	963.19
373.158	971.19
373.384	981.19
373.61	975.19
373.835	975.19
374.061	974.19
374.287	984.19
374.513	991.19
374.739	1008.19
374.965	1039.19
375.191	1005.19
375.416	997.19
375.642	993.19
375.868	970.19
376.094	961.19
376.319	964.19
376.545	992.19
376.771	929.19
376.997	945.19
377.222	954.19
377.448	927.19
377.674	944.19
377.899	933.19
378.125	945.19
378.35	923.19
378.576	909.19
378.802	922.19
379.027	935.19
379.253	957.19
379.478	952.19
379.704	938.19
379.929	956.19
380.155	931.19
380.38	957.19
380.606	961.19
380.831	956.19
381.057	968.19
381.282	946.19
381.507	949.19
381.733	977.19
381.958	999.19
382.184	996.19
382.409	975.19
382.634	1019.19
382.86	1012.19
383.085	1004.19
383.31	989.19
383.535	1004.19
383.761	1032.19
383.986	1053.19
384.211	1029.19
384.436	1068.19
384.662	1039.19
384.887	1065.19
385.112	1065.19
385.337	1095.19
385.562	1079.19
385.787	1069.19
386.013	1124.19
386.238	1106.19
386.463	1103.19
386.688	1089.19
386.913	1088.19
387.138	1057.19
387.363	1110.19
387.588	1103.19
387.813	1132.19
388.038	1133.19
388.263	1123.19
388.488	1120.19
388.713	1121.19
388.938	1129.19
389.163	1116.19
389.387	1099.19
389.612	1109.19
389.837	1127.19
390.062	1105.19
390.287	1122.19
390.512	1135.19
390.736	1138.19
390.961	1152.19
391.186	1127.19
391.411	1162.19
391.636	1184.19
391.86	1199.19
392.085	1213.19
392.31	1180.19
392.534	1182.19
392.759	1197.19
392.984	1161.19
393.208	1183.19
393.433	1153.19
393.658	1143.19
393.882	1169.19
394.107	1185.19
394.331	1183.19
394.556	1205.19
394.78	1183.19
395.005	1177.19
395.229	1180.19
395.454	1209.19
395.678	1212.19
395.903	1227.19
396.127	1239.19
396.352	1197.19
396.576	1222.19
396.801	1189.19
397.025	1204.19
397.249	1250.19
397.474	1259.19
397.698	1269.19
397.922	1251.19
398.147	1274.19
398.371	1300.19
398.595	1301.19
398.82	1337.19
399.044	1379.19
399.268	1434.19
399.492	1550.19
399.717	1567.19
399.941	1615.19
400.165	1582.19
400.389	1517.19
400.613	1469.19
400.837	1432.19
401.062	1417.19
401.286	1386.19
401.51	1364.19
401.734	1347.19
401.958	1409.19
402.182	1370.19
402.406	1369.19
402.63	1350.19
402.854	1377.19
403.078	1381.19
403.302	1337.19
403.526	1375.19
403.75	1370.19
403.974	1354.19
404.198	1384.19
404.422	1402.19
404.645	1405.19
404.869	1393.19
405.093	1405.19
405.317	1407.19
405.541	1422.19
405.765	1410.19
405.988	1400.19
406.212	1411.19
406.436	1449.19
406.66	1475.19
406.883	1438.19
407.107	1483.19
407.331	1538.19
407.555	1597.19
407.778	1553.19
408.002	1568.19
408.226	1548.19
408.449	1544.19
408.673	1506.19
408.896	1493.19
409.12	1465.19
409.344	1439.19
409.567	1466.19
409.791	1445.19
410.014	1451.19
410.238	1444.19
410.461	1450.19
410.685	1422.19
410.908	1415.19
411.132	1405.19
411.355	1397.19
411.578	1397.19
411.802	1415.19
412.025	1378.19
412.249	1401.19
412.472	1395.19
412.695	1368.19
412.919	1383.19
413.142	1367.19
413.365	1369.19
413.589	1386.19
413.812	1369.19
414.035	1356.19
414.258	1401.19
414.482	1343.19
414.705	1350.19
414.928	1336.19
415.151	1361.19
415.374	1355.19
415.597	1320.19
415.821	1326.19
416.044	1314.19
416.267	1322.19
416.49	1316.19
416.713	1300.19
416.936	1288.19
417.159	1311.19
417.382	1294.19
417.605	1272.19
417.828	1281.19
418.051	1311.19
418.274	1300.19
418.497	1283.19
418.72	1345.19
418.943	1315.19
419.166	1380.19
419.389	1432.19
419.611	1413.19
419.834	1384.19
420.057	1335.19
420.28	1328.19
420.503	1241.19
420.726	1275.19
420.948	1289.19
421.171	1243.19
421.394	1270.19
421.617	1275.19
421.839	1274.19
422.062	1267.19
422.285	1295.19
422.507	1273.19
422.73	1305.19
422.953	1296.19
423.175	1278.19
423.398	1320.19
423.621	1268.19
423.843	1332.19
424.066	1307.19
424.288	1265.19
424.511	1294.19
424.733	1277.19
424.956	1268.19
425.178	1304.19
425.401	1294.19
425.623	1289.19
425.846	1243.19
426.068	1267.19
426.291	1273.19
426.513	1305.19
426.735	1229.19
426.958	1256.19
427.18	1224.19
427.402	1293.19
427.625	1249.19
427.847	1199.19
428.069	1232.19
428.292	1253.19
428.514	1203.19
428.736	1204.19
428.958	1244.19
429.181	1238.19
429.403	1212.19
429.625	1230.19
429.847	1217.19
430.069	1232.19
430.292	1229.19
430.514	1207.19
430.736	1192.19
430.958	1244.19
431.18	1222.19
431.402	1222.19
431.624	1213.19
431.846	1199.19
432.068	1239.19
432.29	1251.19
432.512	1196.19
432.734	1242.19
432.956	1211.19
433.178	1229.19
433.4	1276.19
433.622	1244.19
433.844	1261.19
434.066	1236.19
434.287	1235.19
434.509	1238.19
434.731	1277.19
434.953	1289.19
435.175	1315.19
435.397	1310.19
435.618	1247.19
435.84	1234.19
436.062	1211.19
436.284	1246.19
436.505	1249.19
436.727	1215.19
436.949	1195.19
437.17	1205.19
437.392	1220.19
437.614	1179.19
437.835	1178.19
438.057	1198.19
438.278	1187.19
438.5	1214.19
438.721	1209.19
438.943	1233.19
439.165	1173.19
439.386	1197.19
439.608	1155.19
439.829	1185.19
440.05	1173.19
440.272	1224.19
440.493	1211.19
440.715	1228.19
440.936	1245.19
441.158	1251.19
441.379	1250.19
441.6	1269.19
441.822	1273.19
442.043	1315.19
442.264	1293.19
442.486	1268.19
442.707	1251.19
442.928	1295.19
443.149	1252.19
443.371	1262.19
443.592	1251.19
443.813	1292.19
444.034	1304.19
444.255	1311.19
444.476	1352.19
444.698	1342.19
444.919	1385.19
445.14	1402.19
445.361	1394.19
445.582	1319.19
445.803	1333.19
446.024	1260.19
446.245	1255.19
446.466	1261.19
446.687	1204.19
446.908	1239.19
447.129	1196.19
447.35	1194.19
447.571	1184.19
447.792	1136.19
448.013	1158.19
448.234	1157.19
448.455	1124.19
448.675	1134.19
448.896	1147.19
449.117	1129.19
449.338	1121.19
449.559	1125.19
449.779	1121.19
450	1131.19
450.221	1089.19
450.442	1134.19
450.662	1107.19
450.883	1116.19
451.104	1132.19
451.324	1099.19
451.545	1111.19
451.766	1120.19
451.986	1116.19
452.207	1097.19
452.428	1115.19
452.648	1055.19
452.869	1057.19
453.089	1059.19
453.31	1089.19
453.53	1085.19
453.751	1039.19
453.971	1062.19
454.192	1051.19
454.412	1070.19
454.633	1059.19
454.853	1052.19
455.073	1064.19
455.294	1064.19
455.514	1062.19
455.734	1080.19
455.955	1047.19
456.175	1041.19
456.395	1080.19
456.616	1053.19
456.836	1066.19
457.056	1081.19
457.276	1061.19
457.497	1053.19
457.717	1071.19
457.937	1126.19
458.157	1105.19
458.377	1112.19
458.598	1133.19
458.818	1124.19
459.038	1144.19
459.258	1166.19
459.478	1172.19
459.698	1219.19
459.918	1233.19
460.138	1255.19
460.358	1292.19
460.578	1291.19
460.798	1296.19
461.018	1311.19
461.238	1350.19
461.458	1344.19
461.678	1340.19
461.898	1349.19
462.118	1336.19
462.338	1397.19
462.558	1431.19
462.777	1389.19
462.997	1475.19
463.217	1516.19
463.437	1518.19
463.657	1498.19
463.876	1480.19
464.096	1498.19
464.316	1415.19
464.536	1464.19
464.755	1429.19
464.975	1399.19
465.195	1377.19
465.414	1343.19
465.634	1296.19
465.854	1240.19
466.073	1255.19
466.293	1255.19
466.512	1229.19
466.732	1205.19
466.951	1215.19
467.171	1169.19
467.391	1210.19
467.61	1185.19
467.829	1197.19
468.049	1166.19
468.268	1157.19
468.488	1146.19
468.707	1164.19
468.927	1205.19
469.146	1237.19
469.365	1193.19
469.585	1164.19
469.804	1204.19
470.023	1211.19
470.243	1223.19
470.462	1207.19
470.681	1177.19
470.901	1211.19
471.12	1203.19
471.339	1201.19
471.558	1188.19
471.777	1199.19
471.997	1168.19
472.216	1198.19
472.435	1199.19
472.654	1151.19
472.873	1181.19
473.092	1176.19
473.311	1165.19
473.53	1153.19
473.749	1191.19
473.968	1173.19
474.187	1159.19
474.406	1139.19
474.625	1212.19
474.844	1168.19
475.063	1174.19
475.282	1216.19
475.501	1221.19
475.72	1216.19
475.939	1253.19
476.158	1199.19
476.377	1239.19
476.596	1293.19
476.814	1315.19
477.033	1283.19
477.252	1258.19
477.471	1291.19
477.69	1305.19
477.908	1337.19
478.127	1317.19
478.346	1360.19
478.564	1380.19
478.783	1362.19
479.002	1404.19
479.22	1407.19
479.439	1475.19
479.658	1389.19
479.876	1403.19
480.095	1439.19
480.313	1448.19
480.532	1471.19
480.751	1412.19
480.969	1458.19
481.188	1450.19
481.406	1446.19
481.624	1434.19
481.843	1400.19
482.061	1393.19
482.28	1440.19
482.498	1442.19
482.717	1397.19
482.935	1407.19
483.153	1380.19
483.372	1407.19
483.59	1435.19
483.808	1405.19
484.027	1436.19
484.245	1381.19
484.463	1473.19
484.681	1430.19
484.9	1404.19
485.118	1425.19
485.336	1437.19
485.554	1438.19
485.772	1424.19
485.99	1425.19
486.209	1452.19
486.427	1420.19
486.645	1446.19
486.863	1462.19
487.081	1423.19
487.299	1448.19
487.517	1427.19
487.735	1446.19
487.953	1464.19
488.171	1463.19
488.389	1417.19
488.607	1423.19
488.825	1454.19
489.043	1414.19
489.261	1419.19
489.479	1435.19
489.696	1444.19
489.914	1428.19
490.132	1414.19
490.35	1471.19
490.568	1464.19
490.786	1468.19
491.003	1451.19
491.221	1475.19
491.439	1472.19
491.657	1477.19
491.874	1464.19
492.092	1508.19
492.31	1475.19
492.527	1453.19
492.745	1518.19
492.963	1480.19
493.18	1487.19
493.398	1466.19
493.615	1498.19
493.833	1488.19
494.05	1484.19
494.268	1551.19
494.485	1520.19
494.703	1514.19
