Data from Fe(NO3)3@0.0125M.TitratingCurve.Agarose3%dH2O.NegLispCup.LampEnergy10.LIBS07252019_HRD10591_17-01-11-337.txt Node
Date: Thu Jul 25 17:01:11 EDT 2019
User: cochatt
Spectrometer: HR+D1059
Trigger mode: 1
Integration Time (sec): 1.000000E-1
Scans to average: 1
Electric dark correction enabled: true
Nonlinearity correction enabled: false
Boxcar width: 0
XAxis mode: Wavelengths
Number of Pixels in Spectrum: 2048
>>>>>Begin Spectral Data<<<<<
223.165	-6.06
223.4	-6.06
223.635	-6.06
223.869	-14.06
224.104	-11.06
224.338	-42.06
224.573	-18.06
224.808	-0.06
225.042	-11.06
225.277	7.94
225.511	6.94
225.746	6.94
225.98	7.94
226.215	13.94
226.449	12.94
226.683	1.94
226.918	14.94
227.152	28.94
227.387	41.94
227.621	47.94
227.856	49.94
228.09	47.94
228.324	47.94
228.559	62.94
228.793	67.94
229.027	83.94
229.262	86.94
229.496	95.94
229.73	93.94
229.964	81.94
230.199	84.94
230.433	98.94
230.667	101.94
230.901	92.94
231.136	101.94
231.37	96.94
231.604	97.94
231.838	109.94
232.072	92.94
232.306	114.94
232.541	107.94
232.775	94.94
233.009	102.94
233.243	94.94
233.477	105.94
233.711	100.94
233.945	113.94
234.179	101.94
234.413	108.94
234.647	118.94
234.881	95.94
235.115	119.94
235.349	105.94
235.583	101.94
235.817	94.94
236.051	101.94
236.285	114.94
236.519	104.94
236.753	103.94
236.987	103.94
237.221	105.94
237.455	104.94
237.689	100.94
237.922	107.94
238.156	116.94
238.39	111.94
238.624	107.94
238.858	99.94
239.091	122.94
239.325	118.94
239.559	117.94
239.793	117.94
240.027	118.94
240.26	111.94
240.494	98.94
240.728	105.94
240.961	115.94
241.195	102.94
241.429	125.94
241.662	125.94
241.896	115.94
242.13	117.94
242.363	119.94
242.597	111.94
242.83	115.94
243.064	105.94
243.298	113.94
243.531	119.94
243.765	118.94
243.998	117.94
244.232	114.94
244.465	129.94
244.699	109.94
244.932	118.94
245.166	117.94
245.399	117.94
245.633	132.94
245.866	138.94
246.099	136.94
246.333	116.94
246.566	145.94
246.8	131.94
247.033	119.94
247.266	125.94
247.5	117.94
247.733	125.94
247.966	123.94
248.2	138.94
248.433	132.94
248.666	135.94
248.899	139.94
249.133	133.94
249.366	140.94
249.599	129.94
249.832	129.94
250.066	134.94
250.299	131.94
250.532	133.94
250.765	132.94
250.998	124.94
251.231	125.94
251.465	124.94
251.698	157.94
251.931	141.94
252.164	140.94
252.397	144.94
252.63	135.94
252.863	138.94
253.096	150.94
253.329	153.94
253.562	143.94
253.795	154.94
254.028	149.94
254.261	138.94
254.494	150.94
254.727	145.94
254.96	141.94
255.193	143.94
255.426	152.94
255.659	133.94
255.892	150.94
256.124	157.94
256.357	150.94
256.59	151.94
256.823	157.94
257.056	157.94
257.289	150.94
257.521	155.94
257.754	141.94
257.987	168.94
258.22	156.94
258.452	152.94
258.685	148.94
258.918	161.94
259.151	159.94
259.383	143.94
259.616	142.94
259.849	158.94
260.081	182.94
260.314	171.94
260.547	170.94
260.779	180.94
261.012	156.94
261.244	165.94
261.477	181.94
261.71	160.94
261.942	173.94
262.175	155.94
262.407	170.94
262.64	163.94
262.872	160.94
263.105	163.94
263.337	180.94
263.57	166.94
263.802	165.94
264.035	163.94
264.267	149.94
264.499	149.94
264.732	155.94
264.964	163.94
265.197	173.94
265.429	173.94
265.661	195.94
265.894	167.94
266.126	182.94
266.358	172.94
266.591	175.94
266.823	169.94
267.055	175.94
267.287	177.94
267.52	171.94
267.752	187.94
267.984	184.94
268.216	190.94
268.448	158.94
268.681	172.94
268.913	194.94
269.145	190.94
269.377	170.94
269.609	179.94
269.841	175.94
270.073	181.94
270.306	172.94
270.538	195.94
270.77	204.94
271.002	168.94
271.234	193.94
271.466	189.94
271.698	182.94
271.93	193.94
272.162	213.94
272.394	183.94
272.626	185.94
272.858	210.94
273.09	202.94
273.322	189.94
273.553	203.94
273.785	180.94
274.017	185.94
274.249	206.94
274.481	225.94
274.713	209.94
274.945	211.94
275.176	212.94
275.408	197.94
275.64	213.94
275.872	215.94
276.104	211.94
276.335	207.94
276.567	191.94
276.799	194.94
277.031	216.94
277.262	203.94
277.494	202.94
277.726	195.94
277.957	206.94
278.189	206.94
278.421	207.94
278.652	213.94
278.884	205.94
279.115	204.94
279.347	211.94
279.579	199.94
279.81	213.94
280.042	212.94
280.273	205.94
280.505	212.94
280.736	198.94
280.968	213.94
281.199	221.94
281.431	212.94
281.662	213.94
281.894	227.94
282.125	213.94
282.356	200.94
282.588	210.94
282.819	216.94
283.051	212.94
283.282	222.94
283.513	224.94
283.745	215.94
283.976	218.94
284.207	226.94
284.439	244.94
284.67	221.94
284.901	215.94
285.132	231.94
285.364	218.94
285.595	238.94
285.826	239.94
286.057	252.94
286.288	213.94
286.52	235.94
286.751	225.94
286.982	241.94
287.213	250.94
287.444	209.94
287.675	231.94
287.906	230.94
288.138	230.94
288.369	229.94
288.6	225.94
288.831	225.94
289.062	221.94
289.293	235.94
289.524	244.94
289.755	241.94
289.986	240.94
290.217	251.94
290.448	236.94
290.679	230.94
290.91	230.94
291.141	235.94
291.371	235.94
291.602	244.94
291.833	238.94
292.064	235.94
292.295	233.94
292.526	251.94
292.757	238.94
292.987	248.94
293.218	244.94
293.449	259.94
293.68	254.94
293.91	244.94
294.141	243.94
294.372	237.94
294.603	260.94
294.833	250.94
295.064	258.94
295.295	226.94
295.525	263.94
295.756	249.94
295.987	265.94
296.217	247.94
296.448	246.94
296.679	246.94
296.909	267.94
297.14	250.94
297.37	264.94
297.601	278.94
297.831	272.94
298.062	249.94
298.292	263.94
298.523	261.94
298.753	263.94
298.984	260.94
299.214	272.94
299.445	268.94
299.675	262.94
299.905	244.94
300.136	245.94
300.366	241.94
300.597	280.94
300.827	286.94
301.057	256.94
301.288	271.94
301.518	279.94
301.748	267.94
301.979	274.94
302.209	275.94
302.439	281.94
302.669	259.94
302.9	286.94
303.13	295.94
303.36	266.94
303.59	287.94
303.82	291.94
304.051	281.94
304.281	274.94
304.511	273.94
304.741	270.94
304.971	271.94
305.201	275.94
305.431	285.94
305.661	272.94
305.891	285.94
306.121	262.94
306.352	270.94
306.582	293.94
306.812	272.94
307.042	278.94
307.272	299.94
307.502	279.94
307.731	282.94
307.961	287.94
308.191	271.94
308.421	284.94
308.651	294.94
308.881	281.94
309.111	305.94
309.341	280.94
309.571	274.94
309.8	271.94
310.03	290.94
310.26	270.94
310.49	286.94
310.72	277.94
310.949	289.94
311.179	297.94
311.409	294.94
311.639	290.94
311.868	297.94
312.098	282.94
312.328	292.94
312.557	291.94
312.787	289.94
313.017	298.94
313.246	295.94
313.476	308.94
313.706	310.94
313.935	300.94
314.165	287.94
314.394	289.94
314.624	306.94
314.853	317.94
315.083	299.94
315.312	315.94
315.542	311.94
315.771	301.94
316.001	323.94
316.23	312.94
316.46	306.94
316.689	339.94
316.919	316.94
317.148	317.94
317.377	313.94
317.607	323.94
317.836	313.94
318.065	327.94
318.295	325.94
318.524	305.94
318.753	315.94
318.983	302.94
319.212	301.94
319.441	298.94
319.67	322.94
319.9	313.94
320.129	305.94
320.358	313.94
320.587	309.94
320.816	340.94
321.046	293.94
321.275	334.94
321.504	323.94
321.733	313.94
321.962	321.94
322.191	338.94
322.42	327.94
322.649	313.94
322.878	330.94
323.108	325.94
323.337	330.94
323.566	317.94
323.795	341.94
324.024	313.94
324.253	327.94
324.482	326.94
324.71	329.94
324.939	354.94
325.168	337.94
325.397	331.94
325.626	329.94
325.855	336.94
326.084	339.94
326.313	335.94
326.542	343.94
326.77	328.94
326.999	312.94
327.228	333.94
327.457	335.94
327.686	355.94
327.914	342.94
328.143	344.94
328.372	335.94
328.6	323.94
328.829	342.94
329.058	342.94
329.287	353.94
329.515	346.94
329.744	359.94
329.972	351.94
330.201	332.94
330.43	347.94
330.658	348.94
330.887	344.94
331.115	353.94
331.344	348.94
331.572	351.94
331.801	350.94
332.03	362.94
332.258	359.94
332.486	353.94
332.715	367.94
332.943	362.94
333.172	375.94
333.4	365.94
333.629	378.94
333.857	375.94
334.085	389.94
334.314	376.94
334.542	383.94
334.771	394.94
334.999	381.94
335.227	396.94
335.455	376.94
335.684	395.94
335.912	396.94
336.14	376.94
336.369	376.94
336.597	377.94
336.825	382.94
337.053	389.94
337.281	395.94
337.51	380.94
337.738	376.94
337.966	366.94
338.194	387.94
338.422	377.94
338.65	382.94
338.878	378.94
339.106	375.94
339.334	385.94
339.562	381.94
339.79	377.94
340.018	374.94
340.246	361.94
340.474	368.94
340.702	379.94
340.93	356.94
341.158	387.94
341.386	383.94
341.614	375.94
341.842	372.94
342.07	368.94
342.298	375.94
342.526	362.94
342.754	371.94
342.981	357.94
343.209	374.94
343.437	379.94
343.665	375.94
343.893	389.94
344.12	402.94
344.348	379.94
344.576	409.94
344.804	386.94
345.031	362.94
345.259	369.94
345.487	389.94
345.714	385.94
345.942	383.94
346.17	372.94
346.397	360.94
346.625	369.94
346.853	359.94
347.08	365.94
347.308	364.94
347.535	349.94
347.763	370.94
347.99	361.94
348.218	351.94
348.445	351.94
348.673	340.94
348.9	343.94
349.128	355.94
349.355	347.94
349.583	362.94
349.81	345.94
350.037	358.94
350.265	365.94
350.492	367.94
350.72	346.94
350.947	344.94
351.174	376.94
351.402	359.94
351.629	366.94
351.856	358.94
352.083	346.94
352.311	381.94
352.538	356.94
352.765	345.94
352.992	361.94
353.22	369.94
353.447	357.94
353.674	364.94
353.901	337.94
354.128	370.94
354.355	341.94
354.583	360.94
354.81	357.94
355.037	375.94
355.264	371.94
355.491	358.94
355.718	357.94
355.945	369.94
356.172	369.94
356.399	361.94
356.626	361.94
356.853	360.94
357.08	365.94
357.307	345.94
357.534	377.94
357.761	369.94
357.988	372.94
358.215	365.94
358.441	379.94
358.668	357.94
358.895	366.94
359.122	359.94
359.349	364.94
359.576	361.94
359.802	366.94
360.029	367.94
360.256	363.94
360.483	372.94
360.709	383.94
360.936	377.94
361.163	361.94
361.39	385.94
361.616	381.94
361.843	377.94
362.07	372.94
362.296	367.94
362.523	360.94
362.749	367.94
362.976	397.94
363.203	365.94
363.429	377.94
363.656	380.94
363.882	373.94
364.109	357.94
364.335	367.94
364.562	379.94
364.788	343.94
365.015	348.94
365.241	374.94
365.468	356.94
365.694	366.94
365.92	394.94
366.147	368.94
366.373	385.94
366.599	361.94
366.826	361.94
367.052	370.94
367.278	367.94
367.505	387.94
367.731	371.94
367.957	374.94
368.184	381.94
368.41	383.94
368.636	386.94
368.862	379.94
369.089	381.94
369.315	382.94
369.541	396.94
369.767	396.94
369.993	390.94
370.219	373.94
370.445	388.94
370.672	378.94
370.898	406.94
371.124	389.94
371.35	392.94
371.576	396.94
371.802	402.94
372.028	386.94
372.254	409.94
372.48	392.94
372.706	387.94
372.932	391.94
373.158	390.94
373.384	423.94
373.61	396.94
373.835	393.94
374.061	416.94
374.287	409.94
374.513	400.94
374.739	405.94
374.965	421.94
375.191	389.94
375.416	396.94
375.642	412.94
375.868	411.94
376.094	409.94
376.319	395.94
376.545	406.94
376.771	399.94
376.997	405.94
377.222	392.94
377.448	385.94
377.674	394.94
377.899	401.94
378.125	394.94
378.35	401.94
378.576	407.94
378.802	377.94
379.027	377.94
379.253	397.94
379.478	386.94
379.704	385.94
379.929	396.94
380.155	392.94
380.38	405.94
380.606	389.94
380.831	391.94
381.057	387.94
381.282	392.94
381.507	398.94
381.733	407.94
381.958	419.94
382.184	390.94
382.409	404.94
382.634	386.94
382.86	411.94
383.085	417.94
383.31	420.94
383.535	443.94
383.761	423.94
383.986	398.94
384.211	434.94
384.436	411.94
384.662	413.94
384.887	427.94
385.112	417.94
385.337	419.94
385.562	419.94
385.787	436.94
386.013	469.94
386.238	438.94
386.463	410.94
386.688	431.94
386.913	441.94
387.138	423.94
387.363	440.94
387.588	445.94
387.813	441.94
388.038	437.94
388.263	457.94
388.488	447.94
388.713	437.94
388.938	424.94
389.163	444.94
389.387	448.94
389.612	416.94
389.837	452.94
390.062	446.94
390.287	447.94
390.512	473.94
390.736	459.94
390.961	440.94
391.186	458.94
391.411	452.94
391.636	463.94
391.86	482.94
392.085	457.94
392.31	469.94
392.534	449.94
392.759	469.94
392.984	454.94
393.208	468.94
393.433	468.94
393.658	454.94
393.882	458.94
394.107	430.94
394.331	472.94
394.556	458.94
394.78	462.94
395.005	467.94
395.229	490.94
395.454	463.94
395.678	464.94
395.903	457.94
396.127	480.94
396.352	488.94
396.576	471.94
396.801	466.94
397.025	461.94
397.249	485.94
397.474	499.94
397.698	498.94
397.922	506.94
398.147	494.94
398.371	501.94
398.595	497.94
398.82	511.94
399.044	529.94
399.268	549.94
399.492	563.94
399.717	604.94
399.941	558.94
400.165	572.94
400.389	559.94
400.613	545.94
400.837	535.94
401.062	518.94
401.286	543.94
401.51	519.94
401.734	534.94
401.958	534.94
402.182	529.94
402.406	518.94
402.63	523.94
402.854	517.94
403.078	526.94
403.302	518.94
403.526	501.94
403.75	521.94
403.974	523.94
404.198	520.94
404.422	523.94
404.645	531.94
404.869	526.94
405.093	508.94
405.317	535.94
405.541	528.94
405.765	533.94
405.988	543.94
406.212	536.94
406.436	555.94
406.66	563.94
406.883	529.94
407.107	547.94
407.331	602.94
407.555	568.94
407.778	576.94
408.002	578.94
408.226	570.94
408.449	584.94
408.673	535.94
408.896	558.94
409.12	555.94
409.344	571.94
409.567	530.94
409.791	528.94
410.014	555.94
410.238	533.94
410.461	548.94
410.685	553.94
410.908	535.94
411.132	519.94
411.355	524.94
411.578	541.94
411.802	514.94
412.025	533.94
412.249	523.94
412.472	544.94
412.695	497.94
412.919	503.94
413.142	533.94
413.365	543.94
413.589	531.94
413.812	504.94
414.035	507.94
414.258	551.94
414.482	499.94
414.705	520.94
414.928	523.94
415.151	532.94
415.374	503.94
415.597	522.94
415.821	499.94
416.044	497.94
416.267	501.94
416.49	501.94
416.713	491.94
416.936	491.94
417.159	505.94
417.382	496.94
417.605	505.94
417.828	490.94
418.051	518.94
418.274	508.94
418.497	500.94
418.72	509.94
418.943	507.94
419.166	508.94
419.389	523.94
419.611	523.94
419.834	519.94
420.057	525.94
420.28	489.94
420.503	494.94
420.726	474.94
420.948	484.94
421.171	489.94
421.394	466.94
421.617	488.94
421.839	479.94
422.062	500.94
422.285	477.94
422.507	481.94
422.73	492.94
422.953	491.94
423.175	478.94
423.398	518.94
423.621	496.94
423.843	494.94
424.066	485.94
424.288	479.94
424.511	468.94
424.733	481.94
424.956	483.94
425.178	472.94
425.401	473.94
425.623	493.94
425.846	472.94
426.068	459.94
426.291	484.94
426.513	463.94
426.735	482.94
426.958	482.94
427.18	466.94
427.402	457.94
427.625	491.94
427.847	477.94
428.069	465.94
428.292	467.94
428.514	463.94
428.736	453.94
428.958	475.94
429.181	473.94
429.403	457.94
429.625	486.94
429.847	474.94
430.069	468.94
430.292	472.94
430.514	471.94
430.736	489.94
430.958	486.94
431.18	476.94
431.402	462.94
431.624	485.94
431.846	462.94
432.068	463.94
432.29	449.94
432.512	474.94
432.734	460.94
432.956	466.94
433.178	464.94
433.4	466.94
433.622	484.94
433.844	486.94
434.066	477.94
434.287	488.94
434.509	499.94
434.731	462.94
434.953	491.94
435.175	513.94
435.397	480.94
435.618	483.94
435.84	472.94
436.062	483.94
436.284	484.94
436.505	478.94
436.727	476.94
436.949	479.94
437.17	472.94
437.392	471.94
437.614	453.94
437.835	467.94
438.057	468.94
438.278	461.94
438.5	444.94
438.721	447.94
438.943	455.94
439.165	458.94
439.386	458.94
439.608	463.94
439.829	462.94
440.05	459.94
440.272	470.94
440.493	454.94
440.715	463.94
440.936	475.94
441.158	502.94
441.379	462.94
441.6	477.94
441.822	483.94
442.043	458.94
442.264	485.94
442.486	478.94
442.707	467.94
442.928	485.94
443.149	492.94
443.371	466.94
443.592	480.94
443.813	457.94
444.034	476.94
444.255	482.94
444.476	497.94
444.698	489.94
444.919	504.94
445.14	561.94
445.361	542.94
445.582	507.94
445.803	477.94
446.024	486.94
446.245	485.94
446.466	475.94
446.687	450.94
446.908	450.94
447.129	482.94
447.35	457.94
447.571	451.94
447.792	454.94
448.013	440.94
448.234	440.94
448.455	443.94
448.675	433.94
448.896	433.94
449.117	438.94
449.338	424.94
449.559	433.94
449.779	418.94
450	435.94
450.221	430.94
450.442	433.94
450.662	424.94
450.883	430.94
451.104	439.94
451.324	426.94
451.545	408.94
451.766	421.94
451.986	406.94
452.207	427.94
452.428	428.94
452.648	460.94
452.869	428.94
453.089	400.94
453.31	415.94
453.53	413.94
453.751	414.94
453.971	425.94
454.192	434.94
454.412	429.94
454.633	405.94
454.853	418.94
455.073	422.94
455.294	425.94
455.514	424.94
455.734	402.94
455.955	402.94
456.175	403.94
456.395	421.94
456.616	405.94
456.836	422.94
457.056	421.94
457.276	412.94
457.497	428.94
457.717	418.94
457.937	451.94
458.157	459.94
458.377	446.94
458.598	431.94
458.818	451.94
459.038	455.94
459.258	444.94
459.478	449.94
459.698	458.94
459.918	464.94
460.138	466.94
460.358	476.94
460.578	492.94
460.798	479.94
461.018	478.94
461.238	508.94
461.458	525.94
461.678	491.94
461.898	505.94
462.118	503.94
462.338	511.94
462.558	529.94
462.777	520.94
462.997	545.94
463.217	527.94
463.437	560.94
463.657	526.94
463.876	541.94
464.096	535.94
464.316	550.94
464.536	534.94
464.755	505.94
464.975	503.94
465.195	494.94
465.414	507.94
465.634	493.94
465.854	458.94
466.073	473.94
466.293	479.94
466.512	473.94
466.732	463.94
466.951	489.94
467.171	465.94
467.391	468.94
467.61	462.94
467.829	454.94
468.049	459.94
468.268	467.94
468.488	442.94
468.707	466.94
468.927	435.94
469.146	446.94
469.365	439.94
469.585	448.94
469.804	449.94
470.023	466.94
470.243	459.94
470.462	455.94
470.681	473.94
470.901	451.94
471.12	463.94
471.339	469.94
471.558	462.94
471.777	468.94
471.997	448.94
472.216	463.94
472.435	472.94
472.654	450.94
472.873	474.94
473.092	444.94
473.311	449.94
473.53	479.94
473.749	443.94
473.968	461.94
474.187	479.94
474.406	461.94
474.625	470.94
474.844	468.94
475.063	485.94
475.282	476.94
475.501	489.94
475.72	484.94
475.939	470.94
476.158	469.94
476.377	493.94
476.596	478.94
476.814	483.94
477.033	497.94
477.252	481.94
477.471	513.94
477.69	503.94
477.908	502.94
478.127	510.94
478.346	528.94
478.564	528.94
478.783	532.94
479.002	517.94
479.22	546.94
479.439	564.94
479.658	524.94
479.876	550.94
480.095	552.94
480.313	557.94
480.532	529.94
480.751	540.94
480.969	547.94
481.188	561.94
481.406	545.94
481.624	523.94
481.843	536.94
482.061	557.94
482.28	558.94
482.498	531.94
482.717	544.94
482.935	533.94
483.153	542.94
483.372	553.94
483.59	550.94
483.808	539.94
484.027	546.94
484.245	548.94
484.463	556.94
484.681	578.94
484.9	590.94
485.118	567.94
485.336	553.94
485.554	585.94
485.772	570.94
485.99	565.94
486.209	599.94
486.427	565.94
486.645	566.94
486.863	577.94
487.081	589.94
487.299	592.94
487.517	577.94
487.735	553.94
487.953	573.94
488.171	567.94
488.389	570.94
488.607	589.94
488.825	563.94
489.043	586.94
489.261	590.94
489.479	586.94
489.696	584.94
489.914	570.94
490.132	557.94
490.35	596.94
490.568	573.94
490.786	581.94
491.003	598.94
491.221	578.94
491.439	558.94
491.657	572.94
491.874	585.94
492.092	584.94
492.31	598.94
492.527	595.94
492.745	586.94
492.963	582.94
493.18	593.94
493.398	597.94
493.615	608.94
493.833	576.94
494.05	587.94
494.268	587.94
494.485	611.94
494.703	573.94
494.92	605.94
495.138	610.94
495.355	604.94
495.573	594.94
495.79	598.94
496.008	596.94
496.225	613.94
496.442	610.94
496.66	629.94
496.877	621.94
497.094	622.94
497.312	661.94
497.529	643.94
497.746	669.94
497.963	667.94
498.181	699.94
498.398	698.94
498.615	703.94
498.832	738.94
499.049	778.94
499.267	781.94
499.484	805.94
499.701	857.94
499.918	878.94
500.135	886.94
500.352	925.94
500.569	927.94
500.786	917.94
501.003	913.94
501.22	876.94
501.437	821.94
501.654	788.94
501.871	766.94
