Data from Fe(NO3)3@0.0125M.TitratingCurve.Agarose3%dH2O.NegLispCup.LampEnergy10.LIBS07252019_HRD10591_17-01-39-337.txt Node
Date: Thu Jul 25 17:01:39 EDT 2019
User: cochatt
Spectrometer: HR+D1059
Trigger mode: 1
Integration Time (sec): 1.000000E-1
Scans to average: 1
Electric dark correction enabled: true
Nonlinearity correction enabled: false
Boxcar width: 0
XAxis mode: Wavelengths
Number of Pixels in Spectrum: 2048
>>>>>Begin Spectral Data<<<<<
223.165	-22.56
223.4	-22.56
223.635	-22.56
223.869	-19.56
224.104	-16.56
224.338	-21.56
224.573	-11.56
224.808	-9.56
225.042	-7.56
225.277	6.44
225.511	-8.56
225.746	12.44
225.98	9.44
226.215	20.44
226.449	21.44
226.683	11.44
226.918	17.44
227.152	18.44
227.387	22.44
227.621	35.44
227.856	33.44
228.09	41.44
228.324	50.44
228.559	57.44
228.793	66.44
229.027	74.44
229.262	97.44
229.496	91.44
229.73	78.44
229.964	89.44
230.199	95.44
230.433	91.44
230.667	91.44
230.901	103.44
231.136	106.44
231.37	99.44
231.604	98.44
231.838	100.44
232.072	107.44
232.306	87.44
232.541	118.44
232.775	121.44
233.009	104.44
233.243	116.44
233.477	105.44
233.711	110.44
233.945	94.44
234.179	111.44
234.413	123.44
234.647	104.44
234.881	101.44
235.115	92.44
235.349	107.44
235.583	108.44
235.817	101.44
236.051	116.44
236.285	102.44
236.519	98.44
236.753	113.44
236.987	114.44
237.221	104.44
237.455	102.44
237.689	108.44
237.922	108.44
238.156	106.44
238.39	113.44
238.624	110.44
238.858	111.44
239.091	118.44
239.325	115.44
239.559	106.44
239.793	109.44
240.027	107.44
240.26	113.44
240.494	122.44
240.728	119.44
240.961	99.44
241.195	119.44
241.429	109.44
241.662	104.44
241.896	125.44
242.13	125.44
242.363	107.44
242.597	119.44
242.83	118.44
243.064	111.44
243.298	121.44
243.531	126.44
243.765	117.44
243.998	125.44
244.232	117.44
244.465	130.44
244.699	108.44
244.932	116.44
245.166	130.44
245.399	128.44
245.633	127.44
245.866	124.44
246.099	117.44
246.333	129.44
246.566	125.44
246.8	127.44
247.033	129.44
247.266	131.44
247.5	119.44
247.733	133.44
247.966	121.44
248.2	108.44
248.433	148.44
248.666	146.44
248.899	133.44
249.133	125.44
249.366	126.44
249.599	137.44
249.832	120.44
250.066	122.44
250.299	133.44
250.532	137.44
250.765	126.44
250.998	132.44
251.231	130.44
251.465	147.44
251.698	135.44
251.931	146.44
252.164	137.44
252.397	155.44
252.63	140.44
252.863	131.44
253.096	143.44
253.329	132.44
253.562	143.44
253.795	159.44
254.028	156.44
254.261	149.44
254.494	137.44
254.727	159.44
254.96	139.44
255.193	135.44
255.426	137.44
255.659	146.44
255.892	161.44
256.124	148.44
256.357	151.44
256.59	157.44
256.823	157.44
257.056	164.44
257.289	148.44
257.521	141.44
257.754	134.44
257.987	149.44
258.22	149.44
258.452	148.44
258.685	149.44
258.918	148.44
259.151	150.44
259.383	161.44
259.616	161.44
259.849	161.44
260.081	169.44
260.314	181.44
260.547	163.44
260.779	153.44
261.012	173.44
261.244	164.44
261.477	163.44
261.71	169.44
261.942	141.44
262.175	155.44
262.407	174.44
262.64	167.44
262.872	180.44
263.105	158.44
263.337	175.44
263.57	174.44
263.802	156.44
264.035	162.44
264.267	176.44
264.499	159.44
264.732	167.44
264.964	170.44
265.197	153.44
265.429	183.44
265.661	177.44
265.894	181.44
266.126	170.44
266.358	167.44
266.591	182.44
266.823	189.44
267.055	167.44
267.287	170.44
267.52	179.44
267.752	179.44
267.984	162.44
268.216	181.44
268.448	173.44
268.681	178.44
268.913	187.44
269.145	182.44
269.377	181.44
269.609	194.44
269.841	169.44
270.073	167.44
270.306	181.44
270.538	187.44
270.77	178.44
271.002	185.44
271.234	187.44
271.466	196.44
271.698	193.44
271.93	179.44
272.162	173.44
272.394	181.44
272.626	185.44
272.858	166.44
273.09	181.44
273.322	197.44
273.553	173.44
273.785	181.44
274.017	191.44
274.249	198.44
274.481	200.44
274.713	182.44
274.945	181.44
275.176	205.44
275.408	189.44
275.64	204.44
275.872	203.44
276.104	200.44
276.335	197.44
276.567	202.44
276.799	197.44
277.031	211.44
277.262	202.44
277.494	195.44
277.726	209.44
277.957	189.44
278.189	198.44
278.421	195.44
278.652	212.44
278.884	201.44
279.115	195.44
279.347	207.44
279.579	213.44
279.81	213.44
280.042	210.44
280.273	203.44
280.505	217.44
280.736	203.44
280.968	195.44
281.199	204.44
281.431	210.44
281.662	201.44
281.894	211.44
282.125	203.44
282.356	211.44
282.588	201.44
282.819	221.44
283.051	227.44
283.282	213.44
283.513	219.44
283.745	223.44
283.976	203.44
284.207	225.44
284.439	215.44
284.67	231.44
284.901	222.44
285.132	229.44
285.364	228.44
285.595	245.44
285.826	219.44
286.057	220.44
286.288	219.44
286.52	212.44
286.751	222.44
286.982	247.44
287.213	237.44
287.444	233.44
287.675	211.44
287.906	234.44
288.138	216.44
288.369	230.44
288.6	237.44
288.831	238.44
289.062	262.44
289.293	231.44
289.524	225.44
289.755	234.44
289.986	222.44
290.217	236.44
290.448	230.44
290.679	234.44
290.91	229.44
291.141	234.44
291.371	236.44
291.602	228.44
291.833	235.44
292.064	239.44
292.295	239.44
292.526	242.44
292.757	224.44
292.987	230.44
293.218	243.44
293.449	235.44
293.68	241.44
293.91	247.44
294.141	248.44
294.372	235.44
294.603	241.44
294.833	238.44
295.064	246.44
295.295	247.44
295.525	221.44
295.756	232.44
295.987	253.44
296.217	248.44
296.448	237.44
296.679	238.44
296.909	239.44
297.14	258.44
297.37	246.44
297.601	257.44
297.831	237.44
298.062	245.44
298.292	258.44
298.523	268.44
298.753	251.44
298.984	248.44
299.214	266.44
299.445	237.44
299.675	265.44
299.905	239.44
300.136	233.44
300.366	259.44
300.597	246.44
300.827	255.44
301.057	246.44
301.288	252.44
301.518	270.44
301.748	263.44
301.979	260.44
302.209	285.44
302.439	272.44
302.669	263.44
302.9	268.44
303.13	267.44
303.36	251.44
303.59	261.44
303.82	268.44
304.051	248.44
304.281	263.44
304.511	275.44
304.741	259.44
304.971	244.44
305.201	253.44
305.431	260.44
305.661	259.44
305.891	255.44
306.121	270.44
306.352	283.44
306.582	262.44
306.812	263.44
307.042	254.44
307.272	277.44
307.502	254.44
307.731	271.44
307.961	271.44
308.191	272.44
308.421	277.44
308.651	265.44
308.881	264.44
309.111	259.44
309.341	260.44
309.571	259.44
309.8	255.44
310.03	267.44
310.26	278.44
310.49	267.44
310.72	277.44
310.949	262.44
311.179	269.44
311.409	271.44
311.639	283.44
311.868	276.44
312.098	277.44
312.328	275.44
312.557	277.44
312.787	299.44
313.017	288.44
313.246	282.44
313.476	259.44
313.706	281.44
313.935	282.44
314.165	284.44
314.394	267.44
314.624	291.44
314.853	283.44
315.083	285.44
315.312	282.44
315.542	278.44
315.771	301.44
316.001	299.44
316.23	277.44
316.46	291.44
316.689	272.44
316.919	276.44
317.148	269.44
317.377	281.44
317.607	289.44
317.836	284.44
318.065	277.44
318.295	280.44
318.524	278.44
318.753	290.44
318.983	280.44
319.212	287.44
319.441	277.44
319.67	289.44
319.9	281.44
320.129	306.44
320.358	277.44
320.587	286.44
320.816	270.44
321.046	293.44
321.275	298.44
321.504	269.44
321.733	286.44
321.962	291.44
322.191	289.44
322.42	293.44
322.649	284.44
322.878	284.44
323.108	287.44
323.337	291.44
323.566	293.44
323.795	292.44
324.024	287.44
324.253	296.44
324.482	286.44
324.71	279.44
324.939	313.44
325.168	283.44
325.397	304.44
325.626	308.44
325.855	324.44
326.084	316.44
326.313	300.44
326.542	297.44
326.77	313.44
326.999	310.44
327.228	294.44
327.457	298.44
327.686	310.44
327.914	308.44
328.143	311.44
328.372	307.44
328.6	331.44
328.829	305.44
329.058	298.44
329.287	312.44
329.515	312.44
329.744	298.44
329.972	316.44
330.201	298.44
330.43	321.44
330.658	317.44
330.887	318.44
331.115	314.44
331.344	315.44
331.572	318.44
331.801	334.44
332.03	325.44
332.258	331.44
332.486	345.44
332.715	334.44
332.943	357.44
333.172	361.44
333.4	361.44
333.629	375.44
333.857	373.44
334.085	368.44
334.314	378.44
334.542	378.44
334.771	357.44
334.999	343.44
335.227	354.44
335.455	377.44
335.684	366.44
335.912	383.44
336.14	366.44
336.369	355.44
336.597	364.44
336.825	355.44
337.053	350.44
337.281	372.44
337.51	337.44
337.738	363.44
337.966	341.44
338.194	353.44
338.422	337.44
338.65	349.44
338.878	338.44
339.106	342.44
339.334	331.44
339.562	355.44
339.79	322.44
340.018	342.44
340.246	333.44
340.474	331.44
340.702	317.44
340.93	322.44
341.158	329.44
341.386	329.44
341.614	317.44
341.842	321.44
342.07	335.44
342.298	323.44
342.526	333.44
342.754	321.44
342.981	338.44
343.209	324.44
343.437	353.44
343.665	354.44
343.893	357.44
344.12	365.44
344.348	379.44
344.576	343.44
344.804	323.44
345.031	332.44
345.259	324.44
345.487	342.44
345.714	343.44
345.942	322.44
346.17	329.44
346.397	326.44
346.625	338.44
346.853	328.44
347.08	311.44
347.308	328.44
347.535	322.44
347.763	322.44
347.99	308.44
348.218	341.44
348.445	315.44
348.673	312.44
348.9	329.44
349.128	299.44
349.355	319.44
349.583	311.44
349.81	314.44
350.037	317.44
350.265	307.44
350.492	306.44
350.72	310.44
350.947	298.44
351.174	317.44
351.402	336.44
351.629	300.44
351.856	312.44
352.083	299.44
352.311	297.44
352.538	313.44
352.765	301.44
352.992	313.44
353.22	312.44
353.447	307.44
353.674	300.44
353.901	323.44
354.128	316.44
354.355	311.44
354.583	314.44
354.81	316.44
355.037	319.44
355.264	316.44
355.491	313.44
355.718	327.44
355.945	307.44
356.172	308.44
356.399	317.44
356.626	309.44
356.853	320.44
357.08	327.44
357.307	310.44
357.534	303.44
357.761	315.44
357.988	308.44
358.215	340.44
358.441	326.44
358.668	310.44
358.895	310.44
359.122	323.44
359.349	323.44
359.576	337.44
359.802	304.44
360.029	310.44
360.256	318.44
360.483	319.44
360.709	346.44
360.936	310.44
361.163	315.44
361.39	316.44
361.616	307.44
361.843	307.44
362.07	318.44
362.296	307.44
362.523	332.44
362.749	311.44
362.976	305.44
363.203	314.44
363.429	315.44
363.656	322.44
363.882	328.44
364.109	333.44
364.335	322.44
364.562	326.44
364.788	310.44
365.015	319.44
365.241	314.44
365.468	317.44
365.694	300.44
365.92	338.44
366.147	309.44
366.373	313.44
366.599	315.44
366.826	333.44
367.052	300.44
367.278	300.44
367.505	310.44
367.731	341.44
367.957	326.44
368.184	328.44
368.41	301.44
368.636	308.44
368.862	333.44
369.089	338.44
369.315	339.44
369.541	345.44
369.767	334.44
369.993	324.44
370.219	327.44
370.445	332.44
370.672	351.44
370.898	342.44
371.124	355.44
371.35	357.44
371.576	343.44
371.802	342.44
372.028	342.44
372.254	349.44
372.48	347.44
372.706	350.44
372.932	344.44
373.158	333.44
373.384	362.44
373.61	363.44
373.835	347.44
374.061	345.44
374.287	360.44
374.513	346.44
374.739	364.44
374.965	387.44
375.191	361.44
375.416	378.44
375.642	343.44
375.868	359.44
376.094	365.44
376.319	342.44
376.545	342.44
376.771	361.44
376.997	348.44
377.222	361.44
377.448	355.44
377.674	340.44
377.899	330.44
378.125	334.44
378.35	344.44
378.576	335.44
378.802	332.44
379.027	335.44
379.253	341.44
379.478	335.44
379.704	343.44
379.929	340.44
380.155	353.44
380.38	330.44
380.606	354.44
380.831	349.44
381.057	345.44
381.282	330.44
381.507	353.44
381.733	365.44
381.958	346.44
382.184	343.44
382.409	370.44
382.634	350.44
382.86	354.44
383.085	346.44
383.31	361.44
383.535	366.44
383.761	347.44
383.986	364.44
384.211	377.44
384.436	379.44
384.662	364.44
384.887	341.44
385.112	362.44
385.337	398.44
385.562	386.44
385.787	394.44
386.013	394.44
386.238	386.44
386.463	389.44
386.688	401.44
386.913	372.44
387.138	389.44
387.363	383.44
387.588	400.44
387.813	405.44
388.038	401.44
388.263	405.44
388.488	382.44
388.713	391.44
388.938	382.44
389.163	390.44
389.387	386.44
389.612	391.44
389.837	399.44
390.062	395.44
390.287	403.44
390.512	389.44
390.736	375.44
390.961	397.44
391.186	410.44
391.411	411.44
391.636	418.44
391.86	416.44
392.085	429.44
392.31	409.44
392.534	433.44
392.759	425.44
392.984	430.44
393.208	412.44
393.433	413.44
393.658	403.44
393.882	416.44
394.107	415.44
394.331	399.44
394.556	415.44
394.78	398.44
395.005	426.44
395.229	433.44
395.454	413.44
395.678	433.44
395.903	455.44
396.127	431.44
396.352	437.44
396.576	431.44
396.801	421.44
397.025	429.44
397.249	424.44
397.474	461.44
397.698	441.44
397.922	438.44
398.147	449.44
398.371	439.44
398.595	465.44
398.82	472.44
399.044	504.44
399.268	521.44
399.492	550.44
399.717	581.44
399.941	577.44
400.165	571.44
400.389	525.44
400.613	524.44
400.837	490.44
401.062	487.44
401.286	466.44
401.51	463.44
401.734	476.44
401.958	473.44
402.182	476.44
402.406	456.44
402.63	476.44
402.854	468.44
403.078	477.44
403.302	488.44
403.526	477.44
403.75	490.44
403.974	491.44
404.198	487.44
404.422	505.44
404.645	500.44
404.869	483.44
405.093	499.44
405.317	482.44
405.541	516.44
405.765	495.44
405.988	515.44
406.212	501.44
406.436	482.44
406.66	513.44
406.883	526.44
407.107	548.44
407.331	554.44
407.555	563.44
407.778	561.44
408.002	536.44
408.226	537.44
408.449	535.44
408.673	528.44
408.896	542.44
409.12	516.44
409.344	523.44
409.567	501.44
409.791	520.44
410.014	509.44
410.238	517.44
410.461	524.44
410.685	490.44
410.908	473.44
411.132	504.44
411.355	502.44
411.578	477.44
411.802	507.44
412.025	499.44
412.249	488.44
412.472	516.44
412.695	470.44
412.919	486.44
413.142	500.44
413.365	486.44
413.589	493.44
413.812	459.44
414.035	497.44
414.258	466.44
414.482	472.44
414.705	459.44
414.928	502.44
415.151	467.44
415.374	497.44
415.597	470.44
415.821	485.44
416.044	453.44
416.267	466.44
416.49	472.44
416.713	462.44
416.936	487.44
417.159	462.44
417.382	455.44
417.605	439.44
417.828	466.44
418.051	446.44
418.274	437.44
418.497	471.44
418.72	490.44
418.943	470.44
419.166	498.44
419.389	500.44
419.611	518.44
419.834	475.44
420.057	488.44
420.28	470.44
420.503	467.44
420.726	453.44
420.948	439.44
421.171	461.44
421.394	470.44
421.617	449.44
421.839	462.44
422.062	452.44
422.285	439.44
422.507	448.44
422.73	453.44
422.953	478.44
423.175	462.44
423.398	460.44
423.621	462.44
423.843	483.44
424.066	470.44
424.288	448.44
424.511	456.44
424.733	463.44
424.956	430.44
425.178	460.44
425.401	444.44
425.623	463.44
425.846	456.44
426.068	449.44
426.291	438.44
426.513	442.44
426.735	451.44
426.958	443.44
427.18	453.44
427.402	430.44
427.625	426.44
427.847	422.44
428.069	429.44
428.292	433.44
428.514	436.44
428.736	419.44
428.958	412.44
429.181	429.44
429.403	423.44
429.625	427.44
429.847	419.44
430.069	419.44
430.292	411.44
430.514	431.44
430.736	434.44
430.958	413.44
431.18	423.44
431.402	444.44
431.624	421.44
431.846	418.44
432.068	445.44
432.29	424.44
432.512	429.44
432.734	428.44
432.956	435.44
433.178	449.44
433.4	437.44
433.622	443.44
433.844	447.44
434.066	447.44
434.287	428.44
434.509	459.44
434.731	464.44
434.953	470.44
435.175	463.44
435.397	467.44
435.618	454.44
435.84	447.44
436.062	429.44
436.284	433.44
436.505	406.44
436.727	414.44
436.949	418.44
437.17	425.44
437.392	427.44
437.614	415.44
437.835	413.44
438.057	409.44
438.278	407.44
438.5	424.44
438.721	394.44
438.943	430.44
439.165	422.44
439.386	422.44
439.608	414.44
439.829	422.44
440.05	446.44
440.272	418.44
440.493	423.44
440.715	425.44
440.936	435.44
441.158	420.44
441.379	428.44
441.6	450.44
441.822	454.44
442.043	470.44
442.264	457.44
442.486	427.44
442.707	465.44
442.928	456.44
443.149	430.44
443.371	431.44
443.592	446.44
443.813	477.44
444.034	453.44
444.255	469.44
444.476	485.44
444.698	478.44
444.919	497.44
445.14	597.44
445.361	546.44
445.582	483.44
445.803	438.44
446.024	451.44
446.245	430.44
446.466	443.44
446.687	416.44
446.908	431.44
447.129	423.44
447.35	428.44
447.571	407.44
447.792	419.44
448.013	409.44
448.234	392.44
448.455	412.44
448.675	405.44
448.896	382.44
449.117	379.44
449.338	398.44
449.559	381.44
449.779	386.44
450	386.44
450.221	391.44
450.442	390.44
450.662	389.44
450.883	399.44
451.104	398.44
451.324	397.44
451.545	393.44
451.766	387.44
451.986	382.44
452.207	391.44
452.428	395.44
452.648	391.44
452.869	406.44
453.089	380.44
453.31	381.44
453.53	382.44
453.751	373.44
453.971	370.44
454.192	376.44
454.412	379.44
454.633	386.44
454.853	371.44
455.073	360.44
455.294	377.44
455.514	363.44
455.734	379.44
455.955	375.44
456.175	358.44
456.395	358.44
456.616	373.44
456.836	395.44
457.056	374.44
457.276	371.44
457.497	378.44
457.717	381.44
457.937	389.44
458.157	383.44
458.377	371.44
458.598	403.44
458.818	396.44
459.038	417.44
459.258	414.44
459.478	412.44
459.698	430.44
459.918	429.44
460.138	439.44
460.358	444.44
460.578	461.44
460.798	469.44
461.018	482.44
461.238	468.44
461.458	472.44
461.678	455.44
461.898	491.44
462.118	487.44
462.338	495.44
462.558	501.44
462.777	511.44
462.997	513.44
463.217	545.44
463.437	546.44
463.657	562.44
463.876	526.44
464.096	529.44
464.316	491.44
464.536	516.44
464.755	505.44
464.975	471.44
465.195	471.44
465.414	477.44
465.634	443.44
465.854	457.44
466.073	428.44
466.293	410.44
466.512	427.44
466.732	426.44
466.951	420.44
467.171	406.44
467.391	403.44
467.61	405.44
467.829	403.44
468.049	419.44
468.268	389.44
468.488	409.44
468.707	405.44
468.927	425.44
469.146	414.44
469.365	405.44
469.585	401.44
469.804	438.44
470.023	393.44
470.243	415.44
470.462	426.44
470.681	414.44
470.901	418.44
471.12	419.44
471.339	414.44
471.558	410.44
471.777	427.44
471.997	405.44
472.216	405.44
472.435	414.44
472.654	403.44
472.873	410.44
473.092	414.44
473.311	410.44
473.53	415.44
473.749	406.44
473.968	423.44
474.187	401.44
474.406	382.44
474.625	398.44
474.844	428.44
475.063	397.44
475.282	394.44
475.501	400.44
475.72	406.44
475.939	413.44
476.158	413.44
476.377	422.44
476.596	420.44
476.814	408.44
477.033	397.44
477.252	452.44
477.471	448.44
477.69	458.44
477.908	451.44
478.127	453.44
478.346	448.44
478.564	472.44
478.783	490.44
479.002	481.44
479.22	473.44
479.439	479.44
479.658	497.44
479.876	489.44
480.095	510.44
480.313	499.44
480.532	502.44
480.751	486.44
480.969	493.44
481.188	484.44
481.406	480.44
481.624	452.44
481.843	471.44
482.061	470.44
482.28	455.44
482.498	473.44
482.717	453.44
482.935	459.44
483.153	453.44
483.372	449.44
483.59	456.44
483.808	449.44
484.027	483.44
484.245	458.44
484.463	470.44
484.681	497.44
484.9	486.44
485.118	471.44
485.336	492.44
485.554	477.44
485.772	483.44
485.99	476.44
486.209	474.44
486.427	468.44
486.645	485.44
486.863	468.44
487.081	474.44
487.299	478.44
487.517	482.44
487.735	490.44
487.953	488.44
488.171	494.44
488.389	478.44
488.607	481.44
488.825	470.44
489.043	457.44
489.261	478.44
489.479	473.44
489.696	478.44
489.914	460.44
490.132	460.44
490.35	482.44
490.568	462.44
490.786	482.44
491.003	463.44
491.221	478.44
491.439	489.44
491.657	478.44
491.874	482.44
492.092	485.44
492.31	468.44
492.527	481.44
492.745	476.44
492.963	518.44
493.18	488.44
493.398	509.44
493.615	490.44
493.833	479.44
494.05	521.44
494.268	503.44
494.485	507.44
494.703	481.44
494.92	489.44
495.138	519.44
495.355	494.44
495.573	511.44
495.79	500.44
496.008	519.44
496.225	513.44
496.442	524.44
496.66	522.44
496.877	537.44
497.094	564.44
497.312	539.44
497.529	569.44
497.746	585.44
497.963	575.44
498.181	573.44
498.398	627.44
498.615	647.44
498.832	674.44
499.049	721.44
499.267	719.44
499.484	764.44
499.701	829.44
499.918	893.44
500.135	949.44
500.352	1041.44
500.569	1026.44
500.786	1016.44
501.003	990.44
501.22	930.44
501.437	843.44
501.654	829.44
