Data from Fe(NO3)3@0.0125M.TitratingCurve.Agarose3%dH2O.NegLispCup.LampEnergy10.LIBS07252019_HRD10591_17-01-07-336.txt Node
Date: Thu Jul 25 17:01:07 EDT 2019
User: cochatt
Spectrometer: HR+D1059
Trigger mode: 1
Integration Time (sec): 1.000000E-1
Scans to average: 1
Electric dark correction enabled: true
Nonlinearity correction enabled: false
Boxcar width: 0
XAxis mode: Wavelengths
Number of Pixels in Spectrum: 2048
>>>>>Begin Spectral Data<<<<<
223.165	-13.88
223.4	-13.88
223.635	-13.88
223.869	-29.88
224.104	-13.88
224.338	-17.88
224.573	-21.88
224.808	-16.88
225.042	-3.88
225.277	-4.88
225.511	8.12
225.746	6.12
225.98	2.12
226.215	20.12
226.449	-0.88
226.683	21.12
226.918	34.12
227.152	32.12
227.387	20.12
227.621	32.12
227.856	49.12
228.09	42.12
228.324	53.12
228.559	46.12
228.793	39.12
229.027	72.12
229.262	89.12
229.496	77.12
229.73	94.12
229.964	87.12
230.199	83.12
230.433	85.12
230.667	112.12
230.901	109.12
231.136	113.12
231.37	85.12
231.604	96.12
231.838	112.12
232.072	106.12
232.306	99.12
232.541	100.12
232.775	105.12
233.009	123.12
233.243	111.12
233.477	103.12
233.711	92.12
233.945	99.12
234.179	89.12
234.413	107.12
234.647	109.12
234.881	112.12
235.115	117.12
235.349	109.12
235.583	116.12
235.817	111.12
236.051	116.12
236.285	104.12
236.519	105.12
236.753	106.12
236.987	118.12
237.221	99.12
237.455	114.12
237.689	116.12
237.922	121.12
238.156	122.12
238.39	113.12
238.624	123.12
238.858	113.12
239.091	109.12
239.325	106.12
239.559	122.12
239.793	114.12
240.027	121.12
240.26	119.12
240.494	116.12
240.728	113.12
240.961	131.12
241.195	135.12
241.429	115.12
241.662	129.12
241.896	107.12
242.13	108.12
242.363	119.12
242.597	138.12
242.83	106.12
243.064	126.12
243.298	125.12
243.531	128.12
243.765	129.12
243.998	121.12
244.232	119.12
244.465	140.12
244.699	120.12
244.932	129.12
245.166	118.12
245.399	129.12
245.633	119.12
245.866	117.12
246.099	121.12
246.333	138.12
246.566	137.12
246.8	134.12
247.033	137.12
247.266	143.12
247.5	134.12
247.733	139.12
247.966	139.12
248.2	151.12
248.433	138.12
248.666	137.12
248.899	154.12
249.133	153.12
249.366	157.12
249.599	152.12
249.832	146.12
250.066	158.12
250.299	158.12
250.532	132.12
250.765	143.12
250.998	145.12
251.231	138.12
251.465	151.12
251.698	151.12
251.931	168.12
252.164	160.12
252.397	153.12
252.63	154.12
252.863	159.12
253.096	154.12
253.329	147.12
253.562	149.12
253.795	152.12
254.028	174.12
254.261	148.12
254.494	153.12
254.727	162.12
254.96	155.12
255.193	179.12
255.426	147.12
255.659	159.12
255.892	175.12
256.124	163.12
256.357	157.12
256.59	159.12
256.823	157.12
257.056	173.12
257.289	159.12
257.521	176.12
257.754	179.12
257.987	170.12
258.22	178.12
258.452	171.12
258.685	170.12
258.918	198.12
259.151	157.12
259.383	184.12
259.616	182.12
259.849	194.12
260.081	208.12
260.314	205.12
260.547	196.12
260.779	198.12
261.012	187.12
261.244	199.12
261.477	201.12
261.71	178.12
261.942	193.12
262.175	200.12
262.407	177.12
262.64	191.12
262.872	191.12
263.105	202.12
263.337	194.12
263.57	198.12
263.802	171.12
264.035	183.12
264.267	183.12
264.499	179.12
264.732	199.12
264.964	201.12
265.197	204.12
265.429	168.12
265.661	193.12
265.894	173.12
266.126	212.12
266.358	192.12
266.591	198.12
266.823	189.12
267.055	203.12
267.287	193.12
267.52	186.12
267.752	182.12
267.984	203.12
268.216	184.12
268.448	200.12
268.681	202.12
268.913	201.12
269.145	206.12
269.377	200.12
269.609	194.12
269.841	209.12
270.073	193.12
270.306	223.12
270.538	206.12
270.77	194.12
271.002	198.12
271.234	225.12
271.466	201.12
271.698	203.12
271.93	206.12
272.162	216.12
272.394	224.12
272.626	207.12
272.858	213.12
273.09	216.12
273.322	226.12
273.553	209.12
273.785	221.12
274.017	221.12
274.249	241.12
274.481	244.12
274.713	255.12
274.945	275.12
275.176	253.12
275.408	262.12
275.64	237.12
275.872	253.12
276.104	254.12
276.335	231.12
276.567	229.12
276.799	232.12
277.031	247.12
277.262	232.12
277.494	222.12
277.726	233.12
277.957	221.12
278.189	221.12
278.421	245.12
278.652	241.12
278.884	243.12
279.115	244.12
279.347	242.12
279.579	240.12
279.81	247.12
280.042	243.12
280.273	245.12
280.505	238.12
280.736	244.12
280.968	238.12
281.199	251.12
281.431	256.12
281.662	243.12
281.894	243.12
282.125	267.12
282.356	262.12
282.588	268.12
282.819	241.12
283.051	239.12
283.282	268.12
283.513	258.12
283.745	253.12
283.976	264.12
284.207	236.12
284.439	252.12
284.67	258.12
284.901	264.12
285.132	247.12
285.364	259.12
285.595	266.12
285.826	248.12
286.057	267.12
286.288	277.12
286.52	290.12
286.751	256.12
286.982	270.12
287.213	265.12
287.444	283.12
287.675	257.12
287.906	269.12
288.138	279.12
288.369	286.12
288.6	267.12
288.831	264.12
289.062	280.12
289.293	289.12
289.524	274.12
289.755	281.12
289.986	275.12
290.217	285.12
290.448	282.12
290.679	282.12
290.91	263.12
291.141	296.12
291.371	279.12
291.602	273.12
291.833	291.12
292.064	276.12
292.295	262.12
292.526	294.12
292.757	287.12
292.987	291.12
293.218	278.12
293.449	278.12
293.68	281.12
293.91	305.12
294.141	281.12
294.372	283.12
294.603	280.12
294.833	293.12
295.064	281.12
295.295	281.12
295.525	295.12
295.756	284.12
295.987	293.12
296.217	280.12
296.448	280.12
296.679	289.12
296.909	286.12
297.14	294.12
297.37	310.12
297.601	308.12
297.831	327.12
298.062	310.12
298.292	305.12
298.523	309.12
298.753	317.12
298.984	308.12
299.214	309.12
299.445	302.12
299.675	310.12
299.905	307.12
300.136	318.12
300.366	297.12
300.597	321.12
300.827	307.12
301.057	331.12
301.288	338.12
301.518	291.12
301.748	293.12
301.979	329.12
302.209	326.12
302.439	320.12
302.669	315.12
302.9	332.12
303.13	327.12
303.36	334.12
303.59	326.12
303.82	333.12
304.051	329.12
304.281	338.12
304.511	325.12
304.741	329.12
304.971	330.12
305.201	331.12
305.431	320.12
305.661	329.12
305.891	334.12
306.121	345.12
306.352	329.12
306.582	337.12
306.812	330.12
307.042	326.12
307.272	336.12
307.502	335.12
307.731	328.12
307.961	351.12
308.191	338.12
308.421	327.12
308.651	353.12
308.881	333.12
309.111	342.12
309.341	335.12
309.571	343.12
309.8	326.12
310.03	339.12
310.26	351.12
310.49	355.12
310.72	349.12
310.949	360.12
311.179	335.12
311.409	334.12
311.639	344.12
311.868	361.12
312.098	341.12
312.328	330.12
312.557	355.12
312.787	348.12
313.017	350.12
313.246	353.12
313.476	373.12
313.706	371.12
313.935	347.12
314.165	367.12
314.394	357.12
314.624	340.12
314.853	351.12
315.083	350.12
315.312	373.12
315.542	373.12
315.771	360.12
316.001	367.12
316.23	375.12
316.46	357.12
316.689	361.12
316.919	372.12
317.148	364.12
317.377	358.12
317.607	360.12
317.836	372.12
318.065	338.12
318.295	365.12
318.524	357.12
318.753	363.12
318.983	380.12
319.212	373.12
319.441	371.12
319.67	397.12
319.9	377.12
320.129	403.12
320.358	362.12
320.587	378.12
320.816	385.12
321.046	393.12
321.275	374.12
321.504	375.12
321.733	362.12
321.962	391.12
322.191	377.12
322.42	393.12
322.649	376.12
322.878	384.12
323.108	400.12
323.337	396.12
323.566	398.12
323.795	393.12
324.024	391.12
324.253	384.12
324.482	379.12
324.71	394.12
324.939	403.12
325.168	400.12
325.397	395.12
325.626	374.12
325.855	393.12
326.084	415.12
326.313	395.12
326.542	406.12
326.77	404.12
326.999	412.12
327.228	393.12
327.457	386.12
327.686	402.12
327.914	405.12
328.143	395.12
328.372	401.12
328.6	407.12
328.829	404.12
329.058	417.12
329.287	410.12
329.515	403.12
329.744	400.12
329.972	421.12
330.201	427.12
330.43	412.12
330.658	410.12
330.887	419.12
331.115	433.12
331.344	429.12
331.572	434.12
331.801	435.12
332.03	419.12
332.258	421.12
332.486	472.12
332.715	427.12
332.943	435.12
333.172	442.12
333.4	446.12
333.629	445.12
333.857	455.12
334.085	476.12
334.314	456.12
334.542	443.12
334.771	451.12
334.999	465.12
335.227	467.12
335.455	461.12
335.684	465.12
335.912	445.12
336.14	461.12
336.369	462.12
336.597	472.12
336.825	475.12
337.053	464.12
337.281	463.12
337.51	460.12
337.738	448.12
337.966	453.12
338.194	439.12
338.422	465.12
338.65	445.12
338.878	460.12
339.106	459.12
339.334	455.12
339.562	454.12
339.79	439.12
340.018	443.12
340.246	447.12
340.474	435.12
340.702	439.12
340.93	426.12
341.158	436.12
341.386	454.12
341.614	439.12
341.842	446.12
342.07	420.12
342.298	441.12
342.526	444.12
342.754	444.12
342.981	443.12
343.209	468.12
343.437	453.12
343.665	451.12
343.893	450.12
344.12	472.12
344.348	479.12
344.576	462.12
344.804	466.12
345.031	445.12
345.259	446.12
345.487	446.12
345.714	448.12
345.942	445.12
346.17	438.12
346.397	426.12
346.625	438.12
346.853	461.12
347.08	423.12
347.308	401.12
347.535	439.12
347.763	438.12
347.99	440.12
348.218	443.12
348.445	434.12
348.673	432.12
348.9	442.12
349.128	440.12
349.355	430.12
349.583	437.12
349.81	435.12
350.037	433.12
350.265	408.12
350.492	417.12
350.72	401.12
350.947	416.12
351.174	430.12
351.402	431.12
351.629	434.12
351.856	437.12
352.083	423.12
352.311	434.12
352.538	423.12
352.765	439.12
352.992	405.12
353.22	420.12
353.447	414.12
353.674	433.12
353.901	424.12
354.128	408.12
354.355	421.12
354.583	437.12
354.81	444.12
355.037	432.12
355.264	462.12
355.491	448.12
355.718	440.12
355.945	421.12
356.172	440.12
356.399	433.12
356.626	444.12
356.853	432.12
357.08	443.12
357.307	434.12
357.534	434.12
357.761	419.12
357.988	458.12
358.215	430.12
358.441	435.12
358.668	416.12
358.895	456.12
359.122	444.12
359.349	438.12
359.576	420.12
359.802	429.12
360.029	433.12
360.256	437.12
360.483	433.12
360.709	430.12
360.936	449.12
361.163	446.12
361.39	431.12
361.616	442.12
361.843	453.12
362.07	448.12
362.296	426.12
362.523	429.12
362.749	431.12
362.976	436.12
363.203	447.12
363.429	429.12
363.656	453.12
363.882	452.12
364.109	432.12
364.335	424.12
364.562	444.12
364.788	441.12
365.015	441.12
365.241	454.12
365.468	435.12
365.694	440.12
365.92	437.12
366.147	442.12
366.373	448.12
366.599	443.12
366.826	440.12
367.052	445.12
367.278	443.12
367.505	437.12
367.731	457.12
367.957	468.12
368.184	427.12
368.41	465.12
368.636	448.12
368.862	469.12
369.089	467.12
369.315	456.12
369.541	430.12
369.767	447.12
369.993	465.12
370.219	446.12
370.445	458.12
370.672	475.12
370.898	468.12
371.124	453.12
371.35	469.12
371.576	470.12
371.802	504.12
372.028	457.12
372.254	466.12
372.48	467.12
372.706	490.12
372.932	490.12
373.158	472.12
373.384	494.12
373.61	499.12
373.835	507.12
374.061	483.12
374.287	476.12
374.513	478.12
374.739	494.12
374.965	482.12
375.191	496.12
375.416	466.12
375.642	481.12
375.868	499.12
376.094	493.12
376.319	467.12
376.545	480.12
376.771	473.12
376.997	480.12
377.222	471.12
377.448	479.12
377.674	465.12
377.899	491.12
378.125	480.12
378.35	474.12
378.576	459.12
378.802	477.12
379.027	467.12
379.253	481.12
379.478	466.12
379.704	481.12
379.929	482.12
380.155	484.12
380.38	474.12
380.606	473.12
380.831	486.12
381.057	488.12
381.282	499.12
381.507	492.12
381.733	481.12
381.958	488.12
382.184	477.12
382.409	498.12
382.634	504.12
382.86	508.12
383.085	499.12
383.31	496.12
383.535	505.12
383.761	503.12
383.986	496.12
384.211	507.12
384.436	498.12
384.662	509.12
384.887	508.12
385.112	504.12
385.337	528.12
385.562	522.12
385.787	517.12
386.013	528.12
386.238	535.12
386.463	546.12
386.688	539.12
386.913	530.12
387.138	548.12
387.363	527.12
387.588	550.12
387.813	528.12
388.038	548.12
388.263	567.12
388.488	545.12
388.713	537.12
388.938	540.12
389.163	527.12
389.387	544.12
389.612	530.12
389.837	547.12
390.062	507.12
390.287	541.12
390.512	561.12
390.736	532.12
390.961	542.12
391.186	554.12
391.411	536.12
391.636	544.12
391.86	573.12
392.085	561.12
392.31	563.12
392.534	551.12
392.759	563.12
392.984	550.12
393.208	544.12
393.433	577.12
393.658	563.12
393.882	562.12
394.107	549.12
394.331	552.12
394.556	562.12
394.78	549.12
395.005	577.12
395.229	538.12
395.454	583.12
395.678	601.12
395.903	558.12
396.127	563.12
396.352	565.12
396.576	567.12
396.801	574.12
397.025	585.12
397.249	584.12
397.474	607.12
397.698	573.12
397.922	606.12
398.147	602.12
398.371	610.12
398.595	617.12
398.82	639.12
399.044	664.12
399.268	637.12
399.492	686.12
399.717	711.12
399.941	689.12
400.165	699.12
400.389	644.12
400.613	657.12
400.837	636.12
401.062	647.12
401.286	635.12
401.51	636.12
401.734	620.12
401.958	629.12
402.182	615.12
402.406	631.12
402.63	641.12
402.854	641.12
403.078	617.12
403.302	633.12
403.526	639.12
403.75	640.12
403.974	634.12
404.198	625.12
404.422	639.12
404.645	645.12
404.869	653.12
405.093	641.12
405.317	636.12
405.541	675.12
405.765	663.12
405.988	660.12
406.212	650.12
406.436	666.12
406.66	660.12
406.883	677.12
407.107	682.12
407.331	670.12
407.555	695.12
407.778	702.12
408.002	699.12
408.226	678.12
408.449	705.12
408.673	673.12
408.896	637.12
409.12	646.12
409.344	667.12
409.567	673.12
409.791	641.12
410.014	655.12
410.238	649.12
410.461	643.12
410.685	649.12
410.908	668.12
411.132	627.12
411.355	634.12
411.578	636.12
411.802	639.12
412.025	643.12
412.249	635.12
412.472	651.12
412.695	645.12
412.919	641.12
413.142	643.12
413.365	630.12
413.589	647.12
413.812	601.12
414.035	614.12
414.258	643.12
414.482	626.12
414.705	655.12
414.928	625.12
415.151	630.12
415.374	633.12
415.597	612.12
415.821	608.12
416.044	625.12
416.267	605.12
416.49	617.12
416.713	627.12
416.936	614.12
417.159	607.12
417.382	577.12
417.605	587.12
417.828	598.12
418.051	607.12
418.274	587.12
418.497	567.12
418.72	610.12
418.943	586.12
419.166	629.12
419.389	659.12
419.611	632.12
419.834	647.12
420.057	621.12
420.28	604.12
420.503	570.12
420.726	577.12
420.948	605.12
421.171	591.12
421.394	597.12
421.617	608.12
421.839	578.12
422.062	606.12
422.285	592.12
422.507	616.12
422.73	594.12
422.953	594.12
423.175	568.12
423.398	586.12
423.621	592.12
423.843	587.12
424.066	594.12
424.288	582.12
424.511	583.12
424.733	608.12
424.956	573.12
425.178	562.12
425.401	585.12
425.623	584.12
425.846	572.12
426.068	589.12
426.291	577.12
426.513	576.12
426.735	579.12
426.958	583.12
427.18	583.12
427.402	584.12
427.625	577.12
427.847	573.12
428.069	578.12
428.292	574.12
428.514	558.12
428.736	565.12
428.958	609.12
429.181	585.12
429.403	571.12
429.625	545.12
429.847	569.12
430.069	573.12
430.292	560.12
430.514	568.12
430.736	577.12
430.958	574.12
431.18	577.12
431.402	571.12
431.624	567.12
431.846	574.12
432.068	578.12
432.29	593.12
432.512	554.12
432.734	573.12
432.956	590.12
433.178	567.12
433.4	585.12
433.622	578.12
433.844	570.12
434.066	570.12
434.287	616.12
434.509	599.12
434.731	596.12
434.953	583.12
435.175	604.12
435.397	601.12
435.618	590.12
435.84	594.12
436.062	565.12
436.284	581.12
436.505	558.12
436.727	591.12
436.949	570.12
437.17	571.12
437.392	560.12
437.614	584.12
437.835	569.12
438.057	558.12
438.278	575.12
438.5	567.12
438.721	552.12
438.943	568.12
439.165	555.12
439.386	547.12
439.608	573.12
439.829	559.12
440.05	562.12
440.272	571.12
440.493	565.12
440.715	554.12
440.936	569.12
441.158	566.12
441.379	594.12
441.6	577.12
441.822	578.12
442.043	606.12
442.264	576.12
442.486	564.12
442.707	565.12
442.928	561.12
443.149	602.12
443.371	581.12
443.592	562.12
443.813	585.12
444.034	590.12
444.255	596.12
444.476	592.12
444.698	598.12
444.919	606.12
445.14	689.12
445.361	651.12
445.582	594.12
445.803	579.12
446.024	576.12
446.245	571.12
446.466	581.12
446.687	549.12
446.908	586.12
447.129	550.12
447.35	573.12
447.571	538.12
447.792	535.12
448.013	546.12
448.234	536.12
448.455	535.12
448.675	541.12
448.896	512.12
449.117	539.12
449.338	522.12
449.559	548.12
449.779	519.12
450	510.12
450.221	522.12
450.442	530.12
450.662	510.12
450.883	516.12
451.104	539.12
451.324	519.12
451.545	513.12
451.766	512.12
451.986	507.12
452.207	502.12
452.428	509.12
452.648	526.12
452.869	524.12
453.089	487.12
453.31	507.12
453.53	495.12
453.751	509.12
453.971	497.12
454.192	522.12
454.412	506.12
454.633	505.12
454.853	503.12
455.073	522.12
455.294	514.12
455.514	514.12
455.734	486.12
455.955	512.12
456.175	518.12
456.395	501.12
456.616	499.12
456.836	516.12
457.056	507.12
457.276	501.12
457.497	508.12
457.717	500.12
457.937	513.12
458.157	514.12
458.377	525.12
458.598	529.12
458.818	524.12
459.038	546.12
459.258	545.12
459.478	575.12
459.698	571.12
459.918	555.12
460.138	583.12
460.358	589.12
460.578	600.12
460.798	602.12
461.018	586.12
461.238	603.12
461.458	616.12
461.678	623.12
461.898	605.12
462.118	596.12
462.338	618.12
462.558	650.12
462.777	628.12
462.997	637.12
463.217	647.12
463.437	649.12
463.657	645.12
463.876	665.12
464.096	639.12
464.316	635.12
464.536	639.12
464.755	635.12
464.975	632.12
465.195	609.12
465.414	598.12
465.634	573.12
465.854	584.12
466.073	593.12
466.293	566.12
466.512	563.12
466.732	557.12
466.951	558.12
467.171	566.12
467.391	579.12
467.61	543.12
467.829	551.12
468.049	551.12
468.268	526.12
468.488	562.12
468.707	561.12
468.927	578.12
469.146	545.12
469.365	555.12
469.585	573.12
469.804	544.12
470.023	553.12
470.243	530.12
470.462	542.12
470.681	569.12
470.901	560.12
471.12	559.12
471.339	563.12
471.558	559.12
471.777	555.12
471.997	562.12
472.216	578.12
472.435	547.12
472.654	550.12
472.873	566.12
473.092	563.12
473.311	555.12
473.53	552.12
473.749	548.12
473.968	551.12
474.187	545.12
474.406	570.12
474.625	557.12
474.844	567.12
475.063	566.12
475.282	586.12
475.501	561.12
475.72	598.12
475.939	566.12
476.158	569.12
476.377	603.12
476.596	623.12
476.814	603.12
477.033	589.12
477.252	614.12
477.471	617.12
477.69	618.12
477.908	587.12
478.127	625.12
478.346	651.12
478.564	648.12
478.783	639.12
479.002	657.12
479.22	643.12
479.439	689.12
479.658	652.12
479.876	671.12
480.095	683.12
480.313	651.12
480.532	639.12
480.751	665.12
480.969	671.12
481.188	671.12
481.406	661.12
481.624	673.12
481.843	686.12
482.061	669.12
482.28	671.12
482.498	692.12
482.717	695.12
482.935	674.12
483.153	675.12
483.372	671.12
483.59	701.12
483.808	680.12
484.027	681.12
484.245	682.12
484.463	689.12
484.681	705.12
484.9	686.12
485.118	692.12
485.336	683.12
485.554	699.12
485.772	695.12
485.99	680.12
486.209	723.12
486.427	703.12
486.645	701.12
486.863	714.12
487.081	695.12
487.299	707.12
487.517	720.12
487.735	696.12
487.953	722.12
488.171	710.12
488.389	719.12
488.607	699.12
488.825	725.12
489.043	693.12
489.261	709.12
489.479	696.12
489.696	678.12
489.914	714.12
490.132	701.12
490.35	692.12
490.568	704.12
490.786	697.12
491.003	691.12
491.221	692.12
491.439	688.12
491.657	723.12
491.874	711.12
492.092	712.12
492.31	729.12
492.527	701.12
492.745	723.12
492.963	718.12
493.18	719.12
493.398	711.12
493.615	740.12
493.833	705.12
494.05	738.12
494.268	726.12
494.485	703.12
494.703	728.12
494.92	733.12
495.138	730.12
495.355	727.12
495.573	736.12
495.79	714.12
496.008	761.12
496.225	757.12
496.442	770.12
496.66	777.12
496.877	769.12
497.094	768.12
497.312	784.12
497.529	816.12
497.746	791.12
497.963	805.12
498.181	808.12
498.398	844.12
498.615	894.12
498.832	870.12
499.049	908.12
499.267	937.12
499.484	968.12
499.701	1018.12
499.918	1005.12
500.135	1067.12
500.352	1112.12
500.569	1116.12
500.786	1112.12
501.003	1098.12
501.22	1058.12
501.437	1032.12
501.654	984.12
