Data from Fe(NO3)3@0.05M.TitratingCurve.Agarose3%dH2O.NegLispCup.LampEnergy10.LIBS07252019_HRD10591_16-46-45-335.txt Node
Date: Thu Jul 25 16:46:45 EDT 2019
User: cochatt
Spectrometer: HR+D1059
Trigger mode: 1
Integration Time (sec): 1.000000E-1
Scans to average: 1
Electric dark correction enabled: true
Nonlinearity correction enabled: false
Boxcar width: 0
XAxis mode: Wavelengths
Number of Pixels in Spectrum: 2048
>>>>>Begin Spectral Data<<<<<
223.165	-4.69
223.4	-4.69
223.635	-4.69
223.869	-21.69
224.104	-8.69
224.338	-13.69
224.573	-18.69
224.808	-10.69
225.042	-12.69
225.277	-6.69
225.511	-14.69
225.746	3.31
225.98	5.31
226.215	10.31
226.449	5.31
226.683	23.31
226.918	30.31
227.152	34.31
227.387	46.31
227.621	39.31
227.856	40.31
228.09	32.31
228.324	37.31
228.559	46.31
228.793	89.31
229.027	144.31
229.262	140.31
229.496	148.31
229.73	170.31
229.964	158.31
230.199	164.31
230.433	182.31
230.667	168.31
230.901	166.31
231.136	175.31
231.37	171.31
231.604	190.31
231.838	182.31
232.072	168.31
232.306	173.31
232.541	175.31
232.775	178.31
233.009	191.31
233.243	200.31
233.477	199.31
233.711	198.31
233.945	199.31
234.179	202.31
234.413	213.31
234.647	216.31
234.881	226.31
235.115	224.31
235.349	211.31
235.583	211.31
235.817	223.31
236.051	203.31
236.285	217.31
236.519	207.31
236.753	226.31
236.987	205.31
237.221	222.31
237.455	223.31
237.689	248.31
237.922	246.31
238.156	248.31
238.39	265.31
238.624	252.31
238.858	282.31
239.091	238.31
239.325	253.31
239.559	258.31
239.793	274.31
240.027	288.31
240.26	276.31
240.494	268.31
240.728	284.31
240.961	299.31
241.195	285.31
241.429	282.31
241.662	284.31
241.896	284.31
242.13	276.31
242.363	274.31
242.597	274.31
242.83	284.31
243.064	293.31
243.298	306.31
243.531	298.31
243.765	300.31
243.998	292.31
244.232	316.31
244.465	300.31
244.699	304.31
244.932	319.31
245.166	326.31
245.399	315.31
245.633	323.31
245.866	342.31
246.099	326.31
246.333	327.31
246.566	332.31
246.8	323.31
247.033	332.31
247.266	334.31
247.5	325.31
247.733	351.31
247.966	337.31
248.2	347.31
248.433	351.31
248.666	363.31
248.899	376.31
249.133	365.31
249.366	374.31
249.599	405.31
249.832	403.31
250.066	385.31
250.299	366.31
250.532	363.31
250.765	366.31
250.998	382.31
251.231	377.31
251.465	377.31
251.698	389.31
251.931	392.31
252.164	408.31
252.397	405.31
252.63	439.31
252.863	432.31
253.096	416.31
253.329	418.31
253.562	435.31
253.795	450.31
254.028	460.31
254.261	465.31
254.494	463.31
254.727	442.31
254.96	450.31
255.193	471.31
255.426	466.31
255.659	437.31
255.892	447.31
256.124	440.31
256.357	444.31
256.59	466.31
256.823	467.31
257.056	439.31
257.289	423.31
257.521	422.31
257.754	470.31
257.987	457.31
258.22	471.31
258.452	459.31
258.685	485.31
258.918	482.31
259.151	473.31
259.383	464.31
259.616	472.31
259.849	511.31
260.081	577.31
260.314	586.31
260.547	529.31
260.779	515.31
261.012	520.31
261.244	513.31
261.477	576.31
261.71	552.31
261.942	547.31
262.175	504.31
262.407	510.31
262.64	519.31
262.872	543.31
263.105	555.31
263.337	571.31
263.57	567.31
263.802	539.31
264.035	521.31
264.267	515.31
264.499	508.31
264.732	517.31
264.964	509.31
265.197	487.31
265.429	514.31
265.661	536.31
265.894	524.31
266.126	523.31
266.358	531.31
266.591	535.31
266.823	551.31
267.055	541.31
267.287	544.31
267.52	534.31
267.752	547.31
267.984	554.31
268.216	548.31
268.448	555.31
268.681	572.31
268.913	575.31
269.145	578.31
269.377	582.31
269.609	565.31
269.841	556.31
270.073	574.31
270.306	583.31
270.538	590.31
270.77	598.31
271.002	570.31
271.234	609.31
271.466	593.31
271.698	601.31
271.93	623.31
272.162	621.31
272.394	609.31
272.626	629.31
272.858	626.31
273.09	628.31
273.322	631.31
273.553	635.31
273.785	655.31
274.017	695.31
274.249	738.31
274.481	755.31
274.713	751.31
274.945	782.31
275.176	792.31
275.408	770.31
275.64	743.31
275.872	750.31
276.104	694.31
276.335	686.31
276.567	658.31
276.799	643.31
277.031	671.31
277.262	683.31
277.494	675.31
277.726	660.31
277.957	681.31
278.189	667.31
278.421	686.31
278.652	694.31
278.884	680.31
279.115	676.31
279.347	676.31
279.579	680.31
279.81	685.31
280.042	676.31
280.273	692.31
280.505	693.31
280.736	713.31
280.968	701.31
281.199	693.31
281.431	706.31
281.662	708.31
281.894	731.31
282.125	698.31
282.356	709.31
282.588	733.31
282.819	714.31
283.051	716.31
283.282	719.31
283.513	742.31
283.745	739.31
283.976	727.31
284.207	741.31
284.439	743.31
284.67	714.31
284.901	746.31
285.132	756.31
285.364	772.31
285.595	771.31
285.826	735.31
286.057	760.31
286.288	756.31
286.52	749.31
286.751	749.31
286.982	757.31
287.213	764.31
287.444	774.31
287.675	776.31
287.906	773.31
288.138	774.31
288.369	749.31
288.6	773.31
288.831	748.31
289.062	774.31
289.293	775.31
289.524	795.31
289.755	786.31
289.986	762.31
290.217	780.31
290.448	784.31
290.679	781.31
290.91	776.31
291.141	797.31
291.371	794.31
291.602	792.31
291.833	772.31
292.064	802.31
292.295	804.31
292.526	800.31
292.757	791.31
292.987	800.31
293.218	778.31
293.449	790.31
293.68	834.31
293.91	787.31
294.141	811.31
294.372	793.31
294.603	793.31
294.833	812.31
295.064	807.31
295.295	800.31
295.525	815.31
295.756	792.31
295.987	793.31
296.217	808.31
296.448	820.31
296.679	831.31
296.909	843.31
297.14	837.31
297.37	871.31
297.601	854.31
297.831	830.31
298.062	858.31
298.292	813.31
298.523	861.31
298.753	842.31
298.984	850.31
299.214	844.31
299.445	876.31
299.675	873.31
299.905	847.31
300.136	852.31
300.366	872.31
300.597	858.31
300.827	866.31
301.057	878.31
301.288	883.31
301.518	853.31
301.748	887.31
301.979	902.31
302.209	934.31
302.439	938.31
302.669	905.31
302.9	898.31
303.13	891.31
303.36	906.31
303.59	904.31
303.82	922.31
304.051	923.31
304.281	941.31
304.511	898.31
304.741	913.31
304.971	933.31
305.201	916.31
305.431	932.31
305.661	938.31
305.891	907.31
306.121	899.31
306.352	916.31
306.582	898.31
306.812	896.31
307.042	906.31
307.272	907.31
307.502	905.31
307.731	955.31
307.961	937.31
308.191	913.31
308.421	921.31
308.651	925.31
308.881	942.31
309.111	910.31
309.341	882.31
309.571	923.31
309.8	940.31
310.03	920.31
310.26	945.31
310.49	922.31
310.72	920.31
310.949	916.31
311.179	917.31
311.409	939.31
311.639	946.31
311.868	947.31
312.098	936.31
312.328	942.31
312.557	983.31
312.787	948.31
313.017	966.31
313.246	963.31
313.476	937.31
313.706	1001.31
313.935	994.31
314.165	994.31
314.394	1002.31
314.624	997.31
314.853	979.31
315.083	1000.31
315.312	992.31
315.542	995.31
315.771	1024.31
316.001	1014.31
316.23	981.31
316.46	993.31
316.689	1018.31
316.919	992.31
317.148	1023.31
317.377	1016.31
317.607	986.31
317.836	995.31
318.065	1008.31
318.295	1003.31
318.524	1020.31
318.753	977.31
318.983	1042.31
319.212	1000.31
319.441	1029.31
319.67	1040.31
319.9	1030.31
320.129	1042.31
320.358	1030.31
320.587	1023.31
320.816	1008.31
321.046	1046.31
321.275	1024.31
321.504	1037.31
321.733	1042.31
321.962	1057.31
322.191	1042.31
322.42	1039.31
322.649	1042.31
322.878	1054.31
323.108	1043.31
323.337	1059.31
323.566	1067.31
323.795	1074.31
324.024	1067.31
324.253	1050.31
324.482	1053.31
324.71	1075.31
324.939	1069.31
325.168	1074.31
325.397	1076.31
325.626	1080.31
325.855	1076.31
326.084	1071.31
326.313	1090.31
326.542	1056.31
326.77	1091.31
326.999	1076.31
327.228	1125.31
327.457	1078.31
327.686	1087.31
327.914	1110.31
328.143	1102.31
328.372	1108.31
328.6	1103.31
328.829	1077.31
329.058	1079.31
329.287	1118.31
329.515	1131.31
329.744	1104.31
329.972	1093.31
330.201	1100.31
330.43	1140.31
330.658	1125.31
330.887	1149.31
331.115	1144.31
331.344	1135.31
331.572	1143.31
331.801	1150.31
332.03	1195.31
332.258	1176.31
332.486	1214.31
332.715	1215.31
332.943	1226.31
333.172	1192.31
333.4	1239.31
333.629	1236.31
333.857	1279.31
334.085	1277.31
334.314	1272.31
334.542	1304.31
334.771	1306.31
334.999	1263.31
335.227	1298.31
335.455	1304.31
335.684	1307.31
335.912	1282.31
336.14	1306.31
336.369	1254.31
336.597	1274.31
336.825	1250.31
337.053	1246.31
337.281	1259.31
337.51	1230.31
337.738	1247.31
337.966	1247.31
338.194	1241.31
338.422	1196.31
338.65	1199.31
338.878	1256.31
339.106	1222.31
339.334	1216.31
339.562	1213.31
339.79	1207.31
340.018	1178.31
340.246	1183.31
340.474	1202.31
340.702	1188.31
340.93	1186.31
341.158	1169.31
341.386	1181.31
341.614	1195.31
341.842	1187.31
342.07	1191.31
342.298	1189.31
342.526	1191.31
342.754	1194.31
342.981	1177.31
343.209	1209.31
343.437	1220.31
343.665	1238.31
343.893	1244.31
344.12	1262.31
344.348	1278.31
344.576	1272.31
344.804	1251.31
345.031	1228.31
345.259	1218.31
345.487	1168.31
345.714	1183.31
345.942	1213.31
346.17	1170.31
346.397	1157.31
346.625	1159.31
346.853	1127.31
347.08	1118.31
347.308	1127.31
347.535	1145.31
347.763	1150.31
347.99	1150.31
348.218	1126.31
348.445	1134.31
348.673	1112.31
348.9	1154.31
349.128	1116.31
349.355	1128.31
349.583	1141.31
349.81	1152.31
350.037	1130.31
350.265	1151.31
350.492	1121.31
350.72	1150.31
350.947	1116.31
351.174	1105.31
351.402	1144.31
351.629	1092.31
351.856	1119.31
352.083	1146.31
352.311	1135.31
352.538	1116.31
352.765	1097.31
352.992	1130.31
353.22	1128.31
353.447	1102.31
353.674	1128.31
353.901	1131.31
354.128	1118.31
354.355	1142.31
354.583	1143.31
354.81	1100.31
355.037	1122.31
355.264	1130.31
355.491	1105.31
355.718	1129.31
355.945	1122.31
356.172	1107.31
356.399	1121.31
356.626	1153.31
356.853	1141.31
357.08	1140.31
357.307	1143.31
357.534	1150.31
357.761	1149.31
357.988	1169.31
358.215	1157.31
358.441	1150.31
358.668	1143.31
358.895	1163.31
359.122	1129.31
359.349	1117.31
359.576	1141.31
359.802	1144.31
360.029	1117.31
360.256	1131.31
360.483	1142.31
360.709	1150.31
360.936	1154.31
361.163	1178.31
361.39	1158.31
361.616	1139.31
361.843	1151.31
362.07	1151.31
362.296	1156.31
362.523	1149.31
362.749	1169.31
362.976	1172.31
363.203	1180.31
363.429	1190.31
363.656	1186.31
363.882	1150.31
364.109	1159.31
364.335	1164.31
364.562	1152.31
364.788	1191.31
365.015	1182.31
365.241	1164.31
365.468	1162.31
365.694	1163.31
365.92	1128.31
366.147	1160.31
366.373	1167.31
366.599	1174.31
366.826	1150.31
367.052	1151.31
367.278	1179.31
367.505	1154.31
367.731	1188.31
367.957	1182.31
368.184	1184.31
368.41	1179.31
368.636	1175.31
368.862	1222.31
369.089	1191.31
369.315	1200.31
369.541	1199.31
369.767	1167.31
369.993	1183.31
370.219	1213.31
370.445	1214.31
370.672	1225.31
370.898	1228.31
371.124	1216.31
371.35	1212.31
371.576	1228.31
371.802	1238.31
372.028	1293.31
372.254	1290.31
372.48	1270.31
372.706	1285.31
372.932	1269.31
373.158	1280.31
373.384	1253.31
373.61	1300.31
373.835	1331.31
374.061	1290.31
374.287	1258.31
374.513	1304.31
374.739	1327.31
374.965	1346.31
375.191	1335.31
375.416	1330.31
375.642	1302.31
375.868	1293.31
376.094	1309.31
376.319	1280.31
376.545	1285.31
376.771	1321.31
376.997	1247.31
377.222	1255.31
377.448	1231.31
377.674	1253.31
377.899	1228.31
378.125	1267.31
378.35	1227.31
378.576	1236.31
378.802	1247.31
379.027	1256.31
379.253	1267.31
379.478	1266.31
379.704	1268.31
379.929	1279.31
380.155	1269.31
380.38	1236.31
380.606	1296.31
380.831	1271.31
381.057	1264.31
381.282	1267.31
381.507	1270.31
381.733	1304.31
381.958	1316.31
382.184	1325.31
382.409	1320.31
382.634	1343.31
382.86	1389.31
383.085	1298.31
383.31	1334.31
383.535	1366.31
383.761	1381.31
383.986	1375.31
384.211	1393.31
384.436	1404.31
384.662	1391.31
384.887	1422.31
385.112	1404.31
385.337	1458.31
385.562	1424.31
385.787	1446.31
386.013	1489.31
386.238	1459.31
386.463	1496.31
386.688	1463.31
386.913	1455.31
387.138	1483.31
387.363	1480.31
387.588	1459.31
387.813	1525.31
388.038	1484.31
388.263	1488.31
388.488	1507.31
388.713	1482.31
388.938	1512.31
389.163	1477.31
389.387	1480.31
389.612	1481.31
389.837	1516.31
390.062	1487.31
390.287	1499.31
390.512	1471.31
390.736	1511.31
390.961	1519.31
391.186	1509.31
391.411	1565.31
391.636	1561.31
391.86	1586.31
392.085	1602.31
392.31	1574.31
392.534	1567.31
392.759	1566.31
392.984	1561.31
393.208	1550.31
393.433	1556.31
393.658	1602.31
393.882	1582.31
394.107	1553.31
394.331	1575.31
394.556	1576.31
394.78	1551.31
395.005	1595.31
395.229	1559.31
395.454	1587.31
395.678	1626.31
395.903	1650.31
396.127	1631.31
396.352	1614.31
396.576	1606.31
396.801	1593.31
397.025	1694.31
397.249	1647.31
397.474	1690.31
397.698	1662.31
397.922	1709.31
398.147	1664.31
398.371	1711.31
398.595	1752.31
398.82	1804.31
399.044	1820.31
399.268	1948.31
399.492	2001.31
399.717	2066.31
399.941	2134.31
400.165	2068.31
400.389	2044.31
400.613	1978.31
400.837	1918.31
401.062	1869.31
401.286	1849.31
401.51	1823.31
401.734	1801.31
401.958	1801.31
402.182	1836.31
402.406	1822.31
402.63	1808.31
402.854	1803.31
403.078	1768.31
403.302	1798.31
403.526	1826.31
403.75	1826.31
403.974	1814.31
404.198	1821.31
404.422	1828.31
404.645	1877.31
404.869	1903.31
405.093	1867.31
405.317	1823.31
405.541	1847.31
405.765	1889.31
405.988	1851.31
406.212	1874.31
406.436	1900.31
406.66	1975.31
406.883	1951.31
407.107	2035.31
407.331	2038.31
407.555	2056.31
407.778	2065.31
408.002	2060.31
408.226	2024.31
408.449	2089.31
408.673	2026.31
408.896	1984.31
409.12	1961.31
409.344	1961.31
409.567	1942.31
409.791	1952.31
410.014	1925.31
410.238	1890.31
410.461	1884.31
410.685	1891.31
410.908	1880.31
411.132	1890.31
411.355	1867.31
411.578	1866.31
411.802	1882.31
412.025	1844.31
412.249	1871.31
412.472	1887.31
412.695	1834.31
412.919	1808.31
413.142	1848.31
413.365	1819.31
413.589	1851.31
413.812	1821.31
414.035	1806.31
414.258	1843.31
414.482	1818.31
414.705	1814.31
414.928	1787.31
415.151	1852.31
415.374	1743.31
415.597	1762.31
415.821	1733.31
416.044	1768.31
416.267	1702.31
416.49	1773.31
416.713	1734.31
416.936	1734.31
417.159	1722.31
417.382	1730.31
417.605	1757.31
417.828	1744.31
418.051	1757.31
418.274	1691.31
418.497	1696.31
418.72	1731.31
418.943	1694.31
419.166	1828.31
419.389	1922.31
419.611	1872.31
419.834	1809.31
420.057	1752.31
420.28	1745.31
420.503	1697.31
420.726	1702.31
420.948	1715.31
421.171	1710.31
421.394	1722.31
421.617	1690.31
421.839	1697.31
422.062	1682.31
422.285	1669.31
422.507	1720.31
422.73	1726.31
422.953	1706.31
423.175	1717.31
423.398	1716.31
423.621	1698.31
423.843	1709.31
424.066	1704.31
424.288	1712.31
424.511	1684.31
424.733	1682.31
424.956	1684.31
425.178	1715.31
425.401	1671.31
425.623	1716.31
425.846	1682.31
426.068	1681.31
426.291	1691.31
426.513	1737.31
426.735	1670.31
426.958	1710.31
427.18	1671.31
427.402	1675.31
427.625	1664.31
427.847	1636.31
428.069	1650.31
428.292	1641.31
428.514	1594.31
428.736	1606.31
428.958	1630.31
429.181	1626.31
429.403	1571.31
429.625	1624.31
429.847	1636.31
430.069	1677.31
430.292	1648.31
430.514	1576.31
430.736	1672.31
430.958	1658.31
431.18	1619.31
431.402	1626.31
431.624	1617.31
431.846	1614.31
432.068	1608.31
432.29	1653.31
432.512	1629.31
432.734	1668.31
432.956	1634.31
433.178	1632.31
433.4	1678.31
433.622	1666.31
433.844	1693.31
434.066	1657.31
434.287	1677.31
434.509	1718.31
434.731	1698.31
434.953	1672.31
435.175	1711.31
435.397	1718.31
435.618	1710.31
435.84	1676.31
436.062	1666.31
436.284	1619.31
436.505	1652.31
436.727	1652.31
436.949	1611.31
437.17	1615.31
437.392	1580.31
437.614	1611.31
437.835	1584.31
438.057	1610.31
438.278	1584.31
438.5	1627.31
438.721	1594.31
438.943	1610.31
439.165	1573.31
439.386	1551.31
439.608	1580.31
439.829	1628.31
440.05	1594.31
440.272	1613.31
440.493	1617.31
440.715	1642.31
440.936	1648.31
441.158	1618.31
441.379	1620.31
441.6	1670.31
441.822	1702.31
442.043	1695.31
442.264	1727.31
442.486	1658.31
442.707	1687.31
442.928	1699.31
443.149	1666.31
443.371	1681.31
443.592	1690.31
443.813	1670.31
444.034	1660.31
444.255	1725.31
444.476	1740.31
444.698	1769.31
444.919	1762.31
445.14	1869.31
445.361	1796.31
445.582	1764.31
445.803	1699.31
446.024	1648.31
446.245	1704.31
446.466	1663.31
446.687	1592.31
446.908	1630.31
447.129	1599.31
447.35	1572.31
447.571	1576.31
447.792	1543.31
448.013	1500.31
448.234	1476.31
448.455	1540.31
448.675	1492.31
448.896	1501.31
449.117	1455.31
449.338	1496.31
449.559	1543.31
449.779	1474.31
450	1453.31
450.221	1479.31
450.442	1478.31
450.662	1458.31
450.883	1461.31
451.104	1442.31
451.324	1432.31
451.545	1438.31
451.766	1488.31
451.986	1419.31
452.207	1450.31
452.428	1459.31
452.648	1478.31
452.869	1420.31
453.089	1387.31
453.31	1433.31
453.53	1432.31
453.751	1415.31
453.971	1388.31
454.192	1440.31
454.412	1414.31
454.633	1434.31
454.853	1399.31
455.073	1428.31
455.294	1403.31
455.514	1412.31
455.734	1447.31
455.955	1418.31
456.175	1418.31
456.395	1377.31
456.616	1398.31
456.836	1460.31
457.056	1413.31
457.276	1420.31
457.497	1442.31
457.717	1444.31
457.937	1438.31
458.157	1466.31
458.377	1456.31
458.598	1498.31
458.818	1513.31
459.038	1552.31
459.258	1547.31
459.478	1550.31
459.698	1604.31
459.918	1648.31
460.138	1643.31
460.358	1695.31
460.578	1727.31
460.798	1701.31
461.018	1720.31
461.238	1756.31
461.458	1767.31
461.678	1751.31
461.898	1806.31
462.118	1789.31
462.338	1835.31
462.558	1883.31
462.777	1901.31
462.997	1952.31
463.217	1956.31
463.437	1974.31
463.657	1990.31
463.876	1948.31
464.096	1975.31
464.316	1874.31
464.536	1847.31
464.755	1869.31
464.975	1864.31
465.195	1765.31
465.414	1755.31
465.634	1707.31
465.854	1719.31
466.073	1661.31
466.293	1630.31
466.512	1612.31
466.732	1622.31
466.951	1603.31
467.171	1591.31
467.391	1562.31
467.61	1559.31
467.829	1580.31
468.049	1558.31
468.268	1538.31
468.488	1555.31
468.707	1530.31
468.927	1570.31
469.146	1582.31
469.365	1583.31
469.585	1572.31
469.804	1572.31
470.023	1586.31
470.243	1598.31
470.462	1559.31
470.681	1578.31
470.901	1616.31
471.12	1563.31
471.339	1610.31
471.558	1599.31
471.777	1564.31
471.997	1581.31
472.216	1581.31
472.435	1597.31
472.654	1556.31
472.873	1540.31
473.092	1560.31
473.311	1580.31
473.53	1564.31
473.749	1551.31
473.968	1554.31
474.187	1556.31
474.406	1562.31
474.625	1577.31
474.844	1596.31
475.063	1637.31
475.282	1586.31
475.501	1596.31
475.72	1619.31
475.939	1635.31
476.158	1641.31
476.377	1668.31
476.596	1755.31
476.814	1773.31
477.033	1687.31
477.252	1707.31
477.471	1696.31
477.69	1718.31
477.908	1802.31
478.127	1778.31
478.346	1813.31
478.564	1819.31
478.783	1833.31
479.002	1859.31
479.22	1887.31
479.439	1968.31
479.658	1891.31
479.876	1941.31
480.095	1919.31
480.313	1941.31
480.532	1923.31
480.751	1889.31
480.969	1942.31
481.188	1928.31
481.406	1956.31
481.624	1900.31
481.843	1923.31
482.061	1846.31
482.28	1903.31
482.498	1894.31
482.717	1838.31
482.935	1901.31
483.153	1871.31
483.372	1912.31
483.59	1893.31
483.808	1882.31
484.027	1914.31
484.245	1903.31
484.463	1872.31
484.681	1892.31
484.9	1934.31
485.118	1954.31
485.336	1894.31
485.554	1906.31
485.772	1931.31
485.99	1907.31
486.209	1906.31
486.427	1932.31
486.645	1947.31
486.863	1968.31
487.081	1915.31
487.299	1924.31
487.517	1942.31
487.735	1888.31
487.953	1956.31
488.171	1959.31
488.389	1945.31
488.607	1920.31
488.825	1956.31
489.043	1921.31
489.261	1947.31
489.479	1937.31
489.696	1970.31
489.914	1925.31
490.132	1934.31
490.35	1971.31
490.568	1919.31
490.786	1934.31
491.003	2012.31
