Data from Fe(NO3)3@0.0125M.TitratingCurve.Agarose3%dH2O.NegLispCup.LampEnergy10.LIBS07252019_HRD10591_17-01-42-337.txt Node
Date: Thu Jul 25 17:01:42 EDT 2019
User: cochatt
Spectrometer: HR+D1059
Trigger mode: 1
Integration Time (sec): 1.000000E-1
Scans to average: 1
Electric dark correction enabled: true
Nonlinearity correction enabled: false
Boxcar width: 0
XAxis mode: Wavelengths
Number of Pixels in Spectrum: 2048
>>>>>Begin Spectral Data<<<<<
223.165	-21.44
223.4	-21.44
223.635	-21.44
223.869	-16.44
224.104	-17.44
224.338	-19.44
224.573	-10.44
224.808	-18.44
225.042	-7.44
225.277	-15.44
225.511	10.56
225.746	6.56
225.98	4.56
226.215	16.56
226.449	10.56
226.683	21.56
226.918	33.56
227.152	22.56
227.387	42.56
227.621	39.56
227.856	26.56
228.09	29.56
228.324	39.56
228.559	45.56
228.793	71.56
229.027	61.56
229.262	62.56
229.496	80.56
229.73	76.56
229.964	83.56
230.199	86.56
230.433	77.56
230.667	78.56
230.901	102.56
231.136	83.56
231.37	111.56
231.604	91.56
231.838	87.56
232.072	100.56
232.306	116.56
232.541	101.56
232.775	91.56
233.009	101.56
233.243	96.56
233.477	91.56
233.711	98.56
233.945	97.56
234.179	105.56
234.413	92.56
234.647	90.56
234.881	98.56
235.115	103.56
235.349	105.56
235.583	93.56
235.817	101.56
236.051	104.56
236.285	94.56
236.519	86.56
236.753	110.56
236.987	102.56
237.221	104.56
237.455	94.56
237.689	109.56
237.922	96.56
238.156	116.56
238.39	101.56
238.624	110.56
238.858	102.56
239.091	110.56
239.325	103.56
239.559	91.56
239.793	110.56
240.027	110.56
240.26	117.56
240.494	109.56
240.728	113.56
240.961	115.56
241.195	102.56
241.429	117.56
241.662	91.56
241.896	105.56
242.13	88.56
242.363	109.56
242.597	117.56
242.83	118.56
243.064	117.56
243.298	124.56
243.531	111.56
243.765	120.56
243.998	118.56
244.232	114.56
244.465	119.56
244.699	107.56
244.932	109.56
245.166	119.56
245.399	106.56
245.633	109.56
245.866	111.56
246.099	111.56
246.333	129.56
246.566	133.56
246.8	122.56
247.033	133.56
247.266	126.56
247.5	120.56
247.733	121.56
247.966	129.56
248.2	121.56
248.433	123.56
248.666	128.56
248.899	127.56
249.133	104.56
249.366	120.56
249.599	123.56
249.832	134.56
250.066	128.56
250.299	121.56
250.532	129.56
250.765	135.56
250.998	118.56
251.231	128.56
251.465	133.56
251.698	126.56
251.931	123.56
252.164	133.56
252.397	126.56
252.63	143.56
252.863	130.56
253.096	152.56
253.329	143.56
253.562	132.56
253.795	141.56
254.028	149.56
254.261	137.56
254.494	132.56
254.727	121.56
254.96	139.56
255.193	137.56
255.426	128.56
255.659	140.56
255.892	129.56
256.124	127.56
256.357	135.56
256.59	141.56
256.823	142.56
257.056	155.56
257.289	143.56
257.521	153.56
257.754	164.56
257.987	139.56
258.22	155.56
258.452	151.56
258.685	146.56
258.918	149.56
259.151	158.56
259.383	153.56
259.616	146.56
259.849	136.56
260.081	167.56
260.314	161.56
260.547	140.56
260.779	144.56
261.012	151.56
261.244	167.56
261.477	164.56
261.71	170.56
261.942	175.56
262.175	157.56
262.407	129.56
262.64	163.56
262.872	165.56
263.105	162.56
263.337	163.56
263.57	150.56
263.802	147.56
264.035	172.56
264.267	159.56
264.499	148.56
264.732	158.56
264.964	166.56
265.197	160.56
265.429	148.56
265.661	146.56
265.894	141.56
266.126	155.56
266.358	152.56
266.591	153.56
266.823	167.56
267.055	187.56
267.287	177.56
267.52	168.56
267.752	149.56
267.984	158.56
268.216	153.56
268.448	156.56
268.681	168.56
268.913	165.56
269.145	160.56
269.377	165.56
269.609	167.56
269.841	173.56
270.073	161.56
270.306	184.56
270.538	171.56
270.77	155.56
271.002	168.56
271.234	176.56
271.466	166.56
271.698	159.56
271.93	165.56
272.162	169.56
272.394	177.56
272.626	189.56
272.858	170.56
273.09	191.56
273.322	184.56
273.553	166.56
273.785	178.56
274.017	199.56
274.249	170.56
274.481	179.56
274.713	200.56
274.945	204.56
275.176	183.56
275.408	194.56
275.64	190.56
275.872	178.56
276.104	181.56
276.335	195.56
276.567	199.56
276.799	192.56
277.031	195.56
277.262	191.56
277.494	201.56
277.726	183.56
277.957	190.56
278.189	190.56
278.421	174.56
278.652	183.56
278.884	209.56
279.115	197.56
279.347	207.56
279.579	190.56
279.81	197.56
280.042	199.56
280.273	204.56
280.505	186.56
280.736	200.56
280.968	179.56
281.199	194.56
281.431	194.56
281.662	213.56
281.894	196.56
282.125	183.56
282.356	201.56
282.588	212.56
282.819	203.56
283.051	199.56
283.282	209.56
283.513	191.56
283.745	200.56
283.976	198.56
284.207	200.56
284.439	198.56
284.67	203.56
284.901	227.56
285.132	214.56
285.364	214.56
285.595	222.56
285.826	203.56
286.057	221.56
286.288	203.56
286.52	201.56
286.751	196.56
286.982	203.56
287.213	229.56
287.444	237.56
287.675	217.56
287.906	216.56
288.138	220.56
288.369	218.56
288.6	225.56
288.831	219.56
289.062	227.56
289.293	225.56
289.524	221.56
289.755	216.56
289.986	218.56
290.217	225.56
290.448	217.56
290.679	216.56
290.91	239.56
291.141	222.56
291.371	229.56
291.602	219.56
291.833	218.56
292.064	234.56
292.295	227.56
292.526	211.56
292.757	233.56
292.987	215.56
293.218	242.56
293.449	222.56
293.68	232.56
293.91	210.56
294.141	232.56
294.372	221.56
294.603	217.56
294.833	225.56
295.064	219.56
295.295	233.56
295.525	228.56
295.756	233.56
295.987	228.56
296.217	233.56
296.448	233.56
296.679	235.56
296.909	243.56
297.14	237.56
297.37	244.56
297.601	237.56
297.831	219.56
298.062	245.56
298.292	231.56
298.523	231.56
298.753	242.56
298.984	243.56
299.214	243.56
299.445	235.56
299.675	250.56
299.905	227.56
300.136	257.56
300.366	259.56
300.597	234.56
300.827	255.56
301.057	257.56
301.288	265.56
301.518	237.56
301.748	257.56
301.979	269.56
302.209	264.56
302.439	258.56
302.669	264.56
302.9	258.56
303.13	256.56
303.36	243.56
303.59	263.56
303.82	268.56
304.051	266.56
304.281	269.56
304.511	246.56
304.741	275.56
304.971	246.56
305.201	249.56
305.431	258.56
305.661	256.56
305.891	254.56
306.121	257.56
306.352	264.56
306.582	252.56
306.812	249.56
307.042	269.56
307.272	255.56
307.502	261.56
307.731	252.56
307.961	246.56
308.191	256.56
308.421	261.56
308.651	263.56
308.881	261.56
309.111	234.56
309.341	274.56
309.571	271.56
309.8	255.56
310.03	258.56
310.26	259.56
310.49	245.56
310.72	254.56
310.949	253.56
311.179	261.56
311.409	280.56
311.639	278.56
311.868	276.56
312.098	265.56
312.328	279.56
312.557	267.56
312.787	257.56
313.017	281.56
313.246	273.56
313.476	291.56
313.706	274.56
313.935	277.56
314.165	289.56
314.394	307.56
314.624	277.56
314.853	285.56
315.083	293.56
315.312	290.56
315.542	273.56
315.771	288.56
316.001	289.56
316.23	284.56
316.46	293.56
316.689	287.56
316.919	289.56
317.148	288.56
317.377	283.56
317.607	293.56
317.836	303.56
318.065	286.56
318.295	294.56
318.524	298.56
318.753	294.56
318.983	293.56
319.212	305.56
319.441	281.56
319.67	267.56
319.9	288.56
320.129	289.56
320.358	295.56
320.587	287.56
320.816	294.56
321.046	275.56
321.275	297.56
321.504	278.56
321.733	297.56
321.962	275.56
322.191	305.56
322.42	292.56
322.649	287.56
322.878	298.56
323.108	295.56
323.337	286.56
323.566	301.56
323.795	298.56
324.024	291.56
324.253	291.56
324.482	292.56
324.71	290.56
324.939	305.56
325.168	303.56
325.397	317.56
325.626	304.56
325.855	291.56
326.084	312.56
326.313	313.56
326.542	297.56
326.77	297.56
326.999	298.56
327.228	276.56
327.457	311.56
327.686	296.56
327.914	322.56
328.143	295.56
328.372	301.56
328.6	318.56
328.829	318.56
329.058	327.56
329.287	318.56
329.515	316.56
329.744	311.56
329.972	321.56
330.201	325.56
330.43	300.56
330.658	330.56
330.887	321.56
331.115	321.56
331.344	313.56
331.572	339.56
331.801	343.56
332.03	337.56
332.258	322.56
332.486	335.56
332.715	362.56
332.943	344.56
333.172	334.56
333.4	347.56
333.629	368.56
333.857	369.56
334.085	372.56
334.314	379.56
334.542	368.56
334.771	372.56
334.999	373.56
335.227	349.56
335.455	367.56
335.684	362.56
335.912	349.56
336.14	364.56
336.369	370.56
336.597	356.56
336.825	375.56
337.053	363.56
337.281	352.56
337.51	345.56
337.738	342.56
337.966	341.56
338.194	345.56
338.422	356.56
338.65	340.56
338.878	355.56
339.106	347.56
339.334	343.56
339.562	327.56
339.79	314.56
340.018	337.56
340.246	315.56
340.474	337.56
340.702	335.56
340.93	343.56
341.158	350.56
341.386	323.56
341.614	351.56
341.842	324.56
342.07	344.56
342.298	321.56
342.526	338.56
342.754	327.56
342.981	332.56
343.209	342.56
343.437	359.56
343.665	345.56
343.893	365.56
344.12	374.56
344.348	361.56
344.576	349.56
344.804	326.56
345.031	348.56
345.259	323.56
345.487	329.56
345.714	328.56
345.942	328.56
346.17	331.56
346.397	338.56
346.625	334.56
346.853	311.56
347.08	329.56
347.308	307.56
347.535	311.56
347.763	313.56
347.99	318.56
348.218	330.56
348.445	338.56
348.673	313.56
348.9	341.56
349.128	319.56
349.355	320.56
349.583	314.56
349.81	305.56
350.037	324.56
350.265	311.56
350.492	333.56
350.72	323.56
350.947	319.56
351.174	314.56
351.402	307.56
351.629	315.56
351.856	312.56
352.083	309.56
352.311	314.56
352.538	332.56
352.765	306.56
352.992	319.56
353.22	319.56
353.447	305.56
353.674	316.56
353.901	294.56
354.128	320.56
354.355	315.56
354.583	327.56
354.81	319.56
355.037	334.56
355.264	312.56
355.491	330.56
355.718	337.56
355.945	315.56
356.172	326.56
356.399	312.56
356.626	336.56
356.853	304.56
357.08	336.56
357.307	326.56
357.534	313.56
357.761	326.56
357.988	324.56
358.215	322.56
358.441	328.56
358.668	346.56
358.895	342.56
359.122	315.56
359.349	305.56
359.576	326.56
359.802	325.56
360.029	309.56
360.256	324.56
360.483	304.56
360.709	325.56
360.936	319.56
361.163	320.56
361.39	324.56
361.616	322.56
361.843	317.56
362.07	331.56
362.296	320.56
362.523	334.56
362.749	321.56
362.976	314.56
363.203	321.56
363.429	345.56
363.656	331.56
363.882	312.56
364.109	331.56
364.335	320.56
364.562	321.56
364.788	342.56
365.015	335.56
365.241	341.56
365.468	321.56
365.694	327.56
365.92	331.56
366.147	319.56
366.373	321.56
366.599	337.56
366.826	349.56
367.052	318.56
367.278	337.56
367.505	329.56
367.731	322.56
367.957	340.56
368.184	339.56
368.41	337.56
368.636	346.56
368.862	318.56
369.089	351.56
369.315	330.56
369.541	337.56
369.767	351.56
369.993	330.56
370.219	343.56
370.445	353.56
370.672	338.56
370.898	355.56
371.124	351.56
371.35	338.56
371.576	355.56
371.802	337.56
372.028	338.56
372.254	338.56
372.48	355.56
372.706	341.56
372.932	345.56
373.158	361.56
373.384	369.56
373.61	351.56
373.835	359.56
374.061	350.56
374.287	378.56
374.513	341.56
374.739	365.56
374.965	377.56
375.191	375.56
375.416	366.56
375.642	386.56
375.868	355.56
376.094	357.56
376.319	361.56
376.545	365.56
376.771	345.56
376.997	356.56
377.222	354.56
377.448	329.56
377.674	345.56
377.899	360.56
378.125	343.56
378.35	345.56
378.576	339.56
378.802	345.56
379.027	352.56
379.253	349.56
379.478	346.56
379.704	351.56
379.929	338.56
380.155	356.56
380.38	348.56
380.606	366.56
380.831	363.56
381.057	355.56
381.282	352.56
381.507	345.56
381.733	365.56
381.958	356.56
382.184	362.56
382.409	368.56
382.634	373.56
382.86	360.56
383.085	362.56
383.31	375.56
383.535	362.56
383.761	387.56
383.986	381.56
384.211	367.56
384.436	410.56
384.662	386.56
384.887	375.56
385.112	372.56
385.337	393.56
385.562	405.56
385.787	389.56
386.013	414.56
386.238	404.56
386.463	416.56
386.688	408.56
386.913	399.56
387.138	410.56
387.363	419.56
387.588	405.56
387.813	392.56
388.038	408.56
388.263	390.56
388.488	411.56
388.713	435.56
388.938	402.56
389.163	419.56
389.387	413.56
389.612	374.56
389.837	399.56
390.062	411.56
390.287	396.56
390.512	378.56
390.736	410.56
390.961	419.56
391.186	404.56
391.411	422.56
391.636	422.56
391.86	430.56
392.085	443.56
392.31	430.56
392.534	430.56
392.759	445.56
392.984	421.56
393.208	431.56
393.433	454.56
393.658	443.56
393.882	440.56
394.107	446.56
394.331	447.56
394.556	424.56
394.78	435.56
395.005	441.56
395.229	453.56
395.454	441.56
395.678	445.56
395.903	448.56
396.127	433.56
396.352	441.56
396.576	433.56
396.801	442.56
397.025	451.56
397.249	453.56
397.474	449.56
397.698	438.56
397.922	454.56
398.147	446.56
398.371	459.56
398.595	489.56
398.82	489.56
399.044	486.56
399.268	523.56
399.492	562.56
399.717	594.56
399.941	583.56
400.165	586.56
400.389	570.56
400.613	529.56
400.837	521.56
401.062	512.56
401.286	493.56
401.51	483.56
401.734	482.56
401.958	495.56
402.182	515.56
402.406	502.56
402.63	489.56
402.854	475.56
403.078	496.56
403.302	515.56
403.526	499.56
403.75	519.56
403.974	503.56
404.198	495.56
404.422	506.56
404.645	529.56
404.869	506.56
405.093	517.56
405.317	502.56
405.541	505.56
405.765	511.56
405.988	490.56
406.212	509.56
406.436	522.56
406.66	538.56
406.883	523.56
407.107	561.56
407.331	573.56
407.555	585.56
407.778	570.56
408.002	559.56
408.226	557.56
408.449	551.56
408.673	557.56
408.896	556.56
409.12	529.56
409.344	512.56
409.567	541.56
409.791	534.56
410.014	524.56
410.238	523.56
410.461	536.56
410.685	501.56
410.908	493.56
411.132	506.56
411.355	509.56
411.578	493.56
411.802	512.56
412.025	507.56
412.249	498.56
412.472	515.56
412.695	503.56
412.919	507.56
413.142	507.56
413.365	508.56
413.589	514.56
413.812	491.56
414.035	479.56
414.258	487.56
414.482	476.56
414.705	490.56
414.928	490.56
415.151	501.56
415.374	482.56
415.597	491.56
415.821	469.56
416.044	484.56
416.267	507.56
416.49	485.56
416.713	478.56
416.936	458.56
417.159	468.56
417.382	454.56
417.605	487.56
417.828	473.56
418.051	494.56
418.274	477.56
418.497	461.56
418.72	494.56
418.943	460.56
419.166	506.56
419.389	533.56
419.611	512.56
419.834	515.56
420.057	493.56
420.28	472.56
420.503	477.56
420.726	460.56
420.948	480.56
421.171	486.56
421.394	483.56
421.617	484.56
421.839	490.56
422.062	483.56
422.285	466.56
422.507	475.56
422.73	481.56
422.953	465.56
423.175	481.56
423.398	478.56
423.621	453.56
423.843	479.56
424.066	473.56
424.288	464.56
424.511	482.56
424.733	477.56
424.956	445.56
425.178	464.56
425.401	465.56
425.623	462.56
425.846	437.56
426.068	465.56
426.291	451.56
426.513	449.56
426.735	440.56
426.958	433.56
427.18	434.56
427.402	453.56
427.625	440.56
427.847	450.56
428.069	439.56
428.292	442.56
428.514	457.56
428.736	454.56
428.958	456.56
429.181	446.56
429.403	433.56
429.625	452.56
429.847	451.56
430.069	448.56
430.292	426.56
430.514	446.56
430.736	448.56
430.958	437.56
431.18	445.56
431.402	438.56
431.624	438.56
431.846	437.56
432.068	450.56
432.29	439.56
432.512	443.56
432.734	459.56
432.956	443.56
433.178	449.56
433.4	442.56
433.622	459.56
433.844	463.56
434.066	468.56
434.287	456.56
434.509	473.56
434.731	478.56
434.953	473.56
435.175	467.56
435.397	461.56
435.618	467.56
435.84	454.56
436.062	450.56
436.284	437.56
436.505	458.56
436.727	437.56
436.949	445.56
437.17	448.56
437.392	440.56
437.614	448.56
437.835	424.56
438.057	439.56
438.278	406.56
438.5	394.56
438.721	417.56
438.943	430.56
439.165	406.56
439.386	456.56
439.608	440.56
439.829	447.56
440.05	469.56
440.272	431.56
440.493	452.56
440.715	439.56
440.936	439.56
441.158	473.56
441.379	458.56
441.6	459.56
441.822	458.56
442.043	465.56
442.264	450.56
442.486	465.56
442.707	435.56
442.928	461.56
443.149	456.56
443.371	474.56
443.592	465.56
443.813	452.56
444.034	468.56
444.255	480.56
444.476	465.56
444.698	477.56
444.919	506.56
445.14	618.56
445.361	546.56
445.582	463.56
445.803	461.56
446.024	465.56
446.245	466.56
446.466	448.56
446.687	458.56
446.908	442.56
447.129	442.56
447.35	428.56
447.571	421.56
447.792	409.56
448.013	401.56
448.234	415.56
448.455	400.56
448.675	408.56
448.896	410.56
449.117	420.56
449.338	424.56
449.559	413.56
449.779	430.56
450	415.56
450.221	429.56
450.442	422.56
450.662	396.56
450.883	421.56
451.104	424.56
451.324	402.56
451.545	401.56
451.766	412.56
451.986	393.56
452.207	407.56
452.428	412.56
452.648	415.56
452.869	408.56
453.089	419.56
453.31	401.56
453.53	391.56
453.751	389.56
453.971	410.56
454.192	382.56
454.412	376.56
454.633	391.56
454.853	374.56
455.073	393.56
455.294	391.56
455.514	383.56
455.734	386.56
455.955	393.56
456.175	399.56
456.395	391.56
456.616	388.56
456.836	401.56
457.056	383.56
457.276	379.56
457.497	406.56
457.717	384.56
457.937	397.56
458.157	396.56
458.377	398.56
458.598	410.56
458.818	404.56
459.038	421.56
459.258	450.56
459.478	456.56
459.698	450.56
459.918	438.56
460.138	466.56
460.358	479.56
460.578	470.56
460.798	473.56
461.018	479.56
461.238	476.56
461.458	503.56
461.678	493.56
461.898	513.56
462.118	505.56
462.338	516.56
462.558	525.56
462.777	538.56
462.997	568.56
463.217	570.56
463.437	573.56
463.657	535.56
463.876	543.56
464.096	565.56
464.316	525.56
464.536	524.56
464.755	516.56
464.975	513.56
465.195	507.56
465.414	482.56
465.634	454.56
465.854	456.56
466.073	453.56
466.293	449.56
466.512	430.56
466.732	436.56
466.951	434.56
467.171	425.56
467.391	435.56
467.61	434.56
467.829	441.56
468.049	443.56
468.268	403.56
468.488	443.56
468.707	436.56
468.927	422.56
469.146	419.56
469.365	425.56
469.585	405.56
469.804	411.56
470.023	422.56
470.243	466.56
470.462	437.56
470.681	457.56
470.901	430.56
471.12	426.56
471.339	451.56
471.558	421.56
471.777	409.56
471.997	421.56
472.216	416.56
472.435	420.56
472.654	422.56
472.873	415.56
473.092	410.56
473.311	424.56
473.53	420.56
473.749	402.56
473.968	412.56
474.187	431.56
474.406	443.56
474.625	423.56
474.844	406.56
475.063	421.56
475.282	410.56
475.501	425.56
475.72	423.56
475.939	439.56
476.158	426.56
476.377	458.56
476.596	444.56
476.814	437.56
477.033	449.56
477.252	443.56
477.471	459.56
477.69	466.56
477.908	457.56
478.127	472.56
478.346	485.56
478.564	487.56
478.783	476.56
479.002	483.56
479.22	481.56
479.439	501.56
479.658	490.56
479.876	490.56
480.095	485.56
480.313	507.56
480.532	516.56
480.751	522.56
480.969	505.56
481.188	509.56
481.406	490.56
481.624	483.56
481.843	484.56
482.061	491.56
482.28	494.56
482.498	490.56
482.717	479.56
482.935	506.56
483.153	457.56
483.372	459.56
483.59	475.56
483.808	477.56
484.027	492.56
484.245	495.56
484.463	500.56
484.681	491.56
484.9	511.56
485.118	471.56
485.336	477.56
485.554	502.56
485.772	516.56
485.99	483.56
486.209	497.56
486.427	507.56
486.645	494.56
486.863	497.56
487.081	493.56
487.299	483.56
487.517	484.56
487.735	489.56
487.953	498.56
488.171	491.56
488.389	507.56
488.607	511.56
488.825	508.56
489.043	509.56
489.261	510.56
489.479	519.56
489.696	501.56
489.914	516.56
490.132	477.56
490.35	498.56
490.568	495.56
490.786	498.56
491.003	504.56
491.221	531.56
491.439	488.56
491.657	498.56
491.874	529.56
492.092	496.56
492.31	533.56
492.527	511.56
492.745	521.56
492.963	534.56
493.18	513.56
493.398	509.56
493.615	521.56
493.833	512.56
494.05	529.56
494.268	513.56
494.485	533.56
494.703	524.56
494.92	528.56
495.138	544.56
495.355	536.56
495.573	544.56
495.79	528.56
496.008	553.56
496.225	560.56
496.442	547.56
496.66	566.56
496.877	557.56
497.094	595.56
497.312	609.56
497.529	609.56
497.746	634.56
497.963	614.56
498.181	637.56
498.398	659.56
498.615	689.56
498.832	717.56
499.049	738.56
499.267	768.56
499.484	825.56
499.701	863.56
499.918	921.56
500.135	961.56
500.352	1019.56
500.569	1047.56
500.786	1051.56
501.003	997.56
501.22	976.56
501.437	889.56
501.654	852.56
501.871	791.56
