Data from Fe(NO3)3@0.1M.TitratingCurve.Agarose3%dH2O.NegLispCup.LampEnergy10.LIBS07252019_HRD10591_16-37-34-331.txt Node
Date: Thu Jul 25 16:37:34 EDT 2019
User: cochatt
Spectrometer: HR+D1059
Trigger mode: 1
Integration Time (sec): 1.000000E-1
Scans to average: 1
Electric dark correction enabled: true
Nonlinearity correction enabled: false
Boxcar width: 0
XAxis mode: Wavelengths
Number of Pixels in Spectrum: 2048
>>>>>Begin Spectral Data<<<<<
223.165	-26.25
223.4	-26.25
223.635	-26.25
223.869	-24.25
224.104	-20.25
224.338	-4.25
224.573	-11.25
224.808	-17.25
225.042	-12.25
225.277	-1.25
225.511	-0.25
225.746	8.75
225.98	6.75
226.215	13.75
226.449	20.75
226.683	20.75
226.918	19.75
227.152	26.75
227.387	21.75
227.621	39.75
227.856	52.75
228.09	48.75
228.324	31.75
228.559	33.75
228.793	58.75
229.027	80.75
229.262	77.75
229.496	75.75
229.73	91.75
229.964	96.75
230.199	82.75
230.433	87.75
230.667	82.75
230.901	98.75
231.136	105.75
231.37	100.75
231.604	111.75
231.838	97.75
232.072	96.75
232.306	105.75
232.541	92.75
232.775	107.75
233.009	101.75
233.243	116.75
233.477	99.75
233.711	110.75
233.945	101.75
234.179	98.75
234.413	106.75
234.647	100.75
234.881	104.75
235.115	109.75
235.349	104.75
235.583	105.75
235.817	111.75
236.051	103.75
236.285	102.75
236.519	108.75
236.753	104.75
236.987	98.75
237.221	106.75
237.455	103.75
237.689	111.75
237.922	106.75
238.156	98.75
238.39	136.75
238.624	120.75
238.858	97.75
239.091	92.75
239.325	118.75
239.559	117.75
239.793	111.75
240.027	120.75
240.26	120.75
240.494	105.75
240.728	106.75
240.961	105.75
241.195	110.75
241.429	114.75
241.662	112.75
241.896	101.75
242.13	128.75
242.363	113.75
242.597	118.75
242.83	137.75
243.064	138.75
243.298	135.75
243.531	119.75
243.765	131.75
243.998	129.75
244.232	119.75
244.465	130.75
244.699	123.75
244.932	114.75
245.166	119.75
245.399	130.75
245.633	144.75
245.866	134.75
246.099	132.75
246.333	139.75
246.566	135.75
246.8	131.75
247.033	138.75
247.266	142.75
247.5	142.75
247.733	120.75
247.966	129.75
248.2	147.75
248.433	147.75
248.666	139.75
248.899	138.75
249.133	127.75
249.366	144.75
249.599	153.75
249.832	141.75
250.066	153.75
250.299	145.75
250.532	132.75
250.765	145.75
250.998	144.75
251.231	154.75
251.465	156.75
251.698	149.75
251.931	153.75
252.164	132.75
252.397	158.75
252.63	154.75
252.863	164.75
253.096	148.75
253.329	155.75
253.562	164.75
253.795	143.75
254.028	156.75
254.261	163.75
254.494	154.75
254.727	148.75
254.96	159.75
255.193	165.75
255.426	168.75
255.659	163.75
255.892	162.75
256.124	152.75
256.357	167.75
256.59	175.75
256.823	159.75
257.056	171.75
257.289	165.75
257.521	163.75
257.754	158.75
257.987	175.75
258.22	170.75
258.452	159.75
258.685	182.75
258.918	177.75
259.151	176.75
259.383	184.75
259.616	174.75
259.849	178.75
260.081	160.75
260.314	190.75
260.547	179.75
260.779	176.75
261.012	166.75
261.244	178.75
261.477	197.75
261.71	177.75
261.942	167.75
262.175	176.75
262.407	181.75
262.64	183.75
262.872	175.75
263.105	179.75
263.337	190.75
263.57	201.75
263.802	173.75
264.035	181.75
264.267	194.75
264.499	186.75
264.732	188.75
264.964	193.75
265.197	178.75
265.429	196.75
265.661	182.75
265.894	167.75
266.126	190.75
266.358	189.75
266.591	185.75
266.823	194.75
267.055	177.75
267.287	185.75
267.52	193.75
267.752	194.75
267.984	187.75
268.216	196.75
268.448	193.75
268.681	192.75
268.913	188.75
269.145	202.75
269.377	207.75
269.609	203.75
269.841	205.75
270.073	187.75
270.306	201.75
270.538	220.75
270.77	212.75
271.002	194.75
271.234	215.75
271.466	196.75
271.698	194.75
271.93	194.75
272.162	186.75
272.394	204.75
272.626	185.75
272.858	202.75
273.09	211.75
273.322	217.75
273.553	225.75
273.785	199.75
274.017	203.75
274.249	212.75
274.481	202.75
274.713	214.75
274.945	226.75
275.176	224.75
275.408	211.75
275.64	215.75
275.872	219.75
276.104	226.75
276.335	203.75
276.567	217.75
276.799	235.75
277.031	235.75
277.262	215.75
277.494	211.75
277.726	213.75
277.957	222.75
278.189	216.75
278.421	204.75
278.652	213.75
278.884	231.75
279.115	236.75
279.347	228.75
279.579	221.75
279.81	236.75
280.042	224.75
280.273	239.75
280.505	233.75
280.736	222.75
280.968	244.75
281.199	227.75
281.431	234.75
281.662	228.75
281.894	249.75
282.125	235.75
282.356	231.75
282.588	241.75
282.819	244.75
283.051	239.75
283.282	242.75
283.513	249.75
283.745	257.75
283.976	230.75
284.207	236.75
284.439	243.75
284.67	239.75
284.901	242.75
285.132	252.75
285.364	250.75
285.595	234.75
285.826	244.75
286.057	254.75
286.288	260.75
286.52	240.75
286.751	259.75
286.982	258.75
287.213	267.75
287.444	262.75
287.675	254.75
287.906	247.75
288.138	260.75
288.369	249.75
288.6	253.75
288.831	262.75
289.062	268.75
289.293	255.75
289.524	279.75
289.755	258.75
289.986	256.75
290.217	262.75
290.448	253.75
290.679	276.75
290.91	254.75
291.141	251.75
291.371	255.75
291.602	273.75
291.833	275.75
292.064	253.75
292.295	269.75
292.526	263.75
292.757	269.75
292.987	255.75
293.218	261.75
293.449	275.75
293.68	290.75
293.91	244.75
294.141	264.75
294.372	244.75
294.603	243.75
294.833	264.75
295.064	273.75
295.295	280.75
295.525	290.75
295.756	282.75
295.987	274.75
296.217	269.75
296.448	267.75
296.679	271.75
296.909	280.75
297.14	278.75
297.37	276.75
297.601	292.75
297.831	289.75
298.062	286.75
298.292	280.75
298.523	283.75
298.753	263.75
298.984	284.75
299.214	295.75
299.445	275.75
299.675	279.75
299.905	287.75
300.136	271.75
300.366	299.75
300.597	278.75
300.827	304.75
301.057	306.75
301.288	304.75
301.518	302.75
301.748	276.75
301.979	281.75
302.209	275.75
302.439	309.75
302.669	290.75
302.9	289.75
303.13	304.75
303.36	302.75
303.59	305.75
303.82	313.75
304.051	294.75
304.281	296.75
304.511	287.75
304.741	296.75
304.971	294.75
305.201	289.75
305.431	294.75
305.661	303.75
305.891	296.75
306.121	305.75
306.352	308.75
306.582	290.75
306.812	287.75
307.042	283.75
307.272	313.75
307.502	305.75
307.731	290.75
307.961	311.75
308.191	310.75
308.421	296.75
308.651	292.75
308.881	297.75
309.111	304.75
309.341	298.75
309.571	298.75
309.8	304.75
310.03	292.75
310.26	300.75
310.49	301.75
310.72	308.75
310.949	299.75
311.179	304.75
311.409	302.75
311.639	313.75
311.868	300.75
312.098	309.75
312.328	302.75
312.557	310.75
312.787	314.75
313.017	327.75
313.246	334.75
313.476	312.75
313.706	331.75
313.935	321.75
314.165	324.75
314.394	324.75
314.624	311.75
314.853	288.75
315.083	321.75
315.312	316.75
315.542	327.75
315.771	312.75
316.001	320.75
316.23	322.75
316.46	332.75
316.689	318.75
316.919	312.75
317.148	325.75
317.377	338.75
317.607	339.75
317.836	314.75
318.065	307.75
318.295	320.75
318.524	326.75
318.753	323.75
318.983	325.75
319.212	310.75
319.441	332.75
319.67	330.75
319.9	313.75
320.129	313.75
320.358	327.75
320.587	346.75
320.816	325.75
321.046	298.75
321.275	312.75
321.504	329.75
321.733	307.75
321.962	306.75
322.191	329.75
322.42	331.75
322.649	327.75
322.878	332.75
323.108	307.75
323.337	318.75
323.566	325.75
323.795	322.75
324.024	327.75
324.253	329.75
324.482	316.75
324.71	345.75
324.939	316.75
325.168	337.75
325.397	335.75
325.626	327.75
325.855	316.75
326.084	314.75
326.313	343.75
326.542	353.75
326.77	337.75
326.999	358.75
327.228	349.75
327.457	339.75
327.686	350.75
327.914	329.75
328.143	355.75
328.372	346.75
328.6	324.75
328.829	344.75
329.058	362.75
329.287	336.75
329.515	334.75
329.744	360.75
329.972	355.75
330.201	346.75
330.43	363.75
330.658	373.75
330.887	362.75
331.115	368.75
331.344	362.75
331.572	384.75
331.801	364.75
332.03	394.75
332.258	382.75
332.486	402.75
332.715	387.75
332.943	386.75
333.172	401.75
333.4	409.75
333.629	428.75
333.857	422.75
334.085	427.75
334.314	442.75
334.542	430.75
334.771	438.75
334.999	445.75
335.227	423.75
335.455	428.75
335.684	410.75
335.912	430.75
336.14	392.75
336.369	422.75
336.597	407.75
336.825	399.75
337.053	376.75
337.281	410.75
337.51	381.75
337.738	376.75
337.966	394.75
338.194	394.75
338.422	379.75
338.65	392.75
338.878	388.75
339.106	406.75
339.334	382.75
339.562	352.75
339.79	357.75
340.018	380.75
340.246	367.75
340.474	382.75
340.702	376.75
340.93	374.75
341.158	352.75
341.386	380.75
341.614	364.75
341.842	388.75
342.07	374.75
342.298	376.75
342.526	378.75
342.754	360.75
342.981	359.75
343.209	390.75
343.437	392.75
343.665	389.75
343.893	412.75
344.12	426.75
344.348	388.75
344.576	403.75
344.804	402.75
345.031	384.75
345.259	383.75
345.487	368.75
345.714	338.75
345.942	366.75
346.17	361.75
346.397	355.75
346.625	366.75
346.853	351.75
347.08	354.75
347.308	371.75
347.535	359.75
347.763	371.75
347.99	368.75
348.218	391.75
348.445	363.75
348.673	372.75
348.9	345.75
349.128	359.75
349.355	347.75
349.583	350.75
349.81	370.75
350.037	363.75
350.265	355.75
350.492	346.75
350.72	356.75
350.947	341.75
351.174	342.75
351.402	330.75
351.629	340.75
351.856	346.75
352.083	328.75
352.311	338.75
352.538	371.75
352.765	366.75
352.992	358.75
353.22	356.75
353.447	353.75
353.674	343.75
353.901	366.75
354.128	370.75
354.355	358.75
354.583	369.75
354.81	340.75
355.037	324.75
355.264	353.75
355.491	356.75
355.718	344.75
355.945	355.75
356.172	357.75
356.399	352.75
356.626	347.75
356.853	364.75
357.08	356.75
357.307	368.75
357.534	373.75
357.761	336.75
357.988	325.75
358.215	379.75
358.441	357.75
358.668	346.75
358.895	364.75
359.122	364.75
359.349	341.75
359.576	346.75
359.802	340.75
360.029	357.75
360.256	362.75
360.483	362.75
360.709	358.75
360.936	362.75
361.163	356.75
361.39	344.75
361.616	359.75
361.843	358.75
362.07	357.75
362.296	353.75
362.523	354.75
362.749	341.75
362.976	344.75
363.203	336.75
363.429	355.75
363.656	359.75
363.882	363.75
364.109	360.75
364.335	359.75
364.562	364.75
364.788	335.75
365.015	362.75
365.241	362.75
365.468	334.75
365.694	355.75
365.92	355.75
366.147	352.75
366.373	374.75
366.599	348.75
366.826	367.75
367.052	364.75
367.278	332.75
367.505	355.75
367.731	363.75
367.957	363.75
368.184	366.75
368.41	362.75
368.636	366.75
368.862	371.75
369.089	356.75
369.315	361.75
369.541	374.75
369.767	374.75
369.993	363.75
370.219	367.75
370.445	376.75
370.672	387.75
370.898	392.75
371.124	403.75
371.35	389.75
371.576	383.75
371.802	377.75
372.028	380.75
372.254	395.75
372.48	397.75
372.706	394.75
372.932	403.75
373.158	382.75
373.384	392.75
373.61	406.75
373.835	401.75
374.061	397.75
374.287	393.75
374.513	403.75
374.739	408.75
374.965	387.75
375.191	424.75
375.416	403.75
375.642	397.75
375.868	393.75
376.094	408.75
376.319	397.75
376.545	398.75
376.771	417.75
376.997	391.75
377.222	388.75
377.448	395.75
377.674	386.75
377.899	412.75
378.125	390.75
378.35	408.75
378.576	403.75
378.802	379.75
379.027	386.75
379.253	383.75
379.478	386.75
379.704	391.75
379.929	386.75
380.155	404.75
380.38	398.75
380.606	394.75
380.831	394.75
381.057	391.75
381.282	392.75
381.507	410.75
381.733	404.75
381.958	436.75
382.184	406.75
382.409	432.75
382.634	423.75
382.86	440.75
383.085	420.75
383.31	412.75
383.535	446.75
383.761	448.75
383.986	423.75
384.211	444.75
384.436	466.75
384.662	445.75
384.887	446.75
385.112	442.75
385.337	464.75
385.562	467.75
385.787	475.75
386.013	470.75
386.238	495.75
386.463	472.75
386.688	451.75
386.913	472.75
387.138	449.75
387.363	468.75
387.588	478.75
387.813	460.75
388.038	462.75
388.263	506.75
388.488	477.75
388.713	478.75
388.938	446.75
389.163	476.75
389.387	466.75
389.612	470.75
389.837	463.75
390.062	451.75
390.287	465.75
390.512	484.75
390.736	472.75
390.961	476.75
391.186	489.75
391.411	512.75
391.636	504.75
391.86	511.75
392.085	532.75
392.31	523.75
392.534	503.75
392.759	496.75
392.984	513.75
393.208	501.75
393.433	487.75
393.658	496.75
393.882	494.75
394.107	522.75
394.331	520.75
394.556	515.75
394.78	515.75
395.005	533.75
395.229	500.75
395.454	500.75
395.678	515.75
395.903	535.75
396.127	516.75
396.352	518.75
396.576	510.75
396.801	515.75
397.025	520.75
397.249	515.75
397.474	528.75
397.698	540.75
397.922	520.75
398.147	547.75
398.371	539.75
398.595	555.75
398.82	598.75
399.044	603.75
399.268	650.75
399.492	727.75
399.717	798.75
399.941	776.75
400.165	725.75
400.389	654.75
400.613	639.75
400.837	618.75
401.062	624.75
401.286	610.75
401.51	589.75
401.734	617.75
401.958	593.75
402.182	590.75
402.406	593.75
402.63	593.75
402.854	599.75
403.078	616.75
403.302	614.75
403.526	626.75
403.75	633.75
403.974	631.75
404.198	651.75
404.422	643.75
404.645	631.75
404.869	622.75
405.093	654.75
405.317	619.75
405.541	627.75
405.765	639.75
405.988	627.75
406.212	630.75
406.436	628.75
406.66	628.75
406.883	635.75
407.107	648.75
407.331	680.75
407.555	710.75
407.778	698.75
408.002	728.75
408.226	689.75
408.449	658.75
408.673	642.75
408.896	655.75
409.12	643.75
409.344	643.75
409.567	649.75
409.791	648.75
410.014	649.75
410.238	646.75
410.461	636.75
410.685	623.75
410.908	638.75
411.132	634.75
411.355	612.75
411.578	633.75
411.802	642.75
412.025	625.75
412.249	605.75
412.472	602.75
412.695	591.75
412.919	569.75
413.142	610.75
413.365	585.75
413.589	614.75
413.812	585.75
414.035	596.75
414.258	601.75
414.482	580.75
414.705	588.75
414.928	617.75
415.151	612.75
415.374	580.75
415.597	621.75
415.821	572.75
416.044	572.75
416.267	580.75
416.49	563.75
416.713	562.75
416.936	580.75
417.159	559.75
417.382	559.75
417.605	576.75
417.828	583.75
418.051	560.75
418.274	583.75
418.497	564.75
418.72	605.75
418.943	574.75
419.166	597.75
419.389	615.75
419.611	604.75
419.834	630.75
420.057	603.75
420.28	576.75
420.503	550.75
420.726	542.75
420.948	539.75
421.171	554.75
421.394	560.75
421.617	568.75
421.839	546.75
422.062	562.75
422.285	577.75
422.507	590.75
422.73	583.75
422.953	580.75
423.175	594.75
423.398	596.75
423.621	597.75
423.843	580.75
424.066	582.75
424.288	591.75
424.511	585.75
424.733	596.75
424.956	572.75
425.178	572.75
425.401	562.75
425.623	576.75
425.846	567.75
426.068	559.75
426.291	547.75
426.513	546.75
426.735	545.75
426.958	545.75
427.18	546.75
427.402	548.75
427.625	554.75
427.847	512.75
428.069	525.75
428.292	526.75
428.514	490.75
428.736	507.75
428.958	544.75
429.181	514.75
429.403	502.75
429.625	519.75
429.847	513.75
430.069	524.75
430.292	529.75
430.514	526.75
430.736	531.75
430.958	517.75
431.18	522.75
431.402	523.75
431.624	536.75
431.846	530.75
432.068	540.75
432.29	537.75
432.512	518.75
432.734	538.75
432.956	512.75
433.178	526.75
433.4	530.75
433.622	543.75
433.844	535.75
434.066	524.75
434.287	536.75
434.509	554.75
434.731	561.75
434.953	553.75
435.175	564.75
435.397	569.75
435.618	542.75
435.84	532.75
436.062	524.75
436.284	524.75
436.505	529.75
436.727	529.75
436.949	500.75
437.17	538.75
437.392	523.75
437.614	529.75
437.835	505.75
438.057	487.75
438.278	482.75
438.5	500.75
438.721	515.75
438.943	511.75
439.165	514.75
439.386	511.75
439.608	517.75
439.829	521.75
440.05	514.75
440.272	513.75
440.493	534.75
440.715	534.75
440.936	539.75
441.158	543.75
441.379	552.75
441.6	592.75
441.822	547.75
442.043	564.75
442.264	551.75
442.486	540.75
442.707	550.75
442.928	561.75
443.149	582.75
443.371	562.75
443.592	546.75
443.813	579.75
444.034	554.75
444.255	580.75
444.476	613.75
444.698	629.75
444.919	642.75
445.14	735.75
445.361	672.75
445.582	591.75
445.803	566.75
446.024	530.75
446.245	561.75
446.466	532.75
446.687	541.75
446.908	549.75
447.129	534.75
447.35	537.75
447.571	519.75
447.792	514.75
448.013	499.75
448.234	466.75
448.455	499.75
448.675	478.75
448.896	479.75
449.117	466.75
449.338	480.75
449.559	480.75
449.779	482.75
450	466.75
450.221	487.75
450.442	486.75
450.662	501.75
450.883	496.75
451.104	476.75
451.324	465.75
451.545	479.75
451.766	459.75
451.986	480.75
452.207	483.75
452.428	467.75
452.648	489.75
452.869	469.75
453.089	462.75
453.31	474.75
453.53	487.75
453.751	490.75
453.971	432.75
454.192	473.75
454.412	463.75
454.633	442.75
454.853	472.75
455.073	478.75
455.294	460.75
455.514	434.75
455.734	433.75
455.955	456.75
456.175	465.75
456.395	451.75
456.616	470.75
456.836	453.75
457.056	450.75
457.276	452.75
457.497	467.75
457.717	460.75
457.937	466.75
458.157	455.75
458.377	456.75
458.598	491.75
458.818	493.75
459.038	532.75
459.258	521.75
459.478	546.75
459.698	538.75
459.918	548.75
460.138	561.75
460.358	598.75
460.578	581.75
460.798	579.75
461.018	574.75
461.238	600.75
461.458	598.75
461.678	601.75
461.898	623.75
462.118	598.75
462.338	650.75
462.558	658.75
462.777	648.75
462.997	686.75
463.217	735.75
463.437	730.75
463.657	691.75
463.876	676.75
464.096	666.75
464.316	678.75
464.536	662.75
464.755	615.75
464.975	617.75
465.195	616.75
465.414	571.75
465.634	555.75
465.854	544.75
466.073	543.75
466.293	514.75
466.512	518.75
466.732	520.75
466.951	516.75
467.171	502.75
467.391	498.75
467.61	516.75
467.829	497.75
468.049	497.75
468.268	491.75
468.488	483.75
468.707	488.75
468.927	485.75
469.146	491.75
469.365	479.75
469.585	499.75
469.804	495.75
470.023	502.75
470.243	509.75
470.462	501.75
470.681	521.75
470.901	521.75
471.12	474.75
471.339	489.75
471.558	494.75
471.777	478.75
471.997	500.75
472.216	490.75
472.435	493.75
472.654	497.75
472.873	509.75
473.092	488.75
473.311	475.75
473.53	495.75
473.749	481.75
473.968	472.75
474.187	475.75
474.406	468.75
474.625	496.75
474.844	491.75
475.063	485.75
475.282	485.75
475.501	487.75
475.72	488.75
475.939	484.75
476.158	489.75
476.377	514.75
476.596	506.75
476.814	507.75
477.033	489.75
477.252	492.75
477.471	525.75
477.69	534.75
477.908	535.75
478.127	544.75
478.346	578.75
478.564	566.75
478.783	567.75
479.002	583.75
479.22	590.75
479.439	568.75
479.658	588.75
479.876	587.75
480.095	616.75
480.313	588.75
480.532	615.75
480.751	567.75
480.969	572.75
481.188	586.75
481.406	553.75
481.624	566.75
481.843	562.75
482.061	534.75
482.28	544.75
482.498	537.75
482.717	544.75
482.935	544.75
483.153	529.75
483.372	537.75
483.59	520.75
483.808	561.75
484.027	548.75
484.245	554.75
484.463	544.75
484.681	559.75
484.9	568.75
485.118	545.75
485.336	579.75
485.554	541.75
485.772	589.75
485.99	549.75
486.209	573.75
486.427	581.75
486.645	551.75
486.863	539.75
487.081	572.75
487.299	550.75
487.517	568.75
487.735	548.75
487.953	551.75
488.171	563.75
488.389	580.75
488.607	572.75
488.825	567.75
489.043	576.75
489.261	537.75
489.479	562.75
489.696	566.75
489.914	567.75
490.132	541.75
490.35	562.75
490.568	565.75
490.786	571.75
491.003	591.75
491.221	580.75
491.439	573.75
491.657	585.75
491.874	596.75
492.092	577.75
492.31	587.75
492.527	611.75
492.745	579.75
492.963	595.75
493.18	579.75
493.398	580.75
493.615	603.75
493.833	623.75
494.05	627.75
494.268	603.75
494.485	592.75
494.703	607.75
494.92	615.75
495.138	618.75
495.355	623.75
495.573	598.75
495.79	625.75
496.008	623.75
496.225	600.75
496.442	591.75
496.66	638.75
496.877	624.75
497.094	656.75
497.312	641.75
497.529	676.75
497.746	680.75
497.963	707.75
498.181	750.75
498.398	768.75
498.615	802.75
498.832	834.75
499.049	907.75
499.267	906.75
499.484	984.75
499.701	1086.75
499.918	1125.75
500.135	1251.75
500.352	1384.75
500.569	1410.75
500.786	1398.75
501.003	1331.75
501.22	1219.75
501.437	1142.75
501.654	1006.75
