Data from Fe(NO3)3@0.025M.TitratingCurve.Agarose3%dH2O.NegLispCup.LampEnergy10.LIBS07252019_HRD10591_16-55-00-336.txt Node
Date: Thu Jul 25 16:55:00 EDT 2019
User: cochatt
Spectrometer: HR+D1059
Trigger mode: 1
Integration Time (sec): 1.000000E-1
Scans to average: 1
Electric dark correction enabled: true
Nonlinearity correction enabled: false
Boxcar width: 0
XAxis mode: Wavelengths
Number of Pixels in Spectrum: 2048
>>>>>Begin Spectral Data<<<<<
223.165	-5.19
223.4	-5.19
223.635	-5.19
223.869	-27.19
224.104	-16.19
224.338	-23.19
224.573	-18.19
224.808	-26.19
225.042	-14.19
225.277	-22.19
225.511	1.81
225.746	4.81
225.98	11.81
226.215	16.81
226.449	22.81
226.683	34.81
226.918	31.81
227.152	27.81
227.387	28.81
227.621	36.81
227.856	42.81
228.09	43.81
228.324	51.81
228.559	68.81
228.793	52.81
229.027	55.81
229.262	77.81
229.496	73.81
229.73	84.81
229.964	87.81
230.199	84.81
230.433	84.81
230.667	79.81
230.901	77.81
231.136	78.81
231.37	95.81
231.604	106.81
231.838	115.81
232.072	96.81
232.306	96.81
232.541	100.81
232.775	85.81
233.009	81.81
233.243	82.81
233.477	99.81
233.711	100.81
233.945	92.81
234.179	94.81
234.413	108.81
234.647	94.81
234.881	111.81
235.115	89.81
235.349	99.81
235.583	103.81
235.817	91.81
236.051	94.81
236.285	87.81
236.519	104.81
236.753	97.81
236.987	97.81
237.221	108.81
237.455	82.81
237.689	86.81
237.922	83.81
238.156	96.81
238.39	91.81
238.624	99.81
238.858	100.81
239.091	114.81
239.325	113.81
239.559	98.81
239.793	99.81
240.027	104.81
240.26	103.81
240.494	99.81
240.728	104.81
240.961	98.81
241.195	92.81
241.429	104.81
241.662	96.81
241.896	111.81
242.13	95.81
242.363	80.81
242.597	111.81
242.83	119.81
243.064	96.81
243.298	108.81
243.531	125.81
243.765	108.81
243.998	119.81
244.232	108.81
244.465	103.81
244.699	101.81
244.932	115.81
245.166	123.81
245.399	118.81
245.633	100.81
245.866	111.81
246.099	112.81
246.333	120.81
246.566	115.81
246.8	102.81
247.033	107.81
247.266	116.81
247.5	97.81
247.733	113.81
247.966	103.81
248.2	102.81
248.433	106.81
248.666	103.81
248.899	125.81
249.133	118.81
249.366	120.81
249.599	113.81
249.832	140.81
250.066	127.81
250.299	122.81
250.532	122.81
250.765	116.81
250.998	105.81
251.231	119.81
251.465	106.81
251.698	118.81
251.931	111.81
252.164	114.81
252.397	128.81
252.63	123.81
252.863	131.81
253.096	133.81
253.329	124.81
253.562	129.81
253.795	133.81
254.028	121.81
254.261	129.81
254.494	128.81
254.727	125.81
254.96	108.81
255.193	108.81
255.426	141.81
255.659	140.81
255.892	129.81
256.124	134.81
256.357	128.81
256.59	130.81
256.823	132.81
257.056	128.81
257.289	126.81
257.521	146.81
257.754	129.81
257.987	124.81
258.22	140.81
258.452	125.81
258.685	134.81
258.918	134.81
259.151	136.81
259.383	124.81
259.616	133.81
259.849	132.81
260.081	138.81
260.314	140.81
260.547	124.81
260.779	156.81
261.012	143.81
261.244	141.81
261.477	143.81
261.71	133.81
261.942	145.81
262.175	137.81
262.407	141.81
262.64	131.81
262.872	142.81
263.105	131.81
263.337	145.81
263.57	137.81
263.802	136.81
264.035	145.81
264.267	128.81
264.499	147.81
264.732	136.81
264.964	153.81
265.197	156.81
265.429	141.81
265.661	135.81
265.894	148.81
266.126	151.81
266.358	140.81
266.591	152.81
266.823	145.81
267.055	160.81
267.287	141.81
267.52	146.81
267.752	144.81
267.984	142.81
268.216	165.81
268.448	147.81
268.681	159.81
268.913	168.81
269.145	155.81
269.377	163.81
269.609	154.81
269.841	149.81
270.073	147.81
270.306	168.81
270.538	154.81
270.77	161.81
271.002	165.81
271.234	140.81
271.466	161.81
271.698	159.81
271.93	160.81
272.162	168.81
272.394	147.81
272.626	164.81
272.858	159.81
273.09	174.81
273.322	154.81
273.553	151.81
273.785	170.81
274.017	161.81
274.249	163.81
274.481	159.81
274.713	153.81
274.945	156.81
275.176	155.81
275.408	172.81
275.64	170.81
275.872	167.81
276.104	171.81
276.335	166.81
276.567	170.81
276.799	154.81
277.031	168.81
277.262	173.81
277.494	170.81
277.726	170.81
277.957	172.81
278.189	172.81
278.421	193.81
278.652	190.81
278.884	164.81
279.115	163.81
279.347	172.81
279.579	164.81
279.81	171.81
280.042	179.81
280.273	169.81
280.505	176.81
280.736	175.81
280.968	175.81
281.199	184.81
281.431	196.81
281.662	183.81
281.894	180.81
282.125	182.81
282.356	184.81
282.588	165.81
282.819	179.81
283.051	181.81
283.282	187.81
283.513	169.81
283.745	178.81
283.976	183.81
284.207	212.81
284.439	191.81
284.67	173.81
284.901	173.81
285.132	180.81
285.364	175.81
285.595	195.81
285.826	186.81
286.057	192.81
286.288	190.81
286.52	188.81
286.751	189.81
286.982	201.81
287.213	195.81
287.444	189.81
287.675	191.81
287.906	202.81
288.138	184.81
288.369	186.81
288.6	196.81
288.831	204.81
289.062	199.81
289.293	200.81
289.524	189.81
289.755	202.81
289.986	186.81
290.217	212.81
290.448	199.81
290.679	187.81
290.91	196.81
291.141	203.81
291.371	202.81
291.602	205.81
291.833	204.81
292.064	212.81
292.295	220.81
292.526	184.81
292.757	201.81
292.987	213.81
293.218	216.81
293.449	203.81
293.68	209.81
293.91	213.81
294.141	205.81
294.372	194.81
294.603	198.81
294.833	204.81
295.064	219.81
295.295	203.81
295.525	205.81
295.756	220.81
295.987	216.81
296.217	214.81
296.448	207.81
296.679	219.81
296.909	224.81
297.14	215.81
297.37	211.81
297.601	212.81
297.831	221.81
298.062	195.81
298.292	224.81
298.523	230.81
298.753	209.81
298.984	210.81
299.214	213.81
299.445	213.81
299.675	223.81
299.905	214.81
300.136	217.81
300.366	219.81
300.597	216.81
300.827	226.81
301.057	221.81
301.288	235.81
301.518	224.81
301.748	240.81
301.979	236.81
302.209	243.81
302.439	257.81
302.669	243.81
302.9	230.81
303.13	239.81
303.36	227.81
303.59	224.81
303.82	227.81
304.051	248.81
304.281	255.81
304.511	227.81
304.741	233.81
304.971	234.81
305.201	255.81
305.431	233.81
305.661	241.81
305.891	210.81
306.121	241.81
306.352	225.81
306.582	234.81
306.812	223.81
307.042	233.81
307.272	231.81
307.502	237.81
307.731	227.81
307.961	243.81
308.191	228.81
308.421	257.81
308.651	249.81
308.881	236.81
309.111	233.81
309.341	232.81
309.571	235.81
309.8	235.81
310.03	228.81
310.26	230.81
310.49	243.81
310.72	244.81
310.949	218.81
311.179	225.81
311.409	239.81
311.639	247.81
311.868	240.81
312.098	260.81
312.328	272.81
312.557	262.81
312.787	265.81
313.017	242.81
313.246	257.81
313.476	231.81
313.706	223.81
313.935	254.81
314.165	257.81
314.394	248.81
314.624	255.81
314.853	262.81
315.083	252.81
315.312	235.81
315.542	241.81
315.771	266.81
316.001	250.81
316.23	232.81
316.46	245.81
316.689	247.81
316.919	250.81
317.148	264.81
317.377	257.81
317.607	267.81
317.836	251.81
318.065	260.81
318.295	239.81
318.524	259.81
318.753	235.81
318.983	249.81
319.212	259.81
319.441	259.81
319.67	268.81
319.9	267.81
320.129	250.81
320.358	247.81
320.587	255.81
320.816	250.81
321.046	248.81
321.275	267.81
321.504	246.81
321.733	264.81
321.962	259.81
322.191	251.81
322.42	256.81
322.649	270.81
322.878	260.81
323.108	275.81
323.337	272.81
323.566	271.81
323.795	277.81
324.024	279.81
324.253	269.81
324.482	269.81
324.71	274.81
324.939	273.81
325.168	253.81
325.397	276.81
325.626	287.81
325.855	267.81
326.084	265.81
326.313	269.81
326.542	275.81
326.77	275.81
326.999	267.81
327.228	262.81
327.457	276.81
327.686	270.81
327.914	264.81
328.143	283.81
328.372	266.81
328.6	270.81
328.829	274.81
329.058	282.81
329.287	289.81
329.515	280.81
329.744	271.81
329.972	287.81
330.201	292.81
330.43	287.81
330.658	279.81
330.887	296.81
331.115	286.81
331.344	306.81
331.572	307.81
331.801	298.81
332.03	306.81
332.258	318.81
332.486	313.81
332.715	311.81
332.943	319.81
333.172	323.81
333.4	331.81
333.629	314.81
333.857	360.81
334.085	327.81
334.314	355.81
334.542	323.81
334.771	336.81
334.999	332.81
335.227	327.81
335.455	323.81
335.684	325.81
335.912	335.81
336.14	336.81
336.369	335.81
336.597	331.81
336.825	319.81
337.053	311.81
337.281	328.81
337.51	316.81
337.738	322.81
337.966	300.81
338.194	319.81
338.422	328.81
338.65	307.81
338.878	291.81
339.106	299.81
339.334	290.81
339.562	289.81
339.79	304.81
340.018	279.81
340.246	297.81
340.474	299.81
340.702	291.81
340.93	294.81
341.158	290.81
341.386	305.81
341.614	290.81
341.842	291.81
342.07	303.81
342.298	304.81
342.526	292.81
342.754	307.81
342.981	317.81
343.209	313.81
343.437	304.81
343.665	325.81
343.893	324.81
344.12	333.81
344.348	332.81
344.576	324.81
344.804	332.81
345.031	323.81
345.259	294.81
345.487	297.81
345.714	320.81
345.942	298.81
346.17	280.81
346.397	296.81
346.625	298.81
346.853	313.81
347.08	284.81
347.308	289.81
347.535	287.81
347.763	291.81
347.99	280.81
348.218	300.81
348.445	284.81
348.673	305.81
348.9	299.81
349.128	282.81
349.355	289.81
349.583	296.81
349.81	288.81
350.037	294.81
350.265	288.81
350.492	269.81
350.72	292.81
350.947	292.81
351.174	295.81
351.402	291.81
351.629	288.81
351.856	281.81
352.083	285.81
352.311	281.81
352.538	284.81
352.765	267.81
352.992	295.81
353.22	302.81
353.447	279.81
353.674	294.81
353.901	296.81
354.128	287.81
354.355	284.81
354.583	296.81
354.81	284.81
355.037	268.81
355.264	265.81
355.491	294.81
355.718	293.81
355.945	288.81
356.172	277.81
356.399	289.81
356.626	276.81
356.853	277.81
357.08	295.81
357.307	293.81
357.534	292.81
357.761	283.81
357.988	298.81
358.215	296.81
358.441	283.81
358.668	277.81
358.895	294.81
359.122	305.81
359.349	284.81
359.576	307.81
359.802	285.81
360.029	290.81
360.256	291.81
360.483	292.81
360.709	285.81
360.936	306.81
361.163	285.81
361.39	279.81
361.616	282.81
361.843	296.81
362.07	279.81
362.296	296.81
362.523	291.81
362.749	282.81
362.976	284.81
363.203	299.81
363.429	282.81
363.656	312.81
363.882	289.81
364.109	311.81
364.335	306.81
364.562	291.81
364.788	303.81
365.015	297.81
365.241	290.81
365.468	295.81
365.694	263.81
365.92	300.81
366.147	283.81
366.373	295.81
366.599	302.81
366.826	291.81
367.052	284.81
367.278	291.81
367.505	291.81
367.731	304.81
367.957	308.81
368.184	308.81
368.41	295.81
368.636	300.81
368.862	304.81
369.089	289.81
369.315	292.81
369.541	308.81
369.767	297.81
369.993	321.81
370.219	308.81
370.445	300.81
370.672	319.81
370.898	312.81
371.124	321.81
371.35	315.81
371.576	321.81
371.802	296.81
372.028	310.81
372.254	322.81
372.48	329.81
372.706	321.81
372.932	307.81
373.158	318.81
373.384	315.81
373.61	322.81
373.835	310.81
374.061	312.81
374.287	332.81
374.513	326.81
374.739	332.81
374.965	343.81
375.191	353.81
375.416	336.81
375.642	315.81
375.868	328.81
376.094	319.81
376.319	321.81
376.545	334.81
376.771	311.81
376.997	320.81
377.222	288.81
377.448	311.81
377.674	319.81
377.899	329.81
378.125	313.81
378.35	326.81
378.576	315.81
378.802	317.81
379.027	322.81
379.253	313.81
379.478	314.81
379.704	329.81
379.929	314.81
380.155	328.81
380.38	311.81
380.606	319.81
380.831	307.81
381.057	332.81
381.282	314.81
381.507	315.81
381.733	325.81
381.958	318.81
382.184	327.81
382.409	338.81
382.634	327.81
382.86	343.81
383.085	327.81
383.31	327.81
383.535	345.81
383.761	344.81
383.986	320.81
384.211	331.81
384.436	357.81
384.662	356.81
384.887	359.81
385.112	344.81
385.337	348.81
385.562	373.81
385.787	363.81
386.013	364.81
386.238	356.81
386.463	377.81
386.688	367.81
386.913	360.81
387.138	367.81
387.363	353.81
387.588	359.81
387.813	370.81
388.038	348.81
388.263	359.81
388.488	361.81
388.713	360.81
388.938	357.81
389.163	358.81
389.387	343.81
389.612	373.81
389.837	369.81
390.062	355.81
390.287	391.81
390.512	356.81
390.736	378.81
390.961	381.81
391.186	375.81
391.411	370.81
391.636	396.81
391.86	395.81
392.085	386.81
392.31	391.81
392.534	385.81
392.759	396.81
392.984	380.81
393.208	392.81
393.433	374.81
393.658	411.81
393.882	387.81
394.107	383.81
394.331	395.81
394.556	395.81
394.78	375.81
395.005	377.81
395.229	397.81
395.454	386.81
395.678	383.81
395.903	395.81
396.127	398.81
396.352	391.81
396.576	394.81
396.801	387.81
397.025	402.81
397.249	419.81
397.474	417.81
397.698	395.81
397.922	416.81
398.147	411.81
398.371	412.81
398.595	432.81
398.82	448.81
399.044	485.81
399.268	512.81
399.492	530.81
399.717	555.81
399.941	560.81
400.165	521.81
400.389	514.81
400.613	485.81
400.837	451.81
401.062	465.81
401.286	455.81
401.51	452.81
401.734	423.81
401.958	446.81
402.182	441.81
402.406	449.81
402.63	440.81
402.854	454.81
403.078	468.81
403.302	457.81
403.526	461.81
403.75	454.81
403.974	493.81
404.198	466.81
404.422	472.81
404.645	468.81
404.869	468.81
405.093	473.81
405.317	456.81
405.541	437.81
405.765	472.81
405.988	481.81
406.212	478.81
406.436	463.81
406.66	492.81
406.883	522.81
407.107	520.81
407.331	521.81
407.555	535.81
407.778	526.81
408.002	527.81
408.226	495.81
408.449	496.81
408.673	468.81
408.896	483.81
409.12	495.81
409.344	472.81
409.567	468.81
409.791	493.81
410.014	486.81
410.238	471.81
410.461	464.81
410.685	446.81
410.908	469.81
411.132	459.81
411.355	457.81
411.578	444.81
411.802	444.81
412.025	473.81
412.249	452.81
412.472	459.81
412.695	458.81
412.919	418.81
413.142	444.81
413.365	421.81
413.589	451.81
413.812	438.81
414.035	430.81
414.258	434.81
414.482	446.81
414.705	425.81
414.928	448.81
415.151	435.81
415.374	439.81
415.597	443.81
415.821	417.81
416.044	424.81
416.267	433.81
416.49	423.81
416.713	426.81
416.936	444.81
417.159	435.81
417.382	428.81
417.605	408.81
417.828	420.81
418.051	411.81
418.274	427.81
418.497	427.81
418.72	435.81
418.943	425.81
419.166	447.81
419.389	459.81
419.611	461.81
419.834	437.81
420.057	433.81
420.28	446.81
420.503	426.81
420.726	431.81
420.948	428.81
421.171	434.81
421.394	424.81
421.617	411.81
421.839	413.81
422.062	435.81
422.285	437.81
422.507	448.81
422.73	430.81
422.953	403.81
423.175	433.81
423.398	444.81
423.621	423.81
423.843	450.81
424.066	438.81
424.288	417.81
424.511	426.81
424.733	421.81
424.956	425.81
425.178	419.81
425.401	431.81
425.623	421.81
425.846	417.81
426.068	436.81
426.291	424.81
426.513	424.81
426.735	418.81
426.958	409.81
427.18	416.81
427.402	407.81
427.625	414.81
427.847	403.81
428.069	397.81
428.292	403.81
428.514	397.81
428.736	387.81
428.958	420.81
429.181	411.81
429.403	397.81
429.625	382.81
429.847	397.81
430.069	383.81
430.292	383.81
430.514	398.81
430.736	387.81
430.958	387.81
431.18	393.81
431.402	402.81
431.624	393.81
431.846	407.81
432.068	384.81
432.29	403.81
432.512	401.81
432.734	411.81
432.956	393.81
433.178	417.81
433.4	385.81
433.622	394.81
433.844	386.81
434.066	400.81
434.287	410.81
434.509	413.81
434.731	427.81
434.953	416.81
435.175	407.81
435.397	437.81
435.618	400.81
435.84	396.81
436.062	383.81
436.284	383.81
436.505	382.81
436.727	389.81
436.949	393.81
437.17	388.81
437.392	407.81
437.614	381.81
437.835	395.81
438.057	395.81
438.278	377.81
438.5	360.81
438.721	395.81
438.943	379.81
439.165	375.81
439.386	388.81
439.608	377.81
439.829	389.81
440.05	384.81
440.272	373.81
440.493	389.81
440.715	396.81
440.936	410.81
441.158	407.81
441.379	415.81
441.6	419.81
441.822	419.81
442.043	403.81
442.264	402.81
442.486	414.81
442.707	426.81
442.928	417.81
443.149	411.81
443.371	409.81
443.592	434.81
443.813	426.81
444.034	411.81
444.255	426.81
444.476	456.81
444.698	452.81
444.919	442.81
445.14	529.81
445.361	479.81
445.582	449.81
445.803	431.81
446.024	416.81
446.245	416.81
446.466	408.81
446.687	393.81
446.908	407.81
447.129	383.81
447.35	390.81
447.571	401.81
447.792	374.81
448.013	371.81
448.234	353.81
448.455	352.81
448.675	389.81
448.896	371.81
449.117	359.81
449.338	355.81
449.559	369.81
449.779	363.81
450	383.81
450.221	377.81
450.442	375.81
450.662	362.81
450.883	359.81
451.104	367.81
451.324	379.81
451.545	363.81
451.766	357.81
451.986	352.81
452.207	363.81
452.428	353.81
452.648	349.81
452.869	358.81
453.089	353.81
453.31	354.81
453.53	357.81
453.751	368.81
453.971	355.81
454.192	347.81
454.412	352.81
454.633	346.81
454.853	350.81
455.073	354.81
455.294	324.81
455.514	347.81
455.734	360.81
455.955	353.81
456.175	344.81
456.395	344.81
456.616	356.81
456.836	343.81
457.056	356.81
457.276	332.81
457.497	356.81
457.717	350.81
457.937	362.81
458.157	373.81
458.377	381.81
458.598	354.81
458.818	394.81
459.038	375.81
459.258	385.81
459.478	404.81
459.698	397.81
459.918	416.81
460.138	419.81
460.358	405.81
460.578	422.81
460.798	453.81
461.018	451.81
461.238	444.81
461.458	444.81
461.678	443.81
461.898	447.81
462.118	457.81
462.338	485.81
462.558	485.81
462.777	498.81
462.997	515.81
463.217	535.81
463.437	515.81
463.657	506.81
463.876	526.81
464.096	501.81
464.316	478.81
464.536	503.81
464.755	478.81
464.975	468.81
465.195	451.81
465.414	448.81
465.634	395.81
465.854	408.81
466.073	417.81
466.293	397.81
466.512	403.81
466.732	407.81
466.951	386.81
467.171	375.81
467.391	391.81
467.61	407.81
467.829	372.81
468.049	383.81
468.268	365.81
468.488	379.81
468.707	374.81
468.927	370.81
469.146	382.81
469.365	376.81
469.585	376.81
469.804	372.81
470.023	374.81
470.243	375.81
470.462	399.81
470.681	387.81
470.901	388.81
471.12	390.81
471.339	403.81
471.558	389.81
471.777	364.81
471.997	370.81
472.216	365.81
472.435	356.81
472.654	356.81
472.873	359.81
473.092	349.81
473.311	380.81
473.53	373.81
473.749	364.81
473.968	349.81
474.187	364.81
474.406	374.81
474.625	377.81
474.844	364.81
475.063	375.81
475.282	373.81
475.501	393.81
475.72	384.81
475.939	395.81
476.158	379.81
476.377	385.81
476.596	376.81
476.814	394.81
477.033	385.81
477.252	387.81
477.471	395.81
477.69	420.81
477.908	419.81
478.127	417.81
478.346	424.81
478.564	429.81
478.783	411.81
479.002	435.81
479.22	429.81
479.439	443.81
479.658	439.81
479.876	448.81
480.095	450.81
480.313	441.81
480.532	439.81
480.751	452.81
480.969	423.81
481.188	445.81
481.406	451.81
481.624	426.81
481.843	413.81
482.061	405.81
482.28	417.81
482.498	428.81
482.717	402.81
482.935	411.81
483.153	398.81
483.372	412.81
483.59	421.81
483.808	442.81
484.027	422.81
484.245	433.81
484.463	439.81
484.681	443.81
484.9	420.81
485.118	439.81
485.336	434.81
485.554	396.81
485.772	429.81
485.99	418.81
486.209	431.81
486.427	427.81
486.645	430.81
486.863	439.81
487.081	421.81
487.299	431.81
487.517	435.81
487.735	426.81
487.953	426.81
488.171	420.81
488.389	424.81
488.607	404.81
488.825	451.81
489.043	421.81
489.261	436.81
489.479	433.81
489.696	436.81
489.914	444.81
490.132	432.81
490.35	446.81
490.568	449.81
490.786	444.81
491.003	464.81
491.221	449.81
491.439	445.81
491.657	445.81
491.874	454.81
492.092	450.81
492.31	491.81
492.527	460.81
492.745	456.81
492.963	453.81
493.18	466.81
493.398	456.81
493.615	446.81
493.833	452.81
494.05	451.81
494.268	471.81
494.485	461.81
494.703	468.81
494.92	457.81
495.138	481.81
495.355	476.81
495.573	488.81
495.79	482.81
496.008	482.81
496.225	480.81
496.442	495.81
496.66	491.81
496.877	492.81
497.094	502.81
497.312	513.81
497.529	536.81
497.746	539.81
497.963	561.81
498.181	574.81
498.398	589.81
498.615	605.81
498.832	633.81
499.049	663.81
499.267	708.81
499.484	775.81
499.701	804.81
499.918	854.81
500.135	924.81
500.352	1023.81
500.569	1020.81
500.786	996.81
501.003	963.81
501.22	899.81
501.437	847.81
501.654	744.81
501.871	726.81
502.088	679.81
