Data from Fe(NO3)3@0.025M.TitratingCurve.Agarose3%dH2O.NegLispCup.LampEnergy10.LIBS07252019_HRD10591_16-54-35-336.txt Node
Date: Thu Jul 25 16:54:35 EDT 2019
User: cochatt
Spectrometer: HR+D1059
Trigger mode: 1
Integration Time (sec): 1.000000E-1
Scans to average: 1
Electric dark correction enabled: true
Nonlinearity correction enabled: false
Boxcar width: 0
XAxis mode: Wavelengths
Number of Pixels in Spectrum: 2048
>>>>>Begin Spectral Data<<<<<
223.165	-21.81
223.4	-21.81
223.635	-21.81
223.869	-19.81
224.104	-25.81
224.338	-5.81
224.573	1.19
224.808	-22.81
225.042	-15.81
225.277	-13.81
225.511	11.19
225.746	1.19
225.98	12.19
226.215	4.19
226.449	11.19
226.683	26.19
226.918	27.19
227.152	31.19
227.387	28.19
227.621	38.19
227.856	40.19
228.09	52.19
228.324	54.19
228.559	70.19
228.793	68.19
229.027	86.19
229.262	98.19
229.496	101.19
229.73	116.19
229.964	108.19
230.199	101.19
230.433	117.19
230.667	104.19
230.901	121.19
231.136	119.19
231.37	118.19
231.604	125.19
231.838	101.19
232.072	114.19
232.306	124.19
232.541	121.19
232.775	107.19
233.009	124.19
233.243	120.19
233.477	101.19
233.711	118.19
233.945	106.19
234.179	122.19
234.413	130.19
234.647	134.19
234.881	133.19
235.115	121.19
235.349	132.19
235.583	124.19
235.817	140.19
236.051	125.19
236.285	131.19
236.519	124.19
236.753	138.19
236.987	138.19
237.221	136.19
237.455	149.19
237.689	121.19
237.922	137.19
238.156	128.19
238.39	134.19
238.624	138.19
238.858	139.19
239.091	135.19
239.325	147.19
239.559	143.19
239.793	130.19
240.027	149.19
240.26	142.19
240.494	156.19
240.728	150.19
240.961	148.19
241.195	147.19
241.429	154.19
241.662	142.19
241.896	154.19
242.13	140.19
242.363	153.19
242.597	158.19
242.83	155.19
243.064	156.19
243.298	159.19
243.531	140.19
243.765	177.19
243.998	152.19
244.232	164.19
244.465	156.19
244.699	159.19
244.932	168.19
245.166	161.19
245.399	158.19
245.633	166.19
245.866	156.19
246.099	163.19
246.333	162.19
246.566	173.19
246.8	168.19
247.033	167.19
247.266	164.19
247.5	172.19
247.733	179.19
247.966	184.19
248.2	181.19
248.433	202.19
248.666	189.19
248.899	171.19
249.133	170.19
249.366	174.19
249.599	191.19
249.832	197.19
250.066	188.19
250.299	184.19
250.532	172.19
250.765	179.19
250.998	187.19
251.231	170.19
251.465	208.19
251.698	187.19
251.931	212.19
252.164	198.19
252.397	197.19
252.63	203.19
252.863	208.19
253.096	193.19
253.329	217.19
253.562	198.19
253.795	218.19
254.028	197.19
254.261	224.19
254.494	221.19
254.727	209.19
254.96	206.19
255.193	211.19
255.426	198.19
255.659	221.19
255.892	213.19
256.124	207.19
256.357	215.19
256.59	215.19
256.823	209.19
257.056	218.19
257.289	212.19
257.521	212.19
257.754	226.19
257.987	212.19
258.22	204.19
258.452	206.19
258.685	215.19
258.918	234.19
259.151	216.19
259.383	233.19
259.616	237.19
259.849	225.19
260.081	260.19
260.314	283.19
260.547	244.19
260.779	215.19
261.012	239.19
261.244	260.19
261.477	238.19
261.71	236.19
261.942	239.19
262.175	226.19
262.407	244.19
262.64	236.19
262.872	240.19
263.105	245.19
263.337	276.19
263.57	263.19
263.802	226.19
264.035	257.19
264.267	245.19
264.499	243.19
264.732	243.19
264.964	228.19
265.197	230.19
265.429	235.19
265.661	258.19
265.894	251.19
266.126	262.19
266.358	266.19
266.591	255.19
266.823	255.19
267.055	234.19
267.287	251.19
267.52	258.19
267.752	250.19
267.984	259.19
268.216	250.19
268.448	248.19
268.681	250.19
268.913	267.19
269.145	251.19
269.377	258.19
269.609	266.19
269.841	281.19
270.073	253.19
270.306	254.19
270.538	274.19
270.77	267.19
271.002	275.19
271.234	267.19
271.466	277.19
271.698	281.19
271.93	281.19
272.162	282.19
272.394	267.19
272.626	286.19
272.858	271.19
273.09	286.19
273.322	290.19
273.553	284.19
273.785	293.19
274.017	306.19
274.249	324.19
274.481	317.19
274.713	317.19
274.945	324.19
275.176	344.19
275.408	326.19
275.64	301.19
275.872	327.19
276.104	299.19
276.335	307.19
276.567	291.19
276.799	307.19
277.031	304.19
277.262	314.19
277.494	306.19
277.726	301.19
277.957	312.19
278.189	328.19
278.421	313.19
278.652	324.19
278.884	297.19
279.115	316.19
279.347	332.19
279.579	330.19
279.81	315.19
280.042	331.19
280.273	329.19
280.505	327.19
280.736	321.19
280.968	341.19
281.199	315.19
281.431	320.19
281.662	315.19
281.894	332.19
282.125	325.19
282.356	325.19
282.588	337.19
282.819	328.19
283.051	327.19
283.282	314.19
283.513	332.19
283.745	341.19
283.976	330.19
284.207	340.19
284.439	346.19
284.67	355.19
284.901	337.19
285.132	337.19
285.364	341.19
285.595	341.19
285.826	352.19
286.057	371.19
286.288	342.19
286.52	343.19
286.751	357.19
286.982	335.19
287.213	351.19
287.444	366.19
287.675	367.19
287.906	368.19
288.138	366.19
288.369	351.19
288.6	354.19
288.831	388.19
289.062	349.19
289.293	355.19
289.524	372.19
289.755	360.19
289.986	365.19
290.217	370.19
290.448	365.19
290.679	368.19
290.91	367.19
291.141	360.19
291.371	370.19
291.602	354.19
291.833	370.19
292.064	383.19
292.295	393.19
292.526	365.19
292.757	354.19
292.987	376.19
293.218	372.19
293.449	366.19
293.68	360.19
293.91	379.19
294.141	368.19
294.372	382.19
294.603	386.19
294.833	376.19
295.064	391.19
295.295	395.19
295.525	374.19
295.756	385.19
295.987	378.19
296.217	397.19
296.448	381.19
296.679	379.19
296.909	379.19
297.14	388.19
297.37	416.19
297.601	404.19
297.831	387.19
298.062	388.19
298.292	395.19
298.523	402.19
298.753	420.19
298.984	398.19
299.214	412.19
299.445	419.19
299.675	411.19
299.905	405.19
300.136	420.19
300.366	401.19
300.597	381.19
300.827	411.19
301.057	418.19
301.288	404.19
301.518	413.19
301.748	410.19
301.979	421.19
302.209	423.19
302.439	427.19
302.669	431.19
302.9	404.19
303.13	448.19
303.36	425.19
303.59	436.19
303.82	427.19
304.051	428.19
304.281	442.19
304.511	426.19
304.741	452.19
304.971	440.19
305.201	415.19
305.431	434.19
305.661	438.19
305.891	422.19
306.121	427.19
306.352	453.19
306.582	452.19
306.812	446.19
307.042	444.19
307.272	443.19
307.502	424.19
307.731	439.19
307.961	441.19
308.191	446.19
308.421	452.19
308.651	428.19
308.881	424.19
309.111	420.19
309.341	440.19
309.571	422.19
309.8	448.19
310.03	439.19
310.26	448.19
310.49	443.19
310.72	452.19
310.949	422.19
311.179	432.19
311.409	454.19
311.639	448.19
311.868	435.19
312.098	461.19
312.328	458.19
312.557	464.19
312.787	465.19
313.017	447.19
313.246	459.19
313.476	444.19
313.706	469.19
313.935	482.19
314.165	468.19
314.394	472.19
314.624	477.19
314.853	476.19
315.083	461.19
315.312	485.19
315.542	480.19
315.771	486.19
316.001	478.19
316.23	481.19
316.46	463.19
316.689	485.19
316.919	489.19
317.148	472.19
317.377	461.19
317.607	481.19
317.836	482.19
318.065	474.19
318.295	478.19
318.524	485.19
318.753	473.19
318.983	489.19
319.212	478.19
319.441	504.19
319.67	494.19
319.9	468.19
320.129	469.19
320.358	484.19
320.587	522.19
320.816	483.19
321.046	497.19
321.275	503.19
321.504	476.19
321.733	483.19
321.962	506.19
322.191	483.19
322.42	520.19
322.649	506.19
322.878	492.19
323.108	501.19
323.337	496.19
323.566	497.19
323.795	518.19
324.024	494.19
324.253	540.19
324.482	524.19
324.71	509.19
324.939	522.19
325.168	525.19
325.397	512.19
325.626	530.19
325.855	516.19
326.084	511.19
326.313	521.19
326.542	527.19
326.77	553.19
326.999	525.19
327.228	517.19
327.457	532.19
327.686	519.19
327.914	529.19
328.143	525.19
328.372	539.19
328.6	524.19
328.829	524.19
329.058	535.19
329.287	540.19
329.515	555.19
329.744	550.19
329.972	538.19
330.201	548.19
330.43	542.19
330.658	558.19
330.887	541.19
331.115	546.19
331.344	552.19
331.572	537.19
331.801	546.19
332.03	547.19
332.258	554.19
332.486	583.19
332.715	565.19
332.943	580.19
333.172	610.19
333.4	613.19
333.629	628.19
333.857	617.19
334.085	615.19
334.314	643.19
334.542	631.19
334.771	632.19
334.999	632.19
335.227	624.19
335.455	617.19
335.684	630.19
335.912	656.19
336.14	644.19
336.369	602.19
336.597	629.19
336.825	596.19
337.053	615.19
337.281	597.19
337.51	610.19
337.738	610.19
337.966	619.19
338.194	603.19
338.422	590.19
338.65	594.19
338.878	602.19
339.106	593.19
339.334	589.19
339.562	590.19
339.79	586.19
340.018	581.19
340.246	583.19
340.474	573.19
340.702	578.19
340.93	565.19
341.158	582.19
341.386	601.19
341.614	580.19
341.842	568.19
342.07	568.19
342.298	565.19
342.526	576.19
342.754	566.19
342.981	580.19
343.209	577.19
343.437	583.19
343.665	605.19
343.893	625.19
344.12	644.19
344.348	611.19
344.576	608.19
344.804	603.19
345.031	601.19
345.259	597.19
345.487	593.19
345.714	605.19
345.942	585.19
346.17	570.19
346.397	541.19
346.625	549.19
346.853	557.19
347.08	556.19
347.308	535.19
347.535	553.19
347.763	574.19
347.99	548.19
348.218	544.19
348.445	541.19
348.673	549.19
348.9	553.19
349.128	540.19
349.355	549.19
349.583	537.19
349.81	528.19
350.037	543.19
350.265	516.19
350.492	529.19
350.72	556.19
350.947	568.19
351.174	539.19
351.402	539.19
351.629	527.19
351.856	562.19
352.083	557.19
352.311	550.19
352.538	541.19
352.765	539.19
352.992	542.19
353.22	529.19
353.447	537.19
353.674	544.19
353.901	538.19
354.128	540.19
354.355	535.19
354.583	530.19
354.81	534.19
355.037	545.19
355.264	555.19
355.491	539.19
355.718	548.19
355.945	530.19
356.172	543.19
356.399	556.19
356.626	537.19
356.853	554.19
357.08	577.19
357.307	531.19
357.534	523.19
357.761	553.19
357.988	558.19
358.215	541.19
358.441	549.19
358.668	554.19
358.895	553.19
359.122	545.19
359.349	542.19
359.576	557.19
359.802	533.19
360.029	561.19
360.256	555.19
360.483	558.19
360.709	566.19
360.936	560.19
361.163	555.19
361.39	547.19
361.616	525.19
361.843	582.19
362.07	590.19
362.296	558.19
362.523	549.19
362.749	580.19
362.976	551.19
363.203	556.19
363.429	571.19
363.656	563.19
363.882	574.19
364.109	562.19
364.335	577.19
364.562	573.19
364.788	543.19
365.015	573.19
365.241	562.19
365.468	563.19
365.694	541.19
365.92	549.19
366.147	556.19
366.373	563.19
366.599	574.19
366.826	549.19
367.052	544.19
367.278	554.19
367.505	573.19
367.731	553.19
367.957	569.19
368.184	566.19
368.41	566.19
368.636	557.19
368.862	556.19
369.089	549.19
369.315	569.19
369.541	575.19
369.767	580.19
369.993	599.19
370.219	570.19
370.445	569.19
370.672	569.19
370.898	577.19
371.124	563.19
371.35	581.19
371.576	574.19
371.802	600.19
372.028	597.19
372.254	604.19
372.48	612.19
372.706	599.19
372.932	605.19
373.158	605.19
373.384	610.19
373.61	625.19
373.835	631.19
374.061	611.19
374.287	610.19
374.513	617.19
374.739	640.19
374.965	620.19
375.191	632.19
375.416	611.19
375.642	601.19
375.868	627.19
376.094	608.19
376.319	608.19
376.545	613.19
376.771	597.19
376.997	588.19
377.222	595.19
377.448	592.19
377.674	585.19
377.899	602.19
378.125	603.19
378.35	577.19
378.576	566.19
378.802	601.19
379.027	610.19
379.253	595.19
379.478	565.19
379.704	585.19
379.929	596.19
380.155	588.19
380.38	581.19
380.606	608.19
380.831	603.19
381.057	610.19
381.282	619.19
381.507	611.19
381.733	598.19
381.958	610.19
382.184	621.19
382.409	629.19
382.634	621.19
382.86	636.19
383.085	633.19
383.31	636.19
383.535	645.19
383.761	615.19
383.986	640.19
384.211	643.19
384.436	641.19
384.662	667.19
384.887	664.19
385.112	650.19
385.337	663.19
385.562	664.19
385.787	686.19
386.013	712.19
386.238	683.19
386.463	686.19
386.688	680.19
386.913	667.19
387.138	667.19
387.363	700.19
387.588	679.19
387.813	694.19
388.038	704.19
388.263	696.19
388.488	706.19
388.713	690.19
388.938	682.19
389.163	684.19
389.387	698.19
389.612	713.19
389.837	699.19
390.062	708.19
390.287	701.19
390.512	690.19
390.736	689.19
390.961	691.19
391.186	722.19
391.411	737.19
391.636	708.19
391.86	749.19
392.085	738.19
392.31	770.19
392.534	746.19
392.759	740.19
392.984	738.19
393.208	697.19
393.433	726.19
393.658	725.19
393.882	732.19
394.107	716.19
394.331	736.19
394.556	731.19
394.78	725.19
395.005	737.19
395.229	757.19
395.454	734.19
395.678	768.19
395.903	752.19
396.127	733.19
396.352	793.19
396.576	768.19
396.801	770.19
397.025	779.19
397.249	766.19
397.474	776.19
397.698	768.19
397.922	775.19
398.147	781.19
398.371	801.19
398.595	834.19
398.82	851.19
399.044	874.19
399.268	922.19
399.492	955.19
399.717	968.19
399.941	961.19
400.165	961.19
400.389	940.19
400.613	909.19
400.837	880.19
401.062	876.19
401.286	854.19
401.51	844.19
401.734	845.19
401.958	845.19
402.182	833.19
402.406	809.19
402.63	831.19
402.854	850.19
403.078	829.19
403.302	866.19
403.526	837.19
403.75	826.19
403.974	845.19
404.198	845.19
404.422	825.19
404.645	834.19
404.869	836.19
405.093	835.19
405.317	866.19
405.541	864.19
405.765	853.19
405.988	863.19
406.212	890.19
406.436	877.19
406.66	902.19
406.883	888.19
407.107	920.19
407.331	937.19
407.555	954.19
407.778	954.19
408.002	936.19
408.226	941.19
408.449	945.19
408.673	923.19
408.896	894.19
409.12	877.19
409.344	892.19
409.567	857.19
409.791	904.19
410.014	862.19
410.238	859.19
410.461	885.19
410.685	885.19
410.908	877.19
411.132	859.19
411.355	840.19
411.578	834.19
411.802	860.19
412.025	868.19
412.249	822.19
412.472	813.19
412.695	845.19
412.919	849.19
413.142	816.19
413.365	838.19
413.589	818.19
413.812	836.19
414.035	840.19
414.258	826.19
414.482	822.19
414.705	832.19
414.928	822.19
415.151	814.19
415.374	816.19
415.597	804.19
415.821	780.19
416.044	788.19
416.267	770.19
416.49	784.19
416.713	794.19
416.936	802.19
417.159	808.19
417.382	782.19
417.605	780.19
417.828	803.19
418.051	781.19
418.274	798.19
418.497	792.19
418.72	780.19
418.943	792.19
419.166	807.19
419.389	844.19
419.611	838.19
419.834	836.19
420.057	801.19
420.28	828.19
420.503	769.19
420.726	775.19
420.948	757.19
421.171	773.19
421.394	772.19
421.617	761.19
421.839	773.19
422.062	781.19
422.285	785.19
422.507	760.19
422.73	766.19
422.953	795.19
423.175	772.19
423.398	779.19
423.621	760.19
423.843	783.19
424.066	758.19
424.288	789.19
424.511	774.19
424.733	748.19
424.956	778.19
425.178	784.19
425.401	742.19
425.623	758.19
425.846	774.19
426.068	751.19
426.291	764.19
426.513	742.19
426.735	754.19
426.958	772.19
427.18	717.19
427.402	731.19
427.625	752.19
427.847	747.19
428.069	742.19
428.292	753.19
428.514	722.19
428.736	746.19
428.958	729.19
429.181	738.19
429.403	728.19
429.625	725.19
429.847	715.19
430.069	723.19
430.292	723.19
430.514	708.19
430.736	736.19
430.958	730.19
431.18	716.19
431.402	724.19
431.624	723.19
431.846	734.19
432.068	737.19
432.29	779.19
432.512	740.19
432.734	737.19
432.956	728.19
433.178	738.19
433.4	748.19
433.622	708.19
433.844	723.19
434.066	729.19
434.287	757.19
434.509	738.19
434.731	780.19
434.953	756.19
435.175	739.19
435.397	767.19
435.618	745.19
435.84	744.19
436.062	742.19
436.284	756.19
436.505	742.19
436.727	720.19
436.949	737.19
437.17	700.19
437.392	694.19
437.614	711.19
437.835	692.19
438.057	706.19
438.278	698.19
438.5	702.19
438.721	690.19
438.943	683.19
439.165	717.19
439.386	700.19
439.608	722.19
439.829	719.19
440.05	722.19
440.272	723.19
440.493	701.19
440.715	715.19
440.936	736.19
441.158	753.19
441.379	725.19
441.6	761.19
441.822	743.19
442.043	774.19
442.264	740.19
442.486	754.19
442.707	756.19
442.928	760.19
443.149	779.19
443.371	758.19
443.592	753.19
443.813	769.19
444.034	774.19
444.255	766.19
444.476	751.19
444.698	778.19
444.919	795.19
445.14	889.19
445.361	828.19
445.582	753.19
445.803	725.19
446.024	745.19
446.245	705.19
446.466	710.19
446.687	718.19
446.908	734.19
447.129	703.19
447.35	688.19
447.571	702.19
447.792	691.19
448.013	655.19
448.234	649.19
448.455	680.19
448.675	669.19
448.896	659.19
449.117	652.19
449.338	673.19
449.559	671.19
449.779	667.19
450	645.19
450.221	640.19
450.442	642.19
450.662	646.19
450.883	659.19
451.104	666.19
451.324	632.19
451.545	627.19
451.766	663.19
451.986	654.19
452.207	628.19
452.428	646.19
452.648	633.19
452.869	653.19
453.089	612.19
453.31	642.19
453.53	637.19
453.751	630.19
453.971	630.19
454.192	636.19
454.412	605.19
454.633	643.19
454.853	630.19
455.073	617.19
455.294	613.19
455.514	625.19
455.734	610.19
455.955	623.19
456.175	634.19
456.395	632.19
456.616	626.19
456.836	644.19
457.056	623.19
457.276	633.19
457.497	642.19
457.717	646.19
457.937	625.19
458.157	643.19
458.377	633.19
458.598	676.19
458.818	681.19
459.038	680.19
459.258	681.19
459.478	704.19
459.698	699.19
459.918	740.19
460.138	739.19
460.358	760.19
460.578	756.19
460.798	778.19
461.018	810.19
461.238	776.19
461.458	807.19
461.678	771.19
461.898	803.19
462.118	768.19
462.338	825.19
462.558	834.19
462.777	873.19
462.997	864.19
463.217	880.19
463.437	873.19
463.657	848.19
463.876	887.19
464.096	862.19
464.316	813.19
464.536	851.19
464.755	852.19
464.975	830.19
465.195	764.19
465.414	770.19
465.634	748.19
465.854	763.19
466.073	758.19
466.293	723.19
466.512	722.19
466.732	700.19
466.951	716.19
467.171	698.19
467.391	669.19
467.61	699.19
467.829	699.19
468.049	710.19
468.268	694.19
468.488	688.19
468.707	665.19
468.927	704.19
469.146	683.19
469.365	694.19
469.585	666.19
469.804	688.19
470.023	690.19
470.243	712.19
470.462	699.19
470.681	660.19
470.901	698.19
471.12	694.19
471.339	693.19
471.558	705.19
471.777	705.19
471.997	692.19
472.216	680.19
472.435	693.19
472.654	668.19
472.873	674.19
473.092	710.19
473.311	680.19
473.53	681.19
473.749	702.19
473.968	676.19
474.187	674.19
474.406	664.19
474.625	681.19
474.844	674.19
475.063	683.19
475.282	699.19
475.501	692.19
475.72	718.19
475.939	707.19
476.158	726.19
476.377	730.19
476.596	747.19
476.814	760.19
477.033	735.19
477.252	746.19
477.471	753.19
477.69	773.19
477.908	738.19
478.127	790.19
478.346	785.19
478.564	816.19
478.783	816.19
479.002	814.19
479.22	818.19
479.439	809.19
479.658	811.19
479.876	825.19
480.095	835.19
480.313	853.19
480.532	852.19
480.751	866.19
480.969	828.19
481.188	828.19
481.406	856.19
481.624	836.19
481.843	805.19
482.061	818.19
482.28	824.19
482.498	838.19
482.717	838.19
482.935	814.19
483.153	802.19
483.372	790.19
483.59	801.19
483.808	798.19
484.027	813.19
484.245	803.19
484.463	820.19
484.681	827.19
484.9	836.19
485.118	838.19
485.336	811.19
485.554	855.19
485.772	813.19
485.99	830.19
486.209	833.19
486.427	829.19
486.645	825.19
486.863	843.19
487.081	834.19
487.299	847.19
487.517	821.19
487.735	834.19
487.953	857.19
488.171	836.19
488.389	825.19
488.607	804.19
488.825	804.19
489.043	810.19
489.261	838.19
489.479	825.19
489.696	842.19
489.914	835.19
490.132	849.19
490.35	804.19
490.568	803.19
490.786	848.19
491.003	834.19
491.221	828.19
491.439	838.19
491.657	849.19
491.874	857.19
492.092	859.19
492.31	866.19
492.527	860.19
492.745	847.19
492.963	845.19
493.18	840.19
493.398	843.19
493.615	862.19
493.833	864.19
494.05	895.19
494.268	872.19
494.485	864.19
494.703	892.19
494.92	900.19
495.138	881.19
495.355	900.19
495.573	889.19
495.79	912.19
496.008	881.19
496.225	897.19
496.442	905.19
496.66	938.19
496.877	929.19
497.094	955.19
497.312	982.19
497.529	988.19
497.746	1020.19
497.963	1013.19
498.181	1054.19
498.398	1102.19
498.615	1139.19
498.832	1180.19
499.049	1205.19
499.267	1262.19
499.484	1328.19
499.701	1401.19
499.918	1394.19
500.135	1469.19
500.352	1588.19
500.569	1546.19
500.786	1563.19
501.003	1544.19
501.22	1512.19
501.437	1407.19
