Data from Fe(NO3)3@0.0125M.TitratingCurve.Agarose3%dH2O.NegLispCup.LampEnergy10.LIBS07252019_HRD10591_16-59-40-365.txt Node
Date: Thu Jul 25 16:59:40 EDT 2019
User: cochatt
Spectrometer: HR+D1059
Trigger mode: 1
Integration Time (sec): 1.000000E-1
Scans to average: 1
Electric dark correction enabled: true
Nonlinearity correction enabled: false
Boxcar width: 0
XAxis mode: Wavelengths
Number of Pixels in Spectrum: 2048
>>>>>Begin Spectral Data<<<<<
223.165	-15.56
223.4	-15.56
223.635	-15.56
223.869	-30.56
224.104	-27.56
224.338	-8.56
224.573	-33.56
224.808	-13.56
225.042	8.44
225.277	-2.56
225.511	-0.56
225.746	-0.56
225.98	9.44
226.215	2.44
226.449	23.44
226.683	24.44
226.918	31.44
227.152	33.44
227.387	32.44
227.621	41.44
227.856	31.44
228.09	38.44
228.324	44.44
228.559	58.44
228.793	52.44
229.027	74.44
229.262	75.44
229.496	73.44
229.73	71.44
229.964	82.44
230.199	81.44
230.433	83.44
230.667	86.44
230.901	87.44
231.136	83.44
231.37	94.44
231.604	106.44
231.838	103.44
232.072	85.44
232.306	98.44
232.541	95.44
232.775	91.44
233.009	95.44
233.243	113.44
233.477	98.44
233.711	94.44
233.945	100.44
234.179	103.44
234.413	101.44
234.647	102.44
234.881	104.44
235.115	112.44
235.349	97.44
235.583	115.44
235.817	99.44
236.051	97.44
236.285	89.44
236.519	106.44
236.753	99.44
236.987	94.44
237.221	94.44
237.455	103.44
237.689	115.44
237.922	105.44
238.156	110.44
238.39	100.44
238.624	88.44
238.858	107.44
239.091	94.44
239.325	90.44
239.559	116.44
239.793	105.44
240.027	107.44
240.26	113.44
240.494	112.44
240.728	111.44
240.961	111.44
241.195	104.44
241.429	110.44
241.662	97.44
241.896	107.44
242.13	103.44
242.363	93.44
242.597	93.44
242.83	112.44
243.064	108.44
243.298	101.44
243.531	106.44
243.765	103.44
243.998	113.44
244.232	118.44
244.465	112.44
244.699	101.44
244.932	113.44
245.166	118.44
245.399	116.44
245.633	130.44
245.866	117.44
246.099	119.44
246.333	106.44
246.566	112.44
246.8	121.44
247.033	118.44
247.266	117.44
247.5	100.44
247.733	110.44
247.966	120.44
248.2	118.44
248.433	129.44
248.666	126.44
248.899	121.44
249.133	121.44
249.366	114.44
249.599	117.44
249.832	123.44
250.066	136.44
250.299	129.44
250.532	112.44
250.765	136.44
250.998	125.44
251.231	114.44
251.465	124.44
251.698	127.44
251.931	129.44
252.164	121.44
252.397	107.44
252.63	119.44
252.863	134.44
253.096	122.44
253.329	125.44
253.562	134.44
253.795	144.44
254.028	148.44
254.261	142.44
254.494	142.44
254.727	134.44
254.96	136.44
255.193	149.44
255.426	116.44
255.659	139.44
255.892	126.44
256.124	119.44
256.357	132.44
256.59	130.44
256.823	130.44
257.056	135.44
257.289	123.44
257.521	143.44
257.754	139.44
257.987	148.44
258.22	141.44
258.452	139.44
258.685	130.44
258.918	136.44
259.151	140.44
259.383	139.44
259.616	140.44
259.849	150.44
260.081	143.44
260.314	148.44
260.547	161.44
260.779	144.44
261.012	153.44
261.244	143.44
261.477	155.44
261.71	151.44
261.942	145.44
262.175	147.44
262.407	140.44
262.64	156.44
262.872	155.44
263.105	161.44
263.337	160.44
263.57	147.44
263.802	142.44
264.035	159.44
264.267	164.44
264.499	148.44
264.732	165.44
264.964	150.44
265.197	142.44
265.429	162.44
265.661	148.44
265.894	165.44
266.126	153.44
266.358	176.44
266.591	172.44
266.823	166.44
267.055	171.44
267.287	172.44
267.52	165.44
267.752	174.44
267.984	174.44
268.216	186.44
268.448	157.44
268.681	180.44
268.913	162.44
269.145	163.44
269.377	167.44
269.609	166.44
269.841	176.44
270.073	163.44
270.306	188.44
270.538	183.44
270.77	183.44
271.002	182.44
271.234	176.44
271.466	181.44
271.698	172.44
271.93	166.44
272.162	170.44
272.394	169.44
272.626	177.44
272.858	166.44
273.09	164.44
273.322	199.44
273.553	187.44
273.785	191.44
274.017	191.44
274.249	202.44
274.481	202.44
274.713	200.44
274.945	203.44
275.176	198.44
275.408	196.44
275.64	202.44
275.872	197.44
276.104	209.44
276.335	211.44
276.567	195.44
276.799	209.44
277.031	222.44
277.262	197.44
277.494	201.44
277.726	207.44
277.957	212.44
278.189	214.44
278.421	207.44
278.652	219.44
278.884	210.44
279.115	220.44
279.347	199.44
279.579	214.44
279.81	210.44
280.042	208.44
280.273	204.44
280.505	206.44
280.736	224.44
280.968	234.44
281.199	222.44
281.431	215.44
281.662	220.44
281.894	216.44
282.125	224.44
282.356	222.44
282.588	198.44
282.819	229.44
283.051	250.44
283.282	232.44
283.513	255.44
283.745	229.44
283.976	234.44
284.207	232.44
284.439	219.44
284.67	239.44
284.901	247.44
285.132	233.44
285.364	223.44
285.595	244.44
285.826	236.44
286.057	238.44
286.288	238.44
286.52	255.44
286.751	242.44
286.982	243.44
287.213	245.44
287.444	264.44
287.675	257.44
287.906	255.44
288.138	242.44
288.369	254.44
288.6	247.44
288.831	267.44
289.062	268.44
289.293	258.44
289.524	279.44
289.755	260.44
289.986	276.44
290.217	270.44
290.448	273.44
290.679	274.44
290.91	256.44
291.141	278.44
291.371	263.44
291.602	274.44
291.833	277.44
292.064	272.44
292.295	253.44
292.526	276.44
292.757	269.44
292.987	274.44
293.218	272.44
293.449	282.44
293.68	281.44
293.91	262.44
294.141	279.44
294.372	287.44
294.603	279.44
294.833	275.44
295.064	269.44
295.295	283.44
295.525	265.44
295.756	286.44
295.987	280.44
296.217	288.44
296.448	306.44
296.679	286.44
296.909	292.44
297.14	304.44
297.37	292.44
297.601	298.44
297.831	293.44
298.062	305.44
298.292	307.44
298.523	315.44
298.753	311.44
298.984	312.44
299.214	316.44
299.445	299.44
299.675	313.44
299.905	323.44
300.136	312.44
300.366	328.44
300.597	304.44
300.827	315.44
301.057	328.44
301.288	335.44
301.518	310.44
301.748	308.44
301.979	320.44
302.209	338.44
302.439	335.44
302.669	336.44
302.9	325.44
303.13	322.44
303.36	327.44
303.59	341.44
303.82	336.44
304.051	363.44
304.281	327.44
304.511	343.44
304.741	335.44
304.971	351.44
305.201	339.44
305.431	329.44
305.661	346.44
305.891	343.44
306.121	346.44
306.352	330.44
306.582	350.44
306.812	337.44
307.042	345.44
307.272	339.44
307.502	333.44
307.731	343.44
307.961	350.44
308.191	343.44
308.421	358.44
308.651	354.44
308.881	352.44
309.111	350.44
309.341	359.44
309.571	357.44
309.8	348.44
310.03	353.44
310.26	350.44
310.49	359.44
310.72	366.44
310.949	374.44
311.179	370.44
311.409	371.44
311.639	369.44
311.868	364.44
312.098	376.44
312.328	350.44
312.557	374.44
312.787	374.44
313.017	356.44
313.246	394.44
313.476	375.44
313.706	382.44
313.935	376.44
314.165	366.44
314.394	373.44
314.624	374.44
314.853	384.44
315.083	384.44
315.312	386.44
315.542	392.44
315.771	403.44
316.001	393.44
316.23	373.44
316.46	400.44
316.689	395.44
316.919	384.44
317.148	400.44
317.377	406.44
317.607	427.44
317.836	400.44
318.065	397.44
318.295	394.44
318.524	401.44
318.753	385.44
318.983	410.44
319.212	401.44
319.441	401.44
319.67	402.44
319.9	415.44
320.129	407.44
320.358	392.44
320.587	400.44
320.816	425.44
321.046	408.44
321.275	441.44
321.504	407.44
321.733	423.44
321.962	420.44
322.191	417.44
322.42	403.44
322.649	441.44
322.878	405.44
323.108	431.44
323.337	441.44
323.566	429.44
323.795	433.44
324.024	422.44
324.253	408.44
324.482	416.44
324.71	440.44
324.939	441.44
325.168	459.44
325.397	449.44
325.626	453.44
325.855	442.44
326.084	450.44
326.313	435.44
326.542	434.44
326.77	448.44
326.999	443.44
327.228	428.44
327.457	457.44
327.686	471.44
327.914	470.44
328.143	463.44
328.372	463.44
328.6	455.44
328.829	469.44
329.058	466.44
329.287	467.44
329.515	465.44
329.744	476.44
329.972	456.44
330.201	438.44
330.43	491.44
330.658	464.44
330.887	458.44
331.115	468.44
331.344	455.44
331.572	488.44
331.801	474.44
332.03	475.44
332.258	470.44
332.486	458.44
332.715	444.44
332.943	468.44
333.172	468.44
333.4	502.44
333.629	467.44
333.857	482.44
334.085	479.44
334.314	504.44
334.542	485.44
334.771	491.44
334.999	506.44
335.227	494.44
335.455	477.44
335.684	506.44
335.912	485.44
336.14	481.44
336.369	473.44
336.597	508.44
336.825	503.44
337.053	506.44
337.281	508.44
337.51	514.44
337.738	483.44
337.966	497.44
338.194	486.44
338.422	488.44
338.65	462.44
338.878	474.44
339.106	487.44
339.334	495.44
339.562	506.44
339.79	485.44
340.018	471.44
340.246	484.44
340.474	497.44
340.702	499.44
340.93	487.44
341.158	487.44
341.386	478.44
341.614	468.44
341.842	513.44
342.07	490.44
342.298	467.44
342.526	496.44
342.754	489.44
342.981	492.44
343.209	483.44
343.437	483.44
343.665	500.44
343.893	502.44
344.12	501.44
344.348	507.44
344.576	500.44
344.804	495.44
345.031	494.44
345.259	482.44
345.487	483.44
345.714	498.44
345.942	491.44
346.17	486.44
346.397	508.44
346.625	489.44
346.853	488.44
347.08	491.44
347.308	495.44
347.535	504.44
347.763	494.44
347.99	474.44
348.218	517.44
348.445	502.44
348.673	483.44
348.9	474.44
349.128	494.44
349.355	487.44
349.583	487.44
349.81	503.44
350.037	495.44
350.265	481.44
350.492	492.44
350.72	496.44
350.947	487.44
351.174	494.44
351.402	494.44
351.629	501.44
351.856	499.44
352.083	480.44
352.311	498.44
352.538	482.44
352.765	479.44
352.992	500.44
353.22	496.44
353.447	486.44
353.674	495.44
353.901	511.44
354.128	520.44
354.355	484.44
354.583	524.44
354.81	492.44
355.037	502.44
355.264	500.44
355.491	503.44
355.718	486.44
355.945	491.44
356.172	486.44
356.399	478.44
356.626	495.44
356.853	508.44
357.08	511.44
357.307	511.44
357.534	502.44
357.761	497.44
357.988	537.44
358.215	515.44
358.441	519.44
358.668	502.44
358.895	490.44
359.122	475.44
359.349	504.44
359.576	509.44
359.802	494.44
360.029	503.44
360.256	519.44
360.483	500.44
360.709	486.44
360.936	520.44
361.163	514.44
361.39	496.44
361.616	502.44
361.843	501.44
362.07	521.44
362.296	502.44
362.523	498.44
362.749	504.44
362.976	512.44
363.203	516.44
363.429	497.44
363.656	513.44
363.882	508.44
364.109	518.44
364.335	531.44
364.562	528.44
364.788	510.44
365.015	520.44
365.241	532.44
365.468	500.44
365.694	504.44
365.92	523.44
366.147	511.44
366.373	536.44
366.599	519.44
366.826	521.44
367.052	512.44
367.278	523.44
367.505	535.44
367.731	524.44
367.957	500.44
368.184	546.44
368.41	544.44
368.636	533.44
368.862	537.44
369.089	528.44
369.315	536.44
369.541	543.44
369.767	517.44
369.993	523.44
370.219	528.44
370.445	547.44
370.672	541.44
370.898	538.44
371.124	558.44
371.35	514.44
371.576	541.44
371.802	569.44
372.028	550.44
372.254	535.44
372.48	546.44
372.706	546.44
372.932	559.44
373.158	547.44
373.384	540.44
373.61	543.44
373.835	560.44
374.061	561.44
374.287	546.44
374.513	548.44
374.739	556.44
374.965	555.44
375.191	556.44
375.416	551.44
375.642	550.44
375.868	561.44
376.094	577.44
376.319	550.44
376.545	524.44
376.771	531.44
376.997	544.44
377.222	559.44
377.448	545.44
377.674	543.44
377.899	534.44
378.125	560.44
378.35	555.44
378.576	539.44
378.802	521.44
379.027	560.44
379.253	565.44
379.478	532.44
379.704	548.44
379.929	559.44
380.155	555.44
380.38	565.44
380.606	543.44
380.831	561.44
381.057	559.44
381.282	548.44
381.507	559.44
381.733	572.44
381.958	562.44
382.184	552.44
382.409	569.44
382.634	554.44
382.86	553.44
383.085	577.44
383.31	562.44
383.535	567.44
383.761	575.44
383.986	561.44
384.211	571.44
384.436	584.44
384.662	576.44
384.887	589.44
385.112	559.44
385.337	554.44
385.562	574.44
385.787	584.44
386.013	590.44
386.238	571.44
386.463	586.44
386.688	592.44
386.913	582.44
387.138	564.44
387.363	593.44
387.588	614.44
387.813	605.44
388.038	598.44
388.263	593.44
388.488	581.44
388.713	588.44
388.938	590.44
389.163	598.44
389.387	596.44
389.612	593.44
389.837	617.44
390.062	576.44
390.287	588.44
390.512	616.44
390.736	584.44
390.961	595.44
391.186	593.44
391.411	594.44
391.636	612.44
391.86	599.44
392.085	625.44
392.31	619.44
392.534	616.44
392.759	625.44
392.984	606.44
393.208	618.44
393.433	623.44
393.658	628.44
393.882	612.44
394.107	608.44
394.331	619.44
394.556	603.44
394.78	600.44
395.005	599.44
395.229	596.44
395.454	614.44
395.678	600.44
395.903	618.44
396.127	594.44
396.352	613.44
396.576	630.44
396.801	638.44
397.025	646.44
397.249	599.44
397.474	644.44
397.698	608.44
397.922	634.44
398.147	640.44
398.371	616.44
398.595	640.44
398.82	632.44
399.044	642.44
399.268	644.44
399.492	673.44
399.717	692.44
399.941	688.44
400.165	698.44
400.389	662.44
400.613	660.44
400.837	670.44
401.062	626.44
401.286	656.44
401.51	644.44
401.734	639.44
401.958	660.44
402.182	656.44
402.406	636.44
402.63	657.44
402.854	658.44
403.078	657.44
403.302	652.44
403.526	662.44
403.75	658.44
403.974	661.44
404.198	642.44
404.422	664.44
404.645	645.44
404.869	658.44
405.093	656.44
405.317	635.44
405.541	658.44
405.765	643.44
405.988	684.44
406.212	657.44
406.436	648.44
406.66	672.44
406.883	657.44
407.107	679.44
407.331	704.44
407.555	689.44
407.778	677.44
408.002	696.44
408.226	678.44
408.449	676.44
408.673	682.44
408.896	700.44
409.12	698.44
409.344	691.44
409.567	712.44
409.791	689.44
410.014	692.44
410.238	691.44
410.461	672.44
410.685	684.44
410.908	684.44
411.132	681.44
411.355	658.44
411.578	653.44
411.802	660.44
412.025	648.44
412.249	677.44
412.472	655.44
412.695	661.44
412.919	680.44
413.142	686.44
413.365	675.44
413.589	656.44
413.812	647.44
414.035	662.44
414.258	683.44
414.482	662.44
414.705	658.44
414.928	670.44
415.151	650.44
415.374	640.44
415.597	651.44
415.821	664.44
416.044	614.44
416.267	618.44
416.49	654.44
416.713	660.44
416.936	650.44
417.159	656.44
417.382	644.44
417.605	619.44
417.828	639.44
418.051	640.44
418.274	654.44
418.497	636.44
418.72	644.44
418.943	630.44
419.166	647.44
419.389	707.44
419.611	683.44
419.834	680.44
420.057	657.44
420.28	636.44
420.503	638.44
420.726	636.44
420.948	642.44
421.171	616.44
421.394	651.44
421.617	640.44
421.839	647.44
422.062	629.44
422.285	625.44
422.507	630.44
422.73	656.44
422.953	627.44
423.175	656.44
423.398	658.44
423.621	630.44
423.843	636.44
424.066	616.44
424.288	610.44
424.511	626.44
424.733	636.44
424.956	611.44
425.178	633.44
425.401	606.44
425.623	642.44
425.846	611.44
426.068	620.44
426.291	617.44
426.513	633.44
426.735	638.44
426.958	600.44
427.18	628.44
427.402	615.44
427.625	612.44
427.847	617.44
428.069	604.44
428.292	615.44
428.514	602.44
428.736	643.44
428.958	643.44
429.181	634.44
429.403	632.44
429.625	615.44
429.847	627.44
430.069	630.44
430.292	635.44
430.514	626.44
430.736	631.44
430.958	638.44
431.18	618.44
431.402	631.44
431.624	609.44
431.846	623.44
432.068	594.44
432.29	626.44
432.512	613.44
432.734	625.44
432.956	619.44
433.178	632.44
433.4	634.44
433.622	627.44
433.844	649.44
434.066	649.44
434.287	626.44
434.509	630.44
434.731	622.44
434.953	629.44
435.175	636.44
435.397	637.44
435.618	627.44
435.84	640.44
436.062	619.44
436.284	613.44
436.505	586.44
436.727	619.44
436.949	617.44
437.17	632.44
437.392	620.44
437.614	616.44
437.835	600.44
438.057	604.44
438.278	614.44
438.5	619.44
438.721	618.44
438.943	635.44
439.165	614.44
439.386	628.44
439.608	621.44
439.829	643.44
440.05	638.44
440.272	632.44
440.493	626.44
440.715	613.44
440.936	609.44
441.158	610.44
441.379	616.44
441.6	617.44
441.822	638.44
442.043	626.44
442.264	614.44
442.486	616.44
442.707	628.44
442.928	639.44
443.149	632.44
443.371	634.44
443.592	649.44
443.813	637.44
444.034	632.44
444.255	632.44
444.476	625.44
444.698	664.44
444.919	631.44
445.14	724.44
445.361	687.44
445.582	624.44
445.803	630.44
446.024	638.44
446.245	628.44
446.466	619.44
446.687	623.44
446.908	618.44
447.129	627.44
447.35	611.44
447.571	609.44
447.792	605.44
448.013	610.44
448.234	588.44
448.455	607.44
448.675	594.44
448.896	617.44
449.117	602.44
449.338	586.44
449.559	600.44
449.779	600.44
450	594.44
450.221	585.44
450.442	593.44
450.662	577.44
450.883	601.44
451.104	609.44
451.324	610.44
451.545	614.44
451.766	583.44
451.986	591.44
452.207	567.44
452.428	600.44
452.648	598.44
452.869	587.44
453.089	564.44
453.31	577.44
453.53	570.44
453.751	566.44
453.971	573.44
454.192	583.44
454.412	591.44
454.633	577.44
454.853	606.44
455.073	563.44
455.294	609.44
455.514	567.44
455.734	558.44
455.955	552.44
456.175	576.44
456.395	596.44
456.616	580.44
456.836	592.44
457.056	598.44
457.276	581.44
457.497	588.44
457.717	579.44
457.937	611.44
458.157	585.44
458.377	578.44
458.598	593.44
458.818	592.44
459.038	592.44
459.258	589.44
459.478	602.44
459.698	615.44
459.918	619.44
460.138	607.44
460.358	607.44
460.578	630.44
460.798	616.44
461.018	609.44
461.238	619.44
461.458	626.44
461.678	629.44
461.898	619.44
462.118	640.44
462.338	643.44
462.558	649.44
462.777	669.44
462.997	667.44
463.217	663.44
463.437	664.44
463.657	651.44
463.876	658.44
464.096	656.44
464.316	692.44
464.536	659.44
464.755	665.44
464.975	652.44
465.195	646.44
465.414	647.44
465.634	610.44
465.854	608.44
466.073	610.44
466.293	650.44
466.512	627.44
466.732	618.44
466.951	610.44
467.171	627.44
467.391	643.44
467.61	627.44
467.829	618.44
468.049	615.44
468.268	625.44
468.488	633.44
468.707	644.44
468.927	626.44
469.146	622.44
469.365	625.44
469.585	614.44
469.804	622.44
470.023	636.44
470.243	615.44
470.462	630.44
470.681	647.44
470.901	649.44
471.12	625.44
471.339	605.44
471.558	618.44
471.777	646.44
471.997	640.44
472.216	644.44
472.435	651.44
472.654	636.44
472.873	651.44
473.092	641.44
473.311	638.44
473.53	641.44
473.749	671.44
473.968	656.44
474.187	666.44
474.406	655.44
474.625	663.44
474.844	638.44
475.063	657.44
475.282	649.44
475.501	654.44
475.72	692.44
475.939	671.44
476.158	694.44
476.377	702.44
476.596	691.44
476.814	688.44
477.033	686.44
477.252	665.44
477.471	725.44
477.69	715.44
477.908	714.44
478.127	729.44
478.346	720.44
478.564	714.44
478.783	746.44
479.002	753.44
479.22	737.44
479.439	742.44
479.658	755.44
479.876	738.44
480.095	741.44
480.313	744.44
480.532	731.44
480.751	780.44
480.969	757.44
481.188	757.44
481.406	779.44
481.624	771.44
481.843	744.44
482.061	778.44
482.28	751.44
482.498	769.44
482.717	759.44
482.935	770.44
483.153	784.44
483.372	784.44
483.59	771.44
483.808	763.44
484.027	792.44
484.245	796.44
484.463	779.44
484.681	809.44
484.9	804.44
485.118	798.44
485.336	804.44
485.554	790.44
485.772	822.44
485.99	799.44
486.209	811.44
486.427	774.44
486.645	763.44
486.863	811.44
487.081	790.44
487.299	790.44
487.517	795.44
487.735	832.44
487.953	822.44
488.171	818.44
488.389	807.44
488.607	835.44
488.825	780.44
489.043	804.44
489.261	803.44
489.479	817.44
489.696	839.44
489.914	845.44
490.132	816.44
490.35	803.44
490.568	820.44
490.786	808.44
491.003	828.44
491.221	844.44
491.439	838.44
491.657	835.44
491.874	843.44
492.092	817.44
492.31	819.44
492.527	842.44
492.745	836.44
492.963	810.44
493.18	820.44
493.398	840.44
493.615	829.44
493.833	848.44
494.05	825.44
494.268	848.44
494.485	857.44
494.703	831.44
494.92	836.44
495.138	809.44
495.355	854.44
495.573	883.44
495.79	855.44
496.008	866.44
496.225	854.44
496.442	867.44
496.66	858.44
496.877	853.44
497.094	868.44
497.312	887.44
497.529	884.44
497.746	876.44
497.963	857.44
498.181	909.44
498.398	892.44
498.615	905.44
498.832	904.44
499.049	941.44
499.267	913.44
499.484	946.44
499.701	1002.44
499.918	995.44
500.135	986.44
500.352	1027.44
500.569	1035.44
500.786	1034.44
501.003	1035.44
501.22	1008.44
501.437	974.44
501.654	956.44
501.871	958.44
