Data from Fe(NO3)3@0.025M.TitratingCurve.Agarose3%dH2O.NegLispCup.LampEnergy10.LIBS07252019_HRD10591_16-54-23-335.txt Node
Date: Thu Jul 25 16:54:23 EDT 2019
User: cochatt
Spectrometer: HR+D1059
Trigger mode: 1
Integration Time (sec): 1.000000E-1
Scans to average: 1
Electric dark correction enabled: true
Nonlinearity correction enabled: false
Boxcar width: 0
XAxis mode: Wavelengths
Number of Pixels in Spectrum: 2048
>>>>>Begin Spectral Data<<<<<
223.165	-2.94
223.4	-2.94
223.635	-2.94
223.869	-27.94
224.104	-21.94
224.338	-18.94
224.573	-14.94
224.808	-14.94
225.042	2.06
225.277	5.06
225.511	-3.94
225.746	10.06
225.98	8.06
226.215	3.06
226.449	19.06
226.683	7.06
226.918	21.06
227.152	30.06
227.387	40.06
227.621	44.06
227.856	56.06
228.09	48.06
228.324	46.06
228.559	65.06
228.793	77.06
229.027	109.06
229.262	115.06
229.496	122.06
229.73	132.06
229.964	119.06
230.199	128.06
230.433	120.06
230.667	113.06
230.901	113.06
231.136	124.06
231.37	130.06
231.604	123.06
231.838	132.06
232.072	121.06
232.306	120.06
232.541	130.06
232.775	136.06
233.009	125.06
233.243	131.06
233.477	141.06
233.711	131.06
233.945	151.06
234.179	143.06
234.413	138.06
234.647	144.06
234.881	151.06
235.115	146.06
235.349	131.06
235.583	127.06
235.817	142.06
236.051	147.06
236.285	166.06
236.519	158.06
236.753	152.06
236.987	141.06
237.221	161.06
237.455	161.06
237.689	150.06
237.922	153.06
238.156	164.06
238.39	170.06
238.624	184.06
238.858	175.06
239.091	162.06
239.325	172.06
239.559	167.06
239.793	158.06
240.027	184.06
240.26	175.06
240.494	168.06
240.728	184.06
240.961	210.06
241.195	168.06
241.429	165.06
241.662	175.06
241.896	176.06
242.13	169.06
242.363	169.06
242.597	174.06
242.83	185.06
243.064	180.06
243.298	180.06
243.531	177.06
243.765	183.06
243.998	202.06
244.232	170.06
244.465	198.06
244.699	194.06
244.932	202.06
245.166	209.06
245.399	175.06
245.633	193.06
245.866	193.06
246.099	184.06
246.333	205.06
246.566	207.06
246.8	203.06
247.033	211.06
247.266	217.06
247.5	191.06
247.733	215.06
247.966	210.06
248.2	220.06
248.433	222.06
248.666	220.06
248.899	223.06
249.133	219.06
249.366	215.06
249.599	231.06
249.832	224.06
250.066	216.06
250.299	229.06
250.532	220.06
250.765	196.06
250.998	221.06
251.231	224.06
251.465	235.06
251.698	233.06
251.931	240.06
252.164	229.06
252.397	237.06
252.63	242.06
252.863	269.06
253.096	248.06
253.329	242.06
253.562	262.06
253.795	266.06
254.028	269.06
254.261	276.06
254.494	266.06
254.727	253.06
254.96	250.06
255.193	263.06
255.426	264.06
255.659	255.06
255.892	259.06
256.124	269.06
256.357	272.06
256.59	253.06
256.823	255.06
257.056	254.06
257.289	268.06
257.521	260.06
257.754	278.06
257.987	249.06
258.22	269.06
258.452	255.06
258.685	280.06
258.918	289.06
259.151	280.06
259.383	275.06
259.616	278.06
259.849	291.06
260.081	312.06
260.314	344.06
260.547	305.06
260.779	288.06
261.012	298.06
261.244	297.06
261.477	300.06
261.71	308.06
261.942	300.06
262.175	287.06
262.407	274.06
262.64	314.06
262.872	305.06
263.105	324.06
263.337	324.06
263.57	314.06
263.802	299.06
264.035	296.06
264.267	292.06
264.499	289.06
264.732	288.06
264.964	311.06
265.197	300.06
265.429	299.06
265.661	303.06
265.894	299.06
266.126	311.06
266.358	308.06
266.591	314.06
266.823	310.06
267.055	322.06
267.287	308.06
267.52	297.06
267.752	298.06
267.984	310.06
268.216	336.06
268.448	323.06
268.681	328.06
268.913	311.06
269.145	318.06
269.377	327.06
269.609	301.06
269.841	321.06
270.073	320.06
270.306	308.06
270.538	334.06
270.77	337.06
271.002	329.06
271.234	338.06
271.466	345.06
271.698	341.06
271.93	334.06
272.162	345.06
272.394	347.06
272.626	342.06
272.858	334.06
273.09	363.06
273.322	337.06
273.553	347.06
273.785	369.06
274.017	377.06
274.249	388.06
274.481	392.06
274.713	403.06
274.945	430.06
275.176	450.06
275.408	408.06
275.64	406.06
275.872	420.06
276.104	381.06
276.335	380.06
276.567	368.06
276.799	367.06
277.031	390.06
277.262	366.06
277.494	364.06
277.726	358.06
277.957	354.06
278.189	367.06
278.421	371.06
278.652	376.06
278.884	395.06
279.115	373.06
279.347	368.06
279.579	388.06
279.81	382.06
280.042	386.06
280.273	393.06
280.505	384.06
280.736	380.06
280.968	363.06
281.199	388.06
281.431	378.06
281.662	382.06
281.894	370.06
282.125	396.06
282.356	383.06
282.588	409.06
282.819	396.06
283.051	403.06
283.282	383.06
283.513	406.06
283.745	426.06
283.976	407.06
284.207	388.06
284.439	407.06
284.67	408.06
284.901	395.06
285.132	408.06
285.364	393.06
285.595	405.06
285.826	423.06
286.057	418.06
286.288	432.06
286.52	419.06
286.751	403.06
286.982	417.06
287.213	444.06
287.444	426.06
287.675	422.06
287.906	425.06
288.138	410.06
288.369	421.06
288.6	448.06
288.831	428.06
289.062	420.06
289.293	433.06
289.524	426.06
289.755	441.06
289.986	429.06
290.217	418.06
290.448	427.06
290.679	430.06
290.91	423.06
291.141	436.06
291.371	446.06
291.602	444.06
291.833	445.06
292.064	432.06
292.295	422.06
292.526	415.06
292.757	426.06
292.987	419.06
293.218	443.06
293.449	450.06
293.68	425.06
293.91	459.06
294.141	446.06
294.372	453.06
294.603	453.06
294.833	445.06
295.064	445.06
295.295	455.06
295.525	441.06
295.756	450.06
295.987	452.06
296.217	447.06
296.448	455.06
296.679	468.06
296.909	460.06
297.14	455.06
297.37	465.06
297.601	467.06
297.831	452.06
298.062	438.06
298.292	465.06
298.523	451.06
298.753	470.06
298.984	476.06
299.214	464.06
299.445	458.06
299.675	457.06
299.905	474.06
300.136	472.06
300.366	466.06
300.597	463.06
300.827	491.06
301.057	470.06
301.288	475.06
301.518	470.06
301.748	484.06
301.979	519.06
302.209	485.06
302.439	520.06
302.669	469.06
302.9	492.06
303.13	496.06
303.36	520.06
303.59	492.06
303.82	514.06
304.051	502.06
304.281	508.06
304.511	499.06
304.741	493.06
304.971	510.06
305.201	511.06
305.431	511.06
305.661	496.06
305.891	494.06
306.121	522.06
306.352	510.06
306.582	528.06
306.812	488.06
307.042	508.06
307.272	518.06
307.502	508.06
307.731	493.06
307.961	524.06
308.191	495.06
308.421	503.06
308.651	511.06
308.881	482.06
309.111	505.06
309.341	511.06
309.571	516.06
309.8	497.06
310.03	527.06
310.26	528.06
310.49	505.06
310.72	518.06
310.949	522.06
311.179	513.06
311.409	496.06
311.639	538.06
311.868	523.06
312.098	535.06
312.328	521.06
312.557	532.06
312.787	518.06
313.017	518.06
313.246	519.06
313.476	543.06
313.706	533.06
313.935	532.06
314.165	538.06
314.394	551.06
314.624	530.06
314.853	554.06
315.083	533.06
315.312	529.06
315.542	537.06
315.771	543.06
316.001	543.06
316.23	549.06
316.46	541.06
316.689	541.06
316.919	569.06
317.148	542.06
317.377	553.06
317.607	581.06
317.836	548.06
318.065	542.06
318.295	551.06
318.524	556.06
318.753	545.06
318.983	561.06
319.212	528.06
319.441	548.06
319.67	557.06
319.9	541.06
320.129	542.06
320.358	582.06
320.587	581.06
320.816	550.06
321.046	556.06
321.275	554.06
321.504	570.06
321.733	558.06
321.962	572.06
322.191	552.06
322.42	554.06
322.649	566.06
322.878	554.06
323.108	574.06
323.337	556.06
323.566	587.06
323.795	599.06
324.024	594.06
324.253	570.06
324.482	591.06
324.71	594.06
324.939	557.06
325.168	593.06
325.397	574.06
325.626	581.06
325.855	587.06
326.084	582.06
326.313	594.06
326.542	592.06
326.77	595.06
326.999	606.06
327.228	617.06
327.457	600.06
327.686	587.06
327.914	585.06
328.143	600.06
328.372	608.06
328.6	606.06
328.829	609.06
329.058	588.06
329.287	598.06
329.515	608.06
329.744	620.06
329.972	613.06
330.201	616.06
330.43	613.06
330.658	585.06
330.887	617.06
331.115	604.06
331.344	635.06
331.572	650.06
331.801	658.06
332.03	652.06
332.258	651.06
332.486	620.06
332.715	638.06
332.943	640.06
333.172	682.06
333.4	670.06
333.629	684.06
333.857	684.06
334.085	731.06
334.314	693.06
334.542	692.06
334.771	690.06
334.999	696.06
335.227	694.06
335.455	692.06
335.684	699.06
335.912	708.06
336.14	703.06
336.369	711.06
336.597	716.06
336.825	684.06
337.053	681.06
337.281	676.06
337.51	673.06
337.738	700.06
337.966	666.06
338.194	672.06
338.422	684.06
338.65	696.06
338.878	670.06
339.106	652.06
339.334	679.06
339.562	649.06
339.79	622.06
340.018	636.06
340.246	639.06
340.474	651.06
340.702	654.06
340.93	648.06
341.158	648.06
341.386	652.06
341.614	661.06
341.842	648.06
342.07	646.06
342.298	657.06
342.526	625.06
342.754	646.06
342.981	646.06
343.209	653.06
343.437	633.06
343.665	640.06
343.893	683.06
344.12	688.06
344.348	713.06
344.576	706.06
344.804	665.06
345.031	657.06
345.259	662.06
345.487	659.06
345.714	639.06
345.942	647.06
346.17	636.06
346.397	632.06
346.625	628.06
346.853	623.06
347.08	599.06
347.308	635.06
347.535	622.06
347.763	606.06
347.99	612.06
348.218	621.06
348.445	614.06
348.673	619.06
348.9	605.06
349.128	625.06
349.355	610.06
349.583	621.06
349.81	613.06
350.037	636.06
350.265	617.06
350.492	638.06
350.72	613.06
350.947	617.06
351.174	590.06
351.402	609.06
351.629	608.06
351.856	599.06
352.083	610.06
352.311	608.06
352.538	627.06
352.765	595.06
352.992	601.06
353.22	604.06
353.447	633.06
353.674	622.06
353.901	624.06
354.128	588.06
354.355	623.06
354.583	587.06
354.81	600.06
355.037	610.06
355.264	605.06
355.491	620.06
355.718	611.06
355.945	618.06
356.172	614.06
356.399	619.06
356.626	620.06
356.853	624.06
357.08	629.06
357.307	608.06
357.534	594.06
357.761	619.06
357.988	640.06
358.215	634.06
358.441	620.06
358.668	618.06
358.895	626.06
359.122	634.06
359.349	634.06
359.576	592.06
359.802	592.06
360.029	616.06
360.256	620.06
360.483	620.06
360.709	614.06
360.936	625.06
361.163	618.06
361.39	622.06
361.616	626.06
361.843	587.06
362.07	622.06
362.296	629.06
362.523	600.06
362.749	600.06
362.976	632.06
363.203	647.06
363.429	624.06
363.656	628.06
363.882	610.06
364.109	636.06
364.335	628.06
364.562	644.06
364.788	625.06
365.015	651.06
365.241	665.06
365.468	638.06
365.694	630.06
365.92	606.06
366.147	607.06
366.373	621.06
366.599	638.06
366.826	628.06
367.052	657.06
367.278	616.06
367.505	611.06
367.731	639.06
367.957	626.06
368.184	621.06
368.41	634.06
368.636	643.06
368.862	644.06
369.089	657.06
369.315	645.06
369.541	641.06
369.767	656.06
369.993	639.06
370.219	636.06
370.445	670.06
370.672	648.06
370.898	659.06
371.124	649.06
371.35	666.06
371.576	652.06
371.802	675.06
372.028	704.06
372.254	685.06
372.48	690.06
372.706	698.06
372.932	702.06
373.158	666.06
373.384	702.06
373.61	718.06
373.835	726.06
374.061	705.06
374.287	708.06
374.513	677.06
374.739	712.06
374.965	738.06
375.191	720.06
375.416	707.06
375.642	684.06
375.868	704.06
376.094	708.06
376.319	678.06
376.545	697.06
376.771	709.06
376.997	657.06
377.222	664.06
377.448	646.06
377.674	650.06
377.899	655.06
378.125	673.06
378.35	681.06
378.576	661.06
378.802	657.06
379.027	674.06
379.253	670.06
379.478	689.06
379.704	687.06
379.929	679.06
380.155	686.06
380.38	672.06
380.606	676.06
380.831	661.06
381.057	680.06
381.282	683.06
381.507	679.06
381.733	698.06
381.958	718.06
382.184	702.06
382.409	709.06
382.634	705.06
382.86	730.06
383.085	725.06
383.31	730.06
383.535	717.06
383.761	702.06
383.986	713.06
384.211	734.06
384.436	763.06
384.662	725.06
384.887	736.06
385.112	737.06
385.337	737.06
385.562	763.06
385.787	758.06
386.013	777.06
386.238	792.06
386.463	740.06
386.688	783.06
386.913	761.06
387.138	768.06
387.363	761.06
387.588	789.06
387.813	797.06
388.038	772.06
388.263	761.06
388.488	786.06
388.713	793.06
388.938	796.06
389.163	778.06
389.387	790.06
389.612	803.06
389.837	793.06
390.062	805.06
390.287	787.06
390.512	809.06
390.736	783.06
390.961	801.06
391.186	787.06
391.411	802.06
391.636	825.06
391.86	841.06
392.085	817.06
392.31	824.06
392.534	864.06
392.759	828.06
392.984	814.06
393.208	831.06
393.433	817.06
393.658	805.06
393.882	796.06
394.107	801.06
394.331	806.06
394.556	817.06
394.78	804.06
395.005	828.06
395.229	818.06
395.454	828.06
395.678	860.06
395.903	842.06
396.127	850.06
396.352	833.06
396.576	845.06
396.801	858.06
397.025	868.06
397.249	877.06
397.474	872.06
397.698	869.06
397.922	906.06
398.147	890.06
398.371	893.06
398.595	901.06
398.82	915.06
399.044	960.06
399.268	991.06
399.492	1005.06
399.717	1041.06
399.941	1060.06
400.165	1067.06
400.389	1027.06
400.613	1017.06
400.837	980.06
401.062	975.06
401.286	961.06
401.51	922.06
401.734	917.06
401.958	920.06
402.182	932.06
402.406	933.06
402.63	894.06
402.854	932.06
403.078	888.06
403.302	916.06
403.526	922.06
403.75	914.06
403.974	936.06
404.198	917.06
404.422	928.06
404.645	921.06
404.869	954.06
405.093	941.06
405.317	942.06
405.541	967.06
405.765	987.06
405.988	935.06
406.212	979.06
406.436	970.06
406.66	978.06
406.883	991.06
407.107	1018.06
407.331	1024.06
407.555	1060.06
407.778	1052.06
408.002	1029.06
408.226	1010.06
408.449	1042.06
408.673	1019.06
408.896	1034.06
409.12	998.06
409.344	1018.06
409.567	969.06
409.791	1005.06
410.014	999.06
410.238	975.06
410.461	984.06
410.685	936.06
410.908	957.06
411.132	940.06
411.355	950.06
411.578	962.06
411.802	951.06
412.025	956.06
412.249	949.06
412.472	966.06
412.695	960.06
412.919	950.06
413.142	916.06
413.365	933.06
413.589	932.06
413.812	904.06
414.035	926.06
414.258	924.06
414.482	901.06
414.705	909.06
414.928	914.06
415.151	915.06
415.374	882.06
415.597	890.06
415.821	890.06
416.044	866.06
416.267	881.06
416.49	884.06
416.713	904.06
416.936	903.06
417.159	896.06
417.382	879.06
417.605	882.06
417.828	895.06
418.051	874.06
418.274	870.06
418.497	858.06
418.72	861.06
418.943	861.06
419.166	897.06
419.389	924.06
419.611	958.06
419.834	915.06
420.057	926.06
420.28	910.06
420.503	870.06
420.726	849.06
420.948	856.06
421.171	872.06
421.394	873.06
421.617	845.06
421.839	838.06
422.062	875.06
422.285	852.06
422.507	849.06
422.73	868.06
422.953	845.06
423.175	873.06
423.398	860.06
423.621	856.06
423.843	877.06
424.066	862.06
424.288	881.06
424.511	846.06
424.733	850.06
424.956	847.06
425.178	854.06
425.401	859.06
425.623	855.06
425.846	829.06
426.068	873.06
426.291	847.06
426.513	847.06
426.735	830.06
426.958	870.06
427.18	832.06
427.402	842.06
427.625	823.06
427.847	828.06
428.069	836.06
428.292	856.06
428.514	819.06
428.736	800.06
428.958	810.06
429.181	809.06
429.403	827.06
429.625	800.06
429.847	793.06
430.069	829.06
430.292	863.06
430.514	801.06
430.736	815.06
430.958	816.06
431.18	795.06
431.402	825.06
431.624	825.06
431.846	831.06
432.068	830.06
432.29	874.06
432.512	834.06
432.734	846.06
432.956	823.06
433.178	835.06
433.4	841.06
433.622	807.06
433.844	830.06
434.066	817.06
434.287	812.06
434.509	844.06
434.731	842.06
434.953	851.06
435.175	834.06
435.397	849.06
435.618	867.06
435.84	857.06
436.062	838.06
436.284	837.06
436.505	809.06
436.727	816.06
436.949	813.06
437.17	817.06
437.392	807.06
437.614	805.06
437.835	799.06
438.057	810.06
438.278	788.06
438.5	802.06
438.721	779.06
438.943	808.06
439.165	787.06
439.386	792.06
439.608	808.06
439.829	787.06
440.05	800.06
440.272	814.06
440.493	816.06
440.715	821.06
440.936	812.06
441.158	815.06
441.379	835.06
441.6	845.06
441.822	838.06
442.043	836.06
442.264	798.06
442.486	822.06
442.707	836.06
442.928	805.06
443.149	844.06
443.371	800.06
443.592	824.06
443.813	817.06
444.034	857.06
444.255	862.06
444.476	853.06
444.698	879.06
444.919	865.06
445.14	995.06
445.361	902.06
445.582	864.06
445.803	842.06
446.024	814.06
446.245	797.06
446.466	814.06
446.687	795.06
446.908	812.06
447.129	805.06
447.35	767.06
447.571	765.06
447.792	762.06
448.013	762.06
448.234	748.06
448.455	747.06
448.675	749.06
448.896	761.06
449.117	709.06
449.338	753.06
449.559	754.06
449.779	725.06
450	722.06
450.221	744.06
450.442	760.06
450.662	753.06
450.883	731.06
451.104	727.06
451.324	741.06
451.545	723.06
451.766	736.06
451.986	716.06
452.207	731.06
452.428	745.06
452.648	717.06
452.869	716.06
453.089	680.06
453.31	726.06
453.53	726.06
453.751	720.06
453.971	706.06
454.192	720.06
454.412	670.06
454.633	712.06
454.853	718.06
455.073	715.06
455.294	726.06
455.514	706.06
455.734	697.06
455.955	704.06
456.175	709.06
456.395	685.06
456.616	694.06
456.836	737.06
457.056	724.06
457.276	699.06
457.497	731.06
457.717	715.06
457.937	733.06
458.157	716.06
458.377	737.06
458.598	756.06
458.818	760.06
459.038	775.06
459.258	802.06
459.478	804.06
459.698	795.06
459.918	802.06
460.138	834.06
460.358	849.06
460.578	844.06
460.798	871.06
461.018	874.06
461.238	888.06
461.458	892.06
461.678	863.06
461.898	934.06
462.118	910.06
462.338	922.06
462.558	923.06
462.777	916.06
462.997	959.06
463.217	938.06
463.437	980.06
463.657	959.06
463.876	969.06
464.096	957.06
464.316	936.06
464.536	911.06
464.755	924.06
464.975	898.06
465.195	878.06
465.414	887.06
465.634	826.06
465.854	842.06
466.073	833.06
466.293	828.06
466.512	820.06
466.732	793.06
466.951	820.06
467.171	787.06
467.391	768.06
467.61	763.06
467.829	760.06
468.049	778.06
468.268	763.06
468.488	760.06
468.707	758.06
468.927	785.06
469.146	782.06
469.365	798.06
469.585	793.06
469.804	813.06
470.023	786.06
470.243	768.06
470.462	745.06
470.681	797.06
470.901	806.06
471.12	781.06
471.339	784.06
471.558	768.06
471.777	762.06
471.997	772.06
472.216	780.06
472.435	807.06
472.654	784.06
472.873	781.06
473.092	767.06
473.311	776.06
473.53	794.06
473.749	756.06
473.968	792.06
474.187	774.06
474.406	766.06
474.625	768.06
474.844	780.06
475.063	780.06
475.282	797.06
475.501	785.06
475.72	824.06
475.939	803.06
476.158	799.06
476.377	837.06
476.596	856.06
476.814	877.06
477.033	866.06
477.252	844.06
477.471	828.06
477.69	857.06
477.908	870.06
478.127	877.06
478.346	898.06
478.564	900.06
478.783	884.06
479.002	890.06
479.22	919.06
479.439	917.06
479.658	952.06
479.876	924.06
480.095	906.06
480.313	928.06
480.532	935.06
480.751	923.06
480.969	955.06
481.188	959.06
481.406	946.06
481.624	928.06
481.843	928.06
482.061	928.06
482.28	919.06
482.498	942.06
482.717	941.06
482.935	936.06
483.153	923.06
483.372	932.06
483.59	914.06
483.808	928.06
484.027	963.06
484.245	942.06
484.463	940.06
484.681	947.06
484.9	921.06
485.118	941.06
485.336	936.06
485.554	964.06
485.772	985.06
485.99	960.06
486.209	978.06
486.427	971.06
486.645	940.06
486.863	986.06
487.081	924.06
487.299	966.06
487.517	968.06
487.735	939.06
487.953	966.06
488.171	956.06
488.389	941.06
488.607	948.06
488.825	923.06
489.043	947.06
489.261	965.06
489.479	920.06
489.696	926.06
489.914	926.06
490.132	957.06
490.35	954.06
490.568	952.06
490.786	945.06
491.003	936.06
491.221	950.06
491.439	974.06
491.657	957.06
491.874	987.06
492.092	964.06
492.31	971.06
492.527	969.06
492.745	961.06
492.963	960.06
493.18	980.06
493.398	960.06
493.615	987.06
493.833	962.06
494.05	973.06
494.268	968.06
494.485	984.06
494.703	977.06
494.92	1006.06
495.138	995.06
495.355	998.06
495.573	994.06
495.79	1028.06
496.008	1039.06
496.225	1047.06
496.442	1021.06
496.66	1057.06
496.877	1056.06
497.094	1088.06
497.312	1100.06
497.529	1134.06
497.746	1152.06
497.963	1164.06
498.181	1185.06
498.398	1223.06
498.615	1263.06
498.832	1290.06
499.049	1333.06
499.267	1369.06
499.484	1418.06
499.701	1509.06
499.918	1556.06
500.135	1635.06
500.352	1649.06
500.569	1707.06
500.786	1685.06
501.003	1648.06
