Data from Fe(NO3)3@0.1M.TitratingCurve.Agarose3%dH2O.NegLispCup.LampEnergy10.LIBS07252019_HRD10591_16-37-17-331.txt Node
Date: Thu Jul 25 16:37:17 EDT 2019
User: cochatt
Spectrometer: HR+D1059
Trigger mode: 1
Integration Time (sec): 1.000000E-1
Scans to average: 1
Electric dark correction enabled: true
Nonlinearity correction enabled: false
Boxcar width: 0
XAxis mode: Wavelengths
Number of Pixels in Spectrum: 2048
>>>>>Begin Spectral Data<<<<<
223.165	0.94
223.4	0.94
223.635	0.94
223.869	-16.06
224.104	-12.06
224.338	-14.06
224.573	-12.06
224.808	-9.06
225.042	-16.06
225.277	-0.06
225.511	-21.06
225.746	3.94
225.98	1.94
226.215	-1.06
226.449	11.94
226.683	27.94
226.918	16.94
227.152	37.94
227.387	14.94
227.621	36.94
227.856	55.94
228.09	62.94
228.324	50.94
228.559	62.94
228.793	60.94
229.027	84.94
229.262	48.94
229.496	56.94
229.73	83.94
229.964	90.94
230.199	76.94
230.433	73.94
230.667	79.94
230.901	89.94
231.136	98.94
231.37	87.94
231.604	94.94
231.838	72.94
232.072	110.94
232.306	79.94
232.541	97.94
232.775	90.94
233.009	103.94
233.243	96.94
233.477	90.94
233.711	99.94
233.945	102.94
234.179	97.94
234.413	76.94
234.647	96.94
234.881	103.94
235.115	108.94
235.349	97.94
235.583	89.94
235.817	92.94
236.051	86.94
236.285	109.94
236.519	104.94
236.753	107.94
236.987	100.94
237.221	102.94
237.455	88.94
237.689	111.94
237.922	101.94
238.156	98.94
238.39	103.94
238.624	104.94
238.858	96.94
239.091	114.94
239.325	100.94
239.559	114.94
239.793	107.94
240.027	120.94
240.26	116.94
240.494	118.94
240.728	110.94
240.961	111.94
241.195	111.94
241.429	97.94
241.662	98.94
241.896	95.94
242.13	100.94
242.363	102.94
242.597	107.94
242.83	104.94
243.064	100.94
243.298	108.94
243.531	112.94
243.765	94.94
243.998	120.94
244.232	103.94
244.465	99.94
244.699	121.94
244.932	122.94
245.166	104.94
245.399	114.94
245.633	105.94
245.866	114.94
246.099	118.94
246.333	116.94
246.566	122.94
246.8	106.94
247.033	112.94
247.266	126.94
247.5	120.94
247.733	124.94
247.966	105.94
248.2	118.94
248.433	120.94
248.666	113.94
248.899	118.94
249.133	104.94
249.366	113.94
249.599	124.94
249.832	123.94
250.066	124.94
250.299	110.94
250.532	119.94
250.765	121.94
250.998	128.94
251.231	120.94
251.465	124.94
251.698	115.94
251.931	118.94
252.164	122.94
252.397	114.94
252.63	122.94
252.863	132.94
253.096	135.94
253.329	126.94
253.562	126.94
253.795	124.94
254.028	146.94
254.261	133.94
254.494	140.94
254.727	137.94
254.96	123.94
255.193	127.94
255.426	123.94
255.659	123.94
255.892	122.94
256.124	130.94
256.357	134.94
256.59	126.94
256.823	141.94
257.056	140.94
257.289	130.94
257.521	137.94
257.754	132.94
257.987	134.94
258.22	131.94
258.452	132.94
258.685	137.94
258.918	139.94
259.151	146.94
259.383	150.94
259.616	133.94
259.849	144.94
260.081	159.94
260.314	154.94
260.547	138.94
260.779	137.94
261.012	138.94
261.244	154.94
261.477	168.94
261.71	147.94
261.942	130.94
262.175	127.94
262.407	155.94
262.64	152.94
262.872	151.94
263.105	141.94
263.337	164.94
263.57	153.94
263.802	150.94
264.035	162.94
264.267	139.94
264.499	130.94
264.732	130.94
264.964	140.94
265.197	131.94
265.429	139.94
265.661	143.94
265.894	132.94
266.126	152.94
266.358	140.94
266.591	138.94
266.823	150.94
267.055	140.94
267.287	138.94
267.52	153.94
267.752	150.94
267.984	156.94
268.216	145.94
268.448	146.94
268.681	152.94
268.913	170.94
269.145	118.94
269.377	151.94
269.609	159.94
269.841	152.94
270.073	154.94
270.306	146.94
270.538	148.94
270.77	139.94
271.002	143.94
271.234	150.94
271.466	155.94
271.698	163.94
271.93	153.94
272.162	156.94
272.394	150.94
272.626	165.94
272.858	147.94
273.09	165.94
273.322	169.94
273.553	170.94
273.785	170.94
274.017	172.94
274.249	177.94
274.481	158.94
274.713	166.94
274.945	184.94
275.176	181.94
275.408	184.94
275.64	175.94
275.872	163.94
276.104	151.94
276.335	169.94
276.567	156.94
276.799	159.94
277.031	161.94
277.262	161.94
277.494	176.94
277.726	182.94
277.957	178.94
278.189	164.94
278.421	164.94
278.652	185.94
278.884	148.94
279.115	167.94
279.347	168.94
279.579	142.94
279.81	149.94
280.042	165.94
280.273	178.94
280.505	175.94
280.736	171.94
280.968	167.94
281.199	183.94
281.431	174.94
281.662	174.94
281.894	183.94
282.125	172.94
282.356	166.94
282.588	169.94
282.819	182.94
283.051	161.94
283.282	165.94
283.513	190.94
283.745	190.94
283.976	170.94
284.207	189.94
284.439	182.94
284.67	166.94
284.901	184.94
285.132	193.94
285.364	175.94
285.595	191.94
285.826	170.94
286.057	168.94
286.288	163.94
286.52	169.94
286.751	180.94
286.982	195.94
287.213	189.94
287.444	188.94
287.675	171.94
287.906	180.94
288.138	181.94
288.369	184.94
288.6	177.94
288.831	178.94
289.062	178.94
289.293	185.94
289.524	186.94
289.755	190.94
289.986	173.94
290.217	175.94
290.448	184.94
290.679	191.94
290.91	198.94
291.141	199.94
291.371	197.94
291.602	182.94
291.833	213.94
292.064	196.94
292.295	186.94
292.526	202.94
292.757	192.94
292.987	184.94
293.218	210.94
293.449	190.94
293.68	186.94
293.91	186.94
294.141	191.94
294.372	179.94
294.603	181.94
294.833	200.94
295.064	188.94
295.295	195.94
295.525	194.94
295.756	194.94
295.987	203.94
296.217	205.94
296.448	197.94
296.679	190.94
296.909	207.94
297.14	202.94
297.37	188.94
297.601	196.94
297.831	192.94
298.062	216.94
298.292	203.94
298.523	205.94
298.753	203.94
298.984	203.94
299.214	201.94
299.445	201.94
299.675	207.94
299.905	188.94
300.136	203.94
300.366	192.94
300.597	222.94
300.827	192.94
301.057	195.94
301.288	198.94
301.518	202.94
301.748	213.94
301.979	208.94
302.209	228.94
302.439	214.94
302.669	211.94
302.9	202.94
303.13	199.94
303.36	205.94
303.59	208.94
303.82	203.94
304.051	224.94
304.281	203.94
304.511	207.94
304.741	204.94
304.971	216.94
305.201	215.94
305.431	225.94
305.661	196.94
305.891	198.94
306.121	206.94
306.352	193.94
306.582	199.94
306.812	216.94
307.042	207.94
307.272	196.94
307.502	212.94
307.731	214.94
307.961	185.94
308.191	198.94
308.421	201.94
308.651	219.94
308.881	211.94
309.111	213.94
309.341	231.94
309.571	215.94
309.8	203.94
310.03	219.94
310.26	194.94
310.49	213.94
310.72	235.94
310.949	219.94
311.179	214.94
311.409	219.94
311.639	219.94
311.868	221.94
312.098	205.94
312.328	202.94
312.557	224.94
312.787	217.94
313.017	232.94
313.246	215.94
313.476	219.94
313.706	216.94
313.935	203.94
314.165	228.94
314.394	217.94
314.624	220.94
314.853	192.94
315.083	216.94
315.312	225.94
315.542	226.94
315.771	204.94
316.001	202.94
316.23	220.94
316.46	233.94
316.689	222.94
316.919	217.94
317.148	223.94
317.377	216.94
317.607	218.94
317.836	216.94
318.065	215.94
318.295	213.94
318.524	212.94
318.753	215.94
318.983	229.94
319.212	204.94
319.441	224.94
319.67	217.94
319.9	215.94
320.129	220.94
320.358	231.94
320.587	224.94
320.816	212.94
321.046	210.94
321.275	214.94
321.504	220.94
321.733	237.94
321.962	222.94
322.191	226.94
322.42	228.94
322.649	223.94
322.878	232.94
323.108	228.94
323.337	223.94
323.566	229.94
323.795	216.94
324.024	202.94
324.253	208.94
324.482	229.94
324.71	224.94
324.939	230.94
325.168	227.94
325.397	229.94
325.626	210.94
325.855	240.94
326.084	241.94
326.313	241.94
326.542	252.94
326.77	229.94
326.999	231.94
327.228	247.94
327.457	248.94
327.686	235.94
327.914	229.94
328.143	227.94
328.372	225.94
328.6	234.94
328.829	241.94
329.058	238.94
329.287	233.94
329.515	233.94
329.744	258.94
329.972	241.94
330.201	231.94
330.43	250.94
330.658	258.94
330.887	251.94
331.115	255.94
331.344	271.94
331.572	236.94
331.801	258.94
332.03	248.94
332.258	263.94
332.486	249.94
332.715	252.94
332.943	276.94
333.172	292.94
333.4	276.94
333.629	285.94
333.857	282.94
334.085	269.94
334.314	308.94
334.542	286.94
334.771	273.94
334.999	296.94
335.227	273.94
335.455	284.94
335.684	280.94
335.912	278.94
336.14	267.94
336.369	280.94
336.597	264.94
336.825	265.94
337.053	259.94
337.281	278.94
337.51	278.94
337.738	266.94
337.966	247.94
338.194	265.94
338.422	243.94
338.65	246.94
338.878	268.94
339.106	244.94
339.334	254.94
339.562	238.94
339.79	242.94
340.018	254.94
340.246	255.94
340.474	251.94
340.702	247.94
340.93	262.94
341.158	241.94
341.386	244.94
341.614	245.94
341.842	223.94
342.07	241.94
342.298	246.94
342.526	254.94
342.754	260.94
342.981	271.94
343.209	235.94
343.437	256.94
343.665	258.94
343.893	278.94
344.12	279.94
344.348	290.94
344.576	260.94
344.804	250.94
345.031	246.94
345.259	240.94
345.487	252.94
345.714	247.94
345.942	226.94
346.17	252.94
346.397	233.94
346.625	246.94
346.853	236.94
347.08	235.94
347.308	259.94
347.535	224.94
347.763	247.94
347.99	244.94
348.218	234.94
348.445	246.94
348.673	244.94
348.9	242.94
349.128	220.94
349.355	227.94
349.583	250.94
349.81	231.94
350.037	248.94
350.265	252.94
350.492	244.94
350.72	242.94
350.947	249.94
351.174	244.94
351.402	224.94
351.629	236.94
351.856	248.94
352.083	233.94
352.311	238.94
352.538	226.94
352.765	240.94
352.992	251.94
353.22	233.94
353.447	234.94
353.674	246.94
353.901	244.94
354.128	236.94
354.355	234.94
354.583	243.94
354.81	212.94
355.037	230.94
355.264	231.94
355.491	234.94
355.718	246.94
355.945	242.94
356.172	241.94
356.399	236.94
356.626	238.94
356.853	240.94
357.08	245.94
357.307	247.94
357.534	242.94
357.761	232.94
357.988	245.94
358.215	256.94
358.441	228.94
358.668	246.94
358.895	248.94
359.122	240.94
359.349	231.94
359.576	228.94
359.802	236.94
360.029	244.94
360.256	240.94
360.483	236.94
360.709	240.94
360.936	244.94
361.163	239.94
361.39	234.94
361.616	242.94
361.843	235.94
362.07	231.94
362.296	243.94
362.523	235.94
362.749	240.94
362.976	230.94
363.203	243.94
363.429	263.94
363.656	256.94
363.882	239.94
364.109	233.94
364.335	236.94
364.562	233.94
364.788	240.94
365.015	244.94
365.241	239.94
365.468	247.94
365.694	257.94
365.92	238.94
366.147	240.94
366.373	258.94
366.599	242.94
366.826	252.94
367.052	262.94
367.278	252.94
367.505	240.94
367.731	246.94
367.957	250.94
368.184	254.94
368.41	265.94
368.636	263.94
368.862	263.94
369.089	243.94
369.315	258.94
369.541	269.94
369.767	233.94
369.993	261.94
370.219	247.94
370.445	263.94
370.672	269.94
370.898	259.94
371.124	263.94
371.35	273.94
371.576	266.94
371.802	249.94
372.028	276.94
372.254	264.94
372.48	286.94
372.706	282.94
372.932	272.94
373.158	281.94
373.384	285.94
373.61	286.94
373.835	297.94
374.061	279.94
374.287	269.94
374.513	288.94
374.739	293.94
374.965	305.94
375.191	286.94
375.416	286.94
375.642	290.94
375.868	278.94
376.094	284.94
376.319	292.94
376.545	297.94
376.771	288.94
376.997	273.94
377.222	272.94
377.448	271.94
377.674	287.94
377.899	277.94
378.125	258.94
378.35	263.94
378.576	263.94
378.802	278.94
379.027	288.94
379.253	289.94
379.478	282.94
379.704	277.94
379.929	294.94
380.155	285.94
380.38	284.94
380.606	268.94
380.831	286.94
381.057	278.94
381.282	281.94
381.507	298.94
381.733	285.94
381.958	297.94
382.184	304.94
382.409	304.94
382.634	308.94
382.86	283.94
383.085	297.94
383.31	320.94
383.535	305.94
383.761	307.94
383.986	292.94
384.211	332.94
384.436	337.94
384.662	321.94
384.887	339.94
385.112	338.94
385.337	310.94
385.562	313.94
385.787	321.94
386.013	348.94
386.238	330.94
386.463	338.94
386.688	315.94
386.913	308.94
387.138	332.94
387.363	343.94
387.588	340.94
387.813	323.94
388.038	323.94
388.263	332.94
388.488	340.94
388.713	326.94
388.938	336.94
389.163	353.94
389.387	331.94
389.612	335.94
389.837	319.94
390.062	335.94
390.287	343.94
390.512	360.94
390.736	340.94
390.961	338.94
391.186	352.94
391.411	339.94
391.636	357.94
391.86	374.94
392.085	360.94
392.31	368.94
392.534	361.94
392.759	357.94
392.984	362.94
393.208	336.94
393.433	362.94
393.658	354.94
393.882	361.94
394.107	346.94
394.331	349.94
394.556	353.94
394.78	372.94
395.005	374.94
395.229	357.94
395.454	380.94
395.678	370.94
395.903	373.94
396.127	379.94
396.352	374.94
396.576	359.94
396.801	349.94
397.025	360.94
397.249	353.94
397.474	382.94
397.698	374.94
397.922	371.94
398.147	374.94
398.371	378.94
398.595	385.94
398.82	410.94
399.044	411.94
399.268	462.94
399.492	520.94
399.717	553.94
399.941	548.94
400.165	509.94
400.389	456.94
400.613	446.94
400.837	440.94
401.062	419.94
401.286	400.94
401.51	422.94
401.734	410.94
401.958	434.94
402.182	414.94
402.406	426.94
402.63	419.94
402.854	414.94
403.078	430.94
403.302	440.94
403.526	433.94
403.75	470.94
403.974	429.94
404.198	437.94
404.422	438.94
404.645	460.94
404.869	470.94
405.093	472.94
405.317	428.94
405.541	444.94
405.765	429.94
405.988	434.94
406.212	438.94
406.436	463.94
406.66	468.94
406.883	480.94
407.107	482.94
407.331	491.94
407.555	531.94
407.778	502.94
408.002	500.94
408.226	498.94
408.449	502.94
408.673	471.94
408.896	477.94
409.12	483.94
409.344	483.94
409.567	479.94
409.791	474.94
410.014	459.94
410.238	459.94
410.461	470.94
410.685	463.94
410.908	468.94
411.132	442.94
411.355	443.94
411.578	447.94
411.802	426.94
412.025	436.94
412.249	447.94
412.472	441.94
412.695	439.94
412.919	424.94
413.142	416.94
413.365	421.94
413.589	456.94
413.812	436.94
414.035	420.94
414.258	434.94
414.482	443.94
414.705	442.94
414.928	436.94
415.151	428.94
415.374	427.94
415.597	420.94
415.821	417.94
416.044	409.94
416.267	417.94
416.49	393.94
416.713	428.94
416.936	419.94
417.159	419.94
417.382	420.94
417.605	423.94
417.828	435.94
418.051	422.94
418.274	430.94
418.497	426.94
418.72	424.94
418.943	426.94
419.166	440.94
419.389	470.94
419.611	470.94
419.834	436.94
420.057	445.94
420.28	423.94
420.503	408.94
420.726	408.94
420.948	430.94
421.171	411.94
421.394	415.94
421.617	412.94
421.839	425.94
422.062	426.94
422.285	417.94
422.507	408.94
422.73	436.94
422.953	419.94
423.175	407.94
423.398	429.94
423.621	431.94
423.843	427.94
424.066	420.94
424.288	433.94
424.511	440.94
424.733	422.94
424.956	428.94
425.178	418.94
425.401	414.94
425.623	425.94
425.846	416.94
426.068	423.94
426.291	410.94
426.513	436.94
426.735	389.94
426.958	400.94
427.18	396.94
427.402	391.94
427.625	398.94
427.847	394.94
428.069	402.94
428.292	382.94
428.514	395.94
428.736	378.94
428.958	382.94
429.181	386.94
429.403	375.94
429.625	377.94
429.847	385.94
430.069	394.94
430.292	395.94
430.514	383.94
430.736	387.94
430.958	396.94
431.18	385.94
431.402	386.94
431.624	385.94
431.846	408.94
432.068	386.94
432.29	371.94
432.512	380.94
432.734	395.94
432.956	391.94
433.178	395.94
433.4	377.94
433.622	394.94
433.844	390.94
434.066	374.94
434.287	394.94
434.509	404.94
434.731	421.94
434.953	416.94
435.175	427.94
435.397	424.94
435.618	403.94
435.84	418.94
436.062	386.94
436.284	384.94
436.505	392.94
436.727	373.94
436.949	377.94
437.17	405.94
437.392	389.94
437.614	396.94
437.835	359.94
438.057	384.94
438.278	380.94
438.5	378.94
438.721	378.94
438.943	376.94
439.165	370.94
439.386	400.94
439.608	395.94
439.829	385.94
440.05	380.94
440.272	377.94
440.493	394.94
440.715	397.94
440.936	407.94
441.158	421.94
441.379	403.94
441.6	427.94
441.822	399.94
442.043	410.94
442.264	430.94
442.486	391.94
442.707	419.94
442.928	430.94
443.149	422.94
443.371	434.94
443.592	437.94
443.813	421.94
444.034	440.94
444.255	404.94
444.476	444.94
444.698	461.94
444.919	476.94
445.14	576.94
445.361	476.94
445.582	420.94
445.803	416.94
446.024	411.94
446.245	402.94
446.466	418.94
446.687	392.94
446.908	394.94
447.129	373.94
447.35	363.94
447.571	388.94
447.792	371.94
448.013	374.94
448.234	370.94
448.455	364.94
448.675	375.94
448.896	363.94
449.117	362.94
449.338	350.94
449.559	373.94
449.779	342.94
450	366.94
450.221	371.94
450.442	366.94
450.662	368.94
450.883	369.94
451.104	372.94
451.324	374.94
451.545	355.94
451.766	372.94
451.986	358.94
452.207	371.94
452.428	362.94
452.648	366.94
452.869	356.94
453.089	352.94
453.31	360.94
453.53	353.94
453.751	344.94
453.971	346.94
454.192	358.94
454.412	348.94
454.633	346.94
454.853	341.94
455.073	348.94
455.294	354.94
455.514	348.94
455.734	346.94
455.955	343.94
456.175	339.94
456.395	326.94
456.616	331.94
456.836	341.94
457.056	345.94
457.276	338.94
457.497	359.94
457.717	327.94
457.937	366.94
458.157	350.94
458.377	349.94
458.598	347.94
458.818	364.94
459.038	371.94
459.258	361.94
459.478	365.94
459.698	382.94
459.918	403.94
460.138	406.94
460.358	438.94
460.578	434.94
460.798	419.94
461.018	447.94
461.238	422.94
461.458	447.94
461.678	415.94
461.898	450.94
462.118	438.94
462.338	458.94
462.558	472.94
462.777	478.94
462.997	505.94
463.217	525.94
463.437	529.94
463.657	474.94
463.876	473.94
464.096	482.94
464.316	514.94
464.536	486.94
464.755	506.94
464.975	469.94
465.195	466.94
465.414	421.94
465.634	424.94
465.854	404.94
466.073	398.94
466.293	396.94
466.512	385.94
466.732	384.94
466.951	390.94
467.171	387.94
467.391	393.94
467.61	380.94
467.829	382.94
468.049	392.94
468.268	361.94
468.488	374.94
468.707	394.94
468.927	386.94
469.146	354.94
469.365	374.94
469.585	386.94
469.804	377.94
470.023	402.94
470.243	382.94
470.462	396.94
470.681	402.94
470.901	400.94
471.12	386.94
471.339	369.94
471.558	368.94
471.777	377.94
471.997	387.94
472.216	382.94
472.435	380.94
472.654	370.94
472.873	375.94
473.092	372.94
473.311	370.94
473.53	364.94
473.749	373.94
473.968	375.94
474.187	367.94
474.406	360.94
474.625	362.94
474.844	373.94
475.063	357.94
475.282	373.94
475.501	363.94
475.72	382.94
475.939	386.94
476.158	382.94
476.377	386.94
476.596	384.94
476.814	391.94
477.033	384.94
477.252	402.94
477.471	376.94
477.69	399.94
477.908	406.94
478.127	434.94
478.346	426.94
478.564	426.94
478.783	420.94
479.002	440.94
479.22	433.94
479.439	457.94
479.658	434.94
479.876	426.94
480.095	449.94
480.313	459.94
480.532	469.94
480.751	444.94
480.969	436.94
481.188	441.94
481.406	438.94
481.624	430.94
481.843	438.94
482.061	419.94
482.28	422.94
482.498	406.94
482.717	424.94
482.935	424.94
483.153	413.94
483.372	418.94
483.59	395.94
483.808	423.94
484.027	420.94
484.245	426.94
484.463	427.94
484.681	435.94
484.9	452.94
485.118	448.94
485.336	428.94
485.554	433.94
485.772	436.94
485.99	438.94
486.209	427.94
486.427	434.94
486.645	453.94
486.863	428.94
487.081	438.94
487.299	437.94
487.517	444.94
487.735	447.94
487.953	426.94
488.171	450.94
488.389	438.94
488.607	426.94
488.825	430.94
489.043	412.94
489.261	428.94
489.479	434.94
489.696	419.94
489.914	446.94
490.132	425.94
490.35	450.94
490.568	437.94
490.786	450.94
491.003	442.94
491.221	467.94
491.439	451.94
491.657	446.94
491.874	442.94
492.092	458.94
492.31	456.94
492.527	446.94
492.745	450.94
492.963	448.94
493.18	462.94
493.398	466.94
493.615	467.94
493.833	467.94
494.05	465.94
494.268	469.94
494.485	473.94
494.703	475.94
494.92	475.94
495.138	474.94
495.355	467.94
495.573	456.94
495.79	486.94
496.008	459.94
496.225	476.94
496.442	502.94
496.66	472.94
496.877	489.94
497.094	516.94
497.312	507.94
497.529	508.94
497.746	522.94
497.963	543.94
498.181	530.94
498.398	581.94
498.615	586.94
498.832	592.94
499.049	620.94
499.267	652.94
499.484	696.94
499.701	778.94
499.918	837.94
500.135	900.94
500.352	1004.94
500.569	1056.94
500.786	1024.94
501.003	1003.94
501.22	895.94
501.437	842.94
501.654	750.94
501.871	698.94
502.088	662.94
