Data from Fe(NO3)3@0.025M.TitratingCurve.Agarose3%dH2O.NegLispCup.LampEnergy10.LIBS07252019_HRD10591_16-55-57-337.txt Node
Date: Thu Jul 25 16:55:57 EDT 2019
User: cochatt
Spectrometer: HR+D1059
Trigger mode: 1
Integration Time (sec): 1.000000E-1
Scans to average: 1
Electric dark correction enabled: true
Nonlinearity correction enabled: false
Boxcar width: 0
XAxis mode: Wavelengths
Number of Pixels in Spectrum: 2048
>>>>>Begin Spectral Data<<<<<
223.165	-5.06
223.4	-5.06
223.635	-5.06
223.869	-9.06
224.104	-15.06
224.338	-30.06
224.573	-19.06
224.808	-21.06
225.042	-7.06
225.277	-5.06
225.511	3.94
225.746	-1.06
225.98	7.94
226.215	4.94
226.449	13.94
226.683	23.94
226.918	22.94
227.152	34.94
227.387	37.94
227.621	35.94
227.856	55.94
228.09	41.94
228.324	36.94
228.559	36.94
228.793	43.94
229.027	63.94
229.262	78.94
229.496	66.94
229.73	68.94
229.964	77.94
230.199	77.94
230.433	79.94
230.667	100.94
230.901	82.94
231.136	97.94
231.37	98.94
231.604	97.94
231.838	96.94
232.072	101.94
232.306	96.94
232.541	95.94
232.775	85.94
233.009	97.94
233.243	89.94
233.477	95.94
233.711	92.94
233.945	101.94
234.179	77.94
234.413	97.94
234.647	76.94
234.881	85.94
235.115	89.94
235.349	98.94
235.583	83.94
235.817	92.94
236.051	106.94
236.285	101.94
236.519	103.94
236.753	98.94
236.987	95.94
237.221	95.94
237.455	95.94
237.689	74.94
237.922	80.94
238.156	94.94
238.39	87.94
238.624	92.94
238.858	85.94
239.091	85.94
239.325	102.94
239.559	90.94
239.793	88.94
240.027	96.94
240.26	99.94
240.494	98.94
240.728	98.94
240.961	97.94
241.195	100.94
241.429	89.94
241.662	96.94
241.896	113.94
242.13	105.94
242.363	108.94
242.597	96.94
242.83	103.94
243.064	85.94
243.298	102.94
243.531	89.94
243.765	104.94
243.998	107.94
244.232	104.94
244.465	98.94
244.699	114.94
244.932	109.94
245.166	89.94
245.399	80.94
245.633	85.94
245.866	101.94
246.099	103.94
246.333	90.94
246.566	113.94
246.8	101.94
247.033	103.94
247.266	88.94
247.5	108.94
247.733	111.94
247.966	113.94
248.2	101.94
248.433	102.94
248.666	116.94
248.899	109.94
249.133	114.94
249.366	114.94
249.599	108.94
249.832	108.94
250.066	119.94
250.299	113.94
250.532	111.94
250.765	121.94
250.998	125.94
251.231	116.94
251.465	123.94
251.698	116.94
251.931	101.94
252.164	114.94
252.397	115.94
252.63	112.94
252.863	118.94
253.096	97.94
253.329	128.94
253.562	120.94
253.795	116.94
254.028	126.94
254.261	117.94
254.494	123.94
254.727	113.94
254.96	124.94
255.193	120.94
255.426	103.94
255.659	111.94
255.892	124.94
256.124	116.94
256.357	117.94
256.59	127.94
256.823	108.94
257.056	132.94
257.289	117.94
257.521	106.94
257.754	126.94
257.987	114.94
258.22	128.94
258.452	125.94
258.685	120.94
258.918	105.94
259.151	126.94
259.383	113.94
259.616	114.94
259.849	129.94
260.081	117.94
260.314	138.94
260.547	132.94
260.779	131.94
261.012	119.94
261.244	120.94
261.477	126.94
261.71	106.94
261.942	136.94
262.175	118.94
262.407	140.94
262.64	113.94
262.872	130.94
263.105	134.94
263.337	131.94
263.57	119.94
263.802	125.94
264.035	142.94
264.267	132.94
264.499	128.94
264.732	142.94
264.964	131.94
265.197	130.94
265.429	130.94
265.661	119.94
265.894	126.94
266.126	124.94
266.358	133.94
266.591	125.94
266.823	128.94
267.055	130.94
267.287	126.94
267.52	134.94
267.752	126.94
267.984	126.94
268.216	123.94
268.448	133.94
268.681	138.94
268.913	141.94
269.145	141.94
269.377	144.94
269.609	148.94
269.841	148.94
270.073	148.94
270.306	134.94
270.538	146.94
270.77	134.94
271.002	153.94
271.234	132.94
271.466	142.94
271.698	141.94
271.93	140.94
272.162	135.94
272.394	146.94
272.626	148.94
272.858	153.94
273.09	161.94
273.322	163.94
273.553	141.94
273.785	148.94
274.017	153.94
274.249	142.94
274.481	163.94
274.713	153.94
274.945	145.94
275.176	153.94
275.408	153.94
275.64	152.94
275.872	162.94
276.104	157.94
276.335	151.94
276.567	148.94
276.799	159.94
277.031	155.94
277.262	164.94
277.494	157.94
277.726	156.94
277.957	149.94
278.189	143.94
278.421	165.94
278.652	149.94
278.884	157.94
279.115	143.94
279.347	162.94
279.579	154.94
279.81	149.94
280.042	165.94
280.273	156.94
280.505	166.94
280.736	149.94
280.968	168.94
281.199	161.94
281.431	160.94
281.662	161.94
281.894	158.94
282.125	152.94
282.356	156.94
282.588	187.94
282.819	163.94
283.051	167.94
283.282	182.94
283.513	163.94
283.745	146.94
283.976	164.94
284.207	162.94
284.439	158.94
284.67	174.94
284.901	170.94
285.132	169.94
285.364	163.94
285.595	173.94
285.826	177.94
286.057	175.94
286.288	171.94
286.52	185.94
286.751	185.94
286.982	193.94
287.213	178.94
287.444	172.94
287.675	169.94
287.906	166.94
288.138	183.94
288.369	180.94
288.6	172.94
288.831	165.94
289.062	177.94
289.293	186.94
289.524	178.94
289.755	177.94
289.986	183.94
290.217	188.94
290.448	183.94
290.679	185.94
290.91	186.94
291.141	194.94
291.371	195.94
291.602	192.94
291.833	173.94
292.064	180.94
292.295	194.94
292.526	173.94
292.757	184.94
292.987	173.94
293.218	191.94
293.449	205.94
293.68	194.94
293.91	177.94
294.141	176.94
294.372	181.94
294.603	191.94
294.833	175.94
295.064	188.94
295.295	195.94
295.525	190.94
295.756	206.94
295.987	188.94
296.217	194.94
296.448	194.94
296.679	204.94
296.909	190.94
297.14	195.94
297.37	212.94
297.601	195.94
297.831	197.94
298.062	190.94
298.292	188.94
298.523	183.94
298.753	197.94
298.984	201.94
299.214	202.94
299.445	210.94
299.675	199.94
299.905	192.94
300.136	192.94
300.366	190.94
300.597	205.94
300.827	191.94
301.057	216.94
301.288	199.94
301.518	191.94
301.748	208.94
301.979	211.94
302.209	207.94
302.439	209.94
302.669	197.94
302.9	206.94
303.13	217.94
303.36	212.94
303.59	220.94
303.82	202.94
304.051	223.94
304.281	209.94
304.511	214.94
304.741	225.94
304.971	200.94
305.201	210.94
305.431	205.94
305.661	210.94
305.891	210.94
306.121	200.94
306.352	200.94
306.582	201.94
306.812	207.94
307.042	220.94
307.272	204.94
307.502	213.94
307.731	215.94
307.961	197.94
308.191	205.94
308.421	200.94
308.651	196.94
308.881	205.94
309.111	219.94
309.341	212.94
309.571	200.94
309.8	208.94
310.03	200.94
310.26	209.94
310.49	215.94
310.72	194.94
310.949	200.94
311.179	209.94
311.409	222.94
311.639	222.94
311.868	213.94
312.098	224.94
312.328	223.94
312.557	213.94
312.787	240.94
313.017	220.94
313.246	238.94
313.476	229.94
313.706	199.94
313.935	226.94
314.165	240.94
314.394	233.94
314.624	221.94
314.853	230.94
315.083	229.94
315.312	236.94
315.542	237.94
315.771	226.94
316.001	223.94
316.23	213.94
316.46	212.94
316.689	239.94
316.919	249.94
317.148	228.94
317.377	221.94
317.607	221.94
317.836	223.94
318.065	237.94
318.295	235.94
318.524	232.94
318.753	229.94
318.983	230.94
319.212	238.94
319.441	225.94
319.67	242.94
319.9	226.94
320.129	224.94
320.358	241.94
320.587	218.94
320.816	226.94
321.046	222.94
321.275	252.94
321.504	241.94
321.733	233.94
321.962	246.94
322.191	233.94
322.42	252.94
322.649	213.94
322.878	244.94
323.108	223.94
323.337	226.94
323.566	239.94
323.795	248.94
324.024	242.94
324.253	219.94
324.482	232.94
324.71	237.94
324.939	238.94
325.168	250.94
325.397	242.94
325.626	249.94
325.855	242.94
326.084	257.94
326.313	252.94
326.542	252.94
326.77	245.94
326.999	245.94
327.228	245.94
327.457	249.94
327.686	242.94
327.914	245.94
328.143	264.94
328.372	249.94
328.6	257.94
328.829	243.94
329.058	248.94
329.287	264.94
329.515	256.94
329.744	259.94
329.972	257.94
330.201	254.94
330.43	244.94
330.658	253.94
330.887	272.94
331.115	279.94
331.344	274.94
331.572	262.94
331.801	261.94
332.03	266.94
332.258	284.94
332.486	279.94
332.715	295.94
332.943	295.94
333.172	298.94
333.4	291.94
333.629	291.94
333.857	306.94
334.085	287.94
334.314	300.94
334.542	305.94
334.771	309.94
334.999	298.94
335.227	292.94
335.455	295.94
335.684	286.94
335.912	294.94
336.14	316.94
336.369	290.94
336.597	297.94
336.825	280.94
337.053	307.94
337.281	261.94
337.51	287.94
337.738	287.94
337.966	286.94
338.194	294.94
338.422	284.94
338.65	279.94
338.878	269.94
339.106	300.94
339.334	260.94
339.562	282.94
339.79	285.94
340.018	280.94
340.246	270.94
340.474	248.94
340.702	272.94
340.93	271.94
341.158	254.94
341.386	286.94
341.614	270.94
341.842	251.94
342.07	273.94
342.298	282.94
342.526	276.94
342.754	259.94
342.981	288.94
343.209	266.94
343.437	290.94
343.665	295.94
343.893	289.94
344.12	301.94
344.348	293.94
344.576	296.94
344.804	291.94
345.031	273.94
345.259	274.94
345.487	279.94
345.714	266.94
345.942	277.94
346.17	258.94
346.397	264.94
346.625	276.94
346.853	260.94
347.08	263.94
347.308	238.94
347.535	258.94
347.763	258.94
347.99	285.94
348.218	277.94
348.445	273.94
348.673	250.94
348.9	251.94
349.128	264.94
349.355	280.94
349.583	262.94
349.81	268.94
350.037	266.94
350.265	259.94
350.492	271.94
350.72	276.94
350.947	271.94
351.174	255.94
351.402	246.94
351.629	263.94
351.856	269.94
352.083	252.94
352.311	263.94
352.538	254.94
352.765	278.94
352.992	263.94
353.22	262.94
353.447	256.94
353.674	267.94
353.901	269.94
354.128	248.94
354.355	262.94
354.583	241.94
354.81	254.94
355.037	247.94
355.264	257.94
355.491	257.94
355.718	247.94
355.945	266.94
356.172	265.94
356.399	257.94
356.626	288.94
356.853	285.94
357.08	262.94
357.307	253.94
357.534	262.94
357.761	273.94
357.988	269.94
358.215	261.94
358.441	273.94
358.668	255.94
358.895	259.94
359.122	255.94
359.349	256.94
359.576	274.94
359.802	269.94
360.029	268.94
360.256	282.94
360.483	261.94
360.709	265.94
360.936	277.94
361.163	266.94
361.39	288.94
361.616	280.94
361.843	270.94
362.07	256.94
362.296	262.94
362.523	269.94
362.749	270.94
362.976	258.94
363.203	272.94
363.429	256.94
363.656	270.94
363.882	268.94
364.109	267.94
364.335	284.94
364.562	281.94
364.788	272.94
365.015	285.94
365.241	263.94
365.468	277.94
365.694	271.94
365.92	260.94
366.147	264.94
366.373	268.94
366.599	264.94
366.826	269.94
367.052	271.94
367.278	258.94
367.505	275.94
367.731	279.94
367.957	279.94
368.184	264.94
368.41	282.94
368.636	260.94
368.862	281.94
369.089	268.94
369.315	281.94
369.541	274.94
369.767	273.94
369.993	283.94
370.219	278.94
370.445	283.94
370.672	295.94
370.898	276.94
371.124	281.94
371.35	268.94
371.576	268.94
371.802	294.94
372.028	277.94
372.254	309.94
372.48	287.94
372.706	297.94
372.932	286.94
373.158	304.94
373.384	294.94
373.61	288.94
373.835	320.94
374.061	258.94
374.287	302.94
374.513	301.94
374.739	291.94
374.965	286.94
375.191	306.94
375.416	302.94
375.642	308.94
375.868	296.94
376.094	289.94
376.319	282.94
376.545	291.94
376.771	274.94
376.997	287.94
377.222	292.94
377.448	271.94
377.674	280.94
377.899	297.94
378.125	295.94
378.35	290.94
378.576	278.94
378.802	293.94
379.027	290.94
379.253	288.94
379.478	288.94
379.704	295.94
379.929	300.94
380.155	297.94
380.38	285.94
380.606	295.94
380.831	285.94
381.057	307.94
381.282	292.94
381.507	282.94
381.733	279.94
381.958	287.94
382.184	308.94
382.409	309.94
382.634	308.94
382.86	313.94
383.085	314.94
383.31	315.94
383.535	312.94
383.761	316.94
383.986	301.94
384.211	322.94
384.436	310.94
384.662	310.94
384.887	323.94
385.112	317.94
385.337	317.94
385.562	338.94
385.787	323.94
386.013	323.94
386.238	348.94
386.463	332.94
386.688	338.94
386.913	321.94
387.138	347.94
387.363	334.94
387.588	314.94
387.813	330.94
388.038	338.94
388.263	327.94
388.488	333.94
388.713	337.94
388.938	335.94
389.163	342.94
389.387	328.94
389.612	327.94
389.837	314.94
390.062	333.94
390.287	339.94
390.512	332.94
390.736	342.94
390.961	330.94
391.186	343.94
391.411	347.94
391.636	353.94
391.86	354.94
392.085	366.94
392.31	345.94
392.534	362.94
392.759	356.94
392.984	346.94
393.208	365.94
393.433	366.94
393.658	350.94
393.882	362.94
394.107	335.94
394.331	345.94
394.556	355.94
394.78	358.94
395.005	356.94
395.229	348.94
395.454	348.94
395.678	359.94
395.903	357.94
396.127	360.94
396.352	360.94
396.576	353.94
396.801	344.94
397.025	364.94
397.249	372.94
397.474	360.94
397.698	369.94
397.922	382.94
398.147	374.94
398.371	367.94
398.595	398.94
398.82	419.94
399.044	418.94
399.268	450.94
399.492	453.94
399.717	497.94
399.941	481.94
400.165	465.94
400.389	428.94
400.613	445.94
400.837	420.94
401.062	435.94
401.286	388.94
401.51	396.94
401.734	406.94
401.958	394.94
402.182	414.94
402.406	399.94
402.63	419.94
402.854	410.94
403.078	400.94
403.302	399.94
403.526	382.94
403.75	403.94
403.974	421.94
404.198	410.94
404.422	416.94
404.645	404.94
404.869	395.94
405.093	414.94
405.317	414.94
405.541	404.94
405.765	422.94
405.988	420.94
406.212	416.94
406.436	424.94
406.66	439.94
406.883	431.94
407.107	436.94
407.331	454.94
407.555	452.94
407.778	457.94
408.002	482.94
408.226	455.94
408.449	447.94
408.673	430.94
408.896	425.94
409.12	434.94
409.344	414.94
409.567	426.94
409.791	426.94
410.014	437.94
410.238	404.94
410.461	428.94
410.685	415.94
410.908	407.94
411.132	417.94
411.355	413.94
411.578	423.94
411.802	412.94
412.025	407.94
412.249	378.94
412.472	389.94
412.695	410.94
412.919	405.94
413.142	389.94
413.365	403.94
413.589	402.94
413.812	399.94
414.035	397.94
414.258	399.94
414.482	392.94
414.705	387.94
414.928	387.94
415.151	392.94
415.374	385.94
415.597	386.94
415.821	379.94
416.044	387.94
416.267	377.94
416.49	382.94
416.713	385.94
416.936	385.94
417.159	374.94
417.382	367.94
417.605	378.94
417.828	369.94
418.051	386.94
418.274	387.94
418.497	394.94
418.72	384.94
418.943	385.94
419.166	407.94
419.389	424.94
419.611	378.94
419.834	398.94
420.057	376.94
420.28	384.94
420.503	385.94
420.726	361.94
420.948	397.94
421.171	388.94
421.394	387.94
421.617	405.94
421.839	380.94
422.062	367.94
422.285	361.94
422.507	361.94
422.73	376.94
422.953	377.94
423.175	389.94
423.398	389.94
423.621	371.94
423.843	379.94
424.066	397.94
424.288	376.94
424.511	380.94
424.733	408.94
424.956	380.94
425.178	370.94
425.401	372.94
425.623	361.94
425.846	386.94
426.068	381.94
426.291	367.94
426.513	362.94
426.735	372.94
426.958	336.94
427.18	352.94
427.402	352.94
427.625	365.94
427.847	338.94
428.069	341.94
428.292	365.94
428.514	356.94
428.736	355.94
428.958	359.94
429.181	364.94
429.403	359.94
429.625	354.94
429.847	348.94
430.069	365.94
430.292	343.94
430.514	344.94
430.736	346.94
430.958	355.94
431.18	349.94
431.402	354.94
431.624	350.94
431.846	362.94
432.068	366.94
432.29	352.94
432.512	341.94
432.734	364.94
432.956	364.94
433.178	348.94
433.4	354.94
433.622	358.94
433.844	345.94
434.066	369.94
434.287	352.94
434.509	382.94
434.731	367.94
434.953	377.94
435.175	374.94
435.397	372.94
435.618	366.94
435.84	360.94
436.062	372.94
436.284	349.94
436.505	353.94
436.727	351.94
436.949	353.94
437.17	343.94
437.392	352.94
437.614	360.94
437.835	346.94
438.057	340.94
438.278	335.94
438.5	352.94
438.721	341.94
438.943	328.94
439.165	358.94
439.386	327.94
439.608	335.94
439.829	337.94
440.05	325.94
440.272	336.94
440.493	361.94
440.715	371.94
440.936	358.94
441.158	357.94
441.379	373.94
441.6	358.94
441.822	350.94
442.043	386.94
442.264	361.94
442.486	352.94
442.707	369.94
442.928	362.94
443.149	378.94
443.371	381.94
443.592	376.94
443.813	365.94
444.034	365.94
444.255	377.94
444.476	400.94
444.698	401.94
444.919	424.94
445.14	465.94
445.361	413.94
445.582	384.94
445.803	359.94
446.024	372.94
446.245	361.94
446.466	357.94
446.687	336.94
446.908	348.94
447.129	350.94
447.35	365.94
447.571	347.94
447.792	328.94
448.013	335.94
448.234	320.94
448.455	321.94
448.675	326.94
448.896	332.94
449.117	322.94
449.338	325.94
449.559	320.94
449.779	322.94
450	348.94
450.221	319.94
450.442	326.94
450.662	316.94
450.883	320.94
451.104	333.94
451.324	320.94
451.545	347.94
451.766	318.94
451.986	323.94
452.207	322.94
452.428	317.94
452.648	330.94
452.869	305.94
453.089	318.94
453.31	318.94
453.53	317.94
453.751	326.94
453.971	300.94
454.192	302.94
454.412	304.94
454.633	308.94
454.853	318.94
455.073	303.94
455.294	297.94
455.514	308.94
455.734	311.94
455.955	311.94
456.175	303.94
456.395	312.94
456.616	310.94
456.836	316.94
457.056	326.94
457.276	309.94
457.497	328.94
457.717	323.94
457.937	316.94
458.157	315.94
458.377	311.94
458.598	329.94
458.818	333.94
459.038	330.94
459.258	329.94
459.478	366.94
459.698	368.94
459.918	369.94
460.138	361.94
460.358	382.94
460.578	385.94
460.798	381.94
461.018	384.94
461.238	398.94
461.458	387.94
461.678	374.94
461.898	391.94
462.118	388.94
462.338	403.94
462.558	430.94
462.777	404.94
462.997	447.94
463.217	434.94
463.437	425.94
463.657	426.94
463.876	430.94
464.096	414.94
464.316	417.94
464.536	429.94
464.755	412.94
464.975	414.94
465.195	397.94
465.414	374.94
465.634	405.94
465.854	365.94
466.073	358.94
466.293	357.94
466.512	355.94
466.732	354.94
466.951	348.94
467.171	354.94
467.391	371.94
467.61	346.94
467.829	368.94
468.049	345.94
468.268	338.94
468.488	344.94
468.707	333.94
468.927	340.94
469.146	323.94
469.365	328.94
469.585	314.94
469.804	335.94
470.023	343.94
470.243	329.94
470.462	335.94
470.681	347.94
470.901	341.94
471.12	338.94
471.339	346.94
471.558	342.94
471.777	349.94
471.997	328.94
472.216	345.94
472.435	346.94
472.654	341.94
472.873	350.94
473.092	328.94
473.311	341.94
473.53	352.94
473.749	328.94
473.968	314.94
474.187	334.94
474.406	339.94
474.625	351.94
474.844	351.94
475.063	336.94
475.282	347.94
475.501	351.94
475.72	354.94
475.939	343.94
476.158	334.94
476.377	365.94
476.596	352.94
476.814	361.94
477.033	376.94
477.252	388.94
477.471	361.94
477.69	374.94
477.908	386.94
478.127	393.94
478.346	382.94
478.564	391.94
478.783	382.94
479.002	408.94
479.22	378.94
479.439	410.94
479.658	398.94
479.876	410.94
480.095	407.94
480.313	431.94
480.532	418.94
480.751	413.94
480.969	386.94
481.188	407.94
481.406	421.94
481.624	410.94
481.843	398.94
482.061	398.94
482.28	395.94
482.498	404.94
482.717	398.94
482.935	375.94
483.153	395.94
483.372	392.94
483.59	380.94
483.808	388.94
484.027	406.94
484.245	401.94
484.463	407.94
484.681	403.94
484.9	403.94
485.118	400.94
485.336	388.94
485.554	411.94
485.772	395.94
485.99	409.94
486.209	409.94
486.427	398.94
486.645	398.94
486.863	383.94
487.081	408.94
487.299	387.94
487.517	392.94
487.735	378.94
487.953	397.94
488.171	405.94
488.389	398.94
488.607	422.94
488.825	416.94
489.043	413.94
489.261	391.94
489.479	407.94
489.696	421.94
489.914	414.94
490.132	394.94
490.35	415.94
490.568	406.94
490.786	405.94
491.003	402.94
491.221	414.94
491.439	430.94
491.657	405.94
491.874	426.94
492.092	403.94
492.31	401.94
492.527	402.94
492.745	427.94
492.963	426.94
493.18	405.94
493.398	421.94
493.615	401.94
493.833	452.94
494.05	419.94
494.268	425.94
494.485	414.94
494.703	421.94
494.92	429.94
495.138	412.94
495.355	434.94
495.573	434.94
495.79	420.94
496.008	454.94
496.225	444.94
496.442	445.94
496.66	442.94
496.877	452.94
497.094	471.94
497.312	471.94
497.529	490.94
497.746	487.94
497.963	496.94
498.181	508.94
498.398	540.94
498.615	539.94
498.832	557.94
499.049	600.94
499.267	627.94
499.484	669.94
499.701	679.94
499.918	715.94
500.135	771.94
500.352	825.94
500.569	816.94
500.786	815.94
501.003	801.94
501.22	751.94
501.437	734.94
501.654	664.94
501.871	629.94
502.088	593.94
502.305	543.94
