Data from Fe(NO3)3@0.1M.TitratingCurve.Agarose3%dH2O.NegLispCup.LampEnergy10.LIBS07252019_HRD10591_16-40-21-332.txt Node
Date: Thu Jul 25 16:40:21 EDT 2019
User: cochatt
Spectrometer: HR+D1059
Trigger mode: 1
Integration Time (sec): 1.000000E-1
Scans to average: 1
Electric dark correction enabled: true
Nonlinearity correction enabled: false
Boxcar width: 0
XAxis mode: Wavelengths
Number of Pixels in Spectrum: 2048
>>>>>Begin Spectral Data<<<<<
223.165	-14.69
223.4	-14.69
223.635	-14.69
223.869	-15.69
224.104	-7.69
224.338	-21.69
224.573	-10.69
224.808	-14.69
225.042	-16.69
225.277	-5.69
225.511	-14.69
225.746	-7.69
225.98	6.31
226.215	7.31
226.449	19.31
226.683	34.31
226.918	30.31
227.152	32.31
227.387	31.31
227.621	55.31
227.856	44.31
228.09	42.31
228.324	49.31
228.559	56.31
228.793	69.31
229.027	91.31
229.262	84.31
229.496	84.31
229.73	95.31
229.964	92.31
230.199	97.31
230.433	96.31
230.667	103.31
230.901	105.31
231.136	106.31
231.37	101.31
231.604	105.31
231.838	121.31
232.072	108.31
232.306	106.31
232.541	114.31
232.775	109.31
233.009	128.31
233.243	105.31
233.477	111.31
233.711	112.31
233.945	103.31
234.179	109.31
234.413	118.31
234.647	116.31
234.881	118.31
235.115	115.31
235.349	101.31
235.583	106.31
235.817	111.31
236.051	113.31
236.285	108.31
236.519	101.31
236.753	129.31
236.987	100.31
237.221	115.31
237.455	118.31
237.689	114.31
237.922	118.31
238.156	107.31
238.39	122.31
238.624	123.31
238.858	113.31
239.091	122.31
239.325	102.31
239.559	111.31
239.793	113.31
240.027	115.31
240.26	117.31
240.494	117.31
240.728	103.31
240.961	123.31
241.195	131.31
241.429	116.31
241.662	127.31
241.896	129.31
242.13	136.31
242.363	113.31
242.597	137.31
242.83	135.31
243.064	135.31
243.298	140.31
243.531	131.31
243.765	137.31
243.998	126.31
244.232	137.31
244.465	131.31
244.699	130.31
244.932	141.31
245.166	148.31
245.399	135.31
245.633	130.31
245.866	134.31
246.099	125.31
246.333	141.31
246.566	145.31
246.8	131.31
247.033	137.31
247.266	143.31
247.5	145.31
247.733	139.31
247.966	145.31
248.2	154.31
248.433	140.31
248.666	150.31
248.899	145.31
249.133	124.31
249.366	156.31
249.599	145.31
249.832	153.31
250.066	158.31
250.299	142.31
250.532	163.31
250.765	153.31
250.998	156.31
251.231	159.31
251.465	162.31
251.698	158.31
251.931	173.31
252.164	171.31
252.397	164.31
252.63	158.31
252.863	159.31
253.096	183.31
253.329	162.31
253.562	178.31
253.795	160.31
254.028	177.31
254.261	168.31
254.494	168.31
254.727	176.31
254.96	162.31
255.193	169.31
255.426	167.31
255.659	160.31
255.892	177.31
256.124	169.31
256.357	166.31
256.59	181.31
256.823	165.31
257.056	178.31
257.289	175.31
257.521	188.31
257.754	167.31
257.987	193.31
258.22	177.31
258.452	179.31
258.685	193.31
258.918	172.31
259.151	204.31
259.383	195.31
259.616	167.31
259.849	183.31
260.081	197.31
260.314	179.31
260.547	200.31
260.779	191.31
261.012	189.31
261.244	196.31
261.477	191.31
261.71	184.31
261.942	190.31
262.175	191.31
262.407	192.31
262.64	179.31
262.872	185.31
263.105	173.31
263.337	183.31
263.57	193.31
263.802	179.31
264.035	201.31
264.267	199.31
264.499	208.31
264.732	209.31
264.964	203.31
265.197	203.31
265.429	202.31
265.661	196.31
265.894	209.31
266.126	209.31
266.358	220.31
266.591	196.31
266.823	203.31
267.055	208.31
267.287	219.31
267.52	204.31
267.752	216.31
267.984	214.31
268.216	195.31
268.448	231.31
268.681	210.31
268.913	210.31
269.145	213.31
269.377	216.31
269.609	216.31
269.841	217.31
270.073	217.31
270.306	221.31
270.538	223.31
270.77	227.31
271.002	220.31
271.234	201.31
271.466	217.31
271.698	221.31
271.93	219.31
272.162	213.31
272.394	209.31
272.626	229.31
272.858	222.31
273.09	232.31
273.322	226.31
273.553	228.31
273.785	220.31
274.017	221.31
274.249	223.31
274.481	253.31
274.713	255.31
274.945	229.31
275.176	229.31
275.408	232.31
275.64	251.31
275.872	239.31
276.104	237.31
276.335	224.31
276.567	221.31
276.799	241.31
277.031	247.31
277.262	245.31
277.494	247.31
277.726	251.31
277.957	233.31
278.189	257.31
278.421	245.31
278.652	242.31
278.884	245.31
279.115	255.31
279.347	253.31
279.579	239.31
279.81	242.31
280.042	232.31
280.273	238.31
280.505	242.31
280.736	243.31
280.968	224.31
281.199	249.31
281.431	255.31
281.662	245.31
281.894	260.31
282.125	254.31
282.356	242.31
282.588	257.31
282.819	247.31
283.051	260.31
283.282	264.31
283.513	271.31
283.745	278.31
283.976	265.31
284.207	269.31
284.439	282.31
284.67	261.31
284.901	277.31
285.132	263.31
285.364	279.31
285.595	284.31
285.826	282.31
286.057	271.31
286.288	265.31
286.52	274.31
286.751	272.31
286.982	299.31
287.213	288.31
287.444	276.31
287.675	296.31
287.906	295.31
288.138	269.31
288.369	285.31
288.6	278.31
288.831	289.31
289.062	267.31
289.293	274.31
289.524	293.31
289.755	291.31
289.986	287.31
290.217	298.31
290.448	277.31
290.679	279.31
290.91	285.31
291.141	293.31
291.371	295.31
291.602	284.31
291.833	303.31
292.064	279.31
292.295	313.31
292.526	291.31
292.757	271.31
292.987	269.31
293.218	268.31
293.449	299.31
293.68	280.31
293.91	274.31
294.141	290.31
294.372	305.31
294.603	305.31
294.833	287.31
295.064	301.31
295.295	299.31
295.525	297.31
295.756	305.31
295.987	278.31
296.217	304.31
296.448	327.31
296.679	302.31
296.909	299.31
297.14	293.31
297.37	317.31
297.601	326.31
297.831	308.31
298.062	309.31
298.292	318.31
298.523	322.31
298.753	324.31
298.984	314.31
299.214	314.31
299.445	314.31
299.675	325.31
299.905	324.31
300.136	325.31
300.366	316.31
300.597	312.31
300.827	319.31
301.057	315.31
301.288	325.31
301.518	311.31
301.748	336.31
301.979	325.31
302.209	329.31
302.439	337.31
302.669	326.31
302.9	319.31
303.13	315.31
303.36	331.31
303.59	298.31
303.82	324.31
304.051	330.31
304.281	321.31
304.511	321.31
304.741	328.31
304.971	324.31
305.201	330.31
305.431	332.31
305.661	337.31
305.891	314.31
306.121	329.31
306.352	330.31
306.582	309.31
306.812	315.31
307.042	323.31
307.272	325.31
307.502	338.31
307.731	321.31
307.961	325.31
308.191	328.31
308.421	324.31
308.651	320.31
308.881	308.31
309.111	318.31
309.341	326.31
309.571	319.31
309.8	308.31
310.03	332.31
310.26	297.31
310.49	314.31
310.72	320.31
310.949	332.31
311.179	328.31
311.409	328.31
311.639	317.31
311.868	341.31
312.098	319.31
312.328	353.31
312.557	334.31
312.787	344.31
313.017	332.31
313.246	330.31
313.476	337.31
313.706	358.31
313.935	344.31
314.165	330.31
314.394	341.31
314.624	337.31
314.853	339.31
315.083	345.31
315.312	352.31
315.542	346.31
315.771	363.31
316.001	335.31
316.23	342.31
316.46	337.31
316.689	353.31
316.919	351.31
317.148	333.31
317.377	338.31
317.607	350.31
317.836	346.31
318.065	352.31
318.295	355.31
318.524	343.31
318.753	324.31
318.983	339.31
319.212	353.31
319.441	340.31
319.67	350.31
319.9	345.31
320.129	341.31
320.358	335.31
320.587	336.31
320.816	367.31
321.046	358.31
321.275	339.31
321.504	350.31
321.733	335.31
321.962	344.31
322.191	339.31
322.42	354.31
322.649	345.31
322.878	338.31
323.108	340.31
323.337	347.31
323.566	360.31
323.795	371.31
324.024	364.31
324.253	353.31
324.482	363.31
324.71	359.31
324.939	353.31
325.168	358.31
325.397	373.31
325.626	370.31
325.855	372.31
326.084	377.31
326.313	371.31
326.542	363.31
326.77	373.31
326.999	391.31
327.228	349.31
327.457	367.31
327.686	380.31
327.914	377.31
328.143	385.31
328.372	384.31
328.6	368.31
328.829	378.31
329.058	378.31
329.287	373.31
329.515	375.31
329.744	379.31
329.972	384.31
330.201	372.31
330.43	384.31
330.658	385.31
330.887	383.31
331.115	391.31
331.344	403.31
331.572	381.31
331.801	400.31
332.03	416.31
332.258	424.31
332.486	425.31
332.715	442.31
332.943	458.31
333.172	453.31
333.4	457.31
333.629	471.31
333.857	504.31
334.085	471.31
334.314	497.31
334.542	464.31
334.771	466.31
334.999	466.31
335.227	480.31
335.455	475.31
335.684	477.31
335.912	453.31
336.14	433.31
336.369	441.31
336.597	445.31
336.825	465.31
337.053	447.31
337.281	427.31
337.51	419.31
337.738	419.31
337.966	420.31
338.194	418.31
338.422	420.31
338.65	433.31
338.878	416.31
339.106	415.31
339.334	418.31
339.562	412.31
339.79	401.31
340.018	386.31
340.246	394.31
340.474	408.31
340.702	409.31
340.93	394.31
341.158	421.31
341.386	380.31
341.614	395.31
341.842	392.31
342.07	420.31
342.298	390.31
342.526	397.31
342.754	388.31
342.981	410.31
343.209	425.31
343.437	434.31
343.665	445.31
343.893	460.31
344.12	482.31
344.348	461.31
344.576	447.31
344.804	420.31
345.031	409.31
345.259	408.31
345.487	402.31
345.714	405.31
345.942	387.31
346.17	373.31
346.397	369.31
346.625	383.31
346.853	381.31
347.08	377.31
347.308	400.31
347.535	371.31
347.763	384.31
347.99	390.31
348.218	377.31
348.445	383.31
348.673	390.31
348.9	391.31
349.128	378.31
349.355	384.31
349.583	378.31
349.81	371.31
350.037	341.31
350.265	385.31
350.492	399.31
350.72	358.31
350.947	340.31
351.174	375.31
351.402	368.31
351.629	368.31
351.856	362.31
352.083	377.31
352.311	383.31
352.538	351.31
352.765	365.31
352.992	380.31
353.22	372.31
353.447	366.31
353.674	371.31
353.901	373.31
354.128	377.31
354.355	365.31
354.583	385.31
354.81	382.31
355.037	365.31
355.264	379.31
355.491	369.31
355.718	382.31
355.945	383.31
356.172	377.31
356.399	379.31
356.626	395.31
356.853	390.31
357.08	363.31
357.307	392.31
357.534	380.31
357.761	359.31
357.988	388.31
358.215	372.31
358.441	385.31
358.668	360.31
358.895	381.31
359.122	377.31
359.349	380.31
359.576	385.31
359.802	368.31
360.029	374.31
360.256	373.31
360.483	369.31
360.709	385.31
360.936	389.31
361.163	401.31
361.39	363.31
361.616	367.31
361.843	368.31
362.07	379.31
362.296	376.31
362.523	366.31
362.749	377.31
362.976	383.31
363.203	383.31
363.429	380.31
363.656	397.31
363.882	379.31
364.109	380.31
364.335	373.31
364.562	370.31
364.788	395.31
365.015	379.31
365.241	378.31
365.468	397.31
365.694	368.31
365.92	369.31
366.147	385.31
366.373	387.31
366.599	378.31
366.826	360.31
367.052	397.31
367.278	371.31
367.505	376.31
367.731	374.31
367.957	387.31
368.184	387.31
368.41	386.31
368.636	396.31
368.862	392.31
369.089	413.31
369.315	385.31
369.541	369.31
369.767	386.31
369.993	425.31
370.219	395.31
370.445	404.31
370.672	391.31
370.898	403.31
371.124	401.31
371.35	422.31
371.576	408.31
371.802	396.31
372.028	411.31
372.254	387.31
372.48	419.31
372.706	426.31
372.932	419.31
373.158	449.31
373.384	428.31
373.61	404.31
373.835	431.31
374.061	414.31
374.287	423.31
374.513	439.31
374.739	423.31
374.965	439.31
375.191	459.31
375.416	468.31
375.642	455.31
375.868	458.31
376.094	436.31
376.319	442.31
376.545	417.31
376.771	410.31
376.997	429.31
377.222	420.31
377.448	432.31
377.674	412.31
377.899	396.31
378.125	413.31
378.35	401.31
378.576	414.31
378.802	393.31
379.027	414.31
379.253	394.31
379.478	426.31
379.704	419.31
379.929	403.31
380.155	424.31
380.38	411.31
380.606	432.31
380.831	424.31
381.057	415.31
381.282	407.31
381.507	412.31
381.733	431.31
381.958	422.31
382.184	421.31
382.409	437.31
382.634	432.31
382.86	458.31
383.085	441.31
383.31	457.31
383.535	427.31
383.761	424.31
383.986	470.31
384.211	470.31
384.436	470.31
384.662	463.31
384.887	510.31
385.112	475.31
385.337	505.31
385.562	469.31
385.787	484.31
386.013	514.31
386.238	488.31
386.463	496.31
386.688	497.31
386.913	470.31
387.138	503.31
387.363	490.31
387.588	486.31
387.813	483.31
388.038	496.31
388.263	471.31
388.488	488.31
388.713	486.31
388.938	484.31
389.163	470.31
389.387	452.31
389.612	487.31
389.837	494.31
390.062	483.31
390.287	487.31
390.512	477.31
390.736	490.31
390.961	497.31
391.186	497.31
391.411	531.31
391.636	523.31
391.86	545.31
392.085	552.31
392.31	535.31
392.534	537.31
392.759	529.31
392.984	517.31
393.208	522.31
393.433	528.31
393.658	533.31
393.882	523.31
394.107	534.31
394.331	531.31
394.556	530.31
394.78	543.31
395.005	534.31
395.229	549.31
395.454	548.31
395.678	563.31
395.903	547.31
396.127	553.31
396.352	550.31
396.576	523.31
396.801	522.31
397.025	519.31
397.249	542.31
397.474	563.31
397.698	543.31
397.922	559.31
398.147	556.31
398.371	559.31
398.595	608.31
398.82	612.31
399.044	659.31
399.268	681.31
399.492	769.31
399.717	855.31
399.941	826.31
400.165	757.31
400.389	715.31
400.613	673.31
400.837	639.31
401.062	632.31
401.286	628.31
401.51	603.31
401.734	612.31
401.958	639.31
402.182	638.31
402.406	611.31
402.63	620.31
402.854	646.31
403.078	639.31
403.302	644.31
403.526	669.31
403.75	679.31
403.974	674.31
404.198	701.31
404.422	675.31
404.645	693.31
404.869	665.31
405.093	667.31
405.317	645.31
405.541	660.31
405.765	667.31
405.988	657.31
406.212	652.31
406.436	648.31
406.66	675.31
406.883	655.31
407.107	728.31
407.331	747.31
407.555	748.31
407.778	720.31
408.002	753.31
408.226	744.31
408.449	724.31
408.673	707.31
408.896	698.31
409.12	680.31
409.344	693.31
409.567	663.31
409.791	661.31
410.014	658.31
410.238	673.31
410.461	661.31
410.685	654.31
410.908	660.31
411.132	669.31
411.355	612.31
411.578	627.31
411.802	625.31
412.025	651.31
412.249	626.31
412.472	624.31
412.695	647.31
412.919	611.31
413.142	615.31
413.365	629.31
413.589	630.31
413.812	623.31
414.035	620.31
414.258	620.31
414.482	608.31
414.705	629.31
414.928	626.31
415.151	629.31
415.374	624.31
415.597	626.31
415.821	611.31
416.044	601.31
416.267	593.31
416.49	594.31
416.713	609.31
416.936	619.31
417.159	599.31
417.382	592.31
417.605	584.31
417.828	593.31
418.051	603.31
418.274	629.31
418.497	583.31
418.72	627.31
418.943	601.31
419.166	636.31
419.389	687.31
419.611	678.31
419.834	653.31
420.057	631.31
420.28	620.31
420.503	603.31
420.726	615.31
420.948	600.31
421.171	614.31
421.394	616.31
421.617	610.31
421.839	611.31
422.062	609.31
422.285	609.31
422.507	611.31
422.73	631.31
422.953	633.31
423.175	630.31
423.398	622.31
423.621	618.31
423.843	633.31
424.066	643.31
424.288	627.31
424.511	637.31
424.733	634.31
424.956	628.31
425.178	605.31
425.401	621.31
425.623	609.31
425.846	595.31
426.068	601.31
426.291	594.31
426.513	577.31
426.735	556.31
426.958	575.31
427.18	570.31
427.402	584.31
427.625	575.31
427.847	567.31
428.069	545.31
428.292	561.31
428.514	568.31
428.736	557.31
428.958	569.31
429.181	551.31
429.403	566.31
429.625	560.31
429.847	546.31
430.069	547.31
430.292	539.31
430.514	523.31
430.736	535.31
430.958	532.31
431.18	549.31
431.402	568.31
431.624	547.31
431.846	561.31
432.068	539.31
432.29	585.31
432.512	543.31
432.734	573.31
432.956	565.31
433.178	579.31
433.4	557.31
433.622	561.31
433.844	578.31
434.066	571.31
434.287	579.31
434.509	572.31
434.731	583.31
434.953	609.31
435.175	616.31
435.397	615.31
435.618	570.31
435.84	571.31
436.062	552.31
436.284	571.31
436.505	552.31
436.727	554.31
436.949	550.31
437.17	550.31
437.392	543.31
437.614	546.31
437.835	529.31
438.057	542.31
438.278	528.31
438.5	545.31
438.721	535.31
438.943	569.31
439.165	551.31
439.386	547.31
439.608	584.31
439.829	565.31
440.05	561.31
440.272	584.31
440.493	584.31
440.715	575.31
440.936	585.31
441.158	599.31
441.379	593.31
441.6	615.31
441.822	637.31
442.043	648.31
442.264	613.31
442.486	590.31
442.707	579.31
442.928	609.31
443.149	600.31
443.371	620.31
443.592	616.31
443.813	631.31
444.034	633.31
444.255	626.31
444.476	647.31
444.698	691.31
444.919	739.31
445.14	768.31
445.361	688.31
445.582	657.31
445.803	605.31
446.024	595.31
446.245	582.31
446.466	595.31
446.687	553.31
446.908	575.31
447.129	545.31
447.35	570.31
447.571	572.31
447.792	536.31
448.013	531.31
448.234	545.31
448.455	552.31
448.675	549.31
448.896	521.31
449.117	526.31
449.338	535.31
449.559	516.31
449.779	522.31
450	509.31
450.221	544.31
450.442	528.31
450.662	524.31
450.883	542.31
451.104	533.31
451.324	544.31
451.545	524.31
451.766	518.31
451.986	534.31
452.207	527.31
452.428	514.31
452.648	514.31
452.869	476.31
453.089	513.31
453.31	508.31
453.53	492.31
453.751	512.31
453.971	500.31
454.192	492.31
454.412	483.31
454.633	468.31
454.853	459.31
455.073	460.31
455.294	472.31
455.514	476.31
455.734	497.31
455.955	507.31
456.175	499.31
456.395	474.31
456.616	482.31
456.836	491.31
457.056	488.31
457.276	483.31
457.497	496.31
457.717	502.31
457.937	504.31
458.157	516.31
458.377	488.31
458.598	515.31
458.818	527.31
459.038	517.31
459.258	554.31
459.478	551.31
459.698	568.31
459.918	587.31
460.138	605.31
460.358	635.31
460.578	644.31
460.798	657.31
461.018	659.31
461.238	612.31
461.458	661.31
461.678	641.31
461.898	653.31
462.118	664.31
462.338	657.31
462.558	689.31
462.777	697.31
462.997	761.31
463.217	806.31
463.437	800.31
463.657	748.31
463.876	730.31
464.096	727.31
464.316	728.31
464.536	729.31
464.755	703.31
464.975	675.31
465.195	629.31
465.414	632.31
465.634	593.31
465.854	590.31
466.073	568.31
466.293	567.31
466.512	556.31
466.732	559.31
466.951	545.31
467.171	513.31
467.391	548.31
467.61	532.31
467.829	549.31
468.049	517.31
468.268	519.31
468.488	530.31
468.707	532.31
468.927	522.31
469.146	525.31
469.365	536.31
469.585	526.31
469.804	548.31
470.023	559.31
470.243	527.31
470.462	556.31
470.681	540.31
470.901	553.31
471.12	546.31
471.339	539.31
471.558	549.31
471.777	525.31
471.997	501.31
472.216	529.31
472.435	488.31
472.654	516.31
472.873	496.31
473.092	513.31
473.311	492.31
473.53	514.31
473.749	491.31
473.968	497.31
474.187	492.31
474.406	497.31
474.625	516.31
474.844	500.31
475.063	528.31
475.282	501.31
475.501	497.31
475.72	519.31
475.939	512.31
476.158	516.31
476.377	529.31
476.596	539.31
476.814	538.31
477.033	531.31
477.252	545.31
477.471	542.31
477.69	571.31
477.908	563.31
478.127	599.31
478.346	573.31
478.564	578.31
478.783	586.31
479.002	617.31
479.22	637.31
479.439	594.31
479.658	596.31
479.876	587.31
480.095	599.31
480.313	623.31
480.532	664.31
480.751	625.31
480.969	621.31
481.188	586.31
481.406	571.31
481.624	569.31
481.843	569.31
482.061	552.31
482.28	574.31
482.498	590.31
482.717	577.31
482.935	549.31
483.153	577.31
483.372	551.31
483.59	577.31
483.808	568.31
484.027	548.31
484.245	576.31
484.463	561.31
484.681	564.31
484.9	582.31
485.118	575.31
485.336	580.31
485.554	570.31
485.772	572.31
485.99	589.31
486.209	567.31
486.427	582.31
486.645	599.31
486.863	597.31
487.081	585.31
487.299	563.31
487.517	574.31
487.735	594.31
487.953	582.31
488.171	593.31
488.389	552.31
488.607	580.31
488.825	565.31
489.043	575.31
489.261	565.31
489.479	594.31
489.696	579.31
489.914	588.31
490.132	587.31
490.35	594.31
490.568	608.31
490.786	571.31
491.003	564.31
491.221	585.31
491.439	585.31
491.657	583.31
491.874	584.31
492.092	600.31
492.31	613.31
492.527	633.31
492.745	613.31
492.963	595.31
493.18	596.31
493.398	599.31
493.615	628.31
493.833	591.31
494.05	619.31
494.268	615.31
494.485	611.31
494.703	635.31
494.92	633.31
495.138	626.31
495.355	614.31
495.573	639.31
495.79	620.31
496.008	619.31
496.225	631.31
496.442	651.31
496.66	664.31
496.877	621.31
497.094	643.31
497.312	668.31
497.529	676.31
497.746	708.31
497.963	732.31
498.181	756.31
498.398	773.31
498.615	788.31
498.832	857.31
499.049	875.31
499.267	958.31
499.484	1066.31
499.701	1145.31
499.918	1265.31
500.135	1397.31
500.352	1544.31
500.569	1599.31
500.786	1585.31
501.003	1501.31
501.22	1323.31
501.437	1212.31
