Data from Fe(NO3)3@0.1M.TitratingCurve.Agarose3%dH2O.NegLispCup.LampEnergy10.LIBS07252019_HRD10591_16-40-59-333.txt Node
Date: Thu Jul 25 16:40:59 EDT 2019
User: cochatt
Spectrometer: HR+D1059
Trigger mode: 1
Integration Time (sec): 1.000000E-1
Scans to average: 1
Electric dark correction enabled: true
Nonlinearity correction enabled: false
Boxcar width: 0
XAxis mode: Wavelengths
Number of Pixels in Spectrum: 2048
>>>>>Begin Spectral Data<<<<<
223.165	-16.94
223.4	-16.94
223.635	-16.94
223.869	-6.94
224.104	-13.94
224.338	-10.94
224.573	-14.94
224.808	-20.94
225.042	-4.94
225.277	-2.94
225.511	-9.94
225.746	7.06
225.98	10.06
226.215	9.06
226.449	6.06
226.683	12.06
226.918	19.06
227.152	39.06
227.387	35.06
227.621	29.06
227.856	35.06
228.09	45.06
228.324	61.06
228.559	60.06
228.793	66.06
229.027	67.06
229.262	54.06
229.496	61.06
229.73	75.06
229.964	81.06
230.199	78.06
230.433	88.06
230.667	94.06
230.901	83.06
231.136	91.06
231.37	79.06
231.604	89.06
231.838	79.06
232.072	96.06
232.306	93.06
232.541	90.06
232.775	100.06
233.009	86.06
233.243	87.06
233.477	75.06
233.711	88.06
233.945	82.06
234.179	97.06
234.413	89.06
234.647	86.06
234.881	95.06
235.115	80.06
235.349	88.06
235.583	102.06
235.817	73.06
236.051	73.06
236.285	94.06
236.519	90.06
236.753	85.06
236.987	90.06
237.221	80.06
237.455	76.06
237.689	87.06
237.922	87.06
238.156	78.06
238.39	74.06
238.624	95.06
238.858	99.06
239.091	83.06
239.325	86.06
239.559	93.06
239.793	97.06
240.027	97.06
240.26	90.06
240.494	83.06
240.728	77.06
240.961	100.06
241.195	78.06
241.429	97.06
241.662	85.06
241.896	78.06
242.13	97.06
242.363	91.06
242.597	83.06
242.83	86.06
243.064	92.06
243.298	84.06
243.531	102.06
243.765	85.06
243.998	105.06
244.232	95.06
244.465	84.06
244.699	79.06
244.932	97.06
245.166	87.06
245.399	110.06
245.633	113.06
245.866	92.06
246.099	81.06
246.333	73.06
246.566	96.06
246.8	108.06
247.033	90.06
247.266	84.06
247.5	90.06
247.733	82.06
247.966	85.06
248.2	96.06
248.433	103.06
248.666	103.06
248.899	92.06
249.133	95.06
249.366	92.06
249.599	94.06
249.832	89.06
250.066	95.06
250.299	91.06
250.532	101.06
250.765	86.06
250.998	90.06
251.231	86.06
251.465	95.06
251.698	79.06
251.931	85.06
252.164	85.06
252.397	112.06
252.63	98.06
252.863	105.06
253.096	106.06
253.329	110.06
253.562	100.06
253.795	89.06
254.028	97.06
254.261	96.06
254.494	89.06
254.727	100.06
254.96	91.06
255.193	86.06
255.426	90.06
255.659	98.06
255.892	85.06
256.124	110.06
256.357	89.06
256.59	92.06
256.823	96.06
257.056	103.06
257.289	105.06
257.521	97.06
257.754	100.06
257.987	94.06
258.22	92.06
258.452	103.06
258.685	100.06
258.918	87.06
259.151	98.06
259.383	109.06
259.616	99.06
259.849	87.06
260.081	109.06
260.314	103.06
260.547	88.06
260.779	101.06
261.012	98.06
261.244	96.06
261.477	108.06
261.71	97.06
261.942	89.06
262.175	94.06
262.407	113.06
262.64	100.06
262.872	115.06
263.105	115.06
263.337	98.06
263.57	99.06
263.802	94.06
264.035	102.06
264.267	99.06
264.499	103.06
264.732	113.06
264.964	90.06
265.197	103.06
265.429	116.06
265.661	117.06
265.894	86.06
266.126	91.06
266.358	92.06
266.591	102.06
266.823	107.06
267.055	97.06
267.287	103.06
267.52	113.06
267.752	111.06
267.984	105.06
268.216	108.06
268.448	112.06
268.681	97.06
268.913	109.06
269.145	110.06
269.377	114.06
269.609	101.06
269.841	104.06
270.073	73.06
270.306	98.06
270.538	108.06
270.77	113.06
271.002	117.06
271.234	100.06
271.466	109.06
271.698	103.06
271.93	118.06
272.162	105.06
272.394	109.06
272.626	95.06
272.858	110.06
273.09	115.06
273.322	125.06
273.553	115.06
273.785	124.06
274.017	105.06
274.249	95.06
274.481	107.06
274.713	109.06
274.945	102.06
275.176	107.06
275.408	122.06
275.64	103.06
275.872	109.06
276.104	102.06
276.335	109.06
276.567	118.06
276.799	122.06
277.031	118.06
277.262	108.06
277.494	109.06
277.726	104.06
277.957	119.06
278.189	107.06
278.421	117.06
278.652	116.06
278.884	119.06
279.115	118.06
279.347	100.06
279.579	121.06
279.81	113.06
280.042	113.06
280.273	122.06
280.505	125.06
280.736	112.06
280.968	103.06
281.199	119.06
281.431	107.06
281.662	105.06
281.894	111.06
282.125	127.06
282.356	104.06
282.588	116.06
282.819	123.06
283.051	119.06
283.282	133.06
283.513	113.06
283.745	123.06
283.976	115.06
284.207	125.06
284.439	140.06
284.67	121.06
284.901	127.06
285.132	121.06
285.364	125.06
285.595	117.06
285.826	122.06
286.057	121.06
286.288	113.06
286.52	105.06
286.751	121.06
286.982	123.06
287.213	109.06
287.444	118.06
287.675	132.06
287.906	128.06
288.138	133.06
288.369	122.06
288.6	123.06
288.831	122.06
289.062	121.06
289.293	127.06
289.524	109.06
289.755	113.06
289.986	121.06
290.217	122.06
290.448	118.06
290.679	125.06
290.91	132.06
291.141	122.06
291.371	127.06
291.602	122.06
291.833	114.06
292.064	124.06
292.295	115.06
292.526	115.06
292.757	130.06
292.987	116.06
293.218	124.06
293.449	122.06
293.68	115.06
293.91	123.06
294.141	124.06
294.372	116.06
294.603	125.06
294.833	125.06
295.064	118.06
295.295	131.06
295.525	113.06
295.756	132.06
295.987	134.06
296.217	133.06
296.448	121.06
296.679	117.06
296.909	126.06
297.14	122.06
297.37	125.06
297.601	131.06
297.831	137.06
298.062	124.06
298.292	110.06
298.523	139.06
298.753	134.06
298.984	146.06
299.214	133.06
299.445	131.06
299.675	133.06
299.905	131.06
300.136	123.06
300.366	121.06
300.597	143.06
300.827	142.06
301.057	130.06
301.288	131.06
301.518	140.06
301.748	135.06
301.979	139.06
302.209	123.06
302.439	142.06
302.669	140.06
302.9	155.06
303.13	134.06
303.36	131.06
303.59	140.06
303.82	133.06
304.051	139.06
304.281	137.06
304.511	137.06
304.741	127.06
304.971	133.06
305.201	140.06
305.431	153.06
305.661	133.06
305.891	129.06
306.121	125.06
306.352	148.06
306.582	119.06
306.812	131.06
307.042	124.06
307.272	134.06
307.502	117.06
307.731	142.06
307.961	137.06
308.191	135.06
308.421	125.06
308.651	128.06
308.881	126.06
309.111	131.06
309.341	125.06
309.571	126.06
309.8	150.06
310.03	134.06
310.26	132.06
310.49	130.06
310.72	133.06
310.949	142.06
311.179	118.06
311.409	138.06
311.639	131.06
311.868	128.06
312.098	139.06
312.328	133.06
312.557	138.06
312.787	127.06
313.017	129.06
313.246	134.06
313.476	129.06
313.706	140.06
313.935	148.06
314.165	153.06
314.394	130.06
314.624	127.06
314.853	125.06
315.083	141.06
315.312	139.06
315.542	138.06
315.771	150.06
316.001	144.06
316.23	133.06
316.46	133.06
316.689	142.06
316.919	113.06
317.148	136.06
317.377	125.06
317.607	134.06
317.836	142.06
318.065	129.06
318.295	132.06
318.524	145.06
318.753	139.06
318.983	137.06
319.212	146.06
319.441	153.06
319.67	137.06
319.9	143.06
320.129	129.06
320.358	135.06
320.587	145.06
320.816	134.06
321.046	142.06
321.275	135.06
321.504	145.06
321.733	149.06
321.962	147.06
322.191	139.06
322.42	138.06
322.649	147.06
322.878	142.06
323.108	148.06
323.337	159.06
323.566	158.06
323.795	147.06
324.024	137.06
324.253	138.06
324.482	145.06
324.71	136.06
324.939	163.06
325.168	141.06
325.397	151.06
325.626	142.06
325.855	155.06
326.084	132.06
326.313	134.06
326.542	142.06
326.77	148.06
326.999	163.06
327.228	126.06
327.457	138.06
327.686	142.06
327.914	162.06
328.143	160.06
328.372	149.06
328.6	144.06
328.829	131.06
329.058	129.06
329.287	156.06
329.515	151.06
329.744	159.06
329.972	152.06
330.201	134.06
330.43	136.06
330.658	134.06
330.887	145.06
331.115	166.06
331.344	162.06
331.572	156.06
331.801	155.06
332.03	156.06
332.258	172.06
332.486	149.06
332.715	156.06
332.943	174.06
333.172	158.06
333.4	166.06
333.629	155.06
333.857	175.06
334.085	164.06
334.314	147.06
334.542	174.06
334.771	171.06
334.999	156.06
335.227	167.06
335.455	180.06
335.684	153.06
335.912	153.06
336.14	165.06
336.369	161.06
336.597	152.06
336.825	167.06
337.053	161.06
337.281	175.06
337.51	148.06
337.738	165.06
337.966	155.06
338.194	160.06
338.422	167.06
338.65	143.06
338.878	164.06
339.106	147.06
339.334	159.06
339.562	146.06
339.79	158.06
340.018	157.06
340.246	147.06
340.474	148.06
340.702	146.06
340.93	157.06
341.158	169.06
341.386	130.06
341.614	172.06
341.842	155.06
342.07	153.06
342.298	157.06
342.526	158.06
342.754	149.06
342.981	146.06
343.209	143.06
343.437	163.06
343.665	177.06
343.893	152.06
344.12	166.06
344.348	161.06
344.576	158.06
344.804	161.06
345.031	162.06
345.259	157.06
345.487	142.06
345.714	147.06
345.942	153.06
346.17	149.06
346.397	143.06
346.625	146.06
346.853	158.06
347.08	150.06
347.308	150.06
347.535	144.06
347.763	137.06
347.99	149.06
348.218	140.06
348.445	139.06
348.673	148.06
348.9	148.06
349.128	149.06
349.355	152.06
349.583	154.06
349.81	140.06
350.037	134.06
350.265	154.06
350.492	145.06
350.72	156.06
350.947	155.06
351.174	145.06
351.402	142.06
351.629	140.06
351.856	141.06
352.083	144.06
352.311	154.06
352.538	159.06
352.765	151.06
352.992	155.06
353.22	150.06
353.447	141.06
353.674	149.06
353.901	162.06
354.128	153.06
354.355	151.06
354.583	150.06
354.81	129.06
355.037	155.06
355.264	153.06
355.491	147.06
355.718	147.06
355.945	148.06
356.172	161.06
356.399	147.06
356.626	150.06
356.853	149.06
357.08	140.06
357.307	144.06
357.534	158.06
357.761	147.06
357.988	142.06
358.215	149.06
358.441	145.06
358.668	138.06
358.895	139.06
359.122	144.06
359.349	137.06
359.576	148.06
359.802	149.06
360.029	150.06
360.256	161.06
360.483	159.06
360.709	139.06
360.936	151.06
361.163	142.06
361.39	137.06
361.616	162.06
361.843	153.06
362.07	159.06
362.296	157.06
362.523	157.06
362.749	154.06
362.976	155.06
363.203	153.06
363.429	148.06
363.656	155.06
363.882	145.06
364.109	155.06
364.335	157.06
364.562	154.06
364.788	135.06
365.015	167.06
365.241	159.06
365.468	155.06
365.694	147.06
365.92	132.06
366.147	153.06
366.373	161.06
366.599	142.06
366.826	145.06
367.052	155.06
367.278	154.06
367.505	153.06
367.731	156.06
367.957	161.06
368.184	157.06
368.41	141.06
368.636	154.06
368.862	156.06
369.089	158.06
369.315	153.06
369.541	157.06
369.767	156.06
369.993	165.06
370.219	157.06
370.445	161.06
370.672	165.06
370.898	144.06
371.124	166.06
371.35	158.06
371.576	141.06
371.802	141.06
372.028	158.06
372.254	170.06
372.48	151.06
372.706	174.06
372.932	144.06
373.158	179.06
373.384	171.06
373.61	177.06
373.835	170.06
374.061	177.06
374.287	163.06
374.513	168.06
374.739	167.06
374.965	158.06
375.191	167.06
375.416	165.06
375.642	179.06
375.868	169.06
376.094	173.06
376.319	163.06
376.545	162.06
376.771	157.06
376.997	149.06
377.222	161.06
377.448	169.06
377.674	163.06
377.899	157.06
378.125	146.06
378.35	170.06
378.576	143.06
378.802	155.06
379.027	157.06
379.253	156.06
379.478	159.06
379.704	162.06
379.929	155.06
380.155	154.06
380.38	157.06
380.606	159.06
380.831	152.06
381.057	170.06
381.282	165.06
381.507	175.06
381.733	171.06
381.958	161.06
382.184	157.06
382.409	182.06
382.634	163.06
382.86	175.06
383.085	175.06
383.31	169.06
383.535	172.06
383.761	163.06
383.986	168.06
384.211	177.06
384.436	172.06
384.662	163.06
384.887	187.06
385.112	174.06
385.337	173.06
385.562	174.06
385.787	178.06
386.013	191.06
386.238	164.06
386.463	184.06
386.688	182.06
386.913	181.06
387.138	177.06
387.363	173.06
387.588	177.06
387.813	187.06
388.038	188.06
388.263	193.06
388.488	171.06
388.713	189.06
388.938	179.06
389.163	191.06
389.387	174.06
389.612	177.06
389.837	164.06
390.062	156.06
390.287	181.06
390.512	200.06
390.736	183.06
390.961	168.06
391.186	183.06
391.411	187.06
391.636	179.06
391.86	194.06
392.085	196.06
392.31	197.06
392.534	191.06
392.759	181.06
392.984	173.06
393.208	179.06
393.433	184.06
393.658	183.06
393.882	187.06
394.107	186.06
394.331	190.06
394.556	193.06
394.78	187.06
395.005	178.06
395.229	195.06
395.454	197.06
395.678	187.06
395.903	195.06
396.127	191.06
396.352	189.06
396.576	185.06
396.801	193.06
397.025	177.06
397.249	181.06
397.474	218.06
397.698	199.06
397.922	193.06
398.147	211.06
398.371	213.06
398.595	199.06
398.82	221.06
399.044	217.06
399.268	221.06
399.492	255.06
399.717	267.06
399.941	266.06
400.165	258.06
400.389	235.06
400.613	211.06
400.837	196.06
401.062	201.06
401.286	222.06
401.51	219.06
401.734	206.06
401.958	219.06
402.182	208.06
402.406	211.06
402.63	204.06
402.854	215.06
403.078	216.06
403.302	213.06
403.526	235.06
403.75	221.06
403.974	211.06
404.198	236.06
404.422	225.06
404.645	215.06
404.869	228.06
405.093	216.06
405.317	231.06
405.541	221.06
405.765	202.06
405.988	229.06
406.212	219.06
406.436	222.06
406.66	222.06
406.883	250.06
407.107	228.06
407.331	236.06
407.555	243.06
407.778	254.06
408.002	232.06
408.226	243.06
408.449	245.06
408.673	205.06
408.896	235.06
409.12	242.06
409.344	230.06
409.567	235.06
409.791	223.06
410.014	236.06
410.238	213.06
410.461	223.06
410.685	247.06
410.908	216.06
411.132	211.06
411.355	220.06
411.578	225.06
411.802	233.06
412.025	222.06
412.249	221.06
412.472	230.06
412.695	218.06
412.919	220.06
413.142	226.06
413.365	221.06
413.589	228.06
413.812	218.06
414.035	233.06
414.258	223.06
414.482	214.06
414.705	218.06
414.928	205.06
415.151	220.06
415.374	233.06
415.597	221.06
415.821	220.06
416.044	211.06
416.267	217.06
416.49	222.06
416.713	216.06
416.936	225.06
417.159	226.06
417.382	213.06
417.605	202.06
417.828	207.06
418.051	212.06
418.274	219.06
418.497	228.06
418.72	213.06
418.943	223.06
419.166	218.06
419.389	230.06
419.611	233.06
419.834	238.06
420.057	230.06
420.28	220.06
420.503	218.06
420.726	217.06
420.948	225.06
421.171	229.06
421.394	217.06
421.617	219.06
421.839	221.06
422.062	227.06
422.285	225.06
422.507	223.06
422.73	215.06
422.953	226.06
423.175	228.06
423.398	221.06
423.621	233.06
423.843	237.06
424.066	243.06
424.288	221.06
424.511	222.06
424.733	229.06
424.956	227.06
425.178	226.06
425.401	198.06
425.623	248.06
425.846	214.06
426.068	215.06
426.291	227.06
426.513	199.06
426.735	230.06
426.958	229.06
427.18	218.06
427.402	215.06
427.625	223.06
427.847	229.06
428.069	206.06
428.292	205.06
428.514	225.06
428.736	201.06
428.958	220.06
429.181	212.06
429.403	205.06
429.625	210.06
429.847	217.06
430.069	215.06
430.292	222.06
430.514	196.06
430.736	204.06
430.958	204.06
431.18	213.06
431.402	212.06
431.624	206.06
431.846	207.06
432.068	198.06
432.29	194.06
432.512	212.06
432.734	208.06
432.956	216.06
433.178	217.06
433.4	211.06
433.622	222.06
433.844	217.06
434.066	215.06
434.287	216.06
434.509	223.06
434.731	232.06
434.953	232.06
435.175	231.06
435.397	224.06
435.618	195.06
435.84	202.06
436.062	211.06
436.284	218.06
436.505	234.06
436.727	214.06
436.949	221.06
437.17	220.06
437.392	222.06
437.614	210.06
437.835	207.06
438.057	199.06
438.278	213.06
438.5	215.06
438.721	225.06
438.943	231.06
439.165	243.06
439.386	215.06
439.608	205.06
439.829	228.06
440.05	220.06
440.272	223.06
440.493	217.06
440.715	221.06
440.936	235.06
441.158	227.06
441.379	251.06
441.6	263.06
441.822	242.06
442.043	251.06
442.264	224.06
442.486	239.06
442.707	234.06
442.928	241.06
443.149	249.06
443.371	261.06
443.592	238.06
443.813	259.06
444.034	245.06
444.255	260.06
444.476	269.06
444.698	263.06
444.919	261.06
445.14	351.06
445.361	294.06
445.582	266.06
445.803	250.06
446.024	244.06
446.245	253.06
446.466	254.06
446.687	250.06
446.908	228.06
447.129	215.06
447.35	227.06
447.571	220.06
447.792	229.06
448.013	229.06
448.234	227.06
448.455	243.06
448.675	211.06
448.896	223.06
449.117	212.06
449.338	216.06
449.559	218.06
449.779	234.06
450	215.06
450.221	226.06
450.442	221.06
450.662	233.06
450.883	216.06
451.104	215.06
451.324	215.06
451.545	213.06
451.766	209.06
451.986	199.06
452.207	210.06
452.428	226.06
452.648	212.06
452.869	205.06
453.089	198.06
453.31	224.06
453.53	195.06
453.751	204.06
453.971	217.06
454.192	213.06
454.412	211.06
454.633	204.06
454.853	203.06
455.073	222.06
455.294	219.06
455.514	207.06
455.734	199.06
455.955	209.06
456.175	205.06
456.395	204.06
456.616	195.06
456.836	195.06
457.056	198.06
457.276	200.06
457.497	195.06
457.717	197.06
457.937	206.06
458.157	213.06
458.377	188.06
458.598	219.06
458.818	196.06
459.038	197.06
459.258	213.06
459.478	212.06
459.698	233.06
459.918	238.06
460.138	241.06
460.358	263.06
460.578	245.06
460.798	259.06
461.018	242.06
461.238	232.06
461.458	267.06
461.678	259.06
461.898	245.06
462.118	247.06
462.338	248.06
462.558	263.06
462.777	261.06
462.997	290.06
463.217	273.06
463.437	281.06
463.657	261.06
463.876	263.06
464.096	259.06
464.316	278.06
464.536	258.06
464.755	273.06
464.975	264.06
465.195	241.06
465.414	246.06
465.634	237.06
465.854	225.06
466.073	218.06
466.293	225.06
466.512	220.06
466.732	225.06
466.951	232.06
467.171	221.06
467.391	232.06
467.61	225.06
467.829	215.06
468.049	231.06
468.268	211.06
468.488	205.06
468.707	213.06
468.927	213.06
469.146	219.06
469.365	229.06
469.585	219.06
469.804	228.06
470.023	238.06
470.243	241.06
470.462	218.06
470.681	217.06
470.901	234.06
471.12	241.06
471.339	215.06
471.558	213.06
471.777	246.06
471.997	211.06
472.216	213.06
472.435	211.06
472.654	199.06
472.873	221.06
473.092	204.06
473.311	213.06
473.53	207.06
473.749	213.06
473.968	212.06
474.187	217.06
474.406	205.06
474.625	201.06
474.844	217.06
475.063	223.06
475.282	221.06
475.501	218.06
475.72	217.06
475.939	221.06
476.158	214.06
476.377	225.06
476.596	220.06
476.814	230.06
477.033	228.06
477.252	220.06
477.471	227.06
477.69	224.06
477.908	242.06
478.127	237.06
478.346	247.06
478.564	254.06
478.783	249.06
479.002	254.06
479.22	236.06
479.439	243.06
479.658	219.06
479.876	230.06
480.095	246.06
480.313	249.06
480.532	236.06
480.751	244.06
480.969	229.06
481.188	226.06
481.406	236.06
481.624	227.06
481.843	228.06
482.061	242.06
482.28	226.06
482.498	226.06
482.717	207.06
482.935	223.06
483.153	236.06
483.372	245.06
483.59	241.06
483.808	224.06
484.027	237.06
484.245	241.06
484.463	247.06
484.681	246.06
484.9	242.06
485.118	229.06
485.336	228.06
485.554	232.06
485.772	222.06
485.99	242.06
486.209	237.06
486.427	230.06
486.645	251.06
486.863	230.06
487.081	233.06
487.299	247.06
487.517	244.06
487.735	230.06
487.953	245.06
488.171	223.06
488.389	225.06
488.607	249.06
488.825	253.06
489.043	243.06
489.261	239.06
489.479	222.06
489.696	247.06
489.914	246.06
490.132	233.06
490.35	220.06
490.568	235.06
490.786	234.06
491.003	234.06
491.221	231.06
491.439	253.06
491.657	241.06
491.874	249.06
492.092	266.06
492.31	268.06
492.527	272.06
492.745	248.06
492.963	277.06
493.18	228.06
493.398	254.06
493.615	263.06
493.833	258.06
494.05	253.06
494.268	253.06
494.485	265.06
494.703	253.06
494.92	247.06
495.138	239.06
495.355	243.06
495.573	243.06
495.79	259.06
496.008	263.06
496.225	239.06
496.442	266.06
496.66	261.06
496.877	255.06
497.094	256.06
497.312	275.06
497.529	261.06
497.746	274.06
497.963	281.06
498.181	291.06
498.398	279.06
498.615	307.06
498.832	322.06
499.049	300.06
499.267	347.06
499.484	363.06
499.701	380.06
499.918	421.06
500.135	444.06
500.352	491.06
500.569	502.06
500.786	496.06
501.003	467.06
501.22	437.06
501.437	392.06
501.654	367.06
501.871	335.06
502.088	311.06
502.305	315.06
502.522	305.06
502.739	275.06
502.956	282.06
503.172	260.06
503.389	252.06
