Data from Fe(NO3)3@0.025M.TitratingCurve.Agarose3%dH2O.NegLispCup.LampEnergy10.LIBS07252019_HRD10591_16-56-12-335.txt Node
Date: Thu Jul 25 16:56:12 EDT 2019
User: cochatt
Spectrometer: HR+D1059
Trigger mode: 1
Integration Time (sec): 1.000000E-1
Scans to average: 1
Electric dark correction enabled: true
Nonlinearity correction enabled: false
Boxcar width: 0
XAxis mode: Wavelengths
Number of Pixels in Spectrum: 2048
>>>>>Begin Spectral Data<<<<<
223.165	-19
223.4	-19
223.635	-19
223.869	-31
224.104	-18
224.338	-11
224.573	-3
224.808	-10
225.042	-6
225.277	-2
225.511	-2
225.746	7
225.98	-1
226.215	18
226.449	21
226.683	11
226.918	13
227.152	33
227.387	24
227.621	45
227.856	56
228.09	53
228.324	40
228.559	48
228.793	63
229.027	72
229.262	83
229.496	86
229.73	87
229.964	95
230.199	83
230.433	87
230.667	78
230.901	90
231.136	87
231.37	109
231.604	107
231.838	90
232.072	93
232.306	99
232.541	114
232.775	101
233.009	104
233.243	102
233.477	97
233.711	107
233.945	105
234.179	105
234.413	111
234.647	99
234.881	109
235.115	102
235.349	110
235.583	114
235.817	99
236.051	98
236.285	103
236.519	112
236.753	100
236.987	108
237.221	84
237.455	101
237.689	102
237.922	98
238.156	92
238.39	101
238.624	109
238.858	90
239.091	112
239.325	112
239.559	99
239.793	111
240.027	100
240.26	97
240.494	115
240.728	116
240.961	122
241.195	115
241.429	120
241.662	103
241.896	126
242.13	112
242.363	118
242.597	128
242.83	122
243.064	101
243.298	109
243.531	101
243.765	121
243.998	120
244.232	112
244.465	111
244.699	109
244.932	109
245.166	121
245.399	122
245.633	108
245.866	123
246.099	131
246.333	112
246.566	115
246.8	122
247.033	120
247.266	125
247.5	123
247.733	121
247.966	134
248.2	124
248.433	122
248.666	117
248.899	123
249.133	120
249.366	136
249.599	123
249.832	111
250.066	128
250.299	134
250.532	141
250.765	141
250.998	133
251.231	121
251.465	134
251.698	135
251.931	120
252.164	120
252.397	122
252.63	125
252.863	122
253.096	136
253.329	134
253.562	141
253.795	138
254.028	130
254.261	134
254.494	135
254.727	139
254.96	138
255.193	139
255.426	138
255.659	149
255.892	136
256.124	132
256.357	139
256.59	147
256.823	157
257.056	152
257.289	131
257.521	145
257.754	154
257.987	135
258.22	154
258.452	148
258.685	151
258.918	162
259.151	153
259.383	146
259.616	148
259.849	167
260.081	152
260.314	150
260.547	148
260.779	150
261.012	147
261.244	133
261.477	158
261.71	152
261.942	145
262.175	163
262.407	162
262.64	161
262.872	166
263.105	136
263.337	167
263.57	160
263.802	151
264.035	158
264.267	156
264.499	148
264.732	158
264.964	156
265.197	162
265.429	168
265.661	154
265.894	166
266.126	184
266.358	166
266.591	166
266.823	172
267.055	166
267.287	174
267.52	167
267.752	181
267.984	165
268.216	164
268.448	151
268.681	175
268.913	155
269.145	157
269.377	164
269.609	184
269.841	172
270.073	182
270.306	165
270.538	168
270.77	164
271.002	182
271.234	181
271.466	186
271.698	158
271.93	174
272.162	182
272.394	172
272.626	159
272.858	182
273.09	184
273.322	181
273.553	181
273.785	186
274.017	202
274.249	168
274.481	197
274.713	199
274.945	194
275.176	204
275.408	196
275.64	205
275.872	193
276.104	190
276.335	170
276.567	194
276.799	172
277.031	179
277.262	184
277.494	189
277.726	198
277.957	205
278.189	187
278.421	215
278.652	199
278.884	192
279.115	200
279.347	199
279.579	206
279.81	190
280.042	196
280.273	208
280.505	200
280.736	190
280.968	192
281.199	214
281.431	225
281.662	210
281.894	208
282.125	214
282.356	205
282.588	213
282.819	211
283.051	225
283.282	220
283.513	204
283.745	225
283.976	212
284.207	204
284.439	221
284.67	213
284.901	203
285.132	214
285.364	219
285.595	203
285.826	214
286.057	216
286.288	211
286.52	209
286.751	215
286.982	238
287.213	224
287.444	224
287.675	231
287.906	205
288.138	227
288.369	212
288.6	222
288.831	225
289.062	232
289.293	219
289.524	240
289.755	224
289.986	218
290.217	220
290.448	245
290.679	240
290.91	221
291.141	218
291.371	228
291.602	249
291.833	230
292.064	252
292.295	249
292.526	237
292.757	242
292.987	219
293.218	244
293.449	239
293.68	236
293.91	253
294.141	250
294.372	221
294.603	227
294.833	213
295.064	243
295.295	229
295.525	222
295.756	232
295.987	227
296.217	234
296.448	228
296.679	234
296.909	261
297.14	225
297.37	266
297.601	248
297.831	221
298.062	245
298.292	270
298.523	249
298.753	243
298.984	253
299.214	240
299.445	247
299.675	273
299.905	267
300.136	261
300.366	266
300.597	244
300.827	272
301.057	268
301.288	247
301.518	253
301.748	259
301.979	248
302.209	265
302.439	256
302.669	275
302.9	262
303.13	250
303.36	259
303.59	279
303.82	256
304.051	274
304.281	255
304.511	254
304.741	262
304.971	277
305.201	278
305.431	275
305.661	274
305.891	264
306.121	268
306.352	277
306.582	254
306.812	273
307.042	253
307.272	259
307.502	264
307.731	272
307.961	262
308.191	275
308.421	277
308.651	269
308.881	279
309.111	262
309.341	263
309.571	282
309.8	262
310.03	266
310.26	282
310.49	278
310.72	278
310.949	277
311.179	284
311.409	284
311.639	281
311.868	275
312.098	294
312.328	281
312.557	280
312.787	272
313.017	309
313.246	270
313.476	302
313.706	284
313.935	277
314.165	289
314.394	305
314.624	292
314.853	284
315.083	301
315.312	289
315.542	298
315.771	302
316.001	279
316.23	295
316.46	287
316.689	286
316.919	286
317.148	293
317.377	279
317.607	276
317.836	307
318.065	310
318.295	302
318.524	310
318.753	292
318.983	308
319.212	316
319.441	279
319.67	287
319.9	299
320.129	287
320.358	281
320.587	297
320.816	286
321.046	311
321.275	300
321.504	311
321.733	292
321.962	320
322.191	295
322.42	295
322.649	300
322.878	304
323.108	306
323.337	318
323.566	326
323.795	325
324.024	315
324.253	294
324.482	294
324.71	296
324.939	311
325.168	310
325.397	310
325.626	319
325.855	303
326.084	328
326.313	318
326.542	309
326.77	331
326.999	311
327.228	318
327.457	291
327.686	323
327.914	327
328.143	320
328.372	359
328.6	324
328.829	312
329.058	324
329.287	322
329.515	318
329.744	347
329.972	340
330.201	334
330.43	351
330.658	338
330.887	370
331.115	336
331.344	375
331.572	358
331.801	347
332.03	347
332.258	372
332.486	352
332.715	346
332.943	370
333.172	386
333.4	395
333.629	377
333.857	380
334.085	394
334.314	399
334.542	396
334.771	378
334.999	397
335.227	373
335.455	370
335.684	375
335.912	380
336.14	365
336.369	378
336.597	364
336.825	351
337.053	360
337.281	389
337.51	364
337.738	381
337.966	384
338.194	344
338.422	350
338.65	349
338.878	352
339.106	375
339.334	348
339.562	338
339.79	342
340.018	366
340.246	343
340.474	337
340.702	359
340.93	346
341.158	347
341.386	352
341.614	357
341.842	352
342.07	369
342.298	349
342.526	352
342.754	341
342.981	361
343.209	359
343.437	346
343.665	382
343.893	376
344.12	379
344.348	373
344.576	378
344.804	349
345.031	364
345.259	347
345.487	349
345.714	357
345.942	344
346.17	341
346.397	332
346.625	350
346.853	347
347.08	331
347.308	330
347.535	347
347.763	330
347.99	349
348.218	341
348.445	331
348.673	335
348.9	323
349.128	337
349.355	347
349.583	344
349.81	342
350.037	323
350.265	364
350.492	350
350.72	348
350.947	340
351.174	339
351.402	341
351.629	329
351.856	347
352.083	343
352.311	335
352.538	308
352.765	355
352.992	314
353.22	326
353.447	336
353.674	334
353.901	332
354.128	337
354.355	332
354.583	334
354.81	327
355.037	325
355.264	340
355.491	331
355.718	336
355.945	328
356.172	339
356.399	341
356.626	346
356.853	346
357.08	346
357.307	351
357.534	343
357.761	338
357.988	336
358.215	320
358.441	322
358.668	337
358.895	351
359.122	319
359.349	347
359.576	353
359.802	360
360.029	335
360.256	314
360.483	354
360.709	356
360.936	352
361.163	338
361.39	330
361.616	331
361.843	339
362.07	359
362.296	352
362.523	353
362.749	340
362.976	333
363.203	350
363.429	338
363.656	355
363.882	348
364.109	357
364.335	338
364.562	349
364.788	351
365.015	330
365.241	325
365.468	340
365.694	342
365.92	349
366.147	341
366.373	355
366.599	355
366.826	348
367.052	348
367.278	353
367.505	331
367.731	349
367.957	375
368.184	346
368.41	346
368.636	367
368.862	366
369.089	359
369.315	366
369.541	360
369.767	355
369.993	362
370.219	354
370.445	360
370.672	366
370.898	349
371.124	354
371.35	356
371.576	382
371.802	379
372.028	365
372.254	354
372.48	376
372.706	384
372.932	378
373.158	382
373.384	377
373.61	380
373.835	361
374.061	376
374.287	396
374.513	387
374.739	378
374.965	381
375.191	382
375.416	386
375.642	367
375.868	383
376.094	376
376.319	384
376.545	386
376.771	354
376.997	370
377.222	372
377.448	365
377.674	367
377.899	371
378.125	358
378.35	353
378.576	368
378.802	370
379.027	389
379.253	377
379.478	354
379.704	362
379.929	371
380.155	366
380.38	367
380.606	389
380.831	374
381.057	379
381.282	390
381.507	380
381.733	382
381.958	355
382.184	376
382.409	374
382.634	390
382.86	381
383.085	380
383.31	408
383.535	406
383.761	388
383.986	401
384.211	382
384.436	402
384.662	398
384.887	411
385.112	410
385.337	408
385.562	424
385.787	419
386.013	415
386.238	415
386.463	410
386.688	418
386.913	438
387.138	440
387.363	426
387.588	424
387.813	416
388.038	424
388.263	451
388.488	428
388.713	437
388.938	411
389.163	420
389.387	413
389.612	410
389.837	430
390.062	411
390.287	414
390.512	418
390.736	443
390.961	442
391.186	457
391.411	452
391.636	455
391.86	448
392.085	453
392.31	437
392.534	453
392.759	420
392.984	457
393.208	434
393.433	448
393.658	438
393.882	437
394.107	443
394.331	429
394.556	447
394.78	449
395.005	466
395.229	462
395.454	458
395.678	455
395.903	478
396.127	464
396.352	453
396.576	452
396.801	455
397.025	440
397.249	479
397.474	472
397.698	487
397.922	508
398.147	492
398.371	510
398.595	488
398.82	542
399.044	524
399.268	577
399.492	609
399.717	614
399.941	640
400.165	600
400.389	571
400.613	535
400.837	536
401.062	527
401.286	532
401.51	506
401.734	519
401.958	517
402.182	498
402.406	525
402.63	523
402.854	516
403.078	521
403.302	520
403.526	533
403.75	518
403.974	546
404.198	517
404.422	525
404.645	552
404.869	533
405.093	518
405.317	544
405.541	516
405.765	550
405.988	547
406.212	536
406.436	514
406.66	539
406.883	569
407.107	568
407.331	571
407.555	593
407.778	595
408.002	599
408.226	553
408.449	576
408.673	552
408.896	545
409.12	535
409.344	553
409.567	562
409.791	541
410.014	536
410.238	533
410.461	517
410.685	533
410.908	520
411.132	525
411.355	508
411.578	528
411.802	509
412.025	529
412.249	523
412.472	524
412.695	515
412.919	509
413.142	514
413.365	498
413.589	514
413.812	491
414.035	522
414.258	519
414.482	485
414.705	510
414.928	506
415.151	503
415.374	506
415.597	496
415.821	486
416.044	493
416.267	488
416.49	494
416.713	475
416.936	484
417.159	484
417.382	469
417.605	493
417.828	499
418.051	500
418.274	491
418.497	500
418.72	498
418.943	513
419.166	535
419.389	522
419.611	530
419.834	519
420.057	524
420.28	495
420.503	469
420.726	487
420.948	467
421.171	480
421.394	482
421.617	484
421.839	479
422.062	472
422.285	476
422.507	478
422.73	473
422.953	467
423.175	473
423.398	484
423.621	467
423.843	465
424.066	487
424.288	485
424.511	464
424.733	480
424.956	489
425.178	470
425.401	501
425.623	478
425.846	470
426.068	471
426.291	470
426.513	480
426.735	468
426.958	462
427.18	456
427.402	462
427.625	451
427.847	461
428.069	442
428.292	434
428.514	451
428.736	448
428.958	446
429.181	430
429.403	442
429.625	426
429.847	439
430.069	442
430.292	437
430.514	430
430.736	441
430.958	451
431.18	445
431.402	446
431.624	450
431.846	456
432.068	453
432.29	463
432.512	436
432.734	448
432.956	463
433.178	455
433.4	450
433.622	460
433.844	442
434.066	448
434.287	471
434.509	493
434.731	470
434.953	498
435.175	495
435.397	478
435.618	451
435.84	468
436.062	454
436.284	444
436.505	454
436.727	426
436.949	459
437.17	466
437.392	454
437.614	439
437.835	455
438.057	423
438.278	414
438.5	431
438.721	416
438.943	414
439.165	431
439.386	438
439.608	434
439.829	432
440.05	436
440.272	449
440.493	429
440.715	463
440.936	463
441.158	467
441.379	464
441.6	456
441.822	469
442.043	460
442.264	473
442.486	449
442.707	458
442.928	443
443.149	467
443.371	461
443.592	470
443.813	454
444.034	460
444.255	470
444.476	487
444.698	511
444.919	487
445.14	558
445.361	506
445.582	491
445.803	480
446.024	463
446.245	440
446.466	445
446.687	430
446.908	438
447.129	449
447.35	428
447.571	428
447.792	419
448.013	404
448.234	427
448.455	404
448.675	424
448.896	424
449.117	395
449.338	419
449.559	399
449.779	401
450	416
450.221	405
450.442	400
450.662	374
450.883	401
451.104	418
451.324	414
451.545	418
451.766	403
451.986	397
452.207	413
452.428	411
452.648	384
452.869	405
453.089	395
453.31	400
453.53	382
453.751	398
453.971	405
454.192	376
454.412	398
454.633	386
454.853	393
455.073	401
455.294	397
455.514	398
455.734	412
455.955	375
456.175	400
456.395	413
456.616	409
456.836	394
457.056	386
457.276	372
457.497	392
457.717	386
457.937	399
458.157	414
458.377	418
458.598	397
458.818	419
459.038	427
459.258	450
459.478	454
459.698	454
459.918	468
460.138	473
460.358	473
460.578	482
460.798	495
461.018	476
461.238	486
461.458	476
461.678	476
461.898	516
462.118	501
462.338	518
462.558	534
462.777	530
462.997	553
463.217	551
463.437	587
463.657	564
463.876	551
464.096	532
464.316	529
464.536	531
464.755	549
464.975	490
465.195	520
465.414	478
465.634	485
465.854	452
466.073	440
466.293	456
466.512	420
466.732	438
466.951	459
467.171	442
467.391	428
467.61	444
467.829	446
468.049	431
468.268	414
468.488	429
468.707	389
468.927	411
469.146	439
469.365	440
469.585	430
469.804	441
470.023	442
470.243	422
470.462	455
470.681	444
470.901	429
471.12	435
471.339	449
471.558	437
471.777	430
471.997	424
472.216	414
472.435	417
472.654	425
472.873	440
473.092	436
473.311	430
473.53	418
473.749	421
473.968	432
474.187	435
474.406	431
474.625	428
474.844	435
475.063	426
475.282	438
475.501	424
475.72	442
475.939	439
476.158	464
476.377	452
476.596	444
476.814	464
477.033	448
477.252	453
477.471	466
477.69	455
477.908	456
478.127	488
478.346	477
478.564	490
478.783	500
479.002	504
479.22	527
479.439	529
479.658	506
479.876	532
480.095	515
480.313	552
480.532	508
480.751	531
480.969	515
481.188	504
481.406	495
481.624	494
481.843	483
482.061	514
482.28	510
482.498	517
482.717	487
482.935	486
483.153	487
483.372	520
483.59	492
483.808	471
484.027	504
484.245	504
484.463	502
484.681	491
484.9	496
485.118	503
485.336	536
485.554	505
485.772	512
485.99	510
486.209	530
486.427	506
486.645	495
486.863	499
487.081	503
487.299	535
487.517	531
487.735	539
487.953	527
488.171	504
488.389	508
488.607	507
488.825	521
489.043	485
489.261	500
489.479	495
489.696	510
489.914	516
490.132	498
490.35	501
490.568	496
490.786	516
491.003	507
491.221	504
491.439	520
491.657	507
491.874	493
492.092	520
492.31	530
492.527	498
492.745	506
492.963	502
493.18	537
493.398	522
493.615	526
493.833	547
494.05	536
494.268	551
494.485	534
494.703	545
494.92	547
495.138	549
495.355	552
495.573	567
495.79	532
496.008	559
496.225	540
496.442	539
496.66	581
496.877	575
497.094	589
497.312	585
497.529	611
497.746	605
497.963	628
498.181	632
498.398	690
498.615	696
498.832	718
499.049	727
499.267	791
499.484	845
499.701	875
499.918	930
500.135	965
500.352	1022
500.569	1034
500.786	1028
501.003	981
501.22	943
501.437	902
501.654	828
501.871	797
502.088	757
502.305	733
502.522	706
502.739	678
502.956	664
503.172	636
503.389	618
503.606	622
503.823	598
504.04	573
504.256	610
504.473	582
504.69	595
504.907	590
505.123	566
505.34	569
505.557	529
505.773	516
505.99	534
506.207	487
506.423	463
506.64	510
506.856	524
507.073	477
507.289	478
507.506	488
507.722	474
507.939	480
508.155	467
508.372	459
508.588	466
508.805	475
509.021	468
509.238	464
509.454	465
509.67	436
509.887	438
510.103	453
510.319	452
510.536	462
510.752	431
510.968	447
511.184	430
511.401	456
511.617	459
511.833	427
512.049	457
512.265	442
512.481	444
512.698	447
512.914	453
513.13	449
513.346	459
513.562	447
513.778	440
513.994	437
514.21	458
514.426	455
514.642	452
514.858	468
515.074	471
515.29	454
515.506	461
515.721	488
515.937	454
516.153	463
516.369	487
516.585	489
516.801	468
517.016	504
517.232	520
517.448	519
517.664	526
517.879	528
518.095	511
518.311	548
518.527	503
518.742	515
518.958	520
519.173	492
519.389	471
519.605	470
519.82	468
520.036	465
520.251	448
520.467	427
520.682	445
520.898	438
521.113	455
521.329	408
521.544	435
521.76	414
521.975	419
522.19	421
522.406	423
522.621	403
522.836	402
523.052	409
523.267	440
523.482	423
523.698	399
523.913	417
524.128	421
524.343	410
524.559	409
524.774	398
524.989	391
525.204	400
525.419	420
525.634	390
525.849	395
526.064	394
526.28	399
526.495	386
526.71	424
526.925	419
527.14	406
527.355	397
527.57	392
527.785	411
527.999	387
528.214	367
528.429	410
528.644	392
528.859	378
529.074	423
529.289	399
529.503	392
529.718	416
529.933	398
530.148	402
530.363	400
530.577	410
530.792	418
531.007	394
531.221	364
531.436	388
531.651	396
531.865	397
532.08	394
532.295	405
532.509	413
532.724	373
532.938	391
533.153	393
533.367	410
533.582	391
533.796	397
534.011	421
534.225	374
534.44	391
534.654	377
534.868	390
535.083	386
535.297	386
535.511	371
535.726	391
535.94	415
536.154	396
536.369	372
536.583	376
536.797	386
537.011	378
537.225	381
537.44	376
537.654	356
537.868	368
538.082	362
538.296	372
538.51	382
538.724	378
538.938	362
539.153	350
539.367	383
539.581	364
539.795	380
540.009	364
540.222	377
540.436	376
540.65	348
540.864	375
541.078	372
541.292	391
541.506	350
541.72	378
541.934	375
542.147	349
542.361	354
542.575	354
542.789	360
543.002	352
543.216	377
543.43	383
543.644	362
543.857	366
544.071	384
544.285	372
544.498	357
544.712	358
544.925	371
545.139	363
545.352	354
545.566	363
545.779	362
545.993	385
546.206	386
546.42	387
546.633	386
546.847	349
547.06	370
547.274	364
547.487	374
547.7	381
547.914	366
548.127	365
548.34	360
548.554	374
548.767	388
548.98	371
549.193	358
549.407	372
549.62	387
549.833	377
550.046	383
550.259	379
550.473	350
550.686	365
550.899	353
551.112	359
551.325	374
551.538	380
551.751	362
551.964	365
552.177	392
552.39	392
552.603	380
552.816	379
553.029	379
553.242	389
553.455	382
553.667	378
553.88	360
554.093	365
554.306	373
554.519	392
554.732	370
554.944	357
555.157	347
555.37	365
555.583	353
555.795	343
556.008	336
556.221	325
556.433	345
556.646	340
556.859	328
557.071	311
557.284	320
557.496	331
557.709	324
557.921	334
558.134	326
558.346	329
558.559	320
558.771	319
558.984	334
559.196	316
559.409	323
559.621	326
559.833	340
560.046	330
560.258	324
560.47	325
560.683	318
560.895	307
561.107	330
561.32	310
561.532	323
561.744	335
561.956	336
562.168	322
562.381	304
562.593	343
562.805	323
563.017	316
563.229	321
563.441	341
