Data from Fe(NO3)3@0.025M.TitratingCurve.Agarose3%dH2O.NegLispCup.LampEnergy10.LIBS07252019_HRD10591_16-56-32-336.txt Node
Date: Thu Jul 25 16:56:32 EDT 2019
User: cochatt
Spectrometer: HR+D1059
Trigger mode: 1
Integration Time (sec): 1.000000E-1
Scans to average: 1
Electric dark correction enabled: true
Nonlinearity correction enabled: false
Boxcar width: 0
XAxis mode: Wavelengths
Number of Pixels in Spectrum: 2048
>>>>>Begin Spectral Data<<<<<
223.165	-15.56
223.4	-15.56
223.635	-15.56
223.869	-16.56
224.104	-22.56
224.338	-18.56
224.573	-26.56
224.808	-14.56
225.042	2.44
225.277	-15.56
225.511	-2.56
225.746	7.44
225.98	0.44
226.215	18.44
226.449	18.44
226.683	22.44
226.918	27.44
227.152	35.44
227.387	20.44
227.621	32.44
227.856	56.44
228.09	38.44
228.324	55.44
228.559	67.44
228.793	60.44
229.027	70.44
229.262	78.44
229.496	78.44
229.73	84.44
229.964	71.44
230.199	86.44
230.433	85.44
230.667	71.44
230.901	90.44
231.136	97.44
231.37	95.44
231.604	99.44
231.838	84.44
232.072	94.44
232.306	94.44
232.541	106.44
232.775	89.44
233.009	93.44
233.243	99.44
233.477	100.44
233.711	107.44
233.945	95.44
234.179	88.44
234.413	88.44
234.647	101.44
234.881	86.44
235.115	96.44
235.349	90.44
235.583	88.44
235.817	107.44
236.051	100.44
236.285	74.44
236.519	101.44
236.753	104.44
236.987	93.44
237.221	96.44
237.455	93.44
237.689	91.44
237.922	77.44
238.156	95.44
238.39	85.44
238.624	92.44
238.858	92.44
239.091	104.44
239.325	99.44
239.559	93.44
239.793	103.44
240.027	86.44
240.26	114.44
240.494	99.44
240.728	98.44
240.961	100.44
241.195	99.44
241.429	117.44
241.662	108.44
241.896	105.44
242.13	103.44
242.363	89.44
242.597	102.44
242.83	95.44
243.064	105.44
243.298	119.44
243.531	97.44
243.765	115.44
243.998	100.44
244.232	111.44
244.465	115.44
244.699	103.44
244.932	111.44
245.166	112.44
245.399	111.44
245.633	102.44
245.866	120.44
246.099	116.44
246.333	113.44
246.566	112.44
246.8	106.44
247.033	118.44
247.266	105.44
247.5	114.44
247.733	118.44
247.966	112.44
248.2	116.44
248.433	122.44
248.666	113.44
248.899	110.44
249.133	110.44
249.366	134.44
249.599	124.44
249.832	120.44
250.066	137.44
250.299	132.44
250.532	122.44
250.765	128.44
250.998	120.44
251.231	126.44
251.465	123.44
251.698	127.44
251.931	133.44
252.164	124.44
252.397	135.44
252.63	122.44
252.863	139.44
253.096	124.44
253.329	124.44
253.562	129.44
253.795	126.44
254.028	137.44
254.261	131.44
254.494	121.44
254.727	124.44
254.96	129.44
255.193	133.44
255.426	126.44
255.659	130.44
255.892	123.44
256.124	121.44
256.357	126.44
256.59	119.44
256.823	132.44
257.056	122.44
257.289	128.44
257.521	134.44
257.754	124.44
257.987	127.44
258.22	133.44
258.452	123.44
258.685	146.44
258.918	114.44
259.151	136.44
259.383	143.44
259.616	136.44
259.849	139.44
260.081	143.44
260.314	148.44
260.547	133.44
260.779	156.44
261.012	144.44
261.244	143.44
261.477	146.44
261.71	134.44
261.942	144.44
262.175	145.44
262.407	143.44
262.64	143.44
262.872	148.44
263.105	139.44
263.337	156.44
263.57	139.44
263.802	150.44
264.035	141.44
264.267	142.44
264.499	144.44
264.732	132.44
264.964	147.44
265.197	145.44
265.429	148.44
265.661	133.44
265.894	152.44
266.126	173.44
266.358	158.44
266.591	146.44
266.823	149.44
267.055	161.44
267.287	159.44
267.52	153.44
267.752	169.44
267.984	160.44
268.216	155.44
268.448	150.44
268.681	161.44
268.913	160.44
269.145	144.44
269.377	147.44
269.609	156.44
269.841	152.44
270.073	166.44
270.306	137.44
270.538	162.44
270.77	159.44
271.002	155.44
271.234	162.44
271.466	180.44
271.698	164.44
271.93	157.44
272.162	167.44
272.394	150.44
272.626	165.44
272.858	156.44
273.09	172.44
273.322	175.44
273.553	162.44
273.785	176.44
274.017	165.44
274.249	171.44
274.481	162.44
274.713	174.44
274.945	168.44
275.176	164.44
275.408	168.44
275.64	163.44
275.872	166.44
276.104	172.44
276.335	174.44
276.567	183.44
276.799	180.44
277.031	180.44
277.262	168.44
277.494	177.44
277.726	176.44
277.957	189.44
278.189	188.44
278.421	174.44
278.652	177.44
278.884	176.44
279.115	182.44
279.347	176.44
279.579	179.44
279.81	190.44
280.042	169.44
280.273	188.44
280.505	177.44
280.736	195.44
280.968	182.44
281.199	173.44
281.431	177.44
281.662	186.44
281.894	197.44
282.125	185.44
282.356	186.44
282.588	186.44
282.819	205.44
283.051	196.44
283.282	202.44
283.513	189.44
283.745	188.44
283.976	198.44
284.207	172.44
284.439	188.44
284.67	193.44
284.901	205.44
285.132	211.44
285.364	205.44
285.595	195.44
285.826	173.44
286.057	200.44
286.288	202.44
286.52	191.44
286.751	185.44
286.982	193.44
287.213	186.44
287.444	193.44
287.675	184.44
287.906	206.44
288.138	216.44
288.369	194.44
288.6	211.44
288.831	196.44
289.062	199.44
289.293	188.44
289.524	202.44
289.755	215.44
289.986	212.44
290.217	196.44
290.448	204.44
290.679	205.44
290.91	209.44
291.141	193.44
291.371	186.44
291.602	198.44
291.833	193.44
292.064	209.44
292.295	210.44
292.526	209.44
292.757	208.44
292.987	207.44
293.218	214.44
293.449	195.44
293.68	222.44
293.91	196.44
294.141	207.44
294.372	227.44
294.603	211.44
294.833	214.44
295.064	223.44
295.295	212.44
295.525	213.44
295.756	193.44
295.987	221.44
296.217	210.44
296.448	210.44
296.679	201.44
296.909	216.44
297.14	200.44
297.37	219.44
297.601	219.44
297.831	221.44
298.062	207.44
298.292	209.44
298.523	213.44
298.753	221.44
298.984	223.44
299.214	215.44
299.445	223.44
299.675	212.44
299.905	213.44
300.136	223.44
300.366	222.44
300.597	227.44
300.827	236.44
301.057	226.44
301.288	216.44
301.518	234.44
301.748	213.44
301.979	240.44
302.209	242.44
302.439	244.44
302.669	244.44
302.9	239.44
303.13	211.44
303.36	227.44
303.59	250.44
303.82	242.44
304.051	232.44
304.281	228.44
304.511	247.44
304.741	216.44
304.971	249.44
305.201	236.44
305.431	240.44
305.661	233.44
305.891	220.44
306.121	226.44
306.352	255.44
306.582	229.44
306.812	231.44
307.042	262.44
307.272	226.44
307.502	241.44
307.731	240.44
307.961	230.44
308.191	243.44
308.421	232.44
308.651	236.44
308.881	234.44
309.111	256.44
309.341	236.44
309.571	221.44
309.8	250.44
310.03	258.44
310.26	234.44
310.49	236.44
310.72	236.44
310.949	250.44
311.179	242.44
311.409	249.44
311.639	268.44
311.868	238.44
312.098	239.44
312.328	248.44
312.557	249.44
312.787	248.44
313.017	262.44
313.246	245.44
313.476	253.44
313.706	250.44
313.935	254.44
314.165	261.44
314.394	261.44
314.624	263.44
314.853	242.44
315.083	256.44
315.312	245.44
315.542	241.44
315.771	272.44
316.001	282.44
316.23	263.44
316.46	258.44
316.689	273.44
316.919	257.44
317.148	271.44
317.377	265.44
317.607	265.44
317.836	251.44
318.065	256.44
318.295	272.44
318.524	269.44
318.753	250.44
318.983	251.44
319.212	264.44
319.441	259.44
319.67	261.44
319.9	253.44
320.129	260.44
320.358	271.44
320.587	257.44
320.816	272.44
321.046	265.44
321.275	255.44
321.504	253.44
321.733	270.44
321.962	266.44
322.191	253.44
322.42	247.44
322.649	257.44
322.878	269.44
323.108	254.44
323.337	260.44
323.566	262.44
323.795	286.44
324.024	273.44
324.253	278.44
324.482	282.44
324.71	258.44
324.939	261.44
325.168	274.44
325.397	296.44
325.626	298.44
325.855	290.44
326.084	267.44
326.313	290.44
326.542	281.44
326.77	280.44
326.999	283.44
327.228	275.44
327.457	275.44
327.686	276.44
327.914	290.44
328.143	283.44
328.372	292.44
328.6	276.44
328.829	272.44
329.058	291.44
329.287	276.44
329.515	267.44
329.744	286.44
329.972	280.44
330.201	284.44
330.43	295.44
330.658	275.44
330.887	303.44
331.115	282.44
331.344	290.44
331.572	309.44
331.801	300.44
332.03	310.44
332.258	305.44
332.486	307.44
332.715	307.44
332.943	320.44
333.172	328.44
333.4	333.44
333.629	312.44
333.857	339.44
334.085	339.44
334.314	335.44
334.542	338.44
334.771	359.44
334.999	341.44
335.227	327.44
335.455	349.44
335.684	334.44
335.912	313.44
336.14	344.44
336.369	334.44
336.597	341.44
336.825	356.44
337.053	297.44
337.281	311.44
337.51	304.44
337.738	288.44
337.966	309.44
338.194	313.44
338.422	312.44
338.65	322.44
338.878	320.44
339.106	310.44
339.334	318.44
339.562	295.44
339.79	310.44
340.018	304.44
340.246	285.44
340.474	274.44
340.702	296.44
340.93	310.44
341.158	320.44
341.386	289.44
341.614	316.44
341.842	300.44
342.07	280.44
342.298	304.44
342.526	313.44
342.754	302.44
342.981	308.44
343.209	323.44
343.437	328.44
343.665	320.44
343.893	356.44
344.12	331.44
344.348	316.44
344.576	343.44
344.804	309.44
345.031	292.44
345.259	310.44
345.487	305.44
345.714	300.44
345.942	314.44
346.17	306.44
346.397	293.44
346.625	298.44
346.853	310.44
347.08	303.44
347.308	293.44
347.535	307.44
347.763	284.44
347.99	308.44
348.218	281.44
348.445	288.44
348.673	288.44
348.9	303.44
349.128	300.44
349.355	291.44
349.583	306.44
349.81	270.44
350.037	300.44
350.265	284.44
350.492	304.44
350.72	288.44
350.947	294.44
351.174	300.44
351.402	302.44
351.629	292.44
351.856	281.44
352.083	297.44
352.311	279.44
352.538	270.44
352.765	287.44
352.992	295.44
353.22	296.44
353.447	286.44
353.674	292.44
353.901	284.44
354.128	291.44
354.355	269.44
354.583	294.44
354.81	305.44
355.037	295.44
355.264	284.44
355.491	278.44
355.718	296.44
355.945	280.44
356.172	296.44
356.399	290.44
356.626	294.44
356.853	306.44
357.08	283.44
357.307	295.44
357.534	294.44
357.761	277.44
357.988	284.44
358.215	289.44
358.441	282.44
358.668	264.44
358.895	309.44
359.122	297.44
359.349	279.44
359.576	308.44
359.802	295.44
360.029	291.44
360.256	300.44
360.483	314.44
360.709	279.44
360.936	308.44
361.163	314.44
361.39	288.44
361.616	302.44
361.843	326.44
362.07	308.44
362.296	293.44
362.523	278.44
362.749	288.44
362.976	296.44
363.203	286.44
363.429	291.44
363.656	300.44
363.882	297.44
364.109	308.44
364.335	281.44
364.562	282.44
364.788	281.44
365.015	315.44
365.241	298.44
365.468	297.44
365.694	309.44
365.92	304.44
366.147	302.44
366.373	295.44
366.599	295.44
366.826	308.44
367.052	279.44
367.278	292.44
367.505	298.44
367.731	294.44
367.957	290.44
368.184	285.44
368.41	305.44
368.636	296.44
368.862	310.44
369.089	286.44
369.315	313.44
369.541	302.44
369.767	312.44
369.993	309.44
370.219	322.44
370.445	323.44
370.672	321.44
370.898	333.44
371.124	313.44
371.35	325.44
371.576	310.44
371.802	320.44
372.028	314.44
372.254	309.44
372.48	318.44
372.706	323.44
372.932	334.44
373.158	333.44
373.384	337.44
373.61	327.44
373.835	325.44
374.061	330.44
374.287	328.44
374.513	336.44
374.739	344.44
374.965	341.44
375.191	353.44
375.416	317.44
375.642	333.44
375.868	317.44
376.094	334.44
376.319	319.44
376.545	316.44
376.771	316.44
376.997	316.44
377.222	323.44
377.448	312.44
377.674	308.44
377.899	296.44
378.125	308.44
378.35	324.44
378.576	321.44
378.802	314.44
379.027	325.44
379.253	315.44
379.478	314.44
379.704	310.44
379.929	322.44
380.155	326.44
380.38	302.44
380.606	300.44
380.831	312.44
381.057	338.44
381.282	330.44
381.507	322.44
381.733	311.44
381.958	330.44
382.184	331.44
382.409	324.44
382.634	329.44
382.86	335.44
383.085	350.44
383.31	340.44
383.535	336.44
383.761	343.44
383.986	333.44
384.211	328.44
384.436	336.44
384.662	345.44
384.887	340.44
385.112	355.44
385.337	338.44
385.562	370.44
385.787	349.44
386.013	352.44
386.238	368.44
386.463	371.44
386.688	379.44
386.913	358.44
387.138	339.44
387.363	351.44
387.588	357.44
387.813	364.44
388.038	358.44
388.263	363.44
388.488	335.44
388.713	367.44
388.938	354.44
389.163	362.44
389.387	377.44
389.612	358.44
389.837	357.44
390.062	345.44
390.287	368.44
390.512	368.44
390.736	355.44
390.961	358.44
391.186	377.44
391.411	376.44
391.636	375.44
391.86	399.44
392.085	381.44
392.31	394.44
392.534	379.44
392.759	398.44
392.984	375.44
393.208	389.44
393.433	373.44
393.658	373.44
393.882	374.44
394.107	367.44
394.331	399.44
394.556	389.44
394.78	390.44
395.005	380.44
395.229	398.44
395.454	380.44
395.678	381.44
395.903	394.44
396.127	395.44
396.352	398.44
396.576	381.44
396.801	387.44
397.025	385.44
397.249	393.44
397.474	382.44
397.698	405.44
397.922	428.44
398.147	415.44
398.371	420.44
398.595	425.44
398.82	444.44
399.044	449.44
399.268	456.44
399.492	520.44
399.717	527.44
399.941	514.44
400.165	505.44
400.389	457.44
400.613	462.44
400.837	453.44
401.062	440.44
401.286	444.44
401.51	438.44
401.734	424.44
401.958	424.44
402.182	434.44
402.406	422.44
402.63	431.44
402.854	445.44
403.078	441.44
403.302	438.44
403.526	445.44
403.75	421.44
403.974	442.44
404.198	417.44
404.422	444.44
404.645	435.44
404.869	454.44
405.093	438.44
405.317	440.44
405.541	460.44
405.765	452.44
405.988	453.44
406.212	456.44
406.436	449.44
406.66	474.44
406.883	466.44
407.107	493.44
407.331	487.44
407.555	521.44
407.778	481.44
408.002	457.44
408.226	486.44
408.449	487.44
408.673	465.44
408.896	455.44
409.12	455.44
409.344	464.44
409.567	448.44
409.791	449.44
410.014	456.44
410.238	453.44
410.461	448.44
410.685	449.44
410.908	467.44
411.132	450.44
411.355	441.44
411.578	437.44
411.802	450.44
412.025	443.44
412.249	455.44
412.472	466.44
412.695	433.44
412.919	440.44
413.142	449.44
413.365	440.44
413.589	442.44
413.812	438.44
414.035	422.44
414.258	408.44
414.482	425.44
414.705	410.44
414.928	421.44
415.151	434.44
415.374	415.44
415.597	421.44
415.821	401.44
416.044	406.44
416.267	415.44
416.49	417.44
416.713	418.44
416.936	414.44
417.159	411.44
417.382	402.44
417.605	413.44
417.828	409.44
418.051	412.44
418.274	416.44
418.497	421.44
418.72	406.44
418.943	414.44
419.166	438.44
419.389	455.44
419.611	440.44
419.834	413.44
420.057	425.44
420.28	417.44
420.503	385.44
420.726	402.44
420.948	383.44
421.171	393.44
421.394	411.44
421.617	402.44
421.839	409.44
422.062	424.44
422.285	397.44
422.507	424.44
422.73	413.44
422.953	390.44
423.175	415.44
423.398	417.44
423.621	417.44
423.843	399.44
424.066	432.44
424.288	432.44
424.511	404.44
424.733	402.44
424.956	411.44
425.178	403.44
425.401	398.44
425.623	401.44
425.846	392.44
426.068	418.44
426.291	389.44
426.513	402.44
426.735	395.44
426.958	394.44
427.18	374.44
427.402	393.44
427.625	403.44
427.847	387.44
428.069	390.44
428.292	385.44
428.514	378.44
428.736	407.44
428.958	386.44
429.181	388.44
429.403	369.44
429.625	374.44
429.847	353.44
430.069	374.44
430.292	374.44
430.514	383.44
430.736	371.44
430.958	381.44
431.18	387.44
431.402	390.44
431.624	387.44
431.846	389.44
432.068	379.44
432.29	367.44
432.512	376.44
432.734	373.44
432.956	375.44
433.178	370.44
433.4	379.44
433.622	386.44
433.844	394.44
434.066	386.44
434.287	385.44
434.509	397.44
434.731	405.44
434.953	408.44
435.175	385.44
435.397	428.44
435.618	402.44
435.84	380.44
436.062	388.44
436.284	373.44
436.505	365.44
436.727	388.44
436.949	386.44
437.17	380.44
437.392	356.44
437.614	380.44
437.835	362.44
438.057	369.44
438.278	370.44
438.5	367.44
438.721	380.44
438.943	364.44
439.165	377.44
439.386	367.44
439.608	372.44
439.829	370.44
440.05	380.44
440.272	364.44
440.493	370.44
440.715	390.44
440.936	398.44
441.158	397.44
441.379	366.44
441.6	416.44
441.822	402.44
442.043	398.44
442.264	380.44
442.486	404.44
442.707	390.44
442.928	393.44
443.149	397.44
443.371	399.44
443.592	386.44
443.813	410.44
444.034	388.44
444.255	404.44
444.476	430.44
444.698	433.44
444.919	434.44
445.14	492.44
445.361	444.44
445.582	404.44
445.803	406.44
446.024	388.44
446.245	384.44
446.466	364.44
446.687	367.44
446.908	364.44
447.129	373.44
447.35	352.44
447.571	364.44
447.792	338.44
448.013	349.44
448.234	356.44
448.455	331.44
448.675	369.44
448.896	357.44
449.117	353.44
449.338	373.44
449.559	348.44
449.779	348.44
450	350.44
450.221	357.44
450.442	338.44
450.662	337.44
450.883	364.44
451.104	337.44
451.324	342.44
451.545	356.44
451.766	355.44
451.986	353.44
452.207	330.44
452.428	352.44
452.648	347.44
452.869	336.44
453.089	333.44
453.31	340.44
453.53	343.44
453.751	326.44
453.971	318.44
454.192	328.44
454.412	326.44
454.633	345.44
454.853	328.44
455.073	337.44
455.294	348.44
455.514	328.44
455.734	319.44
455.955	330.44
456.175	333.44
456.395	338.44
456.616	328.44
456.836	355.44
457.056	335.44
457.276	342.44
457.497	340.44
457.717	341.44
457.937	321.44
458.157	329.44
458.377	342.44
458.598	344.44
458.818	339.44
459.038	357.44
459.258	372.44
459.478	370.44
459.698	364.44
459.918	391.44
460.138	406.44
460.358	398.44
460.578	415.44
460.798	420.44
461.018	433.44
461.238	422.44
461.458	434.44
461.678	409.44
461.898	421.44
462.118	420.44
462.338	405.44
462.558	460.44
462.777	423.44
462.997	473.44
463.217	465.44
463.437	465.44
463.657	473.44
463.876	467.44
464.096	453.44
464.316	431.44
464.536	434.44
464.755	432.44
464.975	420.44
465.195	421.44
465.414	410.44
465.634	373.44
465.854	392.44
466.073	386.44
466.293	376.44
466.512	365.44
466.732	357.44
466.951	387.44
467.171	372.44
467.391	376.44
467.61	364.44
467.829	375.44
468.049	359.44
468.268	355.44
468.488	365.44
468.707	352.44
468.927	364.44
469.146	366.44
469.365	351.44
469.585	364.44
469.804	374.44
470.023	376.44
470.243	358.44
470.462	364.44
470.681	357.44
470.901	362.44
471.12	378.44
471.339	373.44
471.558	353.44
471.777	343.44
471.997	365.44
472.216	370.44
472.435	350.44
472.654	368.44
472.873	372.44
473.092	355.44
473.311	352.44
473.53	357.44
473.749	359.44
473.968	349.44
474.187	353.44
474.406	352.44
474.625	349.44
474.844	369.44
475.063	362.44
475.282	370.44
475.501	383.44
475.72	353.44
475.939	357.44
476.158	384.44
476.377	382.44
476.596	392.44
476.814	380.44
477.033	365.44
477.252	371.44
477.471	389.44
477.69	400.44
477.908	394.44
478.127	397.44
478.346	399.44
478.564	403.44
478.783	398.44
479.002	408.44
479.22	410.44
479.439	402.44
479.658	434.44
479.876	418.44
480.095	423.44
480.313	442.44
480.532	451.44
480.751	436.44
480.969	420.44
481.188	424.44
481.406	434.44
481.624	429.44
481.843	425.44
482.061	423.44
482.28	417.44
482.498	414.44
482.717	399.44
482.935	404.44
483.153	424.44
483.372	422.44
483.59	397.44
483.808	415.44
484.027	419.44
484.245	429.44
484.463	428.44
484.681	425.44
484.9	449.44
485.118	448.44
485.336	426.44
485.554	416.44
485.772	405.44
485.99	432.44
486.209	408.44
486.427	435.44
486.645	437.44
486.863	407.44
487.081	432.44
487.299	406.44
487.517	432.44
487.735	423.44
487.953	439.44
488.171	443.44
488.389	445.44
488.607	414.44
488.825	420.44
489.043	430.44
489.261	414.44
489.479	419.44
489.696	413.44
489.914	439.44
490.132	444.44
490.35	431.44
490.568	452.44
490.786	429.44
491.003	444.44
491.221	428.44
491.439	433.44
491.657	435.44
491.874	444.44
492.092	452.44
492.31	437.44
492.527	435.44
492.745	452.44
492.963	445.44
493.18	432.44
493.398	452.44
493.615	438.44
493.833	438.44
494.05	454.44
494.268	448.44
494.485	452.44
494.703	443.44
494.92	446.44
495.138	445.44
495.355	465.44
495.573	447.44
495.79	462.44
496.008	457.44
496.225	470.44
496.442	476.44
496.66	472.44
496.877	475.44
497.094	482.44
497.312	493.44
497.529	483.44
497.746	498.44
497.963	512.44
498.181	545.44
498.398	536.44
498.615	578.44
498.832	613.44
499.049	617.44
499.267	640.44
499.484	670.44
499.701	733.44
499.918	754.44
500.135	816.44
500.352	832.44
500.569	841.44
500.786	822.44
501.003	814.44
501.22	777.44
501.437	739.44
501.654	697.44
501.871	665.44
502.088	631.44
