Data from Fe(NO3)3@0.025M.TitratingCurve.Agarose3%dH2O.NegLispCup.LampEnergy10.LIBS07252019_HRD10591_16-55-11-336.txt Node
Date: Thu Jul 25 16:55:11 EDT 2019
User: cochatt
Spectrometer: HR+D1059
Trigger mode: 1
Integration Time (sec): 1.000000E-1
Scans to average: 1
Electric dark correction enabled: true
Nonlinearity correction enabled: false
Boxcar width: 0
XAxis mode: Wavelengths
Number of Pixels in Spectrum: 2048
>>>>>Begin Spectral Data<<<<<
223.165	-21.62
223.4	-21.62
223.635	-21.62
223.869	-19.62
224.104	-25.62
224.338	-31.62
224.573	2.38
224.808	-9.62
225.042	-14.62
225.277	2.38
225.511	13.38
225.746	3.38
225.98	-2.62
226.215	24.38
226.449	-5.62
226.683	20.38
226.918	30.38
227.152	34.38
227.387	44.38
227.621	42.38
227.856	41.38
228.09	36.38
228.324	54.38
228.559	64.38
228.793	61.38
229.027	78.38
229.262	74.38
229.496	73.38
229.73	78.38
229.964	79.38
230.199	82.38
230.433	90.38
230.667	98.38
230.901	101.38
231.136	94.38
231.37	96.38
231.604	86.38
231.838	93.38
232.072	96.38
232.306	91.38
232.541	95.38
232.775	96.38
233.009	103.38
233.243	93.38
233.477	95.38
233.711	96.38
233.945	105.38
234.179	106.38
234.413	93.38
234.647	101.38
234.881	101.38
235.115	108.38
235.349	93.38
235.583	115.38
235.817	101.38
236.051	99.38
236.285	92.38
236.519	106.38
236.753	90.38
236.987	97.38
237.221	114.38
237.455	91.38
237.689	110.38
237.922	84.38
238.156	100.38
238.39	114.38
238.624	111.38
238.858	116.38
239.091	107.38
239.325	101.38
239.559	97.38
239.793	109.38
240.027	99.38
240.26	99.38
240.494	99.38
240.728	103.38
240.961	96.38
241.195	93.38
241.429	109.38
241.662	104.38
241.896	93.38
242.13	101.38
242.363	107.38
242.597	90.38
242.83	100.38
243.064	108.38
243.298	101.38
243.531	105.38
243.765	103.38
243.998	109.38
244.232	94.38
244.465	110.38
244.699	106.38
244.932	110.38
245.166	119.38
245.399	113.38
245.633	109.38
245.866	129.38
246.099	110.38
246.333	117.38
246.566	123.38
246.8	118.38
247.033	99.38
247.266	120.38
247.5	117.38
247.733	118.38
247.966	119.38
248.2	94.38
248.433	126.38
248.666	99.38
248.899	113.38
249.133	119.38
249.366	115.38
249.599	123.38
249.832	110.38
250.066	131.38
250.299	118.38
250.532	117.38
250.765	116.38
250.998	116.38
251.231	97.38
251.465	114.38
251.698	111.38
251.931	110.38
252.164	122.38
252.397	114.38
252.63	134.38
252.863	128.38
253.096	114.38
253.329	119.38
253.562	124.38
253.795	129.38
254.028	119.38
254.261	137.38
254.494	131.38
254.727	120.38
254.96	123.38
255.193	117.38
255.426	114.38
255.659	128.38
255.892	131.38
256.124	132.38
256.357	124.38
256.59	129.38
256.823	119.38
257.056	148.38
257.289	122.38
257.521	125.38
257.754	131.38
257.987	136.38
258.22	122.38
258.452	130.38
258.685	158.38
258.918	144.38
259.151	130.38
259.383	122.38
259.616	143.38
259.849	144.38
260.081	136.38
260.314	139.38
260.547	135.38
260.779	134.38
261.012	151.38
261.244	151.38
261.477	142.38
261.71	132.38
261.942	135.38
262.175	139.38
262.407	157.38
262.64	129.38
262.872	136.38
263.105	143.38
263.337	131.38
263.57	143.38
263.802	143.38
264.035	139.38
264.267	144.38
264.499	152.38
264.732	152.38
264.964	150.38
265.197	135.38
265.429	162.38
265.661	149.38
265.894	138.38
266.126	146.38
266.358	152.38
266.591	133.38
266.823	151.38
267.055	137.38
267.287	141.38
267.52	142.38
267.752	149.38
267.984	149.38
268.216	142.38
268.448	141.38
268.681	151.38
268.913	153.38
269.145	146.38
269.377	145.38
269.609	155.38
269.841	152.38
270.073	153.38
270.306	140.38
270.538	145.38
270.77	158.38
271.002	172.38
271.234	170.38
271.466	156.38
271.698	156.38
271.93	166.38
272.162	156.38
272.394	161.38
272.626	153.38
272.858	163.38
273.09	164.38
273.322	167.38
273.553	172.38
273.785	164.38
274.017	169.38
274.249	172.38
274.481	158.38
274.713	163.38
274.945	174.38
275.176	182.38
275.408	143.38
275.64	165.38
275.872	159.38
276.104	173.38
276.335	168.38
276.567	163.38
276.799	165.38
277.031	185.38
277.262	165.38
277.494	179.38
277.726	166.38
277.957	159.38
278.189	167.38
278.421	156.38
278.652	164.38
278.884	174.38
279.115	175.38
279.347	164.38
279.579	172.38
279.81	162.38
280.042	179.38
280.273	187.38
280.505	198.38
280.736	177.38
280.968	170.38
281.199	179.38
281.431	177.38
281.662	175.38
281.894	195.38
282.125	186.38
282.356	189.38
282.588	183.38
282.819	180.38
283.051	181.38
283.282	196.38
283.513	180.38
283.745	184.38
283.976	172.38
284.207	203.38
284.439	199.38
284.67	211.38
284.901	185.38
285.132	193.38
285.364	190.38
285.595	177.38
285.826	175.38
286.057	181.38
286.288	210.38
286.52	191.38
286.751	187.38
286.982	185.38
287.213	206.38
287.444	198.38
287.675	191.38
287.906	206.38
288.138	184.38
288.369	198.38
288.6	202.38
288.831	174.38
289.062	193.38
289.293	197.38
289.524	193.38
289.755	202.38
289.986	201.38
290.217	197.38
290.448	221.38
290.679	203.38
290.91	207.38
291.141	203.38
291.371	204.38
291.602	202.38
291.833	205.38
292.064	198.38
292.295	204.38
292.526	211.38
292.757	218.38
292.987	196.38
293.218	218.38
293.449	207.38
293.68	199.38
293.91	213.38
294.141	195.38
294.372	203.38
294.603	209.38
294.833	211.38
295.064	227.38
295.295	216.38
295.525	198.38
295.756	213.38
295.987	208.38
296.217	210.38
296.448	224.38
296.679	227.38
296.909	228.38
297.14	209.38
297.37	228.38
297.601	230.38
297.831	208.38
298.062	224.38
298.292	223.38
298.523	229.38
298.753	212.38
298.984	215.38
299.214	217.38
299.445	223.38
299.675	213.38
299.905	220.38
300.136	211.38
300.366	216.38
300.597	236.38
300.827	231.38
301.057	231.38
301.288	223.38
301.518	229.38
301.748	236.38
301.979	254.38
302.209	229.38
302.439	233.38
302.669	238.38
302.9	226.38
303.13	251.38
303.36	257.38
303.59	235.38
303.82	219.38
304.051	249.38
304.281	247.38
304.511	237.38
304.741	235.38
304.971	214.38
305.201	234.38
305.431	243.38
305.661	230.38
305.891	236.38
306.121	237.38
306.352	237.38
306.582	242.38
306.812	243.38
307.042	263.38
307.272	253.38
307.502	253.38
307.731	241.38
307.961	210.38
308.191	245.38
308.421	248.38
308.651	238.38
308.881	232.38
309.111	233.38
309.341	241.38
309.571	249.38
309.8	244.38
310.03	258.38
310.26	246.38
310.49	251.38
310.72	238.38
310.949	233.38
311.179	248.38
311.409	260.38
311.639	252.38
311.868	257.38
312.098	242.38
312.328	244.38
312.557	267.38
312.787	247.38
313.017	264.38
313.246	263.38
313.476	255.38
313.706	278.38
313.935	265.38
314.165	248.38
314.394	270.38
314.624	260.38
314.853	256.38
315.083	261.38
315.312	268.38
315.542	254.38
315.771	270.38
316.001	265.38
316.23	269.38
316.46	263.38
316.689	262.38
316.919	249.38
317.148	280.38
317.377	262.38
317.607	263.38
317.836	275.38
318.065	278.38
318.295	258.38
318.524	270.38
318.753	264.38
318.983	267.38
319.212	265.38
319.441	258.38
319.67	275.38
319.9	274.38
320.129	263.38
320.358	279.38
320.587	253.38
320.816	265.38
321.046	285.38
321.275	286.38
321.504	269.38
321.733	275.38
321.962	271.38
322.191	279.38
322.42	277.38
322.649	267.38
322.878	283.38
323.108	269.38
323.337	267.38
323.566	295.38
323.795	281.38
324.024	287.38
324.253	282.38
324.482	283.38
324.71	266.38
324.939	275.38
325.168	270.38
325.397	307.38
325.626	288.38
325.855	263.38
326.084	281.38
326.313	280.38
326.542	286.38
326.77	274.38
326.999	277.38
327.228	278.38
327.457	285.38
327.686	289.38
327.914	276.38
328.143	298.38
328.372	292.38
328.6	285.38
328.829	290.38
329.058	295.38
329.287	290.38
329.515	292.38
329.744	296.38
329.972	282.38
330.201	298.38
330.43	306.38
330.658	317.38
330.887	305.38
331.115	302.38
331.344	295.38
331.572	313.38
331.801	301.38
332.03	311.38
332.258	298.38
332.486	307.38
332.715	308.38
332.943	335.38
333.172	306.38
333.4	323.38
333.629	330.38
333.857	348.38
334.085	336.38
334.314	318.38
334.542	340.38
334.771	353.38
334.999	343.38
335.227	323.38
335.455	334.38
335.684	351.38
335.912	330.38
336.14	350.38
336.369	341.38
336.597	347.38
336.825	331.38
337.053	337.38
337.281	327.38
337.51	331.38
337.738	354.38
337.966	317.38
338.194	331.38
338.422	318.38
338.65	334.38
338.878	317.38
339.106	314.38
339.334	309.38
339.562	311.38
339.79	319.38
340.018	305.38
340.246	323.38
340.474	324.38
340.702	317.38
340.93	339.38
341.158	330.38
341.386	317.38
341.614	323.38
341.842	311.38
342.07	326.38
342.298	312.38
342.526	327.38
342.754	321.38
342.981	300.38
343.209	328.38
343.437	332.38
343.665	344.38
343.893	347.38
344.12	339.38
344.348	341.38
344.576	341.38
344.804	317.38
345.031	331.38
345.259	334.38
345.487	326.38
345.714	349.38
345.942	322.38
346.17	307.38
346.397	331.38
346.625	303.38
346.853	298.38
347.08	303.38
347.308	304.38
347.535	295.38
347.763	303.38
347.99	298.38
348.218	301.38
348.445	302.38
348.673	306.38
348.9	306.38
349.128	321.38
349.355	308.38
349.583	297.38
349.81	319.38
350.037	313.38
350.265	317.38
350.492	319.38
350.72	295.38
350.947	310.38
351.174	315.38
351.402	301.38
351.629	311.38
351.856	307.38
352.083	328.38
352.311	311.38
352.538	308.38
352.765	299.38
352.992	323.38
353.22	291.38
353.447	310.38
353.674	314.38
353.901	311.38
354.128	318.38
354.355	310.38
354.583	307.38
354.81	303.38
355.037	321.38
355.264	327.38
355.491	309.38
355.718	319.38
355.945	297.38
356.172	306.38
356.399	283.38
356.626	319.38
356.853	324.38
357.08	310.38
357.307	324.38
357.534	313.38
357.761	305.38
357.988	327.38
358.215	339.38
358.441	319.38
358.668	319.38
358.895	302.38
359.122	316.38
359.349	308.38
359.576	309.38
359.802	326.38
360.029	321.38
360.256	297.38
360.483	326.38
360.709	308.38
360.936	317.38
361.163	336.38
361.39	325.38
361.616	306.38
361.843	317.38
362.07	328.38
362.296	329.38
362.523	331.38
362.749	312.38
362.976	305.38
363.203	325.38
363.429	314.38
363.656	331.38
363.882	326.38
364.109	318.38
364.335	314.38
364.562	310.38
364.788	327.38
365.015	324.38
365.241	324.38
365.468	323.38
365.694	303.38
365.92	319.38
366.147	297.38
366.373	322.38
366.599	327.38
366.826	324.38
367.052	333.38
367.278	325.38
367.505	327.38
367.731	324.38
367.957	328.38
368.184	329.38
368.41	334.38
368.636	318.38
368.862	322.38
369.089	336.38
369.315	330.38
369.541	332.38
369.767	327.38
369.993	321.38
370.219	334.38
370.445	335.38
370.672	339.38
370.898	326.38
371.124	307.38
371.35	338.38
371.576	349.38
371.802	363.38
372.028	348.38
372.254	355.38
372.48	326.38
372.706	359.38
372.932	363.38
373.158	346.38
373.384	344.38
373.61	353.38
373.835	354.38
374.061	359.38
374.287	342.38
374.513	365.38
374.739	364.38
374.965	348.38
375.191	355.38
375.416	342.38
375.642	345.38
375.868	354.38
376.094	351.38
376.319	346.38
376.545	341.38
376.771	334.38
376.997	345.38
377.222	358.38
377.448	354.38
377.674	353.38
377.899	349.38
378.125	350.38
378.35	348.38
378.576	345.38
378.802	346.38
379.027	347.38
379.253	341.38
379.478	346.38
379.704	339.38
379.929	326.38
380.155	350.38
380.38	334.38
380.606	345.38
380.831	339.38
381.057	365.38
381.282	349.38
381.507	350.38
381.733	351.38
381.958	358.38
382.184	358.38
382.409	359.38
382.634	377.38
382.86	357.38
383.085	356.38
383.31	376.38
383.535	375.38
383.761	369.38
383.986	366.38
384.211	375.38
384.436	395.38
384.662	378.38
384.887	377.38
385.112	380.38
385.337	388.38
385.562	378.38
385.787	400.38
386.013	403.38
386.238	385.38
386.463	386.38
386.688	394.38
386.913	389.38
387.138	401.38
387.363	411.38
387.588	386.38
387.813	409.38
388.038	417.38
388.263	403.38
388.488	405.38
388.713	414.38
388.938	387.38
389.163	395.38
389.387	400.38
389.612	407.38
389.837	404.38
390.062	398.38
390.287	413.38
390.512	399.38
390.736	372.38
390.961	410.38
391.186	412.38
391.411	413.38
391.636	450.38
391.86	427.38
392.085	441.38
392.31	406.38
392.534	410.38
392.759	407.38
392.984	435.38
393.208	414.38
393.433	410.38
393.658	417.38
393.882	424.38
394.107	404.38
394.331	452.38
394.556	430.38
394.78	412.38
395.005	422.38
395.229	419.38
395.454	438.38
395.678	447.38
395.903	422.38
396.127	423.38
396.352	430.38
396.576	438.38
396.801	426.38
397.025	455.38
397.249	427.38
397.474	449.38
397.698	446.38
397.922	448.38
398.147	453.38
398.371	492.38
398.595	475.38
398.82	513.38
399.044	505.38
399.268	521.38
399.492	571.38
399.717	544.38
399.941	555.38
400.165	561.38
400.389	555.38
400.613	530.38
400.837	515.38
401.062	509.38
401.286	478.38
401.51	498.38
401.734	475.38
401.958	491.38
402.182	479.38
402.406	482.38
402.63	494.38
402.854	493.38
403.078	474.38
403.302	486.38
403.526	469.38
403.75	483.38
403.974	499.38
404.198	497.38
404.422	499.38
404.645	466.38
404.869	481.38
405.093	490.38
405.317	489.38
405.541	518.38
405.765	503.38
405.988	501.38
406.212	513.38
406.436	478.38
406.66	533.38
406.883	524.38
407.107	535.38
407.331	525.38
407.555	535.38
407.778	554.38
408.002	546.38
408.226	542.38
408.449	546.38
408.673	536.38
408.896	501.38
409.12	528.38
409.344	518.38
409.567	498.38
409.791	510.38
410.014	505.38
410.238	487.38
410.461	504.38
410.685	501.38
410.908	486.38
411.132	500.38
411.355	500.38
411.578	486.38
411.802	490.38
412.025	484.38
412.249	478.38
412.472	488.38
412.695	487.38
412.919	493.38
413.142	488.38
413.365	496.38
413.589	475.38
413.812	466.38
414.035	470.38
414.258	461.38
414.482	483.38
414.705	472.38
414.928	480.38
415.151	462.38
415.374	488.38
415.597	463.38
415.821	460.38
416.044	442.38
416.267	446.38
416.49	457.38
416.713	447.38
416.936	477.38
417.159	457.38
417.382	450.38
417.605	452.38
417.828	457.38
418.051	463.38
418.274	450.38
418.497	444.38
418.72	465.38
418.943	481.38
419.166	478.38
419.389	508.38
419.611	489.38
419.834	464.38
420.057	490.38
420.28	471.38
420.503	447.38
420.726	469.38
420.948	477.38
421.171	444.38
421.394	454.38
421.617	461.38
421.839	454.38
422.062	449.38
422.285	454.38
422.507	445.38
422.73	465.38
422.953	463.38
423.175	466.38
423.398	466.38
423.621	450.38
423.843	450.38
424.066	446.38
424.288	428.38
424.511	453.38
424.733	449.38
424.956	437.38
425.178	425.38
425.401	447.38
425.623	443.38
425.846	448.38
426.068	450.38
426.291	429.38
426.513	438.38
426.735	417.38
426.958	439.38
427.18	430.38
427.402	446.38
427.625	446.38
427.847	438.38
428.069	425.38
428.292	428.38
428.514	417.38
428.736	420.38
428.958	426.38
429.181	430.38
429.403	406.38
429.625	418.38
429.847	391.38
430.069	419.38
430.292	435.38
430.514	438.38
430.736	415.38
430.958	430.38
431.18	426.38
431.402	432.38
431.624	411.38
431.846	423.38
432.068	418.38
432.29	444.38
432.512	439.38
432.734	429.38
432.956	419.38
433.178	433.38
433.4	422.38
433.622	441.38
433.844	439.38
434.066	441.38
434.287	433.38
434.509	463.38
434.731	458.38
434.953	450.38
435.175	447.38
435.397	462.38
435.618	429.38
435.84	429.38
436.062	427.38
436.284	439.38
436.505	429.38
436.727	423.38
436.949	420.38
437.17	423.38
437.392	404.38
437.614	430.38
437.835	407.38
438.057	407.38
438.278	410.38
438.5	407.38
438.721	412.38
438.943	422.38
439.165	398.38
439.386	407.38
439.608	431.38
439.829	418.38
440.05	428.38
440.272	411.38
440.493	420.38
440.715	414.38
440.936	423.38
441.158	437.38
441.379	436.38
441.6	448.38
441.822	442.38
442.043	473.38
442.264	430.38
442.486	434.38
442.707	435.38
442.928	449.38
443.149	448.38
443.371	445.38
443.592	445.38
443.813	456.38
444.034	454.38
444.255	441.38
444.476	451.38
444.698	458.38
444.919	457.38
445.14	526.38
445.361	477.38
445.582	458.38
445.803	451.38
446.024	428.38
446.245	444.38
446.466	420.38
446.687	432.38
446.908	435.38
447.129	407.38
447.35	417.38
447.571	413.38
447.792	413.38
448.013	409.38
448.234	407.38
448.455	403.38
448.675	391.38
448.896	404.38
449.117	405.38
449.338	406.38
449.559	408.38
449.779	400.38
450	388.38
450.221	415.38
450.442	398.38
450.662	377.38
450.883	384.38
451.104	395.38
451.324	399.38
451.545	405.38
451.766	390.38
451.986	394.38
452.207	396.38
452.428	393.38
452.648	397.38
452.869	380.38
453.089	384.38
453.31	382.38
453.53	360.38
453.751	377.38
453.971	366.38
454.192	367.38
454.412	376.38
454.633	389.38
454.853	393.38
455.073	379.38
455.294	377.38
455.514	388.38
455.734	363.38
455.955	365.38
456.175	381.38
456.395	364.38
456.616	366.38
456.836	367.38
457.056	394.38
457.276	377.38
457.497	387.38
457.717	377.38
457.937	375.38
458.157	387.38
458.377	406.38
458.598	391.38
458.818	400.38
459.038	399.38
459.258	389.38
459.478	429.38
459.698	426.38
459.918	448.38
460.138	443.38
460.358	477.38
460.578	455.38
460.798	470.38
461.018	471.38
461.238	469.38
461.458	485.38
461.678	473.38
461.898	499.38
462.118	498.38
462.338	516.38
462.558	502.38
462.777	509.38
462.997	546.38
463.217	508.38
463.437	518.38
463.657	529.38
463.876	510.38
464.096	528.38
464.316	525.38
464.536	491.38
464.755	509.38
464.975	491.38
465.195	470.38
465.414	448.38
465.634	450.38
465.854	436.38
466.073	458.38
466.293	449.38
466.512	427.38
466.732	436.38
466.951	425.38
467.171	426.38
467.391	423.38
467.61	414.38
467.829	397.38
468.049	426.38
468.268	407.38
468.488	403.38
468.707	409.38
468.927	423.38
469.146	417.38
469.365	406.38
469.585	422.38
469.804	408.38
470.023	437.38
470.243	415.38
470.462	405.38
470.681	420.38
470.901	414.38
471.12	419.38
471.339	422.38
471.558	415.38
471.777	391.38
471.997	412.38
472.216	403.38
472.435	433.38
472.654	420.38
472.873	400.38
473.092	407.38
473.311	422.38
473.53	420.38
473.749	416.38
473.968	409.38
474.187	419.38
474.406	425.38
474.625	415.38
474.844	429.38
475.063	404.38
475.282	416.38
475.501	426.38
475.72	439.38
475.939	414.38
476.158	437.38
476.377	416.38
476.596	410.38
476.814	434.38
477.033	449.38
477.252	441.38
477.471	462.38
477.69	475.38
477.908	462.38
478.127	467.38
478.346	448.38
478.564	471.38
478.783	478.38
479.002	474.38
479.22	477.38
479.439	478.38
479.658	499.38
479.876	483.38
480.095	514.38
480.313	486.38
480.532	501.38
480.751	515.38
480.969	498.38
481.188	500.38
481.406	465.38
481.624	463.38
481.843	485.38
482.061	453.38
482.28	483.38
482.498	487.38
482.717	458.38
482.935	489.38
483.153	481.38
483.372	482.38
483.59	488.38
483.808	483.38
484.027	480.38
484.245	485.38
484.463	480.38
484.681	477.38
484.9	500.38
485.118	485.38
485.336	472.38
485.554	480.38
485.772	488.38
485.99	474.38
486.209	507.38
486.427	484.38
486.645	473.38
486.863	474.38
487.081	472.38
487.299	473.38
487.517	477.38
487.735	492.38
487.953	485.38
488.171	498.38
488.389	484.38
488.607	491.38
488.825	490.38
489.043	494.38
489.261	474.38
489.479	490.38
489.696	488.38
489.914	513.38
490.132	495.38
490.35	492.38
490.568	501.38
490.786	500.38
491.003	508.38
491.221	510.38
491.439	517.38
491.657	491.38
491.874	506.38
492.092	494.38
492.31	516.38
492.527	509.38
492.745	535.38
492.963	517.38
493.18	523.38
493.398	511.38
493.615	507.38
493.833	508.38
494.05	534.38
494.268	524.38
494.485	504.38
494.703	532.38
494.92	515.38
495.138	538.38
495.355	519.38
495.573	543.38
495.79	531.38
496.008	539.38
496.225	555.38
496.442	541.38
496.66	566.38
496.877	579.38
497.094	590.38
497.312	610.38
497.529	585.38
497.746	609.38
497.963	629.38
498.181	627.38
498.398	646.38
498.615	701.38
498.832	724.38
499.049	766.38
499.267	769.38
499.484	800.38
499.701	840.38
499.918	885.38
500.135	909.38
500.352	926.38
500.569	951.38
500.786	924.38
501.003	907.38
501.22	863.38
501.437	851.38
501.654	813.38
501.871	777.38
502.088	750.38
