Data from Fe(NO3)3@0.05M.TitratingCurve.Agarose3%dH2O.NegLispCup.LampEnergy10.LIBS07252019_HRD10591_16-48-03-334.txt Node
Date: Thu Jul 25 16:48:03 EDT 2019
User: cochatt
Spectrometer: HR+D1059
Trigger mode: 1
Integration Time (sec): 1.000000E-1
Scans to average: 1
Electric dark correction enabled: true
Nonlinearity correction enabled: false
Boxcar width: 0
XAxis mode: Wavelengths
Number of Pixels in Spectrum: 2048
>>>>>Begin Spectral Data<<<<<
223.165	-15.38
223.4	-15.38
223.635	-15.38
223.869	-22.38
224.104	-19.38
224.338	-10.38
224.573	-15.38
224.808	-7.38
225.042	-6.38
225.277	2.62
225.511	1.62
225.746	6.62
225.98	-5.38
226.215	11.62
226.449	7.62
226.683	15.62
226.918	17.62
227.152	38.62
227.387	34.62
227.621	31.62
227.856	34.62
228.09	47.62
228.324	37.62
228.559	60.62
228.793	42.62
229.027	65.62
229.262	72.62
229.496	69.62
229.73	80.62
229.964	102.62
230.199	75.62
230.433	109.62
230.667	84.62
230.901	94.62
231.136	108.62
231.37	102.62
231.604	110.62
231.838	99.62
232.072	89.62
232.306	91.62
232.541	105.62
232.775	92.62
233.009	98.62
233.243	114.62
233.477	99.62
233.711	96.62
233.945	104.62
234.179	98.62
234.413	103.62
234.647	96.62
234.881	96.62
235.115	99.62
235.349	91.62
235.583	90.62
235.817	100.62
236.051	86.62
236.285	89.62
236.519	99.62
236.753	90.62
236.987	116.62
237.221	96.62
237.455	101.62
237.689	106.62
237.922	91.62
238.156	99.62
238.39	109.62
238.624	104.62
238.858	96.62
239.091	96.62
239.325	89.62
239.559	102.62
239.793	103.62
240.027	94.62
240.26	94.62
240.494	107.62
240.728	118.62
240.961	110.62
241.195	103.62
241.429	106.62
241.662	96.62
241.896	116.62
242.13	118.62
242.363	118.62
242.597	107.62
242.83	119.62
243.064	112.62
243.298	111.62
243.531	114.62
243.765	105.62
243.998	116.62
244.232	110.62
244.465	120.62
244.699	99.62
244.932	112.62
245.166	114.62
245.399	101.62
245.633	126.62
245.866	117.62
246.099	112.62
246.333	121.62
246.566	114.62
246.8	124.62
247.033	119.62
247.266	109.62
247.5	121.62
247.733	111.62
247.966	113.62
248.2	110.62
248.433	121.62
248.666	112.62
248.899	124.62
249.133	122.62
249.366	121.62
249.599	131.62
249.832	138.62
250.066	111.62
250.299	136.62
250.532	117.62
250.765	128.62
250.998	125.62
251.231	120.62
251.465	122.62
251.698	130.62
251.931	128.62
252.164	120.62
252.397	132.62
252.63	148.62
252.863	126.62
253.096	122.62
253.329	123.62
253.562	122.62
253.795	123.62
254.028	132.62
254.261	120.62
254.494	136.62
254.727	125.62
254.96	132.62
255.193	130.62
255.426	140.62
255.659	126.62
255.892	134.62
256.124	129.62
256.357	141.62
256.59	149.62
256.823	147.62
257.056	125.62
257.289	124.62
257.521	156.62
257.754	130.62
257.987	130.62
258.22	138.62
258.452	140.62
258.685	150.62
258.918	155.62
259.151	148.62
259.383	140.62
259.616	145.62
259.849	144.62
260.081	153.62
260.314	162.62
260.547	150.62
260.779	122.62
261.012	142.62
261.244	147.62
261.477	147.62
261.71	170.62
261.942	129.62
262.175	137.62
262.407	143.62
262.64	155.62
262.872	147.62
263.105	154.62
263.337	166.62
263.57	137.62
263.802	147.62
264.035	146.62
264.267	146.62
264.499	151.62
264.732	158.62
264.964	144.62
265.197	150.62
265.429	151.62
265.661	140.62
265.894	159.62
266.126	154.62
266.358	139.62
266.591	154.62
266.823	164.62
267.055	157.62
267.287	155.62
267.52	161.62
267.752	176.62
267.984	144.62
268.216	159.62
268.448	154.62
268.681	158.62
268.913	162.62
269.145	155.62
269.377	152.62
269.609	159.62
269.841	161.62
270.073	151.62
270.306	161.62
270.538	152.62
270.77	162.62
271.002	178.62
271.234	166.62
271.466	168.62
271.698	161.62
271.93	186.62
272.162	168.62
272.394	162.62
272.626	176.62
272.858	169.62
273.09	166.62
273.322	175.62
273.553	163.62
273.785	167.62
274.017	177.62
274.249	154.62
274.481	170.62
274.713	171.62
274.945	193.62
275.176	184.62
275.408	178.62
275.64	183.62
275.872	176.62
276.104	184.62
276.335	172.62
276.567	180.62
276.799	173.62
277.031	181.62
277.262	189.62
277.494	175.62
277.726	185.62
277.957	166.62
278.189	174.62
278.421	167.62
278.652	162.62
278.884	174.62
279.115	186.62
279.347	195.62
279.579	185.62
279.81	178.62
280.042	189.62
280.273	176.62
280.505	188.62
280.736	179.62
280.968	202.62
281.199	190.62
281.431	180.62
281.662	185.62
281.894	181.62
282.125	171.62
282.356	174.62
282.588	178.62
282.819	201.62
283.051	187.62
283.282	202.62
283.513	190.62
283.745	182.62
283.976	181.62
284.207	203.62
284.439	187.62
284.67	202.62
284.901	190.62
285.132	199.62
285.364	184.62
285.595	186.62
285.826	211.62
286.057	203.62
286.288	188.62
286.52	188.62
286.751	188.62
286.982	189.62
287.213	186.62
287.444	194.62
287.675	191.62
287.906	190.62
288.138	183.62
288.369	195.62
288.6	204.62
288.831	199.62
289.062	196.62
289.293	190.62
289.524	201.62
289.755	198.62
289.986	185.62
290.217	198.62
290.448	202.62
290.679	203.62
290.91	207.62
291.141	208.62
291.371	195.62
291.602	190.62
291.833	213.62
292.064	203.62
292.295	196.62
292.526	198.62
292.757	213.62
292.987	203.62
293.218	215.62
293.449	185.62
293.68	184.62
293.91	212.62
294.141	207.62
294.372	204.62
294.603	212.62
294.833	201.62
295.064	202.62
295.295	212.62
295.525	217.62
295.756	203.62
295.987	199.62
296.217	217.62
296.448	208.62
296.679	205.62
296.909	192.62
297.14	204.62
297.37	208.62
297.601	228.62
297.831	199.62
298.062	205.62
298.292	215.62
298.523	229.62
298.753	212.62
298.984	209.62
299.214	209.62
299.445	200.62
299.675	215.62
299.905	210.62
300.136	213.62
300.366	212.62
300.597	220.62
300.827	205.62
301.057	231.62
301.288	241.62
301.518	218.62
301.748	226.62
301.979	222.62
302.209	238.62
302.439	229.62
302.669	217.62
302.9	232.62
303.13	213.62
303.36	213.62
303.59	231.62
303.82	230.62
304.051	217.62
304.281	233.62
304.511	219.62
304.741	231.62
304.971	217.62
305.201	238.62
305.431	214.62
305.661	212.62
305.891	207.62
306.121	229.62
306.352	224.62
306.582	228.62
306.812	225.62
307.042	223.62
307.272	225.62
307.502	218.62
307.731	217.62
307.961	228.62
308.191	231.62
308.421	226.62
308.651	227.62
308.881	226.62
309.111	218.62
309.341	233.62
309.571	230.62
309.8	232.62
310.03	243.62
310.26	216.62
310.49	239.62
310.72	240.62
310.949	216.62
311.179	216.62
311.409	227.62
311.639	210.62
311.868	226.62
312.098	225.62
312.328	225.62
312.557	226.62
312.787	243.62
313.017	228.62
313.246	244.62
313.476	232.62
313.706	243.62
313.935	222.62
314.165	223.62
314.394	228.62
314.624	239.62
314.853	235.62
315.083	244.62
315.312	233.62
315.542	220.62
315.771	235.62
316.001	240.62
316.23	243.62
316.46	231.62
316.689	240.62
316.919	232.62
317.148	248.62
317.377	248.62
317.607	213.62
317.836	223.62
318.065	254.62
318.295	224.62
318.524	217.62
318.753	236.62
318.983	224.62
319.212	223.62
319.441	234.62
319.67	236.62
319.9	226.62
320.129	232.62
320.358	225.62
320.587	230.62
320.816	225.62
321.046	227.62
321.275	235.62
321.504	248.62
321.733	251.62
321.962	242.62
322.191	240.62
322.42	236.62
322.649	263.62
322.878	213.62
323.108	247.62
323.337	219.62
323.566	233.62
323.795	258.62
324.024	238.62
324.253	250.62
324.482	225.62
324.71	241.62
324.939	237.62
325.168	243.62
325.397	239.62
325.626	235.62
325.855	238.62
326.084	262.62
326.313	257.62
326.542	258.62
326.77	247.62
326.999	244.62
327.228	240.62
327.457	262.62
327.686	271.62
327.914	243.62
328.143	259.62
328.372	271.62
328.6	247.62
328.829	250.62
329.058	255.62
329.287	259.62
329.515	252.62
329.744	263.62
329.972	244.62
330.201	260.62
330.43	263.62
330.658	260.62
330.887	260.62
331.115	260.62
331.344	265.62
331.572	262.62
331.801	254.62
332.03	285.62
332.258	265.62
332.486	284.62
332.715	293.62
332.943	297.62
333.172	322.62
333.4	319.62
333.629	329.62
333.857	329.62
334.085	315.62
334.314	323.62
334.542	312.62
334.771	304.62
334.999	298.62
335.227	288.62
335.455	292.62
335.684	314.62
335.912	307.62
336.14	284.62
336.369	286.62
336.597	309.62
336.825	292.62
337.053	304.62
337.281	305.62
337.51	278.62
337.738	286.62
337.966	280.62
338.194	286.62
338.422	260.62
338.65	279.62
338.878	290.62
339.106	266.62
339.334	265.62
339.562	282.62
339.79	269.62
340.018	263.62
340.246	249.62
340.474	275.62
340.702	267.62
340.93	269.62
341.158	261.62
341.386	272.62
341.614	262.62
341.842	269.62
342.07	275.62
342.298	262.62
342.526	285.62
342.754	248.62
342.981	263.62
343.209	268.62
343.437	273.62
343.665	291.62
343.893	296.62
344.12	299.62
344.348	296.62
344.576	305.62
344.804	282.62
345.031	278.62
345.259	274.62
345.487	258.62
345.714	260.62
345.942	259.62
346.17	275.62
346.397	280.62
346.625	263.62
346.853	239.62
347.08	243.62
347.308	254.62
347.535	266.62
347.763	265.62
347.99	274.62
348.218	272.62
348.445	268.62
348.673	249.62
348.9	258.62
349.128	252.62
349.355	258.62
349.583	252.62
349.81	254.62
350.037	250.62
350.265	236.62
350.492	262.62
350.72	254.62
350.947	266.62
351.174	262.62
351.402	250.62
351.629	244.62
351.856	256.62
352.083	245.62
352.311	255.62
352.538	245.62
352.765	247.62
352.992	258.62
353.22	254.62
353.447	252.62
353.674	253.62
353.901	261.62
354.128	257.62
354.355	231.62
354.583	263.62
354.81	251.62
355.037	248.62
355.264	235.62
355.491	232.62
355.718	226.62
355.945	265.62
356.172	236.62
356.399	260.62
356.626	264.62
356.853	258.62
357.08	253.62
357.307	266.62
357.534	259.62
357.761	241.62
357.988	260.62
358.215	251.62
358.441	264.62
358.668	260.62
358.895	250.62
359.122	261.62
359.349	235.62
359.576	273.62
359.802	261.62
360.029	253.62
360.256	265.62
360.483	261.62
360.709	268.62
360.936	260.62
361.163	257.62
361.39	246.62
361.616	255.62
361.843	252.62
362.07	245.62
362.296	274.62
362.523	262.62
362.749	264.62
362.976	255.62
363.203	254.62
363.429	247.62
363.656	260.62
363.882	268.62
364.109	262.62
364.335	245.62
364.562	256.62
364.788	255.62
365.015	248.62
365.241	250.62
365.468	262.62
365.694	225.62
365.92	238.62
366.147	278.62
366.373	254.62
366.599	265.62
366.826	258.62
367.052	263.62
367.278	267.62
367.505	252.62
367.731	248.62
367.957	238.62
368.184	255.62
368.41	251.62
368.636	282.62
368.862	261.62
369.089	273.62
369.315	255.62
369.541	266.62
369.767	260.62
369.993	263.62
370.219	266.62
370.445	247.62
370.672	281.62
370.898	256.62
371.124	272.62
371.35	289.62
371.576	281.62
371.802	269.62
372.028	272.62
372.254	269.62
372.48	285.62
372.706	279.62
372.932	296.62
373.158	268.62
373.384	286.62
373.61	278.62
373.835	274.62
374.061	268.62
374.287	272.62
374.513	286.62
374.739	300.62
374.965	302.62
375.191	300.62
375.416	302.62
375.642	296.62
375.868	305.62
376.094	293.62
376.319	294.62
376.545	298.62
376.771	291.62
376.997	288.62
377.222	279.62
377.448	298.62
377.674	265.62
377.899	289.62
378.125	276.62
378.35	296.62
378.576	297.62
378.802	284.62
379.027	267.62
379.253	295.62
379.478	284.62
379.704	288.62
379.929	283.62
380.155	280.62
380.38	279.62
380.606	291.62
380.831	286.62
381.057	311.62
381.282	289.62
381.507	294.62
381.733	304.62
381.958	295.62
382.184	288.62
382.409	275.62
382.634	300.62
382.86	313.62
383.085	308.62
383.31	327.62
383.535	315.62
383.761	326.62
383.986	313.62
384.211	331.62
384.436	321.62
384.662	337.62
384.887	313.62
385.112	327.62
385.337	325.62
385.562	330.62
385.787	314.62
386.013	355.62
386.238	337.62
386.463	329.62
386.688	340.62
386.913	329.62
387.138	328.62
387.363	336.62
387.588	342.62
387.813	322.62
388.038	332.62
388.263	342.62
388.488	331.62
388.713	320.62
388.938	331.62
389.163	327.62
389.387	336.62
389.612	312.62
389.837	306.62
390.062	314.62
390.287	341.62
390.512	339.62
390.736	345.62
390.961	353.62
391.186	327.62
391.411	348.62
391.636	362.62
391.86	347.62
392.085	362.62
392.31	378.62
392.534	352.62
392.759	362.62
392.984	368.62
393.208	362.62
393.433	350.62
393.658	350.62
393.882	359.62
394.107	371.62
394.331	364.62
394.556	376.62
394.78	355.62
395.005	360.62
395.229	370.62
395.454	373.62
395.678	377.62
395.903	375.62
396.127	359.62
396.352	366.62
396.576	368.62
396.801	349.62
397.025	355.62
397.249	384.62
397.474	370.62
397.698	370.62
397.922	382.62
398.147	381.62
398.371	391.62
398.595	411.62
398.82	390.62
399.044	427.62
399.268	452.62
399.492	506.62
399.717	575.62
399.941	550.62
400.165	518.62
400.389	471.62
400.613	461.62
400.837	404.62
401.062	415.62
401.286	406.62
401.51	408.62
401.734	409.62
401.958	398.62
402.182	420.62
402.406	415.62
402.63	432.62
402.854	442.62
403.078	444.62
403.302	455.62
403.526	438.62
403.75	445.62
403.974	457.62
404.198	455.62
404.422	461.62
404.645	469.62
404.869	457.62
405.093	467.62
405.317	456.62
405.541	451.62
405.765	471.62
405.988	451.62
406.212	442.62
406.436	426.62
406.66	460.62
406.883	463.62
407.107	491.62
407.331	513.62
407.555	511.62
407.778	535.62
408.002	504.62
408.226	516.62
408.449	500.62
408.673	437.62
408.896	463.62
409.12	456.62
409.344	478.62
409.567	458.62
409.791	478.62
410.014	475.62
410.238	477.62
410.461	460.62
410.685	452.62
410.908	450.62
411.132	456.62
411.355	443.62
411.578	449.62
411.802	431.62
412.025	445.62
412.249	450.62
412.472	455.62
412.695	424.62
412.919	420.62
413.142	436.62
413.365	421.62
413.589	442.62
413.812	434.62
414.035	419.62
414.258	417.62
414.482	446.62
414.705	435.62
414.928	443.62
415.151	435.62
415.374	426.62
415.597	442.62
415.821	436.62
416.044	407.62
416.267	418.62
416.49	420.62
416.713	413.62
416.936	426.62
417.159	406.62
417.382	417.62
417.605	420.62
417.828	412.62
418.051	441.62
418.274	434.62
418.497	414.62
418.72	421.62
418.943	419.62
419.166	453.62
419.389	483.62
419.611	454.62
419.834	464.62
420.057	440.62
420.28	422.62
420.503	417.62
420.726	428.62
420.948	438.62
421.171	420.62
421.394	431.62
421.617	416.62
421.839	409.62
422.062	414.62
422.285	438.62
422.507	424.62
422.73	425.62
422.953	436.62
423.175	434.62
423.398	453.62
423.621	423.62
423.843	427.62
424.066	432.62
424.288	460.62
424.511	444.62
424.733	442.62
424.956	443.62
425.178	413.62
425.401	408.62
425.623	397.62
425.846	404.62
426.068	398.62
426.291	396.62
426.513	409.62
426.735	403.62
426.958	399.62
427.18	400.62
427.402	406.62
427.625	394.62
427.847	391.62
428.069	390.62
428.292	385.62
428.514	386.62
428.736	386.62
428.958	394.62
429.181	375.62
429.403	376.62
429.625	383.62
429.847	377.62
430.069	376.62
430.292	381.62
430.514	379.62
430.736	417.62
430.958	395.62
431.18	392.62
431.402	379.62
431.624	368.62
431.846	378.62
432.068	395.62
432.29	381.62
432.512	376.62
432.734	407.62
432.956	394.62
433.178	386.62
433.4	402.62
433.622	411.62
433.844	400.62
434.066	414.62
434.287	372.62
434.509	397.62
434.731	403.62
434.953	430.62
435.175	434.62
435.397	419.62
435.618	415.62
435.84	415.62
436.062	410.62
436.284	399.62
436.505	388.62
436.727	401.62
436.949	403.62
437.17	386.62
437.392	381.62
437.614	369.62
437.835	391.62
438.057	384.62
438.278	375.62
438.5	393.62
438.721	402.62
438.943	383.62
439.165	417.62
439.386	383.62
439.608	405.62
439.829	402.62
440.05	414.62
440.272	384.62
440.493	411.62
440.715	392.62
440.936	407.62
441.158	431.62
441.379	436.62
441.6	434.62
441.822	450.62
442.043	455.62
442.264	452.62
442.486	438.62
442.707	439.62
442.928	443.62
443.149	430.62
443.371	431.62
443.592	447.62
443.813	439.62
444.034	442.62
444.255	477.62
444.476	485.62
444.698	483.62
444.919	498.62
445.14	617.62
445.361	526.62
445.582	446.62
445.803	448.62
446.024	415.62
446.245	413.62
446.466	397.62
446.687	392.62
446.908	402.62
447.129	399.62
447.35	391.62
447.571	399.62
447.792	382.62
448.013	395.62
448.234	368.62
448.455	384.62
448.675	385.62
448.896	372.62
449.117	374.62
449.338	380.62
449.559	382.62
449.779	395.62
450	376.62
450.221	374.62
450.442	363.62
450.662	372.62
450.883	379.62
451.104	377.62
451.324	386.62
451.545	353.62
451.766	401.62
451.986	370.62
452.207	368.62
452.428	373.62
452.648	358.62
452.869	370.62
453.089	378.62
453.31	360.62
453.53	376.62
453.751	362.62
453.971	354.62
454.192	357.62
454.412	351.62
454.633	358.62
454.853	377.62
455.073	356.62
455.294	358.62
455.514	353.62
455.734	370.62
455.955	343.62
456.175	354.62
456.395	328.62
456.616	339.62
456.836	335.62
457.056	328.62
457.276	350.62
457.497	333.62
457.717	354.62
457.937	369.62
458.157	372.62
458.377	363.62
458.598	353.62
458.818	362.62
459.038	370.62
459.258	380.62
459.478	369.62
459.698	405.62
459.918	408.62
460.138	414.62
460.358	456.62
460.578	441.62
460.798	442.62
461.018	440.62
461.238	442.62
461.458	449.62
461.678	441.62
461.898	468.62
462.118	465.62
462.338	463.62
462.558	505.62
462.777	489.62
462.997	526.62
463.217	554.62
463.437	573.62
463.657	516.62
463.876	516.62
464.096	499.62
464.316	501.62
464.536	511.62
464.755	502.62
464.975	466.62
465.195	450.62
465.414	436.62
465.634	415.62
465.854	416.62
466.073	407.62
466.293	400.62
466.512	405.62
466.732	392.62
466.951	397.62
467.171	372.62
467.391	382.62
467.61	376.62
467.829	371.62
468.049	378.62
468.268	374.62
468.488	367.62
468.707	366.62
468.927	384.62
469.146	378.62
469.365	360.62
469.585	394.62
469.804	362.62
470.023	400.62
470.243	382.62
470.462	401.62
470.681	404.62
470.901	405.62
471.12	400.62
471.339	397.62
471.558	392.62
471.777	374.62
471.997	355.62
472.216	384.62
472.435	379.62
472.654	374.62
472.873	369.62
473.092	359.62
473.311	374.62
473.53	356.62
473.749	376.62
473.968	372.62
474.187	366.62
474.406	348.62
474.625	363.62
474.844	376.62
475.063	349.62
475.282	368.62
475.501	377.62
475.72	345.62
475.939	341.62
476.158	370.62
476.377	392.62
476.596	379.62
476.814	374.62
477.033	367.62
477.252	389.62
477.471	393.62
477.69	400.62
477.908	400.62
478.127	421.62
478.346	411.62
478.564	426.62
478.783	426.62
479.002	436.62
479.22	433.62
479.439	416.62
479.658	424.62
479.876	433.62
480.095	431.62
480.313	435.62
480.532	442.62
480.751	448.62
480.969	440.62
481.188	431.62
481.406	425.62
481.624	411.62
481.843	401.62
482.061	404.62
482.28	394.62
482.498	399.62
482.717	374.62
482.935	404.62
483.153	404.62
483.372	395.62
483.59	412.62
483.808	378.62
484.027	423.62
484.245	422.62
484.463	416.62
484.681	427.62
484.9	408.62
485.118	430.62
485.336	430.62
485.554	440.62
485.772	418.62
485.99	430.62
486.209	414.62
486.427	411.62
486.645	413.62
486.863	424.62
487.081	428.62
487.299	421.62
487.517	414.62
487.735	397.62
487.953	403.62
488.171	433.62
488.389	425.62
488.607	415.62
488.825	408.62
489.043	396.62
489.261	416.62
489.479	439.62
489.696	419.62
489.914	426.62
490.132	424.62
490.35	423.62
490.568	423.62
490.786	421.62
491.003	435.62
491.221	446.62
491.439	409.62
491.657	439.62
491.874	427.62
492.092	449.62
492.31	416.62
492.527	434.62
492.745	432.62
492.963	435.62
493.18	423.62
493.398	434.62
493.615	444.62
493.833	436.62
494.05	441.62
494.268	460.62
494.485	442.62
494.703	435.62
494.92	441.62
495.138	449.62
495.355	448.62
495.573	452.62
495.79	455.62
496.008	472.62
496.225	440.62
496.442	455.62
496.66	457.62
496.877	459.62
497.094	456.62
497.312	484.62
497.529	471.62
497.746	483.62
497.963	485.62
498.181	526.62
498.398	546.62
498.615	559.62
498.832	582.62
499.049	630.62
499.267	678.62
499.484	721.62
499.701	786.62
499.918	850.62
500.135	952.62
500.352	1116.62
500.569	1117.62
500.786	1139.62
501.003	1044.62
501.22	927.62
501.437	800.62
501.654	751.62
501.871	689.62
502.088	641.62
