Data from Fe(NO3)3@0.025M.TitratingCurve.Agarose3%dH2O.NegLispCup.LampEnergy10.LIBS07252019_HRD10591_16-55-51-336.txt Node
Date: Thu Jul 25 16:55:51 EDT 2019
User: cochatt
Spectrometer: HR+D1059
Trigger mode: 1
Integration Time (sec): 1.000000E-1
Scans to average: 1
Electric dark correction enabled: true
Nonlinearity correction enabled: false
Boxcar width: 0
XAxis mode: Wavelengths
Number of Pixels in Spectrum: 2048
>>>>>Begin Spectral Data<<<<<
223.165	-11.75
223.4	-11.75
223.635	-11.75
223.869	-22.75
224.104	-11.75
224.338	-7.75
224.573	-12.75
224.808	-22.75
225.042	2.25
225.277	0.25
225.511	0.25
225.746	6.25
225.98	-3.75
226.215	3.25
226.449	5.25
226.683	25.25
226.918	32.25
227.152	18.25
227.387	25.25
227.621	42.25
227.856	57.25
228.09	55.25
228.324	62.25
228.559	42.25
228.793	58.25
229.027	73.25
229.262	69.25
229.496	76.25
229.73	98.25
229.964	81.25
230.199	84.25
230.433	92.25
230.667	90.25
230.901	112.25
231.136	86.25
231.37	87.25
231.604	85.25
231.838	98.25
232.072	104.25
232.306	89.25
232.541	109.25
232.775	80.25
233.009	106.25
233.243	99.25
233.477	97.25
233.711	107.25
233.945	98.25
234.179	96.25
234.413	74.25
234.647	102.25
234.881	114.25
235.115	89.25
235.349	85.25
235.583	99.25
235.817	114.25
236.051	98.25
236.285	100.25
236.519	108.25
236.753	93.25
236.987	95.25
237.221	110.25
237.455	90.25
237.689	107.25
237.922	103.25
238.156	117.25
238.39	100.25
238.624	101.25
238.858	98.25
239.091	115.25
239.325	102.25
239.559	105.25
239.793	116.25
240.027	89.25
240.26	99.25
240.494	113.25
240.728	96.25
240.961	104.25
241.195	109.25
241.429	108.25
241.662	112.25
241.896	92.25
242.13	83.25
242.363	111.25
242.597	101.25
242.83	116.25
243.064	102.25
243.298	121.25
243.531	102.25
243.765	110.25
243.998	114.25
244.232	114.25
244.465	110.25
244.699	104.25
244.932	87.25
245.166	99.25
245.399	104.25
245.633	107.25
245.866	115.25
246.099	104.25
246.333	124.25
246.566	125.25
246.8	125.25
247.033	109.25
247.266	109.25
247.5	103.25
247.733	121.25
247.966	105.25
248.2	116.25
248.433	103.25
248.666	126.25
248.899	114.25
249.133	125.25
249.366	110.25
249.599	126.25
249.832	116.25
250.066	128.25
250.299	120.25
250.532	125.25
250.765	106.25
250.998	121.25
251.231	122.25
251.465	130.25
251.698	121.25
251.931	121.25
252.164	125.25
252.397	141.25
252.63	122.25
252.863	123.25
253.096	127.25
253.329	124.25
253.562	154.25
253.795	139.25
254.028	131.25
254.261	134.25
254.494	133.25
254.727	129.25
254.96	128.25
255.193	132.25
255.426	127.25
255.659	120.25
255.892	132.25
256.124	144.25
256.357	138.25
256.59	146.25
256.823	126.25
257.056	132.25
257.289	136.25
257.521	142.25
257.754	137.25
257.987	135.25
258.22	132.25
258.452	149.25
258.685	133.25
258.918	127.25
259.151	147.25
259.383	132.25
259.616	136.25
259.849	141.25
260.081	154.25
260.314	146.25
260.547	143.25
260.779	145.25
261.012	145.25
261.244	145.25
261.477	156.25
261.71	134.25
261.942	161.25
262.175	140.25
262.407	149.25
262.64	122.25
262.872	147.25
263.105	148.25
263.337	162.25
263.57	152.25
263.802	144.25
264.035	141.25
264.267	157.25
264.499	157.25
264.732	134.25
264.964	140.25
265.197	158.25
265.429	152.25
265.661	152.25
265.894	156.25
266.126	164.25
266.358	157.25
266.591	157.25
266.823	152.25
267.055	157.25
267.287	154.25
267.52	159.25
267.752	158.25
267.984	150.25
268.216	157.25
268.448	159.25
268.681	162.25
268.913	146.25
269.145	176.25
269.377	151.25
269.609	154.25
269.841	153.25
270.073	169.25
270.306	168.25
270.538	173.25
270.77	172.25
271.002	161.25
271.234	162.25
271.466	170.25
271.698	171.25
271.93	164.25
272.162	149.25
272.394	169.25
272.626	161.25
272.858	162.25
273.09	171.25
273.322	176.25
273.553	174.25
273.785	170.25
274.017	176.25
274.249	180.25
274.481	171.25
274.713	169.25
274.945	188.25
275.176	182.25
275.408	182.25
275.64	161.25
275.872	157.25
276.104	165.25
276.335	181.25
276.567	199.25
276.799	168.25
277.031	182.25
277.262	184.25
277.494	175.25
277.726	194.25
277.957	186.25
278.189	192.25
278.421	193.25
278.652	193.25
278.884	189.25
279.115	196.25
279.347	200.25
279.579	188.25
279.81	213.25
280.042	213.25
280.273	172.25
280.505	187.25
280.736	187.25
280.968	181.25
281.199	189.25
281.431	193.25
281.662	201.25
281.894	189.25
282.125	184.25
282.356	197.25
282.588	190.25
282.819	187.25
283.051	178.25
283.282	198.25
283.513	190.25
283.745	201.25
283.976	191.25
284.207	192.25
284.439	213.25
284.67	207.25
284.901	205.25
285.132	204.25
285.364	199.25
285.595	203.25
285.826	205.25
286.057	208.25
286.288	215.25
286.52	206.25
286.751	200.25
286.982	208.25
287.213	204.25
287.444	209.25
287.675	213.25
287.906	207.25
288.138	210.25
288.369	206.25
288.6	195.25
288.831	216.25
289.062	224.25
289.293	199.25
289.524	226.25
289.755	218.25
289.986	215.25
290.217	205.25
290.448	222.25
290.679	207.25
290.91	202.25
291.141	213.25
291.371	215.25
291.602	206.25
291.833	188.25
292.064	221.25
292.295	227.25
292.526	221.25
292.757	211.25
292.987	223.25
293.218	215.25
293.449	220.25
293.68	220.25
293.91	204.25
294.141	221.25
294.372	207.25
294.603	224.25
294.833	222.25
295.064	216.25
295.295	221.25
295.525	206.25
295.756	225.25
295.987	241.25
296.217	232.25
296.448	225.25
296.679	223.25
296.909	225.25
297.14	241.25
297.37	244.25
297.601	229.25
297.831	219.25
298.062	227.25
298.292	223.25
298.523	244.25
298.753	234.25
298.984	246.25
299.214	241.25
299.445	232.25
299.675	242.25
299.905	226.25
300.136	236.25
300.366	220.25
300.597	227.25
300.827	239.25
301.057	240.25
301.288	237.25
301.518	247.25
301.748	239.25
301.979	254.25
302.209	265.25
302.439	272.25
302.669	252.25
302.9	222.25
303.13	244.25
303.36	250.25
303.59	255.25
303.82	268.25
304.051	261.25
304.281	233.25
304.511	234.25
304.741	251.25
304.971	237.25
305.201	237.25
305.431	238.25
305.661	247.25
305.891	244.25
306.121	251.25
306.352	257.25
306.582	256.25
306.812	261.25
307.042	267.25
307.272	268.25
307.502	264.25
307.731	247.25
307.961	244.25
308.191	238.25
308.421	243.25
308.651	262.25
308.881	241.25
309.111	249.25
309.341	249.25
309.571	229.25
309.8	239.25
310.03	272.25
310.26	270.25
310.49	256.25
310.72	252.25
310.949	256.25
311.179	258.25
311.409	245.25
311.639	249.25
311.868	272.25
312.098	270.25
312.328	271.25
312.557	266.25
312.787	277.25
313.017	266.25
313.246	260.25
313.476	242.25
313.706	275.25
313.935	280.25
314.165	281.25
314.394	283.25
314.624	276.25
314.853	269.25
315.083	281.25
315.312	276.25
315.542	278.25
315.771	251.25
316.001	265.25
316.23	257.25
316.46	277.25
316.689	285.25
316.919	265.25
317.148	265.25
317.377	277.25
317.607	267.25
317.836	285.25
318.065	278.25
318.295	274.25
318.524	260.25
318.753	250.25
318.983	264.25
319.212	262.25
319.441	270.25
319.67	270.25
319.9	278.25
320.129	277.25
320.358	273.25
320.587	276.25
320.816	270.25
321.046	290.25
321.275	282.25
321.504	292.25
321.733	278.25
321.962	273.25
322.191	284.25
322.42	294.25
322.649	289.25
322.878	297.25
323.108	282.25
323.337	274.25
323.566	267.25
323.795	289.25
324.024	314.25
324.253	295.25
324.482	280.25
324.71	274.25
324.939	293.25
325.168	292.25
325.397	296.25
325.626	302.25
325.855	264.25
326.084	305.25
326.313	313.25
326.542	305.25
326.77	294.25
326.999	308.25
327.228	312.25
327.457	293.25
327.686	304.25
327.914	310.25
328.143	293.25
328.372	289.25
328.6	307.25
328.829	308.25
329.058	297.25
329.287	306.25
329.515	299.25
329.744	297.25
329.972	298.25
330.201	315.25
330.43	326.25
330.658	315.25
330.887	313.25
331.115	316.25
331.344	323.25
331.572	317.25
331.801	322.25
332.03	308.25
332.258	340.25
332.486	327.25
332.715	318.25
332.943	334.25
333.172	373.25
333.4	354.25
333.629	358.25
333.857	339.25
334.085	347.25
334.314	341.25
334.542	354.25
334.771	360.25
334.999	371.25
335.227	343.25
335.455	333.25
335.684	366.25
335.912	356.25
336.14	348.25
336.369	346.25
336.597	344.25
336.825	349.25
337.053	354.25
337.281	344.25
337.51	349.25
337.738	343.25
337.966	352.25
338.194	332.25
338.422	322.25
338.65	353.25
338.878	309.25
339.106	324.25
339.334	330.25
339.562	316.25
339.79	308.25
340.018	345.25
340.246	339.25
340.474	322.25
340.702	324.25
340.93	312.25
341.158	307.25
341.386	325.25
341.614	319.25
341.842	306.25
342.07	319.25
342.298	319.25
342.526	319.25
342.754	334.25
342.981	317.25
343.209	321.25
343.437	346.25
343.665	349.25
343.893	353.25
344.12	348.25
344.348	349.25
344.576	349.25
344.804	346.25
345.031	342.25
345.259	333.25
345.487	340.25
345.714	343.25
345.942	332.25
346.17	304.25
346.397	318.25
346.625	331.25
346.853	318.25
347.08	312.25
347.308	306.25
347.535	316.25
347.763	324.25
347.99	312.25
348.218	312.25
348.445	331.25
348.673	312.25
348.9	308.25
349.128	309.25
349.355	327.25
349.583	308.25
349.81	317.25
350.037	312.25
350.265	311.25
350.492	305.25
350.72	302.25
350.947	331.25
351.174	314.25
351.402	316.25
351.629	301.25
351.856	304.25
352.083	316.25
352.311	312.25
352.538	299.25
352.765	316.25
352.992	315.25
353.22	321.25
353.447	292.25
353.674	335.25
353.901	331.25
354.128	301.25
354.355	322.25
354.583	307.25
354.81	322.25
355.037	326.25
355.264	335.25
355.491	314.25
355.718	290.25
355.945	295.25
356.172	312.25
356.399	318.25
356.626	324.25
356.853	325.25
357.08	324.25
357.307	324.25
357.534	322.25
357.761	344.25
357.988	312.25
358.215	329.25
358.441	336.25
358.668	318.25
358.895	314.25
359.122	323.25
359.349	316.25
359.576	310.25
359.802	333.25
360.029	324.25
360.256	323.25
360.483	301.25
360.709	326.25
360.936	324.25
361.163	316.25
361.39	319.25
361.616	310.25
361.843	312.25
362.07	312.25
362.296	314.25
362.523	302.25
362.749	318.25
362.976	310.25
363.203	326.25
363.429	324.25
363.656	313.25
363.882	322.25
364.109	329.25
364.335	323.25
364.562	326.25
364.788	312.25
365.015	318.25
365.241	316.25
365.468	318.25
365.694	311.25
365.92	334.25
366.147	320.25
366.373	318.25
366.599	320.25
366.826	341.25
367.052	314.25
367.278	343.25
367.505	328.25
367.731	327.25
367.957	321.25
368.184	331.25
368.41	324.25
368.636	343.25
368.862	329.25
369.089	333.25
369.315	320.25
369.541	342.25
369.767	338.25
369.993	334.25
370.219	327.25
370.445	360.25
370.672	343.25
370.898	330.25
371.124	342.25
371.35	339.25
371.576	362.25
371.802	357.25
372.028	338.25
372.254	352.25
372.48	360.25
372.706	367.25
372.932	354.25
373.158	379.25
373.384	364.25
373.61	353.25
373.835	358.25
374.061	352.25
374.287	337.25
374.513	352.25
374.739	356.25
374.965	380.25
375.191	364.25
375.416	358.25
375.642	356.25
375.868	355.25
376.094	338.25
376.319	349.25
376.545	356.25
376.771	362.25
376.997	366.25
377.222	346.25
377.448	338.25
377.674	341.25
377.899	311.25
378.125	334.25
378.35	333.25
378.576	343.25
378.802	332.25
379.027	343.25
379.253	342.25
379.478	352.25
379.704	353.25
379.929	334.25
380.155	330.25
380.38	320.25
380.606	338.25
380.831	345.25
381.057	349.25
381.282	345.25
381.507	349.25
381.733	354.25
381.958	347.25
382.184	352.25
382.409	353.25
382.634	368.25
382.86	349.25
383.085	384.25
383.31	378.25
383.535	376.25
383.761	354.25
383.986	378.25
384.211	368.25
384.436	356.25
384.662	378.25
384.887	381.25
385.112	398.25
385.337	370.25
385.562	397.25
385.787	392.25
386.013	419.25
386.238	395.25
386.463	398.25
386.688	417.25
386.913	390.25
387.138	396.25
387.363	391.25
387.588	402.25
387.813	403.25
388.038	402.25
388.263	391.25
388.488	389.25
388.713	394.25
388.938	397.25
389.163	395.25
389.387	384.25
389.612	406.25
389.837	397.25
390.062	402.25
390.287	406.25
390.512	396.25
390.736	390.25
390.961	428.25
391.186	414.25
391.411	416.25
391.636	427.25
391.86	424.25
392.085	444.25
392.31	435.25
392.534	433.25
392.759	428.25
392.984	412.25
393.208	441.25
393.433	419.25
393.658	429.25
393.882	434.25
394.107	424.25
394.331	422.25
394.556	392.25
394.78	427.25
395.005	441.25
395.229	432.25
395.454	429.25
395.678	434.25
395.903	448.25
396.127	428.25
396.352	424.25
396.576	421.25
396.801	426.25
397.025	434.25
397.249	444.25
397.474	449.25
397.698	445.25
397.922	444.25
398.147	448.25
398.371	470.25
398.595	482.25
398.82	484.25
399.044	489.25
399.268	535.25
399.492	576.25
399.717	584.25
399.941	576.25
400.165	563.25
400.389	532.25
400.613	504.25
400.837	508.25
401.062	503.25
401.286	479.25
401.51	490.25
401.734	467.25
401.958	467.25
402.182	458.25
402.406	470.25
402.63	464.25
402.854	503.25
403.078	491.25
403.302	482.25
403.526	493.25
403.75	495.25
403.974	492.25
404.198	488.25
404.422	481.25
404.645	499.25
404.869	480.25
405.093	517.25
405.317	486.25
405.541	500.25
405.765	505.25
405.988	499.25
406.212	515.25
406.436	535.25
406.66	531.25
406.883	522.25
407.107	540.25
407.331	557.25
407.555	562.25
407.778	565.25
408.002	538.25
408.226	526.25
408.449	533.25
408.673	523.25
408.896	539.25
409.12	515.25
409.344	531.25
409.567	513.25
409.791	492.25
410.014	493.25
410.238	504.25
410.461	484.25
410.685	486.25
410.908	489.25
411.132	509.25
411.355	506.25
411.578	498.25
411.802	486.25
412.025	481.25
412.249	474.25
412.472	488.25
412.695	471.25
412.919	482.25
413.142	472.25
413.365	492.25
413.589	486.25
413.812	476.25
414.035	469.25
414.258	492.25
414.482	498.25
414.705	491.25
414.928	462.25
415.151	472.25
415.374	471.25
415.597	461.25
415.821	486.25
416.044	469.25
416.267	450.25
416.49	460.25
416.713	428.25
416.936	472.25
417.159	454.25
417.382	468.25
417.605	462.25
417.828	445.25
418.051	458.25
418.274	461.25
418.497	450.25
418.72	448.25
418.943	467.25
419.166	496.25
419.389	500.25
419.611	512.25
419.834	476.25
420.057	475.25
420.28	471.25
420.503	472.25
420.726	456.25
420.948	488.25
421.171	449.25
421.394	474.25
421.617	455.25
421.839	461.25
422.062	450.25
422.285	462.25
422.507	457.25
422.73	447.25
422.953	452.25
423.175	442.25
423.398	466.25
423.621	466.25
423.843	457.25
424.066	460.25
424.288	452.25
424.511	462.25
424.733	466.25
424.956	438.25
425.178	461.25
425.401	440.25
425.623	445.25
425.846	426.25
426.068	449.25
426.291	436.25
426.513	444.25
426.735	441.25
426.958	433.25
427.18	429.25
427.402	444.25
427.625	442.25
427.847	428.25
428.069	414.25
428.292	448.25
428.514	406.25
428.736	410.25
428.958	419.25
429.181	406.25
429.403	418.25
429.625	423.25
429.847	416.25
430.069	414.25
430.292	439.25
430.514	423.25
430.736	416.25
430.958	425.25
431.18	426.25
431.402	434.25
431.624	427.25
431.846	421.25
432.068	428.25
432.29	422.25
432.512	421.25
432.734	428.25
432.956	428.25
433.178	429.25
433.4	430.25
433.622	440.25
433.844	435.25
434.066	446.25
434.287	426.25
434.509	448.25
434.731	461.25
434.953	456.25
435.175	452.25
435.397	440.25
435.618	441.25
435.84	426.25
436.062	419.25
436.284	435.25
436.505	440.25
436.727	416.25
436.949	436.25
437.17	402.25
437.392	422.25
437.614	397.25
437.835	412.25
438.057	413.25
438.278	409.25
438.5	406.25
438.721	405.25
438.943	412.25
439.165	405.25
439.386	420.25
439.608	429.25
439.829	426.25
440.05	403.25
440.272	398.25
440.493	427.25
440.715	427.25
440.936	430.25
441.158	435.25
441.379	424.25
441.6	423.25
441.822	450.25
442.043	443.25
442.264	410.25
442.486	423.25
442.707	436.25
442.928	427.25
443.149	448.25
443.371	441.25
443.592	452.25
443.813	462.25
444.034	467.25
444.255	461.25
444.476	499.25
444.698	500.25
444.919	487.25
445.14	560.25
445.361	491.25
445.582	438.25
445.803	442.25
446.024	447.25
446.245	447.25
446.466	427.25
446.687	428.25
446.908	420.25
447.129	393.25
447.35	386.25
447.571	402.25
447.792	405.25
448.013	402.25
448.234	405.25
448.455	397.25
448.675	413.25
448.896	393.25
449.117	388.25
449.338	389.25
449.559	401.25
449.779	396.25
450	401.25
450.221	378.25
450.442	402.25
450.662	395.25
450.883	382.25
451.104	376.25
451.324	398.25
451.545	391.25
451.766	378.25
451.986	388.25
452.207	401.25
452.428	384.25
452.648	388.25
452.869	357.25
453.089	386.25
453.31	386.25
453.53	357.25
453.751	378.25
453.971	374.25
454.192	371.25
454.412	361.25
454.633	366.25
454.853	363.25
455.073	371.25
455.294	368.25
455.514	373.25
455.734	371.25
455.955	378.25
456.175	353.25
456.395	352.25
456.616	368.25
456.836	368.25
457.056	381.25
457.276	367.25
457.497	381.25
457.717	373.25
457.937	374.25
458.157	383.25
458.377	409.25
458.598	417.25
458.818	401.25
459.038	412.25
459.258	424.25
459.478	435.25
459.698	422.25
459.918	448.25
460.138	476.25
460.358	450.25
460.578	466.25
460.798	449.25
461.018	465.25
461.238	467.25
461.458	494.25
461.678	486.25
461.898	504.25
462.118	480.25
462.338	509.25
462.558	508.25
462.777	508.25
462.997	522.25
463.217	561.25
463.437	547.25
463.657	517.25
463.876	514.25
464.096	526.25
464.316	512.25
464.536	512.25
464.755	503.25
464.975	499.25
465.195	494.25
465.414	469.25
465.634	436.25
465.854	438.25
466.073	421.25
466.293	419.25
466.512	416.25
466.732	420.25
466.951	419.25
467.171	413.25
467.391	408.25
467.61	405.25
467.829	409.25
468.049	425.25
468.268	392.25
468.488	410.25
468.707	406.25
468.927	395.25
469.146	394.25
469.365	408.25
469.585	394.25
469.804	411.25
470.023	397.25
470.243	411.25
470.462	437.25
470.681	410.25
470.901	413.25
471.12	429.25
471.339	413.25
471.558	423.25
471.777	411.25
471.997	410.25
472.216	403.25
472.435	418.25
472.654	396.25
472.873	423.25
473.092	401.25
473.311	406.25
473.53	395.25
473.749	394.25
473.968	394.25
474.187	424.25
474.406	404.25
474.625	407.25
474.844	420.25
475.063	416.25
475.282	435.25
475.501	414.25
475.72	400.25
475.939	417.25
476.158	439.25
476.377	426.25
476.596	420.25
476.814	416.25
477.033	436.25
477.252	428.25
477.471	445.25
477.69	448.25
477.908	453.25
478.127	450.25
478.346	440.25
478.564	468.25
478.783	470.25
479.002	472.25
479.22	484.25
479.439	486.25
479.658	505.25
479.876	480.25
480.095	494.25
480.313	503.25
480.532	496.25
480.751	498.25
480.969	488.25
481.188	506.25
481.406	466.25
481.624	480.25
481.843	484.25
482.061	471.25
482.28	466.25
482.498	467.25
482.717	469.25
482.935	434.25
483.153	469.25
483.372	460.25
483.59	480.25
483.808	477.25
484.027	473.25
484.245	461.25
484.463	472.25
484.681	496.25
484.9	493.25
485.118	465.25
485.336	467.25
485.554	494.25
485.772	491.25
485.99	488.25
486.209	477.25
486.427	485.25
486.645	487.25
486.863	503.25
487.081	471.25
487.299	501.25
487.517	466.25
487.735	472.25
487.953	475.25
488.171	471.25
488.389	489.25
488.607	484.25
488.825	483.25
489.043	478.25
489.261	481.25
489.479	474.25
489.696	496.25
489.914	476.25
490.132	489.25
490.35	496.25
490.568	483.25
490.786	480.25
491.003	476.25
491.221	491.25
491.439	477.25
491.657	490.25
491.874	476.25
492.092	485.25
492.31	485.25
492.527	488.25
492.745	481.25
492.963	499.25
493.18	490.25
493.398	493.25
493.615	519.25
493.833	478.25
494.05	523.25
494.268	516.25
494.485	506.25
494.703	520.25
494.92	505.25
495.138	523.25
495.355	522.25
495.573	509.25
495.79	536.25
496.008	541.25
496.225	532.25
496.442	549.25
496.66	541.25
496.877	544.25
497.094	539.25
497.312	564.25
497.529	561.25
497.746	595.25
497.963	594.25
498.181	622.25
498.398	636.25
498.615	682.25
498.832	684.25
499.049	707.25
499.267	754.25
499.484	802.25
499.701	849.25
499.918	907.25
500.135	962.25
500.352	985.25
500.569	1009.25
500.786	992.25
501.003	971.25
501.22	930.25
501.437	885.25
501.654	817.25
501.871	750.25
502.088	700.25
