Data from Fe(NO3)3@0.025M.TitratingCurve.Agarose3%dH2O.NegLispCup.LampEnergy10.LIBS07252019_HRD10591_16-56-54-336.txt Node
Date: Thu Jul 25 16:56:54 EDT 2019
User: cochatt
Spectrometer: HR+D1059
Trigger mode: 1
Integration Time (sec): 1.000000E-1
Scans to average: 1
Electric dark correction enabled: true
Nonlinearity correction enabled: false
Boxcar width: 0
XAxis mode: Wavelengths
Number of Pixels in Spectrum: 2048
>>>>>Begin Spectral Data<<<<<
223.165	-1.81
223.4	-1.81
223.635	-1.81
223.869	-21.81
224.104	-20.81
224.338	-17.81
224.573	-2.81
224.808	-11.81
225.042	-10.81
225.277	-6.81
225.511	3.19
225.746	1.19
225.98	15.19
226.215	7.19
226.449	9.19
226.683	6.19
226.918	17.19
227.152	35.19
227.387	26.19
227.621	45.19
227.856	45.19
228.09	51.19
228.324	48.19
228.559	49.19
228.793	54.19
229.027	53.19
229.262	62.19
229.496	81.19
229.73	71.19
229.964	72.19
230.199	92.19
230.433	82.19
230.667	84.19
230.901	82.19
231.136	84.19
231.37	86.19
231.604	96.19
231.838	85.19
232.072	91.19
232.306	95.19
232.541	86.19
232.775	105.19
233.009	96.19
233.243	86.19
233.477	110.19
233.711	104.19
233.945	98.19
234.179	97.19
234.413	89.19
234.647	90.19
234.881	90.19
235.115	93.19
235.349	91.19
235.583	97.19
235.817	83.19
236.051	98.19
236.285	85.19
236.519	87.19
236.753	113.19
236.987	109.19
237.221	104.19
237.455	89.19
237.689	84.19
237.922	91.19
238.156	96.19
238.39	90.19
238.624	85.19
238.858	81.19
239.091	101.19
239.325	82.19
239.559	88.19
239.793	95.19
240.027	99.19
240.26	88.19
240.494	86.19
240.728	76.19
240.961	94.19
241.195	85.19
241.429	109.19
241.662	79.19
241.896	77.19
242.13	98.19
242.363	101.19
242.597	103.19
242.83	103.19
243.064	102.19
243.298	99.19
243.531	107.19
243.765	103.19
243.998	97.19
244.232	86.19
244.465	87.19
244.699	111.19
244.932	110.19
245.166	112.19
245.399	95.19
245.633	87.19
245.866	92.19
246.099	96.19
246.333	99.19
246.566	110.19
246.8	89.19
247.033	102.19
247.266	105.19
247.5	112.19
247.733	113.19
247.966	104.19
248.2	104.19
248.433	110.19
248.666	96.19
248.899	122.19
249.133	120.19
249.366	106.19
249.599	106.19
249.832	110.19
250.066	115.19
250.299	115.19
250.532	112.19
250.765	121.19
250.998	104.19
251.231	105.19
251.465	99.19
251.698	104.19
251.931	126.19
252.164	94.19
252.397	121.19
252.63	116.19
252.863	119.19
253.096	114.19
253.329	111.19
253.562	106.19
253.795	110.19
254.028	112.19
254.261	110.19
254.494	117.19
254.727	118.19
254.96	118.19
255.193	102.19
255.426	119.19
255.659	125.19
255.892	121.19
256.124	120.19
256.357	119.19
256.59	130.19
256.823	107.19
257.056	109.19
257.289	109.19
257.521	112.19
257.754	131.19
257.987	123.19
258.22	127.19
258.452	117.19
258.685	125.19
258.918	114.19
259.151	126.19
259.383	135.19
259.616	134.19
259.849	135.19
260.081	119.19
260.314	137.19
260.547	131.19
260.779	129.19
261.012	130.19
261.244	112.19
261.477	121.19
261.71	135.19
261.942	130.19
262.175	128.19
262.407	125.19
262.64	126.19
262.872	139.19
263.105	131.19
263.337	142.19
263.57	133.19
263.802	136.19
264.035	135.19
264.267	136.19
264.499	137.19
264.732	151.19
264.964	122.19
265.197	132.19
265.429	145.19
265.661	133.19
265.894	145.19
266.126	137.19
266.358	133.19
266.591	128.19
266.823	144.19
267.055	152.19
267.287	144.19
267.52	133.19
267.752	151.19
267.984	137.19
268.216	142.19
268.448	135.19
268.681	140.19
268.913	129.19
269.145	141.19
269.377	131.19
269.609	141.19
269.841	141.19
270.073	140.19
270.306	144.19
270.538	144.19
270.77	127.19
271.002	137.19
271.234	144.19
271.466	151.19
271.698	129.19
271.93	147.19
272.162	140.19
272.394	169.19
272.626	139.19
272.858	152.19
273.09	147.19
273.322	147.19
273.553	150.19
273.785	158.19
274.017	144.19
274.249	156.19
274.481	144.19
274.713	145.19
274.945	143.19
275.176	153.19
275.408	147.19
275.64	159.19
275.872	146.19
276.104	157.19
276.335	154.19
276.567	139.19
276.799	149.19
277.031	162.19
277.262	155.19
277.494	160.19
277.726	171.19
277.957	159.19
278.189	169.19
278.421	160.19
278.652	162.19
278.884	144.19
279.115	151.19
279.347	155.19
279.579	158.19
279.81	153.19
280.042	156.19
280.273	172.19
280.505	158.19
280.736	156.19
280.968	164.19
281.199	164.19
281.431	167.19
281.662	156.19
281.894	182.19
282.125	171.19
282.356	156.19
282.588	174.19
282.819	183.19
283.051	159.19
283.282	165.19
283.513	144.19
283.745	165.19
283.976	169.19
284.207	180.19
284.439	181.19
284.67	174.19
284.901	175.19
285.132	167.19
285.364	164.19
285.595	186.19
285.826	182.19
286.057	177.19
286.288	175.19
286.52	178.19
286.751	170.19
286.982	177.19
287.213	177.19
287.444	168.19
287.675	164.19
287.906	181.19
288.138	170.19
288.369	174.19
288.6	185.19
288.831	166.19
289.062	187.19
289.293	178.19
289.524	184.19
289.755	176.19
289.986	169.19
290.217	183.19
290.448	186.19
290.679	179.19
290.91	176.19
291.141	170.19
291.371	183.19
291.602	196.19
291.833	187.19
292.064	175.19
292.295	181.19
292.526	164.19
292.757	186.19
292.987	163.19
293.218	181.19
293.449	180.19
293.68	195.19
293.91	186.19
294.141	179.19
294.372	196.19
294.603	193.19
294.833	179.19
295.064	170.19
295.295	191.19
295.525	192.19
295.756	195.19
295.987	203.19
296.217	208.19
296.448	191.19
296.679	181.19
296.909	194.19
297.14	171.19
297.37	199.19
297.601	200.19
297.831	202.19
298.062	191.19
298.292	177.19
298.523	208.19
298.753	190.19
298.984	188.19
299.214	191.19
299.445	206.19
299.675	183.19
299.905	203.19
300.136	199.19
300.366	190.19
300.597	200.19
300.827	192.19
301.057	199.19
301.288	207.19
301.518	196.19
301.748	191.19
301.979	197.19
302.209	202.19
302.439	223.19
302.669	204.19
302.9	197.19
303.13	204.19
303.36	203.19
303.59	216.19
303.82	215.19
304.051	214.19
304.281	210.19
304.511	203.19
304.741	210.19
304.971	210.19
305.201	206.19
305.431	199.19
305.661	194.19
305.891	195.19
306.121	196.19
306.352	199.19
306.582	215.19
306.812	203.19
307.042	207.19
307.272	189.19
307.502	189.19
307.731	215.19
307.961	214.19
308.191	206.19
308.421	187.19
308.651	197.19
308.881	210.19
309.111	199.19
309.341	202.19
309.571	216.19
309.8	202.19
310.03	214.19
310.26	226.19
310.49	229.19
310.72	214.19
310.949	193.19
311.179	186.19
311.409	202.19
311.639	215.19
311.868	214.19
312.098	210.19
312.328	224.19
312.557	221.19
312.787	219.19
313.017	218.19
313.246	224.19
313.476	209.19
313.706	207.19
313.935	232.19
314.165	226.19
314.394	220.19
314.624	224.19
314.853	220.19
315.083	220.19
315.312	233.19
315.542	213.19
315.771	231.19
316.001	216.19
316.23	218.19
316.46	218.19
316.689	227.19
316.919	230.19
317.148	219.19
317.377	219.19
317.607	216.19
317.836	220.19
318.065	217.19
318.295	214.19
318.524	223.19
318.753	230.19
318.983	228.19
319.212	226.19
319.441	226.19
319.67	225.19
319.9	228.19
320.129	216.19
320.358	239.19
320.587	239.19
320.816	234.19
321.046	231.19
321.275	226.19
321.504	199.19
321.733	227.19
321.962	239.19
322.191	234.19
322.42	233.19
322.649	227.19
322.878	227.19
323.108	243.19
323.337	222.19
323.566	245.19
323.795	246.19
324.024	245.19
324.253	233.19
324.482	257.19
324.71	242.19
324.939	254.19
325.168	224.19
325.397	246.19
325.626	233.19
325.855	239.19
326.084	260.19
326.313	253.19
326.542	249.19
326.77	257.19
326.999	232.19
327.228	235.19
327.457	258.19
327.686	233.19
327.914	229.19
328.143	241.19
328.372	253.19
328.6	242.19
328.829	238.19
329.058	244.19
329.287	253.19
329.515	228.19
329.744	255.19
329.972	255.19
330.201	265.19
330.43	251.19
330.658	245.19
330.887	258.19
331.115	255.19
331.344	262.19
331.572	247.19
331.801	259.19
332.03	275.19
332.258	265.19
332.486	278.19
332.715	277.19
332.943	281.19
333.172	267.19
333.4	273.19
333.629	273.19
333.857	287.19
334.085	273.19
334.314	297.19
334.542	285.19
334.771	290.19
334.999	282.19
335.227	281.19
335.455	284.19
335.684	287.19
335.912	280.19
336.14	262.19
336.369	301.19
336.597	276.19
336.825	283.19
337.053	265.19
337.281	289.19
337.51	285.19
337.738	267.19
337.966	283.19
338.194	263.19
338.422	270.19
338.65	277.19
338.878	257.19
339.106	266.19
339.334	268.19
339.562	263.19
339.79	278.19
340.018	262.19
340.246	251.19
340.474	269.19
340.702	267.19
340.93	265.19
341.158	276.19
341.386	252.19
341.614	244.19
341.842	265.19
342.07	265.19
342.298	251.19
342.526	258.19
342.754	265.19
342.981	241.19
343.209	259.19
343.437	292.19
343.665	289.19
343.893	280.19
344.12	307.19
344.348	281.19
344.576	303.19
344.804	280.19
345.031	266.19
345.259	262.19
345.487	262.19
345.714	255.19
345.942	264.19
346.17	261.19
346.397	268.19
346.625	267.19
346.853	252.19
347.08	250.19
347.308	234.19
347.535	251.19
347.763	250.19
347.99	250.19
348.218	288.19
348.445	260.19
348.673	246.19
348.9	258.19
349.128	255.19
349.355	255.19
349.583	254.19
349.81	262.19
350.037	267.19
350.265	254.19
350.492	249.19
350.72	251.19
350.947	262.19
351.174	244.19
351.402	239.19
351.629	252.19
351.856	233.19
352.083	234.19
352.311	255.19
352.538	259.19
352.765	266.19
352.992	260.19
353.22	243.19
353.447	254.19
353.674	274.19
353.901	264.19
354.128	241.19
354.355	248.19
354.583	261.19
354.81	258.19
355.037	250.19
355.264	261.19
355.491	249.19
355.718	249.19
355.945	259.19
356.172	253.19
356.399	262.19
356.626	250.19
356.853	256.19
357.08	250.19
357.307	252.19
357.534	257.19
357.761	262.19
357.988	255.19
358.215	232.19
358.441	249.19
358.668	259.19
358.895	258.19
359.122	260.19
359.349	263.19
359.576	253.19
359.802	255.19
360.029	231.19
360.256	245.19
360.483	258.19
360.709	260.19
360.936	260.19
361.163	267.19
361.39	267.19
361.616	252.19
361.843	241.19
362.07	269.19
362.296	272.19
362.523	266.19
362.749	271.19
362.976	261.19
363.203	265.19
363.429	270.19
363.656	267.19
363.882	288.19
364.109	262.19
364.335	251.19
364.562	255.19
364.788	247.19
365.015	264.19
365.241	266.19
365.468	257.19
365.694	250.19
365.92	253.19
366.147	266.19
366.373	242.19
366.599	270.19
366.826	264.19
367.052	274.19
367.278	262.19
367.505	255.19
367.731	272.19
367.957	279.19
368.184	281.19
368.41	266.19
368.636	257.19
368.862	274.19
369.089	257.19
369.315	267.19
369.541	287.19
369.767	264.19
369.993	281.19
370.219	263.19
370.445	269.19
370.672	291.19
370.898	287.19
371.124	282.19
371.35	271.19
371.576	263.19
371.802	281.19
372.028	284.19
372.254	290.19
372.48	275.19
372.706	299.19
372.932	288.19
373.158	286.19
373.384	284.19
373.61	278.19
373.835	261.19
374.061	277.19
374.287	268.19
374.513	278.19
374.739	287.19
374.965	289.19
375.191	312.19
375.416	279.19
375.642	289.19
375.868	286.19
376.094	295.19
376.319	275.19
376.545	277.19
376.771	292.19
376.997	283.19
377.222	262.19
377.448	284.19
377.674	267.19
377.899	281.19
378.125	272.19
378.35	278.19
378.576	273.19
378.802	275.19
379.027	268.19
379.253	279.19
379.478	291.19
379.704	266.19
379.929	263.19
380.155	261.19
380.38	279.19
380.606	264.19
380.831	271.19
381.057	280.19
381.282	288.19
381.507	291.19
381.733	283.19
381.958	297.19
382.184	265.19
382.409	268.19
382.634	280.19
382.86	291.19
383.085	309.19
383.31	289.19
383.535	305.19
383.761	302.19
383.986	301.19
384.211	306.19
384.436	294.19
384.662	301.19
384.887	294.19
385.112	309.19
385.337	313.19
385.562	328.19
385.787	305.19
386.013	327.19
386.238	319.19
386.463	295.19
386.688	325.19
386.913	313.19
387.138	320.19
387.363	319.19
387.588	330.19
387.813	327.19
388.038	296.19
388.263	315.19
388.488	302.19
388.713	315.19
388.938	336.19
389.163	319.19
389.387	306.19
389.612	318.19
389.837	321.19
390.062	309.19
390.287	312.19
390.512	305.19
390.736	313.19
390.961	307.19
391.186	335.19
391.411	337.19
391.636	320.19
391.86	327.19
392.085	334.19
392.31	333.19
392.534	342.19
392.759	350.19
392.984	334.19
393.208	324.19
393.433	335.19
393.658	312.19
393.882	331.19
394.107	345.19
394.331	349.19
394.556	315.19
394.78	341.19
395.005	345.19
395.229	345.19
395.454	344.19
395.678	329.19
395.903	338.19
396.127	331.19
396.352	341.19
396.576	325.19
396.801	353.19
397.025	330.19
397.249	353.19
397.474	352.19
397.698	369.19
397.922	345.19
398.147	346.19
398.371	367.19
398.595	367.19
398.82	382.19
399.044	402.19
399.268	401.19
399.492	443.19
399.717	443.19
399.941	441.19
400.165	432.19
400.389	414.19
400.613	409.19
400.837	386.19
401.062	367.19
401.286	383.19
401.51	379.19
401.734	361.19
401.958	373.19
402.182	377.19
402.406	361.19
402.63	401.19
402.854	386.19
403.078	401.19
403.302	394.19
403.526	371.19
403.75	373.19
403.974	373.19
404.198	380.19
404.422	385.19
404.645	396.19
404.869	400.19
405.093	373.19
405.317	381.19
405.541	379.19
405.765	381.19
405.988	393.19
406.212	423.19
406.436	396.19
406.66	410.19
406.883	388.19
407.107	401.19
407.331	402.19
407.555	417.19
407.778	406.19
408.002	411.19
408.226	434.19
408.449	433.19
408.673	406.19
408.896	408.19
409.12	383.19
409.344	381.19
409.567	390.19
409.791	399.19
410.014	377.19
410.238	389.19
410.461	386.19
410.685	390.19
410.908	395.19
411.132	394.19
411.355	380.19
411.578	399.19
411.802	359.19
412.025	374.19
412.249	382.19
412.472	385.19
412.695	399.19
412.919	363.19
413.142	361.19
413.365	370.19
413.589	360.19
413.812	358.19
414.035	377.19
414.258	361.19
414.482	349.19
414.705	370.19
414.928	371.19
415.151	359.19
415.374	374.19
415.597	380.19
415.821	373.19
416.044	368.19
416.267	341.19
416.49	352.19
416.713	359.19
416.936	373.19
417.159	351.19
417.382	350.19
417.605	354.19
417.828	355.19
418.051	364.19
418.274	345.19
418.497	355.19
418.72	371.19
418.943	362.19
419.166	375.19
419.389	381.19
419.611	373.19
419.834	378.19
420.057	373.19
420.28	369.19
420.503	377.19
420.726	350.19
420.948	360.19
421.171	343.19
421.394	356.19
421.617	353.19
421.839	354.19
422.062	368.19
422.285	353.19
422.507	354.19
422.73	357.19
422.953	358.19
423.175	347.19
423.398	345.19
423.621	371.19
423.843	373.19
424.066	356.19
424.288	333.19
424.511	342.19
424.733	349.19
424.956	368.19
425.178	346.19
425.401	347.19
425.623	370.19
425.846	349.19
426.068	341.19
426.291	346.19
426.513	345.19
426.735	335.19
426.958	333.19
427.18	328.19
427.402	351.19
427.625	333.19
427.847	328.19
428.069	314.19
428.292	331.19
428.514	329.19
428.736	334.19
428.958	321.19
429.181	315.19
429.403	334.19
429.625	325.19
429.847	337.19
430.069	342.19
430.292	343.19
430.514	333.19
430.736	320.19
430.958	325.19
431.18	322.19
431.402	310.19
431.624	314.19
431.846	338.19
432.068	338.19
432.29	329.19
432.512	349.19
432.734	329.19
432.956	315.19
433.178	339.19
433.4	329.19
433.622	329.19
433.844	339.19
434.066	356.19
434.287	337.19
434.509	365.19
434.731	328.19
434.953	351.19
435.175	362.19
435.397	343.19
435.618	330.19
435.84	335.19
436.062	336.19
436.284	338.19
436.505	323.19
436.727	333.19
436.949	342.19
437.17	344.19
437.392	302.19
437.614	319.19
437.835	299.19
438.057	329.19
438.278	308.19
438.5	333.19
438.721	324.19
438.943	325.19
439.165	334.19
439.386	331.19
439.608	349.19
439.829	322.19
440.05	325.19
440.272	350.19
440.493	331.19
440.715	321.19
440.936	324.19
441.158	326.19
441.379	348.19
441.6	335.19
441.822	347.19
442.043	326.19
442.264	337.19
442.486	347.19
442.707	338.19
442.928	322.19
443.149	347.19
443.371	346.19
443.592	348.19
443.813	352.19
444.034	360.19
444.255	355.19
444.476	369.19
444.698	372.19
444.919	370.19
445.14	463.19
445.361	375.19
445.582	343.19
445.803	356.19
446.024	341.19
446.245	322.19
446.466	335.19
446.687	306.19
446.908	310.19
447.129	309.19
447.35	311.19
447.571	316.19
447.792	328.19
448.013	323.19
448.234	307.19
448.455	297.19
448.675	295.19
448.896	299.19
449.117	312.19
449.338	305.19
449.559	296.19
449.779	296.19
450	291.19
450.221	319.19
450.442	290.19
450.662	295.19
450.883	290.19
451.104	275.19
451.324	310.19
451.545	303.19
451.766	302.19
451.986	290.19
452.207	284.19
452.428	301.19
452.648	294.19
452.869	291.19
453.089	280.19
453.31	311.19
453.53	276.19
453.751	295.19
453.971	304.19
454.192	297.19
454.412	292.19
454.633	307.19
454.853	282.19
455.073	278.19
455.294	274.19
455.514	278.19
455.734	293.19
455.955	305.19
456.175	287.19
456.395	281.19
456.616	288.19
456.836	286.19
457.056	305.19
457.276	286.19
457.497	301.19
457.717	305.19
457.937	309.19
458.157	313.19
458.377	308.19
458.598	314.19
458.818	320.19
459.038	313.19
459.258	316.19
459.478	338.19
459.698	332.19
459.918	332.19
460.138	344.19
460.358	352.19
460.578	362.19
460.798	338.19
461.018	358.19
461.238	377.19
461.458	348.19
461.678	352.19
461.898	380.19
462.118	355.19
462.338	365.19
462.558	381.19
462.777	402.19
462.997	417.19
463.217	417.19
463.437	430.19
463.657	401.19
463.876	399.19
464.096	396.19
464.316	358.19
464.536	386.19
464.755	383.19
464.975	385.19
465.195	382.19
465.414	361.19
465.634	332.19
465.854	353.19
466.073	354.19
466.293	334.19
466.512	330.19
466.732	323.19
466.951	324.19
467.171	318.19
467.391	328.19
467.61	296.19
467.829	304.19
468.049	317.19
468.268	309.19
468.488	306.19
468.707	314.19
468.927	309.19
469.146	317.19
469.365	327.19
469.585	305.19
469.804	333.19
470.023	310.19
470.243	315.19
470.462	329.19
470.681	322.19
470.901	335.19
471.12	321.19
471.339	312.19
471.558	303.19
471.777	334.19
471.997	304.19
472.216	330.19
472.435	302.19
472.654	318.19
472.873	322.19
473.092	306.19
473.311	338.19
473.53	325.19
473.749	330.19
473.968	324.19
474.187	314.19
474.406	310.19
474.625	333.19
474.844	317.19
475.063	315.19
475.282	323.19
475.501	322.19
475.72	317.19
475.939	319.19
476.158	329.19
476.377	331.19
476.596	341.19
476.814	324.19
477.033	332.19
477.252	321.19
477.471	339.19
477.69	336.19
477.908	331.19
478.127	333.19
478.346	358.19
478.564	351.19
478.783	357.19
479.002	371.19
479.22	355.19
479.439	365.19
479.658	378.19
479.876	388.19
480.095	374.19
480.313	402.19
480.532	374.19
480.751	377.19
480.969	370.19
481.188	371.19
481.406	373.19
481.624	368.19
481.843	371.19
482.061	344.19
482.28	369.19
482.498	365.19
482.717	353.19
482.935	373.19
483.153	357.19
483.372	362.19
483.59	370.19
483.808	354.19
484.027	369.19
484.245	362.19
484.463	360.19
484.681	377.19
484.9	354.19
485.118	375.19
485.336	358.19
485.554	371.19
485.772	383.19
485.99	400.19
486.209	385.19
486.427	383.19
486.645	372.19
486.863	382.19
487.081	394.19
487.299	388.19
487.517	407.19
487.735	367.19
487.953	366.19
488.171	392.19
488.389	373.19
488.607	365.19
488.825	390.19
489.043	368.19
489.261	379.19
489.479	375.19
489.696	389.19
489.914	363.19
490.132	375.19
490.35	368.19
490.568	363.19
490.786	374.19
491.003	376.19
491.221	386.19
491.439	412.19
491.657	361.19
491.874	394.19
492.092	390.19
492.31	395.19
492.527	373.19
492.745	369.19
492.963	377.19
493.18	385.19
493.398	375.19
493.615	395.19
493.833	403.19
494.05	388.19
494.268	395.19
494.485	407.19
494.703	373.19
494.92	393.19
495.138	393.19
495.355	411.19
495.573	406.19
495.79	383.19
496.008	414.19
496.225	391.19
496.442	401.19
496.66	415.19
496.877	431.19
497.094	424.19
497.312	429.19
497.529	441.19
497.746	469.19
497.963	449.19
498.181	450.19
498.398	493.19
498.615	496.19
498.832	501.19
499.049	555.19
499.267	569.19
499.484	595.19
499.701	622.19
499.918	645.19
500.135	715.19
500.352	739.19
500.569	724.19
500.786	711.19
501.003	707.19
501.22	679.19
501.437	631.19
501.654	600.19
501.871	557.19
502.088	545.19
502.305	543.19
502.522	490.19
