Data from Fe(NO3)3@0.1M.TitratingCurve.Agarose3%dH2O.NegLispCup.LampEnergy10.LIBS07252019_HRD10591_16-41-55-333.txt Node
Date: Thu Jul 25 16:41:55 EDT 2019
User: cochatt
Spectrometer: HR+D1059
Trigger mode: 1
Integration Time (sec): 1.000000E-1
Scans to average: 1
Electric dark correction enabled: true
Nonlinearity correction enabled: false
Boxcar width: 0
XAxis mode: Wavelengths
Number of Pixels in Spectrum: 2048
>>>>>Begin Spectral Data<<<<<
223.165	-20.5
223.4	-20.5
223.635	-20.5
223.869	-12.5
224.104	-13.5
224.338	-7.5
224.573	-12.5
224.808	-25.5
225.042	-9.5
225.277	-12.5
225.511	-18.5
225.746	-5.5
225.98	16.5
226.215	22.5
226.449	22.5
226.683	32.5
226.918	7.5
227.152	36.5
227.387	26.5
227.621	54.5
227.856	51.5
228.09	38.5
228.324	63.5
228.559	52.5
228.793	55.5
229.027	78.5
229.262	88.5
229.496	94.5
229.73	89.5
229.964	104.5
230.199	102.5
230.433	91.5
230.667	98.5
230.901	102.5
231.136	104.5
231.37	103.5
231.604	98.5
231.838	117.5
232.072	91.5
232.306	107.5
232.541	115.5
232.775	109.5
233.009	107.5
233.243	127.5
233.477	106.5
233.711	109.5
233.945	111.5
234.179	99.5
234.413	124.5
234.647	109.5
234.881	116.5
235.115	108.5
235.349	101.5
235.583	106.5
235.817	105.5
236.051	92.5
236.285	98.5
236.519	100.5
236.753	94.5
236.987	114.5
237.221	106.5
237.455	112.5
237.689	106.5
237.922	101.5
238.156	114.5
238.39	106.5
238.624	117.5
238.858	111.5
239.091	121.5
239.325	99.5
239.559	123.5
239.793	122.5
240.027	120.5
240.26	127.5
240.494	113.5
240.728	108.5
240.961	122.5
241.195	106.5
241.429	106.5
241.662	111.5
241.896	107.5
242.13	115.5
242.363	106.5
242.597	110.5
242.83	126.5
243.064	126.5
243.298	128.5
243.531	128.5
243.765	128.5
243.998	131.5
244.232	113.5
244.465	115.5
244.699	122.5
244.932	127.5
245.166	128.5
245.399	137.5
245.633	132.5
245.866	124.5
246.099	136.5
246.333	141.5
246.566	132.5
246.8	126.5
247.033	134.5
247.266	126.5
247.5	140.5
247.733	130.5
247.966	145.5
248.2	134.5
248.433	134.5
248.666	139.5
248.899	129.5
249.133	138.5
249.366	136.5
249.599	134.5
249.832	136.5
250.066	135.5
250.299	143.5
250.532	144.5
250.765	141.5
250.998	147.5
251.231	137.5
251.465	150.5
251.698	138.5
251.931	131.5
252.164	136.5
252.397	156.5
252.63	151.5
252.863	150.5
253.096	138.5
253.329	144.5
253.562	157.5
253.795	140.5
254.028	157.5
254.261	139.5
254.494	130.5
254.727	152.5
254.96	132.5
255.193	146.5
255.426	150.5
255.659	151.5
255.892	155.5
256.124	161.5
256.357	153.5
256.59	157.5
256.823	155.5
257.056	154.5
257.289	161.5
257.521	155.5
257.754	165.5
257.987	161.5
258.22	160.5
258.452	154.5
258.685	163.5
258.918	141.5
259.151	158.5
259.383	158.5
259.616	164.5
259.849	157.5
260.081	150.5
260.314	167.5
260.547	153.5
260.779	167.5
261.012	150.5
261.244	158.5
261.477	168.5
261.71	158.5
261.942	152.5
262.175	161.5
262.407	167.5
262.64	173.5
262.872	172.5
263.105	165.5
263.337	178.5
263.57	159.5
263.802	172.5
264.035	190.5
264.267	174.5
264.499	178.5
264.732	168.5
264.964	154.5
265.197	168.5
265.429	180.5
265.661	182.5
265.894	178.5
266.126	163.5
266.358	170.5
266.591	170.5
266.823	168.5
267.055	178.5
267.287	182.5
267.52	170.5
267.752	188.5
267.984	176.5
268.216	167.5
268.448	195.5
268.681	185.5
268.913	183.5
269.145	176.5
269.377	202.5
269.609	188.5
269.841	174.5
270.073	185.5
270.306	188.5
270.538	196.5
270.77	189.5
271.002	198.5
271.234	182.5
271.466	184.5
271.698	207.5
271.93	190.5
272.162	199.5
272.394	190.5
272.626	198.5
272.858	204.5
273.09	192.5
273.322	192.5
273.553	186.5
273.785	202.5
274.017	206.5
274.249	207.5
274.481	213.5
274.713	213.5
274.945	198.5
275.176	203.5
275.408	188.5
275.64	200.5
275.872	200.5
276.104	194.5
276.335	211.5
276.567	211.5
276.799	202.5
277.031	198.5
277.262	195.5
277.494	205.5
277.726	194.5
277.957	204.5
278.189	216.5
278.421	202.5
278.652	199.5
278.884	212.5
279.115	216.5
279.347	218.5
279.579	211.5
279.81	203.5
280.042	207.5
280.273	219.5
280.505	207.5
280.736	215.5
280.968	216.5
281.199	237.5
281.431	192.5
281.662	208.5
281.894	218.5
282.125	219.5
282.356	235.5
282.588	231.5
282.819	224.5
283.051	223.5
283.282	216.5
283.513	239.5
283.745	238.5
283.976	232.5
284.207	236.5
284.439	220.5
284.67	218.5
284.901	237.5
285.132	239.5
285.364	236.5
285.595	222.5
285.826	223.5
286.057	233.5
286.288	223.5
286.52	223.5
286.751	236.5
286.982	223.5
287.213	227.5
287.444	245.5
287.675	230.5
287.906	253.5
288.138	226.5
288.369	236.5
288.6	242.5
288.831	237.5
289.062	226.5
289.293	240.5
289.524	246.5
289.755	236.5
289.986	238.5
290.217	229.5
290.448	233.5
290.679	249.5
290.91	251.5
291.141	237.5
291.371	246.5
291.602	256.5
291.833	263.5
292.064	250.5
292.295	242.5
292.526	259.5
292.757	245.5
292.987	248.5
293.218	230.5
293.449	247.5
293.68	234.5
293.91	248.5
294.141	258.5
294.372	255.5
294.603	248.5
294.833	248.5
295.064	235.5
295.295	258.5
295.525	258.5
295.756	243.5
295.987	235.5
296.217	254.5
296.448	243.5
296.679	247.5
296.909	256.5
297.14	260.5
297.37	249.5
297.601	262.5
297.831	264.5
298.062	253.5
298.292	260.5
298.523	262.5
298.753	272.5
298.984	262.5
299.214	266.5
299.445	263.5
299.675	260.5
299.905	273.5
300.136	267.5
300.366	265.5
300.597	279.5
300.827	261.5
301.057	266.5
301.288	243.5
301.518	283.5
301.748	263.5
301.979	286.5
302.209	280.5
302.439	276.5
302.669	261.5
302.9	277.5
303.13	291.5
303.36	268.5
303.59	272.5
303.82	277.5
304.051	260.5
304.281	274.5
304.511	272.5
304.741	266.5
304.971	274.5
305.201	280.5
305.431	278.5
305.661	278.5
305.891	280.5
306.121	280.5
306.352	269.5
306.582	259.5
306.812	273.5
307.042	271.5
307.272	259.5
307.502	284.5
307.731	270.5
307.961	272.5
308.191	278.5
308.421	283.5
308.651	292.5
308.881	265.5
309.111	268.5
309.341	267.5
309.571	260.5
309.8	262.5
310.03	271.5
310.26	283.5
310.49	276.5
310.72	290.5
310.949	288.5
311.179	283.5
311.409	292.5
311.639	291.5
311.868	285.5
312.098	272.5
312.328	302.5
312.557	296.5
312.787	290.5
313.017	291.5
313.246	293.5
313.476	286.5
313.706	298.5
313.935	300.5
314.165	292.5
314.394	298.5
314.624	303.5
314.853	287.5
315.083	300.5
315.312	294.5
315.542	283.5
315.771	297.5
316.001	299.5
316.23	328.5
316.46	282.5
316.689	293.5
316.919	299.5
317.148	295.5
317.377	298.5
317.607	278.5
317.836	291.5
318.065	282.5
318.295	282.5
318.524	294.5
318.753	284.5
318.983	287.5
319.212	295.5
319.441	299.5
319.67	294.5
319.9	269.5
320.129	292.5
320.358	287.5
320.587	292.5
320.816	295.5
321.046	295.5
321.275	300.5
321.504	318.5
321.733	302.5
321.962	296.5
322.191	307.5
322.42	296.5
322.649	301.5
322.878	307.5
323.108	310.5
323.337	299.5
323.566	306.5
323.795	302.5
324.024	312.5
324.253	322.5
324.482	301.5
324.71	304.5
324.939	293.5
325.168	301.5
325.397	324.5
325.626	318.5
325.855	314.5
326.084	318.5
326.313	322.5
326.542	303.5
326.77	322.5
326.999	312.5
327.228	328.5
327.457	324.5
327.686	324.5
327.914	315.5
328.143	345.5
328.372	330.5
328.6	307.5
328.829	340.5
329.058	348.5
329.287	318.5
329.515	328.5
329.744	332.5
329.972	316.5
330.201	325.5
330.43	304.5
330.658	319.5
330.887	329.5
331.115	339.5
331.344	346.5
331.572	310.5
331.801	333.5
332.03	370.5
332.258	357.5
332.486	370.5
332.715	374.5
332.943	374.5
333.172	393.5
333.4	390.5
333.629	414.5
333.857	414.5
334.085	416.5
334.314	402.5
334.542	396.5
334.771	396.5
334.999	389.5
335.227	394.5
335.455	386.5
335.684	358.5
335.912	379.5
336.14	376.5
336.369	358.5
336.597	376.5
336.825	358.5
337.053	362.5
337.281	392.5
337.51	361.5
337.738	372.5
337.966	354.5
338.194	352.5
338.422	342.5
338.65	339.5
338.878	338.5
339.106	344.5
339.334	359.5
339.562	342.5
339.79	340.5
340.018	335.5
340.246	336.5
340.474	321.5
340.702	350.5
340.93	320.5
341.158	324.5
341.386	336.5
341.614	345.5
341.842	328.5
342.07	314.5
342.298	350.5
342.526	343.5
342.754	330.5
342.981	327.5
343.209	357.5
343.437	374.5
343.665	379.5
343.893	382.5
344.12	387.5
344.348	386.5
344.576	372.5
344.804	347.5
345.031	357.5
345.259	351.5
345.487	360.5
345.714	335.5
345.942	329.5
346.17	340.5
346.397	337.5
346.625	322.5
346.853	333.5
347.08	320.5
347.308	326.5
347.535	330.5
347.763	358.5
347.99	343.5
348.218	343.5
348.445	328.5
348.673	321.5
348.9	349.5
349.128	333.5
349.355	339.5
349.583	344.5
349.81	329.5
350.037	316.5
350.265	306.5
350.492	315.5
350.72	337.5
350.947	337.5
351.174	311.5
351.402	314.5
351.629	325.5
351.856	302.5
352.083	326.5
352.311	308.5
352.538	325.5
352.765	323.5
352.992	347.5
353.22	316.5
353.447	327.5
353.674	335.5
353.901	320.5
354.128	312.5
354.355	314.5
354.583	318.5
354.81	312.5
355.037	348.5
355.264	336.5
355.491	329.5
355.718	321.5
355.945	323.5
356.172	317.5
356.399	328.5
356.626	338.5
356.853	315.5
357.08	333.5
357.307	330.5
357.534	326.5
357.761	325.5
357.988	320.5
358.215	335.5
358.441	333.5
358.668	327.5
358.895	318.5
359.122	338.5
359.349	331.5
359.576	330.5
359.802	334.5
360.029	335.5
360.256	305.5
360.483	325.5
360.709	315.5
360.936	319.5
361.163	324.5
361.39	327.5
361.616	331.5
361.843	323.5
362.07	337.5
362.296	334.5
362.523	337.5
362.749	317.5
362.976	311.5
363.203	325.5
363.429	313.5
363.656	309.5
363.882	315.5
364.109	327.5
364.335	323.5
364.562	325.5
364.788	326.5
365.015	327.5
365.241	331.5
365.468	324.5
365.694	332.5
365.92	332.5
366.147	312.5
366.373	337.5
366.599	326.5
366.826	301.5
367.052	302.5
367.278	322.5
367.505	336.5
367.731	328.5
367.957	349.5
368.184	328.5
368.41	321.5
368.636	341.5
368.862	311.5
369.089	342.5
369.315	348.5
369.541	322.5
369.767	344.5
369.993	329.5
370.219	346.5
370.445	352.5
370.672	341.5
370.898	346.5
371.124	345.5
371.35	355.5
371.576	349.5
371.802	356.5
372.028	361.5
372.254	366.5
372.48	372.5
372.706	350.5
372.932	367.5
373.158	356.5
373.384	378.5
373.61	362.5
373.835	345.5
374.061	364.5
374.287	354.5
374.513	370.5
374.739	377.5
374.965	372.5
375.191	388.5
375.416	375.5
375.642	371.5
375.868	379.5
376.094	364.5
376.319	364.5
376.545	349.5
376.771	363.5
376.997	354.5
377.222	353.5
377.448	347.5
377.674	363.5
377.899	350.5
378.125	346.5
378.35	346.5
378.576	348.5
378.802	362.5
379.027	344.5
379.253	357.5
379.478	361.5
379.704	344.5
379.929	336.5
380.155	333.5
380.38	351.5
380.606	374.5
380.831	352.5
381.057	363.5
381.282	335.5
381.507	342.5
381.733	374.5
381.958	347.5
382.184	357.5
382.409	365.5
382.634	375.5
382.86	355.5
383.085	382.5
383.31	384.5
383.535	389.5
383.761	382.5
383.986	386.5
384.211	406.5
384.436	403.5
384.662	411.5
384.887	402.5
385.112	394.5
385.337	439.5
385.562	417.5
385.787	420.5
386.013	425.5
386.238	421.5
386.463	415.5
386.688	419.5
386.913	395.5
387.138	412.5
387.363	438.5
387.588	423.5
387.813	418.5
388.038	423.5
388.263	414.5
388.488	398.5
388.713	397.5
388.938	384.5
389.163	411.5
389.387	406.5
389.612	417.5
389.837	422.5
390.062	407.5
390.287	408.5
390.512	388.5
390.736	394.5
390.961	447.5
391.186	431.5
391.411	422.5
391.636	459.5
391.86	445.5
392.085	444.5
392.31	444.5
392.534	459.5
392.759	429.5
392.984	435.5
393.208	448.5
393.433	445.5
393.658	447.5
393.882	413.5
394.107	442.5
394.331	446.5
394.556	436.5
394.78	421.5
395.005	454.5
395.229	452.5
395.454	455.5
395.678	478.5
395.903	453.5
396.127	455.5
396.352	447.5
396.576	444.5
396.801	443.5
397.025	455.5
397.249	467.5
397.474	455.5
397.698	456.5
397.922	482.5
398.147	487.5
398.371	484.5
398.595	488.5
398.82	499.5
399.044	549.5
399.268	581.5
399.492	670.5
399.717	695.5
399.941	676.5
400.165	628.5
400.389	599.5
400.613	546.5
400.837	520.5
401.062	539.5
401.286	522.5
401.51	498.5
401.734	499.5
401.958	512.5
402.182	517.5
402.406	512.5
402.63	514.5
402.854	539.5
403.078	572.5
403.302	553.5
403.526	525.5
403.75	548.5
403.974	546.5
404.198	553.5
404.422	574.5
404.645	559.5
404.869	561.5
405.093	564.5
405.317	578.5
405.541	569.5
405.765	553.5
405.988	563.5
406.212	534.5
406.436	547.5
406.66	573.5
406.883	579.5
407.107	603.5
407.331	620.5
407.555	616.5
407.778	628.5
408.002	628.5
408.226	599.5
408.449	595.5
408.673	557.5
408.896	564.5
409.12	546.5
409.344	564.5
409.567	558.5
409.791	566.5
410.014	546.5
410.238	543.5
410.461	546.5
410.685	559.5
410.908	533.5
411.132	507.5
411.355	517.5
411.578	518.5
411.802	524.5
412.025	534.5
412.249	545.5
412.472	549.5
412.695	534.5
412.919	527.5
413.142	502.5
413.365	534.5
413.589	514.5
413.812	513.5
414.035	514.5
414.258	507.5
414.482	525.5
414.705	535.5
414.928	506.5
415.151	530.5
415.374	532.5
415.597	544.5
415.821	518.5
416.044	508.5
416.267	511.5
416.49	484.5
416.713	495.5
416.936	499.5
417.159	480.5
417.382	504.5
417.605	496.5
417.828	479.5
418.051	517.5
418.274	513.5
418.497	492.5
418.72	527.5
418.943	529.5
419.166	548.5
419.389	576.5
419.611	530.5
419.834	542.5
420.057	545.5
420.28	500.5
420.503	491.5
420.726	512.5
420.948	520.5
421.171	510.5
421.394	514.5
421.617	495.5
421.839	506.5
422.062	520.5
422.285	524.5
422.507	513.5
422.73	517.5
422.953	508.5
423.175	501.5
423.398	545.5
423.621	544.5
423.843	523.5
424.066	503.5
424.288	518.5
424.511	515.5
424.733	514.5
424.956	512.5
425.178	514.5
425.401	484.5
425.623	493.5
425.846	495.5
426.068	476.5
426.291	500.5
426.513	476.5
426.735	495.5
426.958	487.5
427.18	470.5
427.402	447.5
427.625	467.5
427.847	457.5
428.069	460.5
428.292	460.5
428.514	456.5
428.736	479.5
428.958	465.5
429.181	475.5
429.403	457.5
429.625	473.5
429.847	459.5
430.069	460.5
430.292	461.5
430.514	466.5
430.736	462.5
430.958	467.5
431.18	451.5
431.402	463.5
431.624	454.5
431.846	454.5
432.068	459.5
432.29	477.5
432.512	458.5
432.734	470.5
432.956	481.5
433.178	475.5
433.4	474.5
433.622	478.5
433.844	477.5
434.066	494.5
434.287	478.5
434.509	489.5
434.731	516.5
434.953	514.5
435.175	506.5
435.397	512.5
435.618	462.5
435.84	467.5
436.062	474.5
436.284	464.5
436.505	455.5
436.727	471.5
436.949	453.5
437.17	464.5
437.392	469.5
437.614	474.5
437.835	453.5
438.057	467.5
438.278	436.5
438.5	457.5
438.721	445.5
438.943	458.5
439.165	469.5
439.386	452.5
439.608	454.5
439.829	473.5
440.05	464.5
440.272	483.5
440.493	485.5
440.715	478.5
440.936	505.5
441.158	502.5
441.379	521.5
441.6	529.5
441.822	517.5
442.043	514.5
442.264	521.5
442.486	515.5
442.707	502.5
442.928	508.5
443.149	512.5
443.371	517.5
443.592	522.5
443.813	515.5
444.034	532.5
444.255	530.5
444.476	574.5
444.698	566.5
444.919	589.5
445.14	639.5
445.361	569.5
445.582	542.5
445.803	493.5
446.024	483.5
446.245	487.5
446.466	534.5
446.687	479.5
446.908	476.5
447.129	475.5
447.35	462.5
447.571	461.5
447.792	453.5
448.013	449.5
448.234	461.5
448.455	465.5
448.675	431.5
448.896	445.5
449.117	418.5
449.338	429.5
449.559	442.5
449.779	459.5
450	435.5
450.221	434.5
450.442	441.5
450.662	434.5
450.883	437.5
451.104	463.5
451.324	440.5
451.545	414.5
451.766	454.5
451.986	439.5
452.207	424.5
452.428	436.5
452.648	438.5
452.869	430.5
453.089	422.5
453.31	409.5
453.53	440.5
453.751	412.5
453.971	428.5
454.192	408.5
454.412	416.5
454.633	413.5
454.853	413.5
455.073	419.5
455.294	410.5
455.514	406.5
455.734	413.5
455.955	412.5
456.175	425.5
456.395	394.5
456.616	416.5
456.836	409.5
457.056	400.5
457.276	392.5
457.497	426.5
457.717	398.5
457.937	415.5
458.157	404.5
458.377	431.5
458.598	423.5
458.818	412.5
459.038	454.5
459.258	438.5
459.478	448.5
459.698	454.5
459.918	477.5
460.138	501.5
460.358	522.5
460.578	526.5
460.798	533.5
461.018	532.5
461.238	533.5
461.458	522.5
461.678	530.5
461.898	531.5
462.118	523.5
462.338	562.5
462.558	578.5
462.777	602.5
462.997	646.5
463.217	692.5
463.437	665.5
463.657	615.5
463.876	605.5
464.096	590.5
464.316	591.5
464.536	604.5
464.755	580.5
464.975	545.5
465.195	537.5
465.414	515.5
465.634	489.5
465.854	509.5
466.073	471.5
466.293	474.5
466.512	462.5
466.732	438.5
466.951	435.5
467.171	448.5
467.391	453.5
467.61	447.5
467.829	456.5
468.049	447.5
468.268	446.5
468.488	434.5
468.707	433.5
468.927	447.5
469.146	434.5
469.365	448.5
469.585	446.5
469.804	450.5
470.023	450.5
470.243	435.5
470.462	461.5
470.681	463.5
470.901	446.5
471.12	463.5
471.339	440.5
471.558	450.5
471.777	469.5
471.997	446.5
472.216	421.5
472.435	424.5
472.654	409.5
472.873	418.5
473.092	395.5
473.311	422.5
473.53	445.5
473.749	416.5
473.968	428.5
474.187	410.5
474.406	435.5
474.625	429.5
474.844	442.5
475.063	431.5
475.282	411.5
475.501	426.5
475.72	438.5
475.939	428.5
476.158	444.5
476.377	439.5
476.596	436.5
476.814	444.5
477.033	431.5
477.252	448.5
477.471	462.5
477.69	475.5
477.908	486.5
478.127	466.5
478.346	485.5
478.564	499.5
478.783	493.5
479.002	525.5
479.22	499.5
479.439	541.5
479.658	500.5
479.876	487.5
480.095	487.5
480.313	521.5
480.532	521.5
480.751	551.5
480.969	512.5
481.188	506.5
481.406	481.5
481.624	481.5
481.843	481.5
482.061	460.5
482.28	460.5
482.498	451.5
482.717	474.5
482.935	458.5
483.153	446.5
483.372	453.5
483.59	461.5
483.808	494.5
484.027	461.5
484.245	455.5
484.463	481.5
484.681	493.5
484.9	494.5
485.118	476.5
485.336	483.5
485.554	474.5
485.772	495.5
485.99	475.5
486.209	477.5
486.427	462.5
486.645	488.5
486.863	493.5
487.081	500.5
487.299	467.5
487.517	468.5
487.735	482.5
487.953	501.5
488.171	494.5
488.389	501.5
488.607	470.5
488.825	468.5
489.043	480.5
489.261	471.5
489.479	495.5
489.696	464.5
489.914	485.5
490.132	503.5
490.35	489.5
490.568	529.5
490.786	516.5
491.003	488.5
491.221	520.5
491.439	507.5
491.657	484.5
491.874	496.5
492.092	515.5
492.31	516.5
492.527	504.5
492.745	506.5
492.963	524.5
493.18	522.5
493.398	533.5
493.615	499.5
493.833	526.5
494.05	519.5
494.268	511.5
494.485	527.5
494.703	531.5
494.92	539.5
495.138	518.5
495.355	538.5
495.573	543.5
495.79	516.5
496.008	542.5
496.225	546.5
496.442	541.5
496.66	537.5
496.877	551.5
497.094	563.5
497.312	568.5
497.529	575.5
497.746	604.5
497.963	593.5
498.181	620.5
498.398	650.5
498.615	650.5
498.832	696.5
499.049	763.5
499.267	822.5
499.484	869.5
499.701	926.5
499.918	1026.5
500.135	1138.5
500.352	1244.5
500.569	1290.5
500.786	1279.5
501.003	1188.5
501.22	1084.5
501.437	970.5
501.654	871.5
501.871	824.5
502.088	777.5
502.305	730.5
502.522	710.5
502.739	664.5
502.956	622.5
503.172	588.5
503.389	575.5
503.606	578.5
503.823	589.5
504.04	586.5
504.256	587.5
504.473	596.5
504.69	587.5
504.907	571.5
505.123	538.5
505.34	558.5
505.557	500.5
505.773	509.5
505.99	502.5
506.207	484.5
506.423	479.5
506.64	469.5
506.856	461.5
507.073	458.5
507.289	463.5
507.506	456.5
507.722	450.5
507.939	455.5
508.155	443.5
508.372	431.5
508.588	438.5
508.805	453.5
509.021	445.5
509.238	410.5
509.454	405.5
509.67	410.5
509.887	412.5
510.103	415.5
510.319	420.5
510.536	426.5
510.752	434.5
510.968	424.5
511.184	412.5
511.401	418.5
511.617	425.5
511.833	426.5
512.049	420.5
512.265	429.5
512.481	418.5
512.698	418.5
512.914	427.5
513.13	429.5
513.346	429.5
513.562	408.5
513.778	425.5
513.994	410.5
514.21	435.5
514.426	413.5
514.642	426.5
514.858	434.5
515.074	427.5
515.29	459.5
515.506	443.5
515.721	459.5
515.937	451.5
516.153	452.5
516.369	451.5
516.585	473.5
516.801	469.5
517.016	500.5
517.232	513.5
517.448	526.5
517.664	550.5
517.879	566.5
518.095	547.5
518.311	534.5
518.527	508.5
518.742	507.5
518.958	476.5
519.173	478.5
519.389	470.5
519.605	460.5
