Data from Fe(NO3)3@0.025M.TitratingCurve.Agarose3%dH2O.NegLispCup.LampEnergy10.LIBS07252019_HRD10591_16-53-50-335.txt Node
Date: Thu Jul 25 16:53:50 EDT 2019
User: cochatt
Spectrometer: HR+D1059
Trigger mode: 1
Integration Time (sec): 1.000000E-1
Scans to average: 1
Electric dark correction enabled: true
Nonlinearity correction enabled: false
Boxcar width: 0
XAxis mode: Wavelengths
Number of Pixels in Spectrum: 2048
>>>>>Begin Spectral Data<<<<<
223.165	-15.56
223.4	-15.56
223.635	-15.56
223.869	-12.56
224.104	-21.56
224.338	-14.56
224.573	-13.56
224.808	-18.56
225.042	-7.56
225.277	0.44
225.511	-4.56
225.746	8.44
225.98	1.44
226.215	7.44
226.449	25.44
226.683	13.44
226.918	27.44
227.152	24.44
227.387	33.44
227.621	34.44
227.856	49.44
228.09	58.44
228.324	47.44
228.559	73.44
228.793	64.44
229.027	94.44
229.262	86.44
229.496	87.44
229.73	97.44
229.964	96.44
230.199	87.44
230.433	95.44
230.667	102.44
230.901	91.44
231.136	93.44
231.37	107.44
231.604	109.44
231.838	91.44
232.072	95.44
232.306	82.44
232.541	97.44
232.775	116.44
233.009	98.44
233.243	98.44
233.477	109.44
233.711	105.44
233.945	106.44
234.179	115.44
234.413	107.44
234.647	98.44
234.881	106.44
235.115	95.44
235.349	97.44
235.583	117.44
235.817	117.44
236.051	95.44
236.285	94.44
236.519	107.44
236.753	112.44
236.987	109.44
237.221	111.44
237.455	114.44
237.689	120.44
237.922	114.44
238.156	111.44
238.39	124.44
238.624	117.44
238.858	103.44
239.091	106.44
239.325	109.44
239.559	106.44
239.793	109.44
240.027	127.44
240.26	119.44
240.494	121.44
240.728	94.44
240.961	112.44
241.195	117.44
241.429	114.44
241.662	109.44
241.896	106.44
242.13	126.44
242.363	135.44
242.597	133.44
242.83	116.44
243.064	125.44
243.298	135.44
243.531	122.44
243.765	118.44
243.998	133.44
244.232	134.44
244.465	121.44
244.699	127.44
244.932	125.44
245.166	129.44
245.399	135.44
245.633	143.44
245.866	128.44
246.099	124.44
246.333	125.44
246.566	120.44
246.8	121.44
247.033	136.44
247.266	127.44
247.5	133.44
247.733	141.44
247.966	154.44
248.2	135.44
248.433	131.44
248.666	151.44
248.899	125.44
249.133	141.44
249.366	123.44
249.599	139.44
249.832	138.44
250.066	134.44
250.299	149.44
250.532	133.44
250.765	143.44
250.998	144.44
251.231	144.44
251.465	141.44
251.698	157.44
251.931	146.44
252.164	129.44
252.397	145.44
252.63	154.44
252.863	150.44
253.096	149.44
253.329	167.44
253.562	143.44
253.795	143.44
254.028	155.44
254.261	168.44
254.494	149.44
254.727	147.44
254.96	138.44
255.193	153.44
255.426	157.44
255.659	168.44
255.892	155.44
256.124	162.44
256.357	153.44
256.59	155.44
256.823	171.44
257.056	167.44
257.289	148.44
257.521	166.44
257.754	169.44
257.987	144.44
258.22	164.44
258.452	167.44
258.685	183.44
258.918	178.44
259.151	175.44
259.383	169.44
259.616	165.44
259.849	159.44
260.081	167.44
260.314	168.44
260.547	171.44
260.779	169.44
261.012	168.44
261.244	156.44
261.477	173.44
261.71	174.44
261.942	154.44
262.175	177.44
262.407	190.44
262.64	175.44
262.872	181.44
263.105	190.44
263.337	182.44
263.57	184.44
263.802	178.44
264.035	171.44
264.267	185.44
264.499	165.44
264.732	186.44
264.964	170.44
265.197	178.44
265.429	170.44
265.661	182.44
265.894	177.44
266.126	165.44
266.358	178.44
266.591	177.44
266.823	181.44
267.055	186.44
267.287	177.44
267.52	167.44
267.752	185.44
267.984	187.44
268.216	181.44
268.448	185.44
268.681	200.44
268.913	191.44
269.145	197.44
269.377	187.44
269.609	202.44
269.841	187.44
270.073	186.44
270.306	198.44
270.538	189.44
270.77	204.44
271.002	195.44
271.234	197.44
271.466	221.44
271.698	204.44
271.93	191.44
272.162	194.44
272.394	203.44
272.626	194.44
272.858	185.44
273.09	211.44
273.322	204.44
273.553	215.44
273.785	203.44
274.017	198.44
274.249	215.44
274.481	215.44
274.713	219.44
274.945	215.44
275.176	218.44
275.408	211.44
275.64	218.44
275.872	207.44
276.104	225.44
276.335	212.44
276.567	211.44
276.799	213.44
277.031	207.44
277.262	218.44
277.494	217.44
277.726	217.44
277.957	217.44
278.189	207.44
278.421	213.44
278.652	221.44
278.884	235.44
279.115	223.44
279.347	225.44
279.579	214.44
279.81	222.44
280.042	228.44
280.273	212.44
280.505	236.44
280.736	217.44
280.968	226.44
281.199	234.44
281.431	218.44
281.662	223.44
281.894	222.44
282.125	229.44
282.356	234.44
282.588	253.44
282.819	248.44
283.051	245.44
283.282	235.44
283.513	230.44
283.745	245.44
283.976	237.44
284.207	243.44
284.439	231.44
284.67	241.44
284.901	254.44
285.132	242.44
285.364	259.44
285.595	245.44
285.826	243.44
286.057	269.44
286.288	237.44
286.52	250.44
286.751	234.44
286.982	235.44
287.213	246.44
287.444	253.44
287.675	261.44
287.906	258.44
288.138	245.44
288.369	253.44
288.6	255.44
288.831	259.44
289.062	251.44
289.293	261.44
289.524	255.44
289.755	234.44
289.986	260.44
290.217	236.44
290.448	243.44
290.679	245.44
290.91	245.44
291.141	236.44
291.371	264.44
291.602	246.44
291.833	236.44
292.064	244.44
292.295	243.44
292.526	262.44
292.757	261.44
292.987	260.44
293.218	265.44
293.449	256.44
293.68	258.44
293.91	261.44
294.141	249.44
294.372	243.44
294.603	258.44
294.833	265.44
295.064	279.44
295.295	271.44
295.525	254.44
295.756	261.44
295.987	268.44
296.217	258.44
296.448	267.44
296.679	250.44
296.909	277.44
297.14	269.44
297.37	267.44
297.601	275.44
297.831	269.44
298.062	265.44
298.292	276.44
298.523	245.44
298.753	270.44
298.984	283.44
299.214	250.44
299.445	278.44
299.675	284.44
299.905	280.44
300.136	292.44
300.366	277.44
300.597	286.44
300.827	275.44
301.057	271.44
301.288	265.44
301.518	274.44
301.748	286.44
301.979	271.44
302.209	272.44
302.439	308.44
302.669	285.44
302.9	285.44
303.13	301.44
303.36	292.44
303.59	287.44
303.82	283.44
304.051	275.44
304.281	290.44
304.511	294.44
304.741	299.44
304.971	280.44
305.201	287.44
305.431	285.44
305.661	286.44
305.891	299.44
306.121	313.44
306.352	285.44
306.582	311.44
306.812	287.44
307.042	285.44
307.272	283.44
307.502	272.44
307.731	309.44
307.961	287.44
308.191	277.44
308.421	289.44
308.651	306.44
308.881	302.44
309.111	305.44
309.341	278.44
309.571	298.44
309.8	302.44
310.03	289.44
310.26	292.44
310.49	298.44
310.72	300.44
310.949	300.44
311.179	314.44
311.409	306.44
311.639	314.44
311.868	301.44
312.098	293.44
312.328	283.44
312.557	321.44
312.787	299.44
313.017	304.44
313.246	301.44
313.476	298.44
313.706	307.44
313.935	315.44
314.165	301.44
314.394	310.44
314.624	307.44
314.853	323.44
315.083	307.44
315.312	301.44
315.542	318.44
315.771	321.44
316.001	318.44
316.23	336.44
316.46	324.44
316.689	318.44
316.919	311.44
317.148	317.44
317.377	328.44
317.607	325.44
317.836	300.44
318.065	326.44
318.295	316.44
318.524	332.44
318.753	319.44
318.983	312.44
319.212	309.44
319.441	327.44
319.67	322.44
319.9	333.44
320.129	325.44
320.358	302.44
320.587	321.44
320.816	330.44
321.046	323.44
321.275	330.44
321.504	323.44
321.733	324.44
321.962	310.44
322.191	342.44
322.42	330.44
322.649	314.44
322.878	317.44
323.108	339.44
323.337	331.44
323.566	346.44
323.795	324.44
324.024	346.44
324.253	349.44
324.482	328.44
324.71	344.44
324.939	341.44
325.168	346.44
325.397	336.44
325.626	342.44
325.855	343.44
326.084	335.44
326.313	344.44
326.542	349.44
326.77	336.44
326.999	381.44
327.228	347.44
327.457	336.44
327.686	372.44
327.914	348.44
328.143	343.44
328.372	330.44
328.6	350.44
328.829	345.44
329.058	360.44
329.287	346.44
329.515	333.44
329.744	355.44
329.972	368.44
330.201	360.44
330.43	355.44
330.658	324.44
330.887	358.44
331.115	363.44
331.344	357.44
331.572	369.44
331.801	364.44
332.03	370.44
332.258	375.44
332.486	373.44
332.715	377.44
332.943	381.44
333.172	382.44
333.4	375.44
333.629	395.44
333.857	397.44
334.085	407.44
334.314	399.44
334.542	400.44
334.771	396.44
334.999	392.44
335.227	400.44
335.455	405.44
335.684	415.44
335.912	392.44
336.14	399.44
336.369	396.44
336.597	411.44
336.825	399.44
337.053	383.44
337.281	391.44
337.51	400.44
337.738	393.44
337.966	389.44
338.194	371.44
338.422	362.44
338.65	397.44
338.878	391.44
339.106	377.44
339.334	377.44
339.562	386.44
339.79	372.44
340.018	371.44
340.246	369.44
340.474	366.44
340.702	369.44
340.93	373.44
341.158	352.44
341.386	369.44
341.614	383.44
341.842	369.44
342.07	359.44
342.298	362.44
342.526	361.44
342.754	358.44
342.981	374.44
343.209	373.44
343.437	391.44
343.665	391.44
343.893	399.44
344.12	393.44
344.348	407.44
344.576	380.44
344.804	377.44
345.031	369.44
345.259	391.44
345.487	381.44
345.714	382.44
345.942	353.44
346.17	359.44
346.397	361.44
346.625	362.44
346.853	364.44
347.08	359.44
347.308	373.44
347.535	349.44
347.763	338.44
347.99	358.44
348.218	349.44
348.445	363.44
348.673	362.44
348.9	366.44
349.128	351.44
349.355	365.44
349.583	363.44
349.81	347.44
350.037	364.44
350.265	369.44
350.492	345.44
350.72	345.44
350.947	357.44
351.174	352.44
351.402	365.44
351.629	378.44
351.856	355.44
352.083	371.44
352.311	349.44
352.538	345.44
352.765	354.44
352.992	349.44
353.22	353.44
353.447	347.44
353.674	352.44
353.901	360.44
354.128	363.44
354.355	358.44
354.583	346.44
354.81	362.44
355.037	350.44
355.264	353.44
355.491	343.44
355.718	372.44
355.945	333.44
356.172	345.44
356.399	362.44
356.626	347.44
356.853	374.44
357.08	349.44
357.307	345.44
357.534	357.44
357.761	355.44
357.988	390.44
358.215	385.44
358.441	342.44
358.668	364.44
358.895	355.44
359.122	347.44
359.349	342.44
359.576	356.44
359.802	344.44
360.029	335.44
360.256	363.44
360.483	375.44
360.709	347.44
360.936	359.44
361.163	356.44
361.39	353.44
361.616	358.44
361.843	361.44
362.07	356.44
362.296	347.44
362.523	371.44
362.749	339.44
362.976	354.44
363.203	366.44
363.429	355.44
363.656	344.44
363.882	358.44
364.109	374.44
364.335	360.44
364.562	381.44
364.788	377.44
365.015	361.44
365.241	347.44
365.468	346.44
365.694	352.44
365.92	351.44
366.147	353.44
366.373	353.44
366.599	374.44
366.826	355.44
367.052	365.44
367.278	363.44
367.505	367.44
367.731	369.44
367.957	364.44
368.184	366.44
368.41	358.44
368.636	379.44
368.862	372.44
369.089	379.44
369.315	377.44
369.541	359.44
369.767	383.44
369.993	362.44
370.219	341.44
370.445	362.44
370.672	369.44
370.898	391.44
371.124	383.44
371.35	384.44
371.576	381.44
371.802	381.44
372.028	397.44
372.254	394.44
372.48	376.44
372.706	386.44
372.932	384.44
373.158	391.44
373.384	387.44
373.61	393.44
373.835	391.44
374.061	392.44
374.287	413.44
374.513	417.44
374.739	405.44
374.965	405.44
375.191	430.44
375.416	412.44
375.642	381.44
375.868	380.44
376.094	382.44
376.319	403.44
376.545	391.44
376.771	398.44
376.997	387.44
377.222	387.44
377.448	377.44
377.674	386.44
377.899	391.44
378.125	383.44
378.35	387.44
378.576	373.44
378.802	379.44
379.027	389.44
379.253	389.44
379.478	378.44
379.704	379.44
379.929	378.44
380.155	381.44
380.38	381.44
380.606	385.44
380.831	397.44
381.057	397.44
381.282	386.44
381.507	391.44
381.733	400.44
381.958	390.44
382.184	380.44
382.409	390.44
382.634	423.44
382.86	408.44
383.085	415.44
383.31	409.44
383.535	425.44
383.761	418.44
383.986	426.44
384.211	429.44
384.436	409.44
384.662	430.44
384.887	443.44
385.112	437.44
385.337	426.44
385.562	430.44
385.787	447.44
386.013	447.44
386.238	445.44
386.463	442.44
386.688	445.44
386.913	443.44
387.138	423.44
387.363	421.44
387.588	438.44
387.813	453.44
388.038	449.44
388.263	437.44
388.488	434.44
388.713	474.44
388.938	455.44
389.163	447.44
389.387	468.44
389.612	436.44
389.837	445.44
390.062	452.44
390.287	429.44
390.512	439.44
390.736	451.44
390.961	451.44
391.186	470.44
391.411	473.44
391.636	460.44
391.86	491.44
392.085	468.44
392.31	471.44
392.534	458.44
392.759	463.44
392.984	459.44
393.208	459.44
393.433	480.44
393.658	457.44
393.882	468.44
394.107	455.44
394.331	464.44
394.556	481.44
394.78	479.44
395.005	463.44
395.229	462.44
395.454	488.44
395.678	459.44
395.903	504.44
396.127	491.44
396.352	458.44
396.576	464.44
396.801	507.44
397.025	494.44
397.249	491.44
397.474	501.44
397.698	498.44
397.922	503.44
398.147	498.44
398.371	514.44
398.595	525.44
398.82	518.44
399.044	526.44
399.268	562.44
399.492	599.44
399.717	606.44
399.941	636.44
400.165	609.44
400.389	599.44
400.613	593.44
400.837	565.44
401.062	543.44
401.286	541.44
401.51	535.44
401.734	546.44
401.958	542.44
402.182	544.44
402.406	553.44
402.63	533.44
402.854	553.44
403.078	533.44
403.302	537.44
403.526	557.44
403.75	536.44
403.974	561.44
404.198	550.44
404.422	561.44
404.645	546.44
404.869	543.44
405.093	549.44
405.317	557.44
405.541	532.44
405.765	574.44
405.988	551.44
406.212	565.44
406.436	558.44
406.66	578.44
406.883	595.44
407.107	587.44
407.331	616.44
407.555	613.44
407.778	608.44
408.002	617.44
408.226	593.44
408.449	601.44
408.673	582.44
408.896	596.44
409.12	590.44
409.344	584.44
409.567	561.44
409.791	584.44
410.014	551.44
410.238	577.44
410.461	579.44
410.685	575.44
410.908	573.44
411.132	555.44
411.355	542.44
411.578	549.44
411.802	552.44
412.025	553.44
412.249	547.44
412.472	565.44
412.695	536.44
412.919	531.44
413.142	550.44
413.365	545.44
413.589	549.44
413.812	520.44
414.035	531.44
414.258	571.44
414.482	520.44
414.705	538.44
414.928	545.44
415.151	514.44
415.374	524.44
415.597	513.44
415.821	515.44
416.044	500.44
416.267	515.44
416.49	535.44
416.713	485.44
416.936	543.44
417.159	511.44
417.382	495.44
417.605	513.44
417.828	519.44
418.051	535.44
418.274	510.44
418.497	486.44
418.72	517.44
418.943	506.44
419.166	539.44
419.389	543.44
419.611	532.44
419.834	535.44
420.057	532.44
420.28	516.44
420.503	488.44
420.726	488.44
420.948	513.44
421.171	513.44
421.394	498.44
421.617	504.44
421.839	492.44
422.062	539.44
422.285	485.44
422.507	517.44
422.73	502.44
422.953	510.44
423.175	515.44
423.398	505.44
423.621	511.44
423.843	526.44
424.066	516.44
424.288	492.44
424.511	493.44
424.733	498.44
424.956	493.44
425.178	516.44
425.401	511.44
425.623	500.44
425.846	502.44
426.068	489.44
426.291	501.44
426.513	500.44
426.735	488.44
426.958	499.44
427.18	486.44
427.402	506.44
427.625	474.44
427.847	466.44
428.069	492.44
428.292	476.44
428.514	477.44
428.736	488.44
428.958	484.44
429.181	473.44
429.403	473.44
429.625	473.44
429.847	457.44
430.069	478.44
430.292	482.44
430.514	485.44
430.736	462.44
430.958	461.44
431.18	477.44
431.402	490.44
431.624	475.44
431.846	451.44
432.068	490.44
432.29	508.44
432.512	468.44
432.734	475.44
432.956	473.44
433.178	474.44
433.4	461.44
433.622	505.44
433.844	487.44
434.066	476.44
434.287	479.44
434.509	488.44
434.731	485.44
434.953	487.44
435.175	495.44
435.397	510.44
435.618	510.44
435.84	513.44
436.062	510.44
436.284	476.44
436.505	467.44
436.727	477.44
436.949	453.44
437.17	484.44
437.392	470.44
437.614	469.44
437.835	466.44
438.057	477.44
438.278	439.44
438.5	461.44
438.721	454.44
438.943	449.44
439.165	447.44
439.386	466.44
439.608	458.44
439.829	492.44
440.05	465.44
440.272	468.44
440.493	459.44
440.715	481.44
440.936	447.44
441.158	481.44
441.379	458.44
441.6	468.44
441.822	484.44
442.043	494.44
442.264	503.44
442.486	471.44
442.707	482.44
442.928	490.44
443.149	478.44
443.371	484.44
443.592	473.44
443.813	473.44
444.034	491.44
444.255	507.44
444.476	491.44
444.698	521.44
444.919	500.44
445.14	613.44
445.361	566.44
445.582	496.44
445.803	492.44
446.024	477.44
446.245	472.44
446.466	493.44
446.687	471.44
446.908	474.44
447.129	471.44
447.35	462.44
447.571	461.44
447.792	440.44
448.013	457.44
448.234	457.44
448.455	419.44
448.675	439.44
448.896	438.44
449.117	430.44
449.338	434.44
449.559	442.44
449.779	429.44
450	425.44
450.221	450.44
450.442	429.44
450.662	406.44
450.883	409.44
451.104	455.44
451.324	424.44
451.545	447.44
451.766	417.44
451.986	414.44
452.207	412.44
452.428	416.44
452.648	436.44
452.869	427.44
453.089	412.44
453.31	412.44
453.53	429.44
453.751	420.44
453.971	420.44
454.192	415.44
454.412	415.44
454.633	424.44
454.853	417.44
455.073	435.44
455.294	408.44
455.514	437.44
455.734	421.44
455.955	426.44
456.175	433.44
456.395	396.44
456.616	414.44
456.836	419.44
457.056	415.44
457.276	421.44
457.497	415.44
457.717	443.44
457.937	436.44
458.157	427.44
458.377	439.44
458.598	425.44
458.818	452.44
459.038	445.44
459.258	428.44
459.478	467.44
459.698	481.44
459.918	461.44
460.138	506.44
460.358	505.44
460.578	484.44
460.798	523.44
461.018	511.44
461.238	514.44
461.458	518.44
461.678	513.44
461.898	497.44
462.118	539.44
462.338	541.44
462.558	522.44
462.777	535.44
462.997	567.44
463.217	581.44
463.437	589.44
463.657	570.44
463.876	552.44
464.096	546.44
464.316	558.44
464.536	561.44
464.755	548.44
464.975	522.44
465.195	525.44
465.414	507.44
465.634	501.44
465.854	492.44
466.073	486.44
466.293	464.44
466.512	435.44
466.732	491.44
466.951	473.44
467.171	458.44
467.391	487.44
467.61	474.44
467.829	451.44
468.049	460.44
468.268	433.44
468.488	443.44
468.707	448.44
468.927	455.44
469.146	440.44
469.365	461.44
469.585	461.44
469.804	465.44
470.023	458.44
470.243	462.44
470.462	451.44
470.681	467.44
470.901	464.44
471.12	479.44
471.339	444.44
471.558	435.44
471.777	470.44
471.997	446.44
472.216	454.44
472.435	459.44
472.654	462.44
472.873	461.44
473.092	460.44
473.311	435.44
473.53	471.44
473.749	455.44
473.968	447.44
474.187	471.44
474.406	458.44
474.625	445.44
474.844	465.44
475.063	446.44
475.282	457.44
475.501	452.44
475.72	474.44
475.939	462.44
476.158	463.44
476.377	489.44
476.596	492.44
476.814	476.44
477.033	507.44
477.252	458.44
477.471	471.44
477.69	498.44
477.908	515.44
478.127	518.44
478.346	527.44
478.564	515.44
478.783	502.44
479.002	520.44
479.22	532.44
479.439	539.44
479.658	521.44
479.876	526.44
480.095	538.44
480.313	551.44
480.532	526.44
480.751	556.44
480.969	525.44
481.188	541.44
481.406	550.44
481.624	535.44
481.843	522.44
482.061	531.44
482.28	534.44
482.498	543.44
482.717	533.44
482.935	526.44
483.153	525.44
483.372	519.44
483.59	525.44
483.808	519.44
484.027	536.44
484.245	549.44
484.463	536.44
484.681	545.44
484.9	549.44
485.118	556.44
485.336	552.44
485.554	539.44
485.772	545.44
485.99	518.44
486.209	547.44
486.427	546.44
486.645	553.44
486.863	551.44
487.081	549.44
487.299	559.44
487.517	544.44
487.735	539.44
487.953	541.44
488.171	570.44
488.389	535.44
488.607	547.44
488.825	552.44
489.043	535.44
489.261	519.44
489.479	546.44
489.696	541.44
489.914	537.44
490.132	524.44
490.35	541.44
490.568	533.44
490.786	569.44
491.003	556.44
491.221	564.44
491.439	561.44
491.657	546.44
491.874	558.44
492.092	542.44
492.31	573.44
492.527	549.44
492.745	562.44
492.963	557.44
493.18	579.44
493.398	577.44
493.615	561.44
493.833	593.44
494.05	586.44
494.268	568.44
494.485	556.44
494.703	542.44
494.92	598.44
495.138	583.44
495.355	593.44
495.573	584.44
495.79	577.44
496.008	592.44
496.225	620.44
496.442	617.44
496.66	617.44
496.877	604.44
497.094	627.44
497.312	620.44
497.529	633.44
497.746	644.44
497.963	647.44
498.181	687.44
498.398	687.44
498.615	694.44
498.832	724.44
499.049	750.44
499.267	778.44
499.484	834.44
499.701	845.44
499.918	893.44
500.135	925.44
500.352	1011.44
500.569	1030.44
500.786	1012.44
501.003	999.44
501.22	955.44
501.437	884.44
501.654	854.44
501.871	824.44
