Data from Fe(NO3)3@0.025M.TitratingCurve.Agarose3%dH2O.NegLispCup.LampEnergy10.LIBS07252019_HRD10591_16-55-24-335.txt Node
Date: Thu Jul 25 16:55:24 EDT 2019
User: cochatt
Spectrometer: HR+D1059
Trigger mode: 1
Integration Time (sec): 1.000000E-1
Scans to average: 1
Electric dark correction enabled: true
Nonlinearity correction enabled: false
Boxcar width: 0
XAxis mode: Wavelengths
Number of Pixels in Spectrum: 2048
>>>>>Begin Spectral Data<<<<<
223.165	-15.38
223.4	-15.38
223.635	-15.38
223.869	-14.38
224.104	-26.38
224.338	-15.38
224.573	-11.38
224.808	-11.38
225.042	-6.38
225.277	-8.38
225.511	-0.38
225.746	6.62
225.98	10.62
226.215	19.62
226.449	-3.38
226.683	17.62
226.918	28.62
227.152	29.62
227.387	39.62
227.621	38.62
227.856	45.62
228.09	44.62
228.324	49.62
228.559	44.62
228.793	48.62
229.027	59.62
229.262	70.62
229.496	63.62
229.73	72.62
229.964	84.62
230.199	77.62
230.433	79.62
230.667	84.62
230.901	80.62
231.136	86.62
231.37	92.62
231.604	89.62
231.838	103.62
232.072	96.62
232.306	82.62
232.541	107.62
232.775	82.62
233.009	80.62
233.243	89.62
233.477	90.62
233.711	100.62
233.945	90.62
234.179	87.62
234.413	99.62
234.647	95.62
234.881	90.62
235.115	95.62
235.349	90.62
235.583	84.62
235.817	89.62
236.051	102.62
236.285	83.62
236.519	86.62
236.753	107.62
236.987	96.62
237.221	89.62
237.455	101.62
237.689	77.62
237.922	85.62
238.156	97.62
238.39	95.62
238.624	100.62
238.858	97.62
239.091	71.62
239.325	101.62
239.559	89.62
239.793	92.62
240.027	90.62
240.26	111.62
240.494	106.62
240.728	98.62
240.961	101.62
241.195	88.62
241.429	88.62
241.662	108.62
241.896	94.62
242.13	84.62
242.363	97.62
242.597	108.62
242.83	97.62
243.064	86.62
243.298	104.62
243.531	96.62
243.765	113.62
243.998	103.62
244.232	99.62
244.465	102.62
244.699	99.62
244.932	92.62
245.166	110.62
245.399	98.62
245.633	112.62
245.866	105.62
246.099	99.62
246.333	101.62
246.566	109.62
246.8	102.62
247.033	80.62
247.266	96.62
247.5	110.62
247.733	116.62
247.966	119.62
248.2	114.62
248.433	117.62
248.666	98.62
248.899	107.62
249.133	120.62
249.366	117.62
249.599	100.62
249.832	122.62
250.066	120.62
250.299	105.62
250.532	102.62
250.765	126.62
250.998	108.62
251.231	93.62
251.465	103.62
251.698	112.62
251.931	105.62
252.164	114.62
252.397	104.62
252.63	122.62
252.863	114.62
253.096	113.62
253.329	106.62
253.562	114.62
253.795	111.62
254.028	125.62
254.261	106.62
254.494	106.62
254.727	129.62
254.96	117.62
255.193	126.62
255.426	93.62
255.659	118.62
255.892	126.62
256.124	125.62
256.357	132.62
256.59	123.62
256.823	110.62
257.056	126.62
257.289	123.62
257.521	121.62
257.754	122.62
257.987	119.62
258.22	135.62
258.452	113.62
258.685	124.62
258.918	124.62
259.151	118.62
259.383	128.62
259.616	112.62
259.849	126.62
260.081	117.62
260.314	123.62
260.547	120.62
260.779	130.62
261.012	135.62
261.244	134.62
261.477	125.62
261.71	132.62
261.942	141.62
262.175	130.62
262.407	122.62
262.64	130.62
262.872	137.62
263.105	125.62
263.337	132.62
263.57	135.62
263.802	138.62
264.035	136.62
264.267	140.62
264.499	133.62
264.732	131.62
264.964	130.62
265.197	141.62
265.429	139.62
265.661	126.62
265.894	129.62
266.126	133.62
266.358	144.62
266.591	150.62
266.823	144.62
267.055	137.62
267.287	134.62
267.52	147.62
267.752	145.62
267.984	126.62
268.216	138.62
268.448	147.62
268.681	145.62
268.913	131.62
269.145	137.62
269.377	148.62
269.609	148.62
269.841	144.62
270.073	138.62
270.306	150.62
270.538	137.62
270.77	139.62
271.002	124.62
271.234	152.62
271.466	150.62
271.698	140.62
271.93	139.62
272.162	152.62
272.394	143.62
272.626	158.62
272.858	150.62
273.09	172.62
273.322	168.62
273.553	148.62
273.785	162.62
274.017	154.62
274.249	173.62
274.481	160.62
274.713	156.62
274.945	149.62
275.176	168.62
275.408	168.62
275.64	174.62
275.872	160.62
276.104	161.62
276.335	158.62
276.567	145.62
276.799	154.62
277.031	156.62
277.262	175.62
277.494	158.62
277.726	176.62
277.957	149.62
278.189	170.62
278.421	156.62
278.652	164.62
278.884	174.62
279.115	178.62
279.347	157.62
279.579	177.62
279.81	159.62
280.042	153.62
280.273	165.62
280.505	161.62
280.736	175.62
280.968	149.62
281.199	182.62
281.431	151.62
281.662	164.62
281.894	172.62
282.125	167.62
282.356	167.62
282.588	174.62
282.819	178.62
283.051	171.62
283.282	183.62
283.513	185.62
283.745	178.62
283.976	184.62
284.207	172.62
284.439	178.62
284.67	190.62
284.901	184.62
285.132	199.62
285.364	176.62
285.595	180.62
285.826	180.62
286.057	159.62
286.288	169.62
286.52	188.62
286.751	185.62
286.982	190.62
287.213	185.62
287.444	184.62
287.675	201.62
287.906	193.62
288.138	185.62
288.369	201.62
288.6	196.62
288.831	176.62
289.062	184.62
289.293	182.62
289.524	196.62
289.755	191.62
289.986	180.62
290.217	196.62
290.448	194.62
290.679	182.62
290.91	185.62
291.141	195.62
291.371	174.62
291.602	186.62
291.833	192.62
292.064	193.62
292.295	174.62
292.526	184.62
292.757	193.62
292.987	191.62
293.218	194.62
293.449	203.62
293.68	202.62
293.91	200.62
294.141	194.62
294.372	198.62
294.603	189.62
294.833	203.62
295.064	199.62
295.295	196.62
295.525	195.62
295.756	210.62
295.987	196.62
296.217	201.62
296.448	206.62
296.679	206.62
296.909	212.62
297.14	213.62
297.37	196.62
297.601	196.62
297.831	193.62
298.062	205.62
298.292	202.62
298.523	209.62
298.753	220.62
298.984	215.62
299.214	200.62
299.445	199.62
299.675	205.62
299.905	204.62
300.136	229.62
300.366	210.62
300.597	199.62
300.827	208.62
301.057	215.62
301.288	221.62
301.518	217.62
301.748	206.62
301.979	215.62
302.209	198.62
302.439	232.62
302.669	225.62
302.9	243.62
303.13	234.62
303.36	214.62
303.59	218.62
303.82	209.62
304.051	208.62
304.281	239.62
304.511	210.62
304.741	229.62
304.971	224.62
305.201	200.62
305.431	221.62
305.661	226.62
305.891	216.62
306.121	210.62
306.352	212.62
306.582	211.62
306.812	218.62
307.042	223.62
307.272	218.62
307.502	214.62
307.731	255.62
307.961	216.62
308.191	217.62
308.421	208.62
308.651	238.62
308.881	225.62
309.111	225.62
309.341	215.62
309.571	232.62
309.8	235.62
310.03	229.62
310.26	221.62
310.49	247.62
310.72	226.62
310.949	222.62
311.179	237.62
311.409	232.62
311.639	229.62
311.868	258.62
312.098	240.62
312.328	227.62
312.557	247.62
312.787	233.62
313.017	237.62
313.246	236.62
313.476	240.62
313.706	245.62
313.935	237.62
314.165	255.62
314.394	244.62
314.624	256.62
314.853	234.62
315.083	249.62
315.312	262.62
315.542	248.62
315.771	255.62
316.001	258.62
316.23	237.62
316.46	232.62
316.689	260.62
316.919	252.62
317.148	244.62
317.377	254.62
317.607	239.62
317.836	246.62
318.065	249.62
318.295	245.62
318.524	246.62
318.753	246.62
318.983	243.62
319.212	254.62
319.441	262.62
319.67	241.62
319.9	234.62
320.129	256.62
320.358	231.62
320.587	241.62
320.816	237.62
321.046	261.62
321.275	247.62
321.504	285.62
321.733	259.62
321.962	260.62
322.191	250.62
322.42	256.62
322.649	243.62
322.878	268.62
323.108	238.62
323.337	276.62
323.566	266.62
323.795	255.62
324.024	260.62
324.253	249.62
324.482	268.62
324.71	248.62
324.939	270.62
325.168	281.62
325.397	258.62
325.626	281.62
325.855	263.62
326.084	251.62
326.313	271.62
326.542	272.62
326.77	265.62
326.999	277.62
327.228	274.62
327.457	275.62
327.686	272.62
327.914	284.62
328.143	273.62
328.372	277.62
328.6	284.62
328.829	289.62
329.058	273.62
329.287	261.62
329.515	261.62
329.744	258.62
329.972	277.62
330.201	285.62
330.43	294.62
330.658	270.62
330.887	283.62
331.115	294.62
331.344	284.62
331.572	296.62
331.801	295.62
332.03	303.62
332.258	282.62
332.486	298.62
332.715	312.62
332.943	316.62
333.172	297.62
333.4	310.62
333.629	313.62
333.857	312.62
334.085	309.62
334.314	318.62
334.542	324.62
334.771	306.62
334.999	327.62
335.227	309.62
335.455	297.62
335.684	321.62
335.912	318.62
336.14	295.62
336.369	310.62
336.597	299.62
336.825	310.62
337.053	315.62
337.281	332.62
337.51	300.62
337.738	303.62
337.966	322.62
338.194	319.62
338.422	330.62
338.65	310.62
338.878	310.62
339.106	291.62
339.334	309.62
339.562	284.62
339.79	303.62
340.018	291.62
340.246	298.62
340.474	293.62
340.702	294.62
340.93	298.62
341.158	316.62
341.386	307.62
341.614	304.62
341.842	304.62
342.07	291.62
342.298	302.62
342.526	283.62
342.754	308.62
342.981	276.62
343.209	303.62
343.437	314.62
343.665	319.62
343.893	312.62
344.12	317.62
344.348	310.62
344.576	330.62
344.804	306.62
345.031	313.62
345.259	308.62
345.487	322.62
345.714	286.62
345.942	303.62
346.17	279.62
346.397	316.62
346.625	283.62
346.853	288.62
347.08	307.62
347.308	298.62
347.535	295.62
347.763	281.62
347.99	309.62
348.218	275.62
348.445	305.62
348.673	303.62
348.9	271.62
349.128	275.62
349.355	304.62
349.583	296.62
349.81	297.62
350.037	269.62
350.265	275.62
350.492	289.62
350.72	297.62
350.947	278.62
351.174	289.62
351.402	272.62
351.629	259.62
351.856	290.62
352.083	290.62
352.311	301.62
352.538	285.62
352.765	278.62
352.992	280.62
353.22	294.62
353.447	273.62
353.674	292.62
353.901	297.62
354.128	307.62
354.355	284.62
354.583	298.62
354.81	290.62
355.037	295.62
355.264	307.62
355.491	310.62
355.718	294.62
355.945	292.62
356.172	286.62
356.399	302.62
356.626	295.62
356.853	290.62
357.08	286.62
357.307	292.62
357.534	263.62
357.761	290.62
357.988	293.62
358.215	322.62
358.441	298.62
358.668	296.62
358.895	279.62
359.122	304.62
359.349	295.62
359.576	279.62
359.802	291.62
360.029	300.62
360.256	283.62
360.483	300.62
360.709	282.62
360.936	289.62
361.163	294.62
361.39	305.62
361.616	289.62
361.843	303.62
362.07	319.62
362.296	295.62
362.523	302.62
362.749	308.62
362.976	290.62
363.203	316.62
363.429	297.62
363.656	295.62
363.882	274.62
364.109	296.62
364.335	286.62
364.562	287.62
364.788	289.62
365.015	285.62
365.241	301.62
365.468	325.62
365.694	304.62
365.92	294.62
366.147	306.62
366.373	303.62
366.599	311.62
366.826	294.62
367.052	307.62
367.278	320.62
367.505	318.62
367.731	324.62
367.957	280.62
368.184	288.62
368.41	313.62
368.636	309.62
368.862	311.62
369.089	298.62
369.315	298.62
369.541	303.62
369.767	308.62
369.993	305.62
370.219	316.62
370.445	304.62
370.672	310.62
370.898	318.62
371.124	321.62
371.35	306.62
371.576	313.62
371.802	330.62
372.028	328.62
372.254	309.62
372.48	333.62
372.706	302.62
372.932	319.62
373.158	326.62
373.384	326.62
373.61	311.62
373.835	330.62
374.061	318.62
374.287	324.62
374.513	310.62
374.739	348.62
374.965	335.62
375.191	328.62
375.416	337.62
375.642	301.62
375.868	333.62
376.094	327.62
376.319	320.62
376.545	334.62
376.771	316.62
376.997	325.62
377.222	321.62
377.448	320.62
377.674	316.62
377.899	313.62
378.125	305.62
378.35	340.62
378.576	306.62
378.802	312.62
379.027	312.62
379.253	312.62
379.478	321.62
379.704	339.62
379.929	332.62
380.155	316.62
380.38	315.62
380.606	334.62
380.831	336.62
381.057	332.62
381.282	336.62
381.507	345.62
381.733	324.62
381.958	313.62
382.184	357.62
382.409	330.62
382.634	342.62
382.86	311.62
383.085	352.62
383.31	330.62
383.535	345.62
383.761	353.62
383.986	340.62
384.211	353.62
384.436	343.62
384.662	348.62
384.887	349.62
385.112	365.62
385.337	365.62
385.562	357.62
385.787	371.62
386.013	370.62
386.238	374.62
386.463	349.62
386.688	350.62
386.913	366.62
387.138	372.62
387.363	358.62
387.588	372.62
387.813	368.62
388.038	369.62
388.263	377.62
388.488	375.62
388.713	374.62
388.938	362.62
389.163	372.62
389.387	361.62
389.612	380.62
389.837	373.62
390.062	372.62
390.287	389.62
390.512	392.62
390.736	381.62
390.961	401.62
391.186	376.62
391.411	396.62
391.636	383.62
391.86	383.62
392.085	399.62
392.31	379.62
392.534	391.62
392.759	382.62
392.984	383.62
393.208	388.62
393.433	395.62
393.658	404.62
393.882	391.62
394.107	387.62
394.331	388.62
394.556	395.62
394.78	382.62
395.005	399.62
395.229	405.62
395.454	407.62
395.678	393.62
395.903	386.62
396.127	408.62
396.352	408.62
396.576	407.62
396.801	386.62
397.025	423.62
397.249	416.62
397.474	405.62
397.698	424.62
397.922	431.62
398.147	429.62
398.371	423.62
398.595	438.62
398.82	457.62
399.044	473.62
399.268	483.62
399.492	501.62
399.717	538.62
399.941	519.62
400.165	497.62
400.389	483.62
400.613	480.62
400.837	461.62
401.062	469.62
401.286	453.62
401.51	437.62
401.734	454.62
401.958	440.62
402.182	440.62
402.406	428.62
402.63	453.62
402.854	442.62
403.078	444.62
403.302	458.62
403.526	446.62
403.75	464.62
403.974	445.62
404.198	452.62
404.422	445.62
404.645	456.62
404.869	434.62
405.093	439.62
405.317	455.62
405.541	462.62
405.765	458.62
405.988	467.62
406.212	475.62
406.436	450.62
406.66	457.62
406.883	466.62
407.107	489.62
407.331	504.62
407.555	500.62
407.778	509.62
408.002	490.62
408.226	496.62
408.449	498.62
408.673	479.62
408.896	479.62
409.12	461.62
409.344	463.62
409.567	453.62
409.791	477.62
410.014	461.62
410.238	444.62
410.461	486.62
410.685	469.62
410.908	437.62
411.132	480.62
411.355	441.62
411.578	455.62
411.802	477.62
412.025	462.62
412.249	448.62
412.472	454.62
412.695	446.62
412.919	452.62
413.142	448.62
413.365	444.62
413.589	450.62
413.812	464.62
414.035	431.62
414.258	439.62
414.482	417.62
414.705	451.62
414.928	433.62
415.151	408.62
415.374	440.62
415.597	424.62
415.821	431.62
416.044	410.62
416.267	425.62
416.49	425.62
416.713	428.62
416.936	410.62
417.159	424.62
417.382	416.62
417.605	418.62
417.828	422.62
418.051	411.62
418.274	430.62
418.497	428.62
418.72	429.62
418.943	421.62
419.166	438.62
419.389	430.62
419.611	475.62
419.834	449.62
420.057	428.62
420.28	447.62
420.503	421.62
420.726	412.62
420.948	419.62
421.171	431.62
421.394	431.62
421.617	421.62
421.839	445.62
422.062	398.62
422.285	401.62
422.507	417.62
422.73	414.62
422.953	407.62
423.175	405.62
423.398	429.62
423.621	419.62
423.843	420.62
424.066	409.62
424.288	412.62
424.511	416.62
424.733	419.62
424.956	417.62
425.178	416.62
425.401	444.62
425.623	397.62
425.846	417.62
426.068	403.62
426.291	395.62
426.513	404.62
426.735	403.62
426.958	408.62
427.18	414.62
427.402	403.62
427.625	416.62
427.847	369.62
428.069	373.62
428.292	378.62
428.514	382.62
428.736	395.62
428.958	409.62
429.181	391.62
429.403	394.62
429.625	404.62
429.847	394.62
430.069	393.62
430.292	376.62
430.514	386.62
430.736	395.62
430.958	412.62
431.18	406.62
431.402	416.62
431.624	395.62
431.846	398.62
432.068	388.62
432.29	398.62
432.512	398.62
432.734	413.62
432.956	391.62
433.178	418.62
433.4	423.62
433.622	413.62
433.844	412.62
434.066	391.62
434.287	401.62
434.509	405.62
434.731	408.62
434.953	406.62
435.175	422.62
435.397	429.62
435.618	405.62
435.84	406.62
436.062	377.62
436.284	385.62
436.505	387.62
436.727	392.62
436.949	398.62
437.17	392.62
437.392	384.62
437.614	373.62
437.835	398.62
438.057	390.62
438.278	387.62
438.5	407.62
438.721	390.62
438.943	382.62
439.165	377.62
439.386	389.62
439.608	406.62
439.829	376.62
440.05	390.62
440.272	395.62
440.493	376.62
440.715	377.62
440.936	399.62
441.158	412.62
441.379	398.62
441.6	408.62
441.822	396.62
442.043	412.62
442.264	423.62
442.486	425.62
442.707	390.62
442.928	414.62
443.149	395.62
443.371	416.62
443.592	411.62
443.813	402.62
444.034	393.62
444.255	418.62
444.476	429.62
444.698	433.62
444.919	425.62
445.14	514.62
445.361	455.62
445.582	418.62
445.803	398.62
446.024	401.62
446.245	405.62
446.466	401.62
446.687	372.62
446.908	407.62
447.129	389.62
447.35	374.62
447.571	381.62
447.792	374.62
448.013	380.62
448.234	350.62
448.455	348.62
448.675	372.62
448.896	399.62
449.117	373.62
449.338	369.62
449.559	357.62
449.779	351.62
450	343.62
450.221	366.62
450.442	348.62
450.662	361.62
450.883	355.62
451.104	367.62
451.324	359.62
451.545	366.62
451.766	352.62
451.986	361.62
452.207	344.62
452.428	355.62
452.648	337.62
452.869	350.62
453.089	336.62
453.31	343.62
453.53	357.62
453.751	349.62
453.971	340.62
454.192	353.62
454.412	349.62
454.633	352.62
454.853	340.62
455.073	363.62
455.294	359.62
455.514	348.62
455.734	360.62
455.955	343.62
456.175	354.62
456.395	363.62
456.616	364.62
456.836	349.62
457.056	346.62
457.276	360.62
457.497	348.62
457.717	367.62
457.937	376.62
458.157	376.62
458.377	364.62
458.598	374.62
458.818	370.62
459.038	383.62
459.258	387.62
459.478	395.62
459.698	402.62
459.918	407.62
460.138	414.62
460.358	426.62
460.578	420.62
460.798	426.62
461.018	424.62
461.238	434.62
461.458	440.62
461.678	422.62
461.898	430.62
462.118	436.62
462.338	447.62
462.558	449.62
462.777	478.62
462.997	484.62
463.217	475.62
463.437	489.62
463.657	466.62
463.876	472.62
464.096	455.62
464.316	473.62
464.536	457.62
464.755	479.62
464.975	464.62
465.195	429.62
465.414	416.62
465.634	421.62
465.854	393.62
466.073	395.62
466.293	390.62
466.512	392.62
466.732	385.62
466.951	377.62
467.171	383.62
467.391	400.62
467.61	375.62
467.829	387.62
468.049	372.62
468.268	404.62
468.488	382.62
468.707	384.62
468.927	397.62
469.146	370.62
469.365	377.62
469.585	377.62
469.804	375.62
470.023	388.62
470.243	402.62
470.462	407.62
470.681	380.62
470.901	395.62
471.12	392.62
471.339	390.62
471.558	383.62
471.777	393.62
471.997	393.62
472.216	385.62
472.435	394.62
472.654	389.62
472.873	370.62
473.092	392.62
473.311	392.62
473.53	409.62
473.749	388.62
473.968	393.62
474.187	386.62
474.406	389.62
474.625	398.62
474.844	405.62
475.063	410.62
475.282	401.62
475.501	390.62
475.72	413.62
475.939	403.62
476.158	432.62
476.377	422.62
476.596	406.62
476.814	385.62
477.033	414.62
477.252	416.62
477.471	429.62
477.69	424.62
477.908	425.62
478.127	437.62
478.346	444.62
478.564	449.62
478.783	454.62
479.002	450.62
479.22	424.62
479.439	466.62
479.658	434.62
479.876	468.62
480.095	455.62
480.313	460.62
480.532	462.62
480.751	466.62
480.969	456.62
481.188	479.62
481.406	449.62
481.624	469.62
481.843	445.62
482.061	451.62
482.28	468.62
482.498	448.62
482.717	439.62
482.935	423.62
483.153	462.62
483.372	445.62
483.59	442.62
483.808	434.62
484.027	425.62
484.245	460.62
484.463	442.62
484.681	445.62
484.9	466.62
485.118	445.62
485.336	447.62
485.554	445.62
485.772	446.62
485.99	446.62
486.209	466.62
486.427	452.62
486.645	438.62
486.863	440.62
487.081	442.62
487.299	479.62
487.517	452.62
487.735	453.62
487.953	457.62
488.171	485.62
488.389	464.62
488.607	460.62
488.825	458.62
489.043	439.62
489.261	447.62
489.479	469.62
489.696	473.62
489.914	453.62
490.132	449.62
490.35	466.62
490.568	437.62
490.786	470.62
491.003	469.62
491.221	452.62
491.439	455.62
491.657	479.62
491.874	465.62
492.092	489.62
492.31	474.62
492.527	476.62
492.745	484.62
492.963	484.62
493.18	468.62
493.398	476.62
493.615	454.62
493.833	447.62
494.05	479.62
494.268	487.62
494.485	462.62
494.703	474.62
494.92	486.62
495.138	479.62
495.355	509.62
495.573	520.62
495.79	494.62
496.008	494.62
496.225	518.62
496.442	529.62
496.66	516.62
496.877	531.62
497.094	537.62
497.312	538.62
497.529	528.62
497.746	586.62
497.963	599.62
498.181	583.62
498.398	589.62
498.615	629.62
498.832	645.62
499.049	657.62
499.267	696.62
499.484	726.62
499.701	753.62
499.918	744.62
500.135	796.62
500.352	837.62
500.569	835.62
500.786	815.62
501.003	835.62
501.22	808.62
501.437	745.62
501.654	720.62
501.871	685.62
502.088	672.62
502.305	639.62
