Data from Fe(NO3)3@0.05M.TitratingCurve.Agarose3%dH2O.NegLispCup.LampEnergy10.LIBS07252019_HRD10591_16-47-54-334.txt Node
Date: Thu Jul 25 16:47:54 EDT 2019
User: cochatt
Spectrometer: HR+D1059
Trigger mode: 1
Integration Time (sec): 1.000000E-1
Scans to average: 1
Electric dark correction enabled: true
Nonlinearity correction enabled: false
Boxcar width: 0
XAxis mode: Wavelengths
Number of Pixels in Spectrum: 2048
>>>>>Begin Spectral Data<<<<<
223.165	-28.25
223.4	-28.25
223.635	-28.25
223.869	-15.25
224.104	-16.25
224.338	-17.25
224.573	-11.25
224.808	-12.25
225.042	-4.25
225.277	2.75
225.511	0.75
225.746	5.75
225.98	-0.25
226.215	13.75
226.449	19.75
226.683	14.75
226.918	18.75
227.152	28.75
227.387	37.75
227.621	36.75
227.856	47.75
228.09	44.75
228.324	48.75
228.559	60.75
228.793	63.75
229.027	65.75
229.262	89.75
229.496	74.75
229.73	73.75
229.964	83.75
230.199	66.75
230.433	100.75
230.667	82.75
230.901	82.75
231.136	93.75
231.37	88.75
231.604	88.75
231.838	82.75
232.072	84.75
232.306	83.75
232.541	98.75
232.775	89.75
233.009	89.75
233.243	99.75
233.477	100.75
233.711	98.75
233.945	90.75
234.179	101.75
234.413	72.75
234.647	90.75
234.881	100.75
235.115	96.75
235.349	90.75
235.583	97.75
235.817	87.75
236.051	103.75
236.285	105.75
236.519	82.75
236.753	102.75
236.987	93.75
237.221	86.75
237.455	94.75
237.689	97.75
237.922	96.75
238.156	94.75
238.39	102.75
238.624	104.75
238.858	99.75
239.091	107.75
239.325	90.75
239.559	103.75
239.793	107.75
240.027	106.75
240.26	103.75
240.494	86.75
240.728	92.75
240.961	110.75
241.195	126.75
241.429	87.75
241.662	100.75
241.896	90.75
242.13	95.75
242.363	93.75
242.597	83.75
242.83	84.75
243.064	100.75
243.298	109.75
243.531	108.75
243.765	98.75
243.998	110.75
244.232	106.75
244.465	96.75
244.699	96.75
244.932	105.75
245.166	96.75
245.399	91.75
245.633	105.75
245.866	106.75
246.099	92.75
246.333	91.75
246.566	114.75
246.8	84.75
247.033	108.75
247.266	102.75
247.5	110.75
247.733	95.75
247.966	107.75
248.2	105.75
248.433	111.75
248.666	117.75
248.899	110.75
249.133	111.75
249.366	114.75
249.599	118.75
249.832	102.75
250.066	120.75
250.299	105.75
250.532	111.75
250.765	117.75
250.998	96.75
251.231	103.75
251.465	116.75
251.698	108.75
251.931	125.75
252.164	116.75
252.397	124.75
252.63	104.75
252.863	120.75
253.096	119.75
253.329	116.75
253.562	110.75
253.795	121.75
254.028	124.75
254.261	115.75
254.494	108.75
254.727	107.75
254.96	113.75
255.193	108.75
255.426	119.75
255.659	118.75
255.892	107.75
256.124	102.75
256.357	137.75
256.59	122.75
256.823	130.75
257.056	126.75
257.289	112.75
257.521	126.75
257.754	126.75
257.987	99.75
258.22	114.75
258.452	120.75
258.685	116.75
258.918	145.75
259.151	118.75
259.383	116.75
259.616	120.75
259.849	139.75
260.081	141.75
260.314	154.75
260.547	139.75
260.779	132.75
261.012	126.75
261.244	125.75
261.477	140.75
261.71	130.75
261.942	128.75
262.175	107.75
262.407	119.75
262.64	124.75
262.872	130.75
263.105	153.75
263.337	137.75
263.57	143.75
263.802	127.75
264.035	116.75
264.267	123.75
264.499	128.75
264.732	118.75
264.964	118.75
265.197	131.75
265.429	117.75
265.661	122.75
265.894	115.75
266.126	104.75
266.358	118.75
266.591	125.75
266.823	132.75
267.055	131.75
267.287	134.75
267.52	107.75
267.752	118.75
267.984	120.75
268.216	124.75
268.448	120.75
268.681	120.75
268.913	127.75
269.145	125.75
269.377	124.75
269.609	134.75
269.841	138.75
270.073	148.75
270.306	125.75
270.538	132.75
270.77	121.75
271.002	133.75
271.234	143.75
271.466	145.75
271.698	152.75
271.93	137.75
272.162	137.75
272.394	147.75
272.626	126.75
272.858	127.75
273.09	139.75
273.322	147.75
273.553	128.75
273.785	143.75
274.017	155.75
274.249	166.75
274.481	145.75
274.713	163.75
274.945	187.75
275.176	174.75
275.408	173.75
275.64	164.75
275.872	150.75
276.104	151.75
276.335	143.75
276.567	133.75
276.799	144.75
277.031	149.75
277.262	136.75
277.494	138.75
277.726	134.75
277.957	138.75
278.189	146.75
278.421	140.75
278.652	132.75
278.884	120.75
279.115	147.75
279.347	130.75
279.579	135.75
279.81	143.75
280.042	148.75
280.273	138.75
280.505	136.75
280.736	139.75
280.968	144.75
281.199	150.75
281.431	134.75
281.662	129.75
281.894	155.75
282.125	150.75
282.356	134.75
282.588	134.75
282.819	135.75
283.051	137.75
283.282	127.75
283.513	148.75
283.745	157.75
283.976	148.75
284.207	136.75
284.439	159.75
284.67	158.75
284.901	159.75
285.132	163.75
285.364	152.75
285.595	145.75
285.826	168.75
286.057	166.75
286.288	147.75
286.52	150.75
286.751	164.75
286.982	154.75
287.213	173.75
287.444	161.75
287.675	156.75
287.906	144.75
288.138	140.75
288.369	147.75
288.6	131.75
288.831	150.75
289.062	152.75
289.293	136.75
289.524	147.75
289.755	144.75
289.986	130.75
290.217	156.75
290.448	154.75
290.679	155.75
290.91	163.75
291.141	154.75
291.371	161.75
291.602	150.75
291.833	152.75
292.064	147.75
292.295	147.75
292.526	164.75
292.757	156.75
292.987	154.75
293.218	153.75
293.449	159.75
293.68	160.75
293.91	158.75
294.141	174.75
294.372	169.75
294.603	162.75
294.833	152.75
295.064	152.75
295.295	158.75
295.525	168.75
295.756	150.75
295.987	156.75
296.217	160.75
296.448	153.75
296.679	155.75
296.909	156.75
297.14	140.75
297.37	168.75
297.601	158.75
297.831	151.75
298.062	166.75
298.292	156.75
298.523	155.75
298.753	169.75
298.984	155.75
299.214	169.75
299.445	164.75
299.675	162.75
299.905	154.75
300.136	155.75
300.366	180.75
300.597	155.75
300.827	167.75
301.057	169.75
301.288	160.75
301.518	170.75
301.748	170.75
301.979	158.75
302.209	188.75
302.439	175.75
302.669	189.75
302.9	184.75
303.13	165.75
303.36	158.75
303.59	182.75
303.82	165.75
304.051	168.75
304.281	187.75
304.511	174.75
304.741	167.75
304.971	165.75
305.201	160.75
305.431	163.75
305.661	164.75
305.891	169.75
306.121	169.75
306.352	175.75
306.582	165.75
306.812	156.75
307.042	175.75
307.272	160.75
307.502	176.75
307.731	173.75
307.961	166.75
308.191	174.75
308.421	176.75
308.651	170.75
308.881	187.75
309.111	180.75
309.341	168.75
309.571	170.75
309.8	167.75
310.03	166.75
310.26	181.75
310.49	178.75
310.72	165.75
310.949	156.75
311.179	174.75
311.409	171.75
311.639	161.75
311.868	178.75
312.098	182.75
312.328	172.75
312.557	168.75
312.787	184.75
313.017	175.75
313.246	183.75
313.476	172.75
313.706	170.75
313.935	171.75
314.165	189.75
314.394	172.75
314.624	180.75
314.853	193.75
315.083	178.75
315.312	174.75
315.542	182.75
315.771	200.75
316.001	180.75
316.23	170.75
316.46	164.75
316.689	179.75
316.919	173.75
317.148	167.75
317.377	190.75
317.607	188.75
317.836	180.75
318.065	174.75
318.295	187.75
318.524	176.75
318.753	194.75
318.983	183.75
319.212	170.75
319.441	162.75
319.67	172.75
319.9	181.75
320.129	186.75
320.358	187.75
320.587	182.75
320.816	172.75
321.046	188.75
321.275	182.75
321.504	196.75
321.733	189.75
321.962	162.75
322.191	175.75
322.42	192.75
322.649	192.75
322.878	192.75
323.108	178.75
323.337	178.75
323.566	171.75
323.795	180.75
324.024	168.75
324.253	185.75
324.482	182.75
324.71	190.75
324.939	174.75
325.168	173.75
325.397	176.75
325.626	189.75
325.855	194.75
326.084	184.75
326.313	180.75
326.542	171.75
326.77	190.75
326.999	189.75
327.228	185.75
327.457	188.75
327.686	194.75
327.914	187.75
328.143	197.75
328.372	205.75
328.6	207.75
328.829	192.75
329.058	195.75
329.287	193.75
329.515	185.75
329.744	189.75
329.972	178.75
330.201	192.75
330.43	204.75
330.658	192.75
330.887	194.75
331.115	175.75
331.344	188.75
331.572	210.75
331.801	195.75
332.03	190.75
332.258	213.75
332.486	203.75
332.715	202.75
332.943	227.75
333.172	213.75
333.4	208.75
333.629	229.75
333.857	229.75
334.085	219.75
334.314	214.75
334.542	216.75
334.771	211.75
334.999	222.75
335.227	198.75
335.455	223.75
335.684	213.75
335.912	201.75
336.14	210.75
336.369	200.75
336.597	220.75
336.825	213.75
337.053	205.75
337.281	210.75
337.51	200.75
337.738	191.75
337.966	207.75
338.194	200.75
338.422	224.75
338.65	198.75
338.878	206.75
339.106	209.75
339.334	216.75
339.562	203.75
339.79	195.75
340.018	206.75
340.246	208.75
340.474	213.75
340.702	201.75
340.93	207.75
341.158	210.75
341.386	197.75
341.614	215.75
341.842	207.75
342.07	194.75
342.298	203.75
342.526	210.75
342.754	231.75
342.981	202.75
343.209	218.75
343.437	218.75
343.665	207.75
343.893	207.75
344.12	228.75
344.348	242.75
344.576	212.75
344.804	205.75
345.031	193.75
345.259	229.75
345.487	206.75
345.714	207.75
345.942	192.75
346.17	203.75
346.397	192.75
346.625	205.75
346.853	189.75
347.08	189.75
347.308	199.75
347.535	190.75
347.763	198.75
347.99	189.75
348.218	195.75
348.445	214.75
348.673	216.75
348.9	198.75
349.128	200.75
349.355	218.75
349.583	219.75
349.81	211.75
350.037	190.75
350.265	197.75
350.492	200.75
350.72	200.75
350.947	207.75
351.174	199.75
351.402	206.75
351.629	203.75
351.856	205.75
352.083	204.75
352.311	214.75
352.538	216.75
352.765	214.75
352.992	209.75
353.22	195.75
353.447	193.75
353.674	224.75
353.901	194.75
354.128	192.75
354.355	206.75
354.583	211.75
354.81	208.75
355.037	197.75
355.264	203.75
355.491	209.75
355.718	195.75
355.945	212.75
356.172	226.75
356.399	216.75
356.626	218.75
356.853	226.75
357.08	215.75
357.307	214.75
357.534	211.75
357.761	213.75
357.988	212.75
358.215	220.75
358.441	234.75
358.668	214.75
358.895	207.75
359.122	222.75
359.349	211.75
359.576	196.75
359.802	195.75
360.029	219.75
360.256	210.75
360.483	226.75
360.709	206.75
360.936	231.75
361.163	222.75
361.39	216.75
361.616	208.75
361.843	213.75
362.07	198.75
362.296	210.75
362.523	221.75
362.749	222.75
362.976	203.75
363.203	210.75
363.429	225.75
363.656	217.75
363.882	215.75
364.109	208.75
364.335	206.75
364.562	210.75
364.788	224.75
365.015	216.75
365.241	217.75
365.468	222.75
365.694	216.75
365.92	225.75
366.147	212.75
366.373	196.75
366.599	222.75
366.826	214.75
367.052	207.75
367.278	214.75
367.505	231.75
367.731	228.75
367.957	235.75
368.184	223.75
368.41	217.75
368.636	226.75
368.862	229.75
369.089	224.75
369.315	209.75
369.541	237.75
369.767	201.75
369.993	217.75
370.219	230.75
370.445	225.75
370.672	229.75
370.898	214.75
371.124	250.75
371.35	230.75
371.576	198.75
371.802	236.75
372.028	237.75
372.254	251.75
372.48	248.75
372.706	232.75
372.932	226.75
373.158	252.75
373.384	251.75
373.61	258.75
373.835	249.75
374.061	251.75
374.287	261.75
374.513	225.75
374.739	252.75
374.965	239.75
375.191	248.75
375.416	245.75
375.642	235.75
375.868	257.75
376.094	261.75
376.319	248.75
376.545	252.75
376.771	244.75
376.997	217.75
377.222	234.75
377.448	239.75
377.674	230.75
377.899	236.75
378.125	261.75
378.35	225.75
378.576	248.75
378.802	239.75
379.027	242.75
379.253	249.75
379.478	236.75
379.704	229.75
379.929	247.75
380.155	241.75
380.38	238.75
380.606	254.75
380.831	249.75
381.057	262.75
381.282	262.75
381.507	272.75
381.733	271.75
381.958	265.75
382.184	283.75
382.409	275.75
382.634	272.75
382.86	292.75
383.085	270.75
383.31	277.75
383.535	291.75
383.761	266.75
383.986	269.75
384.211	271.75
384.436	274.75
384.662	287.75
384.887	276.75
385.112	276.75
385.337	283.75
385.562	294.75
385.787	298.75
386.013	300.75
386.238	303.75
386.463	278.75
386.688	277.75
386.913	286.75
387.138	285.75
387.363	285.75
387.588	301.75
387.813	289.75
388.038	303.75
388.263	288.75
388.488	298.75
388.713	296.75
388.938	278.75
389.163	296.75
389.387	294.75
389.612	287.75
389.837	296.75
390.062	291.75
390.287	298.75
390.512	306.75
390.736	298.75
390.961	307.75
391.186	310.75
391.411	305.75
391.636	294.75
391.86	323.75
392.085	312.75
392.31	311.75
392.534	316.75
392.759	314.75
392.984	316.75
393.208	316.75
393.433	309.75
393.658	315.75
393.882	293.75
394.107	285.75
394.331	298.75
394.556	307.75
394.78	316.75
395.005	303.75
395.229	336.75
395.454	322.75
395.678	326.75
395.903	324.75
396.127	336.75
396.352	322.75
396.576	323.75
396.801	327.75
397.025	349.75
397.249	319.75
397.474	334.75
397.698	333.75
397.922	336.75
398.147	326.75
398.371	336.75
398.595	354.75
398.82	347.75
399.044	376.75
399.268	392.75
399.492	404.75
399.717	438.75
399.941	439.75
400.165	426.75
400.389	409.75
400.613	383.75
400.837	378.75
401.062	353.75
401.286	353.75
401.51	348.75
401.734	351.75
401.958	356.75
402.182	379.75
402.406	366.75
402.63	350.75
402.854	342.75
403.078	348.75
403.302	378.75
403.526	362.75
403.75	359.75
403.974	364.75
404.198	378.75
404.422	376.75
404.645	382.75
404.869	393.75
405.093	377.75
405.317	376.75
405.541	381.75
405.765	388.75
405.988	366.75
406.212	381.75
406.436	382.75
406.66	397.75
406.883	381.75
407.107	404.75
407.331	416.75
407.555	395.75
407.778	399.75
408.002	403.75
408.226	394.75
408.449	392.75
408.673	387.75
408.896	397.75
409.12	388.75
409.344	380.75
409.567	375.75
409.791	370.75
410.014	392.75
410.238	378.75
410.461	377.75
410.685	389.75
410.908	364.75
411.132	378.75
411.355	364.75
411.578	372.75
411.802	378.75
412.025	362.75
412.249	380.75
412.472	376.75
412.695	388.75
412.919	379.75
413.142	366.75
413.365	366.75
413.589	360.75
413.812	357.75
414.035	370.75
414.258	339.75
414.482	356.75
414.705	361.75
414.928	359.75
415.151	378.75
415.374	386.75
415.597	370.75
415.821	352.75
416.044	359.75
416.267	377.75
416.49	371.75
416.713	357.75
416.936	368.75
417.159	378.75
417.382	352.75
417.605	354.75
417.828	365.75
418.051	362.75
418.274	358.75
418.497	373.75
418.72	353.75
418.943	361.75
419.166	395.75
419.389	409.75
419.611	374.75
419.834	386.75
420.057	364.75
420.28	365.75
420.503	375.75
420.726	370.75
420.948	366.75
421.171	375.75
421.394	376.75
421.617	382.75
421.839	372.75
422.062	374.75
422.285	376.75
422.507	383.75
422.73	370.75
422.953	381.75
423.175	372.75
423.398	388.75
423.621	380.75
423.843	378.75
424.066	379.75
424.288	367.75
424.511	382.75
424.733	378.75
424.956	390.75
425.178	386.75
425.401	374.75
425.623	371.75
425.846	367.75
426.068	382.75
426.291	386.75
426.513	365.75
426.735	368.75
426.958	360.75
427.18	367.75
427.402	362.75
427.625	345.75
427.847	364.75
428.069	365.75
428.292	350.75
428.514	362.75
428.736	367.75
428.958	363.75
429.181	354.75
429.403	341.75
429.625	357.75
429.847	346.75
430.069	350.75
430.292	351.75
430.514	356.75
430.736	361.75
430.958	351.75
431.18	369.75
431.402	355.75
431.624	343.75
431.846	351.75
432.068	362.75
432.29	355.75
432.512	358.75
432.734	384.75
432.956	386.75
433.178	369.75
433.4	359.75
433.622	370.75
433.844	381.75
434.066	367.75
434.287	367.75
434.509	373.75
434.731	386.75
434.953	370.75
435.175	382.75
435.397	377.75
435.618	387.75
435.84	362.75
436.062	383.75
436.284	376.75
436.505	375.75
436.727	387.75
436.949	358.75
437.17	362.75
437.392	356.75
437.614	361.75
437.835	341.75
438.057	349.75
438.278	353.75
438.5	376.75
438.721	378.75
438.943	366.75
439.165	367.75
439.386	367.75
439.608	373.75
439.829	394.75
440.05	373.75
440.272	401.75
440.493	389.75
440.715	380.75
440.936	382.75
441.158	355.75
441.379	375.75
441.6	386.75
441.822	391.75
442.043	394.75
442.264	409.75
442.486	377.75
442.707	391.75
442.928	383.75
443.149	394.75
443.371	388.75
443.592	398.75
443.813	403.75
444.034	398.75
444.255	390.75
444.476	406.75
444.698	422.75
444.919	431.75
445.14	560.75
445.361	483.75
445.582	416.75
445.803	416.75
446.024	404.75
446.245	398.75
446.466	396.75
446.687	382.75
446.908	386.75
447.129	397.75
447.35	378.75
447.571	395.75
447.792	381.75
448.013	365.75
448.234	361.75
448.455	366.75
448.675	342.75
448.896	362.75
449.117	350.75
449.338	341.75
449.559	345.75
449.779	370.75
450	351.75
450.221	354.75
450.442	353.75
450.662	364.75
450.883	360.75
451.104	363.75
451.324	356.75
451.545	333.75
451.766	330.75
451.986	350.75
452.207	353.75
452.428	334.75
452.648	370.75
452.869	339.75
453.089	338.75
453.31	331.75
453.53	330.75
453.751	326.75
453.971	326.75
454.192	332.75
454.412	326.75
454.633	328.75
454.853	332.75
455.073	346.75
455.294	354.75
455.514	332.75
455.734	343.75
455.955	351.75
456.175	332.75
456.395	325.75
456.616	329.75
456.836	313.75
457.056	341.75
457.276	340.75
457.497	339.75
457.717	323.75
457.937	339.75
458.157	340.75
458.377	334.75
458.598	361.75
458.818	344.75
459.038	337.75
459.258	351.75
459.478	368.75
459.698	377.75
459.918	390.75
460.138	382.75
460.358	412.75
460.578	397.75
460.798	415.75
461.018	418.75
461.238	433.75
461.458	400.75
461.678	420.75
461.898	435.75
462.118	414.75
462.338	435.75
462.558	443.75
462.777	454.75
462.997	455.75
463.217	474.75
463.437	478.75
463.657	475.75
463.876	478.75
464.096	466.75
464.316	471.75
464.536	454.75
464.755	459.75
464.975	444.75
465.195	438.75
465.414	428.75
465.634	417.75
465.854	401.75
466.073	404.75
466.293	402.75
466.512	385.75
466.732	377.75
466.951	372.75
467.171	374.75
467.391	362.75
467.61	399.75
467.829	408.75
468.049	382.75
468.268	381.75
468.488	359.75
468.707	378.75
468.927	380.75
469.146	379.75
469.365	388.75
469.585	379.75
469.804	406.75
470.023	394.75
470.243	387.75
470.462	391.75
470.681	390.75
470.901	379.75
471.12	385.75
471.339	390.75
471.558	403.75
471.777	389.75
471.997	379.75
472.216	382.75
472.435	381.75
472.654	392.75
472.873	368.75
473.092	362.75
473.311	384.75
473.53	379.75
473.749	375.75
473.968	382.75
474.187	402.75
474.406	400.75
474.625	380.75
474.844	394.75
475.063	377.75
475.282	399.75
475.501	396.75
475.72	376.75
475.939	375.75
476.158	405.75
476.377	406.75
476.596	411.75
476.814	432.75
477.033	410.75
477.252	386.75
477.471	416.75
477.69	406.75
477.908	425.75
478.127	461.75
478.346	440.75
478.564	466.75
478.783	454.75
479.002	467.75
479.22	457.75
479.439	485.75
479.658	462.75
479.876	455.75
480.095	475.75
480.313	459.75
480.532	471.75
480.751	454.75
480.969	461.75
481.188	478.75
481.406	485.75
481.624	464.75
481.843	434.75
482.061	453.75
482.28	469.75
482.498	450.75
482.717	470.75
482.935	467.75
483.153	469.75
483.372	464.75
483.59	469.75
483.808	460.75
484.027	471.75
484.245	465.75
484.463	459.75
484.681	501.75
484.9	493.75
485.118	474.75
485.336	452.75
485.554	474.75
485.772	476.75
485.99	462.75
486.209	482.75
486.427	467.75
486.645	465.75
486.863	484.75
487.081	467.75
487.299	491.75
487.517	485.75
487.735	481.75
487.953	485.75
488.171	475.75
488.389	477.75
488.607	486.75
488.825	475.75
489.043	467.75
489.261	499.75
489.479	486.75
489.696	493.75
489.914	478.75
490.132	491.75
490.35	470.75
490.568	476.75
490.786	490.75
491.003	482.75
491.221	504.75
491.439	508.75
491.657	485.75
491.874	510.75
492.092	479.75
492.31	506.75
492.527	468.75
492.745	492.75
492.963	485.75
493.18	503.75
493.398	482.75
493.615	498.75
493.833	498.75
494.05	490.75
494.268	490.75
494.485	477.75
494.703	487.75
494.92	477.75
495.138	482.75
495.355	505.75
495.573	486.75
495.79	490.75
496.008	499.75
496.225	502.75
496.442	494.75
496.66	508.75
496.877	483.75
497.094	521.75
497.312	517.75
497.529	517.75
497.746	523.75
497.963	521.75
498.181	550.75
498.398	531.75
498.615	576.75
498.832	600.75
499.049	606.75
499.267	638.75
499.484	666.75
499.701	724.75
499.918	747.75
500.135	778.75
500.352	814.75
500.569	853.75
500.786	856.75
501.003	818.75
501.22	756.75
501.437	709.75
501.654	668.75
501.871	682.75
502.088	617.75
502.305	588.75
