Data from Fe(NO3)3@0.025M.TitratingCurve.Agarose3%dH2O.NegLispCup.LampEnergy10.LIBS07252019_HRD10591_16-55-47-336.txt Node
Date: Thu Jul 25 16:55:47 EDT 2019
User: cochatt
Spectrometer: HR+D1059
Trigger mode: 1
Integration Time (sec): 1.000000E-1
Scans to average: 1
Electric dark correction enabled: true
Nonlinearity correction enabled: false
Boxcar width: 0
XAxis mode: Wavelengths
Number of Pixels in Spectrum: 2048
>>>>>Begin Spectral Data<<<<<
223.165	-11.56
223.4	-11.56
223.635	-11.56
223.869	-14.56
224.104	-24.56
224.338	-11.56
224.573	-19.56
224.808	-6.56
225.042	-3.56
225.277	-18.56
225.511	6.44
225.746	-0.56
225.98	2.44
226.215	18.44
226.449	6.44
226.683	22.44
226.918	21.44
227.152	33.44
227.387	30.44
227.621	41.44
227.856	45.44
228.09	55.44
228.324	44.44
228.559	58.44
228.793	56.44
229.027	68.44
229.262	78.44
229.496	79.44
229.73	96.44
229.964	98.44
230.199	78.44
230.433	84.44
230.667	90.44
230.901	91.44
231.136	108.44
231.37	94.44
231.604	89.44
231.838	92.44
232.072	98.44
232.306	92.44
232.541	93.44
232.775	96.44
233.009	83.44
233.243	91.44
233.477	104.44
233.711	102.44
233.945	102.44
234.179	102.44
234.413	99.44
234.647	98.44
234.881	101.44
235.115	99.44
235.349	89.44
235.583	101.44
235.817	106.44
236.051	87.44
236.285	106.44
236.519	100.44
236.753	105.44
236.987	105.44
237.221	97.44
237.455	94.44
237.689	90.44
237.922	97.44
238.156	108.44
238.39	95.44
238.624	105.44
238.858	89.44
239.091	100.44
239.325	107.44
239.559	112.44
239.793	110.44
240.027	117.44
240.26	111.44
240.494	105.44
240.728	97.44
240.961	107.44
241.195	106.44
241.429	101.44
241.662	115.44
241.896	102.44
242.13	115.44
242.363	106.44
242.597	97.44
242.83	109.44
243.064	110.44
243.298	110.44
243.531	105.44
243.765	116.44
243.998	91.44
244.232	92.44
244.465	105.44
244.699	123.44
244.932	117.44
245.166	119.44
245.399	118.44
245.633	122.44
245.866	126.44
246.099	124.44
246.333	121.44
246.566	123.44
246.8	116.44
247.033	121.44
247.266	112.44
247.5	113.44
247.733	116.44
247.966	127.44
248.2	118.44
248.433	121.44
248.666	111.44
248.899	129.44
249.133	133.44
249.366	133.44
249.599	125.44
249.832	126.44
250.066	118.44
250.299	108.44
250.532	118.44
250.765	133.44
250.998	127.44
251.231	123.44
251.465	116.44
251.698	127.44
251.931	126.44
252.164	139.44
252.397	148.44
252.63	133.44
252.863	126.44
253.096	133.44
253.329	131.44
253.562	130.44
253.795	131.44
254.028	136.44
254.261	141.44
254.494	133.44
254.727	133.44
254.96	130.44
255.193	126.44
255.426	126.44
255.659	131.44
255.892	149.44
256.124	149.44
256.357	155.44
256.59	141.44
256.823	128.44
257.056	123.44
257.289	129.44
257.521	144.44
257.754	133.44
257.987	129.44
258.22	158.44
258.452	138.44
258.685	142.44
258.918	148.44
259.151	135.44
259.383	137.44
259.616	156.44
259.849	164.44
260.081	149.44
260.314	167.44
260.547	138.44
260.779	179.44
261.012	151.44
261.244	149.44
261.477	142.44
261.71	149.44
261.942	139.44
262.175	139.44
262.407	153.44
262.64	138.44
262.872	146.44
263.105	157.44
263.337	160.44
263.57	158.44
263.802	126.44
264.035	142.44
264.267	150.44
264.499	147.44
264.732	167.44
264.964	166.44
265.197	169.44
265.429	142.44
265.661	154.44
265.894	158.44
266.126	162.44
266.358	151.44
266.591	158.44
266.823	158.44
267.055	154.44
267.287	172.44
267.52	163.44
267.752	147.44
267.984	165.44
268.216	174.44
268.448	158.44
268.681	159.44
268.913	164.44
269.145	153.44
269.377	162.44
269.609	165.44
269.841	165.44
270.073	153.44
270.306	157.44
270.538	168.44
270.77	162.44
271.002	177.44
271.234	172.44
271.466	178.44
271.698	166.44
271.93	172.44
272.162	174.44
272.394	166.44
272.626	180.44
272.858	151.44
273.09	174.44
273.322	186.44
273.553	184.44
273.785	179.44
274.017	183.44
274.249	180.44
274.481	180.44
274.713	173.44
274.945	186.44
275.176	175.44
275.408	187.44
275.64	186.44
275.872	178.44
276.104	182.44
276.335	174.44
276.567	199.44
276.799	181.44
277.031	194.44
277.262	183.44
277.494	185.44
277.726	179.44
277.957	181.44
278.189	182.44
278.421	190.44
278.652	177.44
278.884	183.44
279.115	180.44
279.347	198.44
279.579	193.44
279.81	197.44
280.042	187.44
280.273	193.44
280.505	202.44
280.736	206.44
280.968	189.44
281.199	169.44
281.431	201.44
281.662	189.44
281.894	186.44
282.125	191.44
282.356	190.44
282.588	189.44
282.819	187.44
283.051	197.44
283.282	195.44
283.513	210.44
283.745	203.44
283.976	193.44
284.207	207.44
284.439	206.44
284.67	198.44
284.901	189.44
285.132	208.44
285.364	205.44
285.595	214.44
285.826	201.44
286.057	193.44
286.288	206.44
286.52	216.44
286.751	217.44
286.982	211.44
287.213	220.44
287.444	197.44
287.675	205.44
287.906	214.44
288.138	225.44
288.369	228.44
288.6	216.44
288.831	214.44
289.062	215.44
289.293	225.44
289.524	227.44
289.755	205.44
289.986	213.44
290.217	206.44
290.448	217.44
290.679	221.44
290.91	224.44
291.141	222.44
291.371	213.44
291.602	230.44
291.833	202.44
292.064	207.44
292.295	226.44
292.526	215.44
292.757	215.44
292.987	222.44
293.218	219.44
293.449	245.44
293.68	241.44
293.91	232.44
294.141	212.44
294.372	203.44
294.603	227.44
294.833	245.44
295.064	232.44
295.295	227.44
295.525	211.44
295.756	239.44
295.987	230.44
296.217	234.44
296.448	225.44
296.679	234.44
296.909	226.44
297.14	226.44
297.37	234.44
297.601	230.44
297.831	243.44
298.062	244.44
298.292	216.44
298.523	222.44
298.753	243.44
298.984	228.44
299.214	233.44
299.445	246.44
299.675	259.44
299.905	236.44
300.136	230.44
300.366	253.44
300.597	262.44
300.827	239.44
301.057	228.44
301.288	223.44
301.518	261.44
301.748	251.44
301.979	248.44
302.209	244.44
302.439	264.44
302.669	267.44
302.9	258.44
303.13	251.44
303.36	253.44
303.59	257.44
303.82	263.44
304.051	266.44
304.281	278.44
304.511	260.44
304.741	258.44
304.971	252.44
305.201	243.44
305.431	262.44
305.661	274.44
305.891	257.44
306.121	259.44
306.352	246.44
306.582	250.44
306.812	261.44
307.042	251.44
307.272	266.44
307.502	249.44
307.731	275.44
307.961	255.44
308.191	252.44
308.421	277.44
308.651	279.44
308.881	264.44
309.111	247.44
309.341	265.44
309.571	249.44
309.8	269.44
310.03	262.44
310.26	252.44
310.49	259.44
310.72	265.44
310.949	255.44
311.179	267.44
311.409	262.44
311.639	269.44
311.868	265.44
312.098	268.44
312.328	277.44
312.557	275.44
312.787	261.44
313.017	271.44
313.246	271.44
313.476	285.44
313.706	271.44
313.935	269.44
314.165	257.44
314.394	284.44
314.624	281.44
314.853	280.44
315.083	290.44
315.312	296.44
315.542	281.44
315.771	291.44
316.001	279.44
316.23	291.44
316.46	295.44
316.689	295.44
316.919	292.44
317.148	275.44
317.377	282.44
317.607	277.44
317.836	291.44
318.065	295.44
318.295	278.44
318.524	279.44
318.753	271.44
318.983	298.44
319.212	291.44
319.441	293.44
319.67	285.44
319.9	292.44
320.129	279.44
320.358	277.44
320.587	270.44
320.816	297.44
321.046	294.44
321.275	300.44
321.504	290.44
321.733	305.44
321.962	289.44
322.191	287.44
322.42	304.44
322.649	299.44
322.878	283.44
323.108	296.44
323.337	290.44
323.566	281.44
323.795	289.44
324.024	306.44
324.253	297.44
324.482	292.44
324.71	298.44
324.939	289.44
325.168	302.44
325.397	308.44
325.626	300.44
325.855	315.44
326.084	289.44
326.313	300.44
326.542	325.44
326.77	309.44
326.999	325.44
327.228	306.44
327.457	302.44
327.686	318.44
327.914	330.44
328.143	317.44
328.372	319.44
328.6	312.44
328.829	326.44
329.058	322.44
329.287	317.44
329.515	319.44
329.744	326.44
329.972	310.44
330.201	307.44
330.43	301.44
330.658	303.44
330.887	324.44
331.115	313.44
331.344	333.44
331.572	342.44
331.801	336.44
332.03	343.44
332.258	331.44
332.486	326.44
332.715	342.44
332.943	356.44
333.172	355.44
333.4	356.44
333.629	362.44
333.857	373.44
334.085	371.44
334.314	377.44
334.542	347.44
334.771	371.44
334.999	366.44
335.227	349.44
335.455	354.44
335.684	377.44
335.912	365.44
336.14	366.44
336.369	378.44
336.597	351.44
336.825	368.44
337.053	360.44
337.281	351.44
337.51	346.44
337.738	344.44
337.966	354.44
338.194	342.44
338.422	344.44
338.65	339.44
338.878	349.44
339.106	356.44
339.334	353.44
339.562	347.44
339.79	329.44
340.018	326.44
340.246	334.44
340.474	331.44
340.702	321.44
340.93	326.44
341.158	334.44
341.386	330.44
341.614	334.44
341.842	328.44
342.07	326.44
342.298	335.44
342.526	338.44
342.754	333.44
342.981	333.44
343.209	337.44
343.437	357.44
343.665	376.44
343.893	381.44
344.12	375.44
344.348	369.44
344.576	371.44
344.804	363.44
345.031	346.44
345.259	349.44
345.487	324.44
345.714	343.44
345.942	333.44
346.17	338.44
346.397	347.44
346.625	340.44
346.853	323.44
347.08	335.44
347.308	342.44
347.535	323.44
347.763	334.44
347.99	343.44
348.218	341.44
348.445	323.44
348.673	324.44
348.9	332.44
349.128	338.44
349.355	330.44
349.583	323.44
349.81	330.44
350.037	322.44
350.265	323.44
350.492	336.44
350.72	315.44
350.947	333.44
351.174	322.44
351.402	321.44
351.629	324.44
351.856	329.44
352.083	319.44
352.311	321.44
352.538	318.44
352.765	322.44
352.992	332.44
353.22	335.44
353.447	324.44
353.674	330.44
353.901	339.44
354.128	314.44
354.355	327.44
354.583	332.44
354.81	340.44
355.037	335.44
355.264	325.44
355.491	328.44
355.718	329.44
355.945	329.44
356.172	346.44
356.399	325.44
356.626	325.44
356.853	342.44
357.08	343.44
357.307	322.44
357.534	340.44
357.761	316.44
357.988	332.44
358.215	338.44
358.441	310.44
358.668	326.44
358.895	334.44
359.122	320.44
359.349	329.44
359.576	339.44
359.802	336.44
360.029	320.44
360.256	331.44
360.483	335.44
360.709	340.44
360.936	315.44
361.163	335.44
361.39	323.44
361.616	346.44
361.843	339.44
362.07	351.44
362.296	334.44
362.523	325.44
362.749	343.44
362.976	331.44
363.203	342.44
363.429	324.44
363.656	338.44
363.882	350.44
364.109	340.44
364.335	334.44
364.562	333.44
364.788	336.44
365.015	335.44
365.241	352.44
365.468	335.44
365.694	337.44
365.92	332.44
366.147	349.44
366.373	362.44
366.599	334.44
366.826	348.44
367.052	336.44
367.278	324.44
367.505	315.44
367.731	353.44
367.957	349.44
368.184	355.44
368.41	343.44
368.636	356.44
368.862	353.44
369.089	340.44
369.315	355.44
369.541	341.44
369.767	356.44
369.993	329.44
370.219	358.44
370.445	359.44
370.672	361.44
370.898	355.44
371.124	349.44
371.35	350.44
371.576	335.44
371.802	357.44
372.028	384.44
372.254	366.44
372.48	356.44
372.706	381.44
372.932	366.44
373.158	378.44
373.384	369.44
373.61	360.44
373.835	366.44
374.061	380.44
374.287	373.44
374.513	406.44
374.739	357.44
374.965	366.44
375.191	372.44
375.416	381.44
375.642	351.44
375.868	361.44
376.094	365.44
376.319	367.44
376.545	379.44
376.771	342.44
376.997	338.44
377.222	361.44
377.448	355.44
377.674	362.44
377.899	345.44
378.125	351.44
378.35	347.44
378.576	373.44
378.802	350.44
379.027	354.44
379.253	357.44
379.478	360.44
379.704	353.44
379.929	350.44
380.155	364.44
380.38	354.44
380.606	351.44
380.831	385.44
381.057	391.44
381.282	357.44
381.507	382.44
381.733	393.44
381.958	371.44
382.184	377.44
382.409	400.44
382.634	377.44
382.86	381.44
383.085	388.44
383.31	395.44
383.535	389.44
383.761	378.44
383.986	395.44
384.211	392.44
384.436	384.44
384.662	380.44
384.887	405.44
385.112	389.44
385.337	425.44
385.562	388.44
385.787	412.44
386.013	407.44
386.238	407.44
386.463	429.44
386.688	412.44
386.913	420.44
387.138	413.44
387.363	403.44
387.588	404.44
387.813	419.44
388.038	417.44
388.263	408.44
388.488	427.44
388.713	405.44
388.938	406.44
389.163	417.44
389.387	407.44
389.612	423.44
389.837	430.44
390.062	398.44
390.287	428.44
390.512	409.44
390.736	431.44
390.961	433.44
391.186	413.44
391.411	446.44
391.636	456.44
391.86	451.44
392.085	444.44
392.31	441.44
392.534	439.44
392.759	413.44
392.984	451.44
393.208	440.44
393.433	412.44
393.658	432.44
393.882	451.44
394.107	442.44
394.331	421.44
394.556	444.44
394.78	437.44
395.005	441.44
395.229	428.44
395.454	434.44
395.678	450.44
395.903	465.44
396.127	440.44
396.352	438.44
396.576	464.44
396.801	433.44
397.025	459.44
397.249	465.44
397.474	469.44
397.698	452.44
397.922	475.44
398.147	482.44
398.371	482.44
398.595	517.44
398.82	502.44
399.044	526.44
399.268	562.44
399.492	598.44
399.717	601.44
399.941	568.44
400.165	567.44
400.389	556.44
400.613	561.44
400.837	539.44
401.062	518.44
401.286	511.44
401.51	514.44
401.734	489.44
401.958	498.44
402.182	489.44
402.406	490.44
402.63	482.44
402.854	492.44
403.078	501.44
403.302	498.44
403.526	510.44
403.75	509.44
403.974	518.44
404.198	514.44
404.422	504.44
404.645	524.44
404.869	521.44
405.093	501.44
405.317	491.44
405.541	507.44
405.765	517.44
405.988	532.44
406.212	523.44
406.436	541.44
406.66	569.44
406.883	543.44
407.107	553.44
407.331	573.44
407.555	573.44
407.778	578.44
408.002	578.44
408.226	558.44
408.449	580.44
408.673	540.44
408.896	550.44
409.12	503.44
409.344	532.44
409.567	501.44
409.791	524.44
410.014	511.44
410.238	518.44
410.461	514.44
410.685	498.44
410.908	492.44
411.132	523.44
411.355	492.44
411.578	502.44
411.802	509.44
412.025	516.44
412.249	490.44
412.472	495.44
412.695	502.44
412.919	483.44
413.142	500.44
413.365	503.44
413.589	527.44
413.812	494.44
414.035	502.44
414.258	482.44
414.482	483.44
414.705	534.44
414.928	494.44
415.151	488.44
415.374	479.44
415.597	505.44
415.821	480.44
416.044	482.44
416.267	489.44
416.49	494.44
416.713	456.44
416.936	483.44
417.159	468.44
417.382	467.44
417.605	443.44
417.828	470.44
418.051	471.44
418.274	474.44
418.497	463.44
418.72	489.44
418.943	461.44
419.166	497.44
419.389	517.44
419.611	527.44
419.834	499.44
420.057	505.44
420.28	480.44
420.503	478.44
420.726	464.44
420.948	461.44
421.171	468.44
421.394	482.44
421.617	501.44
421.839	479.44
422.062	469.44
422.285	480.44
422.507	477.44
422.73	478.44
422.953	453.44
423.175	459.44
423.398	483.44
423.621	483.44
423.843	475.44
424.066	469.44
424.288	450.44
424.511	469.44
424.733	470.44
424.956	478.44
425.178	468.44
425.401	480.44
425.623	485.44
425.846	463.44
426.068	476.44
426.291	452.44
426.513	485.44
426.735	448.44
426.958	434.44
427.18	436.44
427.402	435.44
427.625	444.44
427.847	436.44
428.069	447.44
428.292	443.44
428.514	448.44
428.736	429.44
428.958	448.44
429.181	441.44
429.403	445.44
429.625	453.44
429.847	433.44
430.069	419.44
430.292	429.44
430.514	439.44
430.736	442.44
430.958	437.44
431.18	438.44
431.402	435.44
431.624	428.44
431.846	417.44
432.068	464.44
432.29	435.44
432.512	452.44
432.734	432.44
432.956	453.44
433.178	452.44
433.4	461.44
433.622	445.44
433.844	434.44
434.066	452.44
434.287	460.44
434.509	457.44
434.731	466.44
434.953	492.44
435.175	469.44
435.397	469.44
435.618	455.44
435.84	457.44
436.062	459.44
436.284	439.44
436.505	417.44
436.727	433.44
436.949	454.44
437.17	439.44
437.392	433.44
437.614	423.44
437.835	429.44
438.057	421.44
438.278	442.44
438.5	433.44
438.721	419.44
438.943	423.44
439.165	406.44
439.386	425.44
439.608	417.44
439.829	421.44
440.05	418.44
440.272	434.44
440.493	436.44
440.715	429.44
440.936	442.44
441.158	444.44
441.379	458.44
441.6	448.44
441.822	463.44
442.043	456.44
442.264	449.44
442.486	453.44
442.707	459.44
442.928	477.44
443.149	454.44
443.371	463.44
443.592	450.44
443.813	473.44
444.034	462.44
444.255	471.44
444.476	481.44
444.698	476.44
444.919	472.44
445.14	559.44
445.361	498.44
445.582	488.44
445.803	464.44
446.024	457.44
446.245	441.44
446.466	444.44
446.687	455.44
446.908	451.44
447.129	426.44
447.35	449.44
447.571	433.44
447.792	427.44
448.013	394.44
448.234	395.44
448.455	434.44
448.675	410.44
448.896	412.44
449.117	398.44
449.338	402.44
449.559	383.44
449.779	411.44
450	414.44
450.221	398.44
450.442	398.44
450.662	391.44
450.883	375.44
451.104	425.44
451.324	390.44
451.545	397.44
451.766	399.44
451.986	382.44
452.207	397.44
452.428	383.44
452.648	406.44
452.869	411.44
453.089	367.44
453.31	387.44
453.53	389.44
453.751	389.44
453.971	373.44
454.192	381.44
454.412	377.44
454.633	370.44
454.853	381.44
455.073	375.44
455.294	384.44
455.514	390.44
455.734	387.44
455.955	375.44
456.175	385.44
456.395	404.44
456.616	385.44
456.836	399.44
457.056	397.44
457.276	373.44
457.497	379.44
457.717	403.44
457.937	398.44
458.157	393.44
458.377	403.44
458.598	399.44
458.818	425.44
459.038	433.44
459.258	439.44
459.478	433.44
459.698	442.44
459.918	462.44
460.138	470.44
460.358	461.44
460.578	467.44
460.798	466.44
461.018	475.44
461.238	491.44
461.458	486.44
461.678	493.44
461.898	507.44
462.118	495.44
462.338	503.44
462.558	530.44
462.777	538.44
462.997	552.44
463.217	573.44
463.437	553.44
463.657	549.44
463.876	555.44
464.096	526.44
464.316	531.44
464.536	519.44
464.755	523.44
464.975	523.44
465.195	498.44
465.414	487.44
465.634	469.44
465.854	454.44
466.073	467.44
466.293	439.44
466.512	458.44
466.732	420.44
466.951	419.44
467.171	435.44
467.391	416.44
467.61	418.44
467.829	402.44
468.049	417.44
468.268	422.44
468.488	413.44
468.707	409.44
468.927	414.44
469.146	406.44
469.365	429.44
469.585	438.44
469.804	425.44
470.023	447.44
470.243	437.44
470.462	409.44
470.681	425.44
470.901	457.44
471.12	436.44
471.339	428.44
471.558	422.44
471.777	425.44
471.997	417.44
472.216	440.44
472.435	433.44
472.654	422.44
472.873	430.44
473.092	425.44
473.311	433.44
473.53	405.44
473.749	404.44
473.968	399.44
474.187	425.44
474.406	440.44
474.625	430.44
474.844	424.44
475.063	424.44
475.282	443.44
475.501	419.44
475.72	421.44
475.939	433.44
476.158	429.44
476.377	454.44
476.596	446.44
476.814	456.44
477.033	459.44
477.252	438.44
477.471	457.44
477.69	451.44
477.908	474.44
478.127	477.44
478.346	468.44
478.564	495.44
478.783	493.44
479.002	476.44
479.22	521.44
479.439	509.44
479.658	491.44
479.876	497.44
480.095	514.44
480.313	493.44
480.532	509.44
480.751	516.44
480.969	507.44
481.188	513.44
481.406	513.44
481.624	503.44
481.843	485.44
482.061	491.44
482.28	491.44
482.498	495.44
482.717	460.44
482.935	489.44
483.153	499.44
483.372	502.44
483.59	508.44
483.808	488.44
484.027	505.44
484.245	473.44
484.463	506.44
484.681	510.44
484.9	508.44
485.118	490.44
485.336	497.44
485.554	510.44
485.772	513.44
485.99	511.44
486.209	530.44
486.427	505.44
486.645	508.44
486.863	517.44
487.081	511.44
487.299	501.44
487.517	493.44
487.735	492.44
487.953	497.44
488.171	490.44
488.389	500.44
488.607	508.44
488.825	523.44
489.043	523.44
489.261	515.44
489.479	505.44
489.696	511.44
489.914	504.44
490.132	497.44
490.35	504.44
490.568	503.44
490.786	515.44
491.003	522.44
491.221	510.44
491.439	513.44
491.657	504.44
491.874	507.44
492.092	517.44
492.31	529.44
492.527	527.44
492.745	507.44
492.963	561.44
493.18	523.44
493.398	515.44
493.615	522.44
493.833	523.44
494.05	539.44
494.268	551.44
494.485	527.44
494.703	532.44
494.92	581.44
495.138	536.44
495.355	540.44
495.573	555.44
495.79	541.44
496.008	554.44
496.225	544.44
496.442	559.44
496.66	575.44
496.877	558.44
497.094	559.44
497.312	594.44
497.529	610.44
497.746	595.44
497.963	651.44
498.181	661.44
498.398	664.44
498.615	695.44
498.832	710.44
499.049	753.44
499.267	781.44
499.484	792.44
499.701	870.44
499.918	901.44
500.135	940.44
500.352	979.44
500.569	995.44
500.786	972.44
501.003	971.44
501.22	911.44
501.437	891.44
501.654	834.44
501.871	788.44
502.088	764.44
