Data from Fe(NO3)3@0.1M.TitratingCurve.Agarose3%dH2O.NegLispCup.LampEnergy10.LIBS07252019_HRD10591_16-39-34-332.txt Node
Date: Thu Jul 25 16:39:34 EDT 2019
User: cochatt
Spectrometer: HR+D1059
Trigger mode: 1
Integration Time (sec): 1.000000E-1
Scans to average: 1
Electric dark correction enabled: true
Nonlinearity correction enabled: false
Boxcar width: 0
XAxis mode: Wavelengths
Number of Pixels in Spectrum: 2048
>>>>>Begin Spectral Data<<<<<
223.165	-27.88
223.4	-27.88
223.635	-27.88
223.869	-15.88
224.104	-11.88
224.338	-14.88
224.573	-11.88
224.808	-8.88
225.042	3.12
225.277	-11.88
225.511	-5.88
225.746	-4.88
225.98	5.12
226.215	10.12
226.449	27.12
226.683	7.12
226.918	23.12
227.152	38.12
227.387	29.12
227.621	32.12
227.856	38.12
228.09	37.12
228.324	50.12
228.559	55.12
228.793	42.12
229.027	95.12
229.262	95.12
229.496	89.12
229.73	81.12
229.964	89.12
230.199	95.12
230.433	88.12
230.667	99.12
230.901	87.12
231.136	101.12
231.37	101.12
231.604	105.12
231.838	101.12
232.072	107.12
232.306	103.12
232.541	111.12
232.775	111.12
233.009	115.12
233.243	120.12
233.477	105.12
233.711	101.12
233.945	109.12
234.179	119.12
234.413	115.12
234.647	115.12
234.881	103.12
235.115	118.12
235.349	119.12
235.583	114.12
235.817	102.12
236.051	94.12
236.285	106.12
236.519	115.12
236.753	113.12
236.987	96.12
237.221	106.12
237.455	107.12
237.689	127.12
237.922	111.12
238.156	107.12
238.39	116.12
238.624	121.12
238.858	139.12
239.091	134.12
239.325	119.12
239.559	118.12
239.793	117.12
240.027	107.12
240.26	120.12
240.494	122.12
240.728	123.12
240.961	130.12
241.195	118.12
241.429	127.12
241.662	125.12
241.896	119.12
242.13	125.12
242.363	113.12
242.597	126.12
242.83	128.12
243.064	125.12
243.298	127.12
243.531	123.12
243.765	127.12
243.998	127.12
244.232	131.12
244.465	124.12
244.699	137.12
244.932	134.12
245.166	131.12
245.399	136.12
245.633	133.12
245.866	155.12
246.099	151.12
246.333	145.12
246.566	139.12
246.8	147.12
247.033	120.12
247.266	125.12
247.5	137.12
247.733	137.12
247.966	148.12
248.2	137.12
248.433	139.12
248.666	141.12
248.899	175.12
249.133	139.12
249.366	145.12
249.599	142.12
249.832	140.12
250.066	143.12
250.299	154.12
250.532	139.12
250.765	152.12
250.998	167.12
251.231	143.12
251.465	154.12
251.698	169.12
251.931	162.12
252.164	148.12
252.397	157.12
252.63	168.12
252.863	152.12
253.096	153.12
253.329	139.12
253.562	152.12
253.795	161.12
254.028	169.12
254.261	165.12
254.494	156.12
254.727	161.12
254.96	172.12
255.193	170.12
255.426	175.12
255.659	169.12
255.892	159.12
256.124	160.12
256.357	169.12
256.59	172.12
256.823	169.12
257.056	169.12
257.289	165.12
257.521	157.12
257.754	187.12
257.987	168.12
258.22	182.12
258.452	169.12
258.685	185.12
258.918	172.12
259.151	177.12
259.383	175.12
259.616	179.12
259.849	175.12
260.081	179.12
260.314	176.12
260.547	187.12
260.779	181.12
261.012	175.12
261.244	199.12
261.477	180.12
261.71	187.12
261.942	189.12
262.175	202.12
262.407	188.12
262.64	192.12
262.872	192.12
263.105	195.12
263.337	178.12
263.57	183.12
263.802	195.12
264.035	182.12
264.267	195.12
264.499	192.12
264.732	188.12
264.964	204.12
265.197	193.12
265.429	191.12
265.661	189.12
265.894	189.12
266.126	202.12
266.358	195.12
266.591	207.12
266.823	202.12
267.055	194.12
267.287	204.12
267.52	201.12
267.752	182.12
267.984	199.12
268.216	208.12
268.448	217.12
268.681	219.12
268.913	206.12
269.145	200.12
269.377	204.12
269.609	212.12
269.841	217.12
270.073	200.12
270.306	209.12
270.538	213.12
270.77	200.12
271.002	193.12
271.234	216.12
271.466	217.12
271.698	222.12
271.93	215.12
272.162	208.12
272.394	224.12
272.626	208.12
272.858	221.12
273.09	201.12
273.322	218.12
273.553	228.12
273.785	231.12
274.017	214.12
274.249	215.12
274.481	209.12
274.713	231.12
274.945	223.12
275.176	221.12
275.408	241.12
275.64	242.12
275.872	219.12
276.104	216.12
276.335	232.12
276.567	234.12
276.799	226.12
277.031	229.12
277.262	218.12
277.494	226.12
277.726	242.12
277.957	224.12
278.189	242.12
278.421	233.12
278.652	215.12
278.884	242.12
279.115	223.12
279.347	243.12
279.579	232.12
279.81	229.12
280.042	224.12
280.273	244.12
280.505	253.12
280.736	230.12
280.968	241.12
281.199	241.12
281.431	238.12
281.662	249.12
281.894	260.12
282.125	266.12
282.356	242.12
282.588	248.12
282.819	258.12
283.051	257.12
283.282	234.12
283.513	250.12
283.745	270.12
283.976	271.12
284.207	252.12
284.439	263.12
284.67	270.12
284.901	265.12
285.132	263.12
285.364	251.12
285.595	256.12
285.826	278.12
286.057	255.12
286.288	267.12
286.52	270.12
286.751	265.12
286.982	261.12
287.213	257.12
287.444	269.12
287.675	260.12
287.906	271.12
288.138	276.12
288.369	280.12
288.6	271.12
288.831	263.12
289.062	280.12
289.293	279.12
289.524	279.12
289.755	269.12
289.986	276.12
290.217	272.12
290.448	289.12
290.679	248.12
290.91	264.12
291.141	275.12
291.371	276.12
291.602	290.12
291.833	290.12
292.064	286.12
292.295	277.12
292.526	281.12
292.757	288.12
292.987	291.12
293.218	266.12
293.449	279.12
293.68	281.12
293.91	276.12
294.141	283.12
294.372	292.12
294.603	278.12
294.833	273.12
295.064	275.12
295.295	298.12
295.525	281.12
295.756	288.12
295.987	292.12
296.217	299.12
296.448	292.12
296.679	284.12
296.909	287.12
297.14	288.12
297.37	295.12
297.601	304.12
297.831	292.12
298.062	279.12
298.292	299.12
298.523	306.12
298.753	298.12
298.984	293.12
299.214	298.12
299.445	283.12
299.675	293.12
299.905	288.12
300.136	304.12
300.366	320.12
300.597	301.12
300.827	307.12
301.057	315.12
301.288	306.12
301.518	301.12
301.748	296.12
301.979	311.12
302.209	295.12
302.439	306.12
302.669	324.12
302.9	312.12
303.13	314.12
303.36	325.12
303.59	319.12
303.82	325.12
304.051	317.12
304.281	315.12
304.511	309.12
304.741	324.12
304.971	313.12
305.201	322.12
305.431	317.12
305.661	309.12
305.891	296.12
306.121	312.12
306.352	315.12
306.582	307.12
306.812	297.12
307.042	319.12
307.272	326.12
307.502	319.12
307.731	317.12
307.961	310.12
308.191	310.12
308.421	335.12
308.651	321.12
308.881	313.12
309.111	311.12
309.341	316.12
309.571	309.12
309.8	312.12
310.03	303.12
310.26	313.12
310.49	305.12
310.72	305.12
310.949	323.12
311.179	319.12
311.409	319.12
311.639	307.12
311.868	347.12
312.098	319.12
312.328	322.12
312.557	317.12
312.787	328.12
313.017	345.12
313.246	343.12
313.476	328.12
313.706	323.12
313.935	353.12
314.165	331.12
314.394	328.12
314.624	331.12
314.853	327.12
315.083	318.12
315.312	341.12
315.542	335.12
315.771	335.12
316.001	343.12
316.23	351.12
316.46	342.12
316.689	335.12
316.919	348.12
317.148	339.12
317.377	365.12
317.607	323.12
317.836	325.12
318.065	321.12
318.295	332.12
318.524	346.12
318.753	327.12
318.983	326.12
319.212	331.12
319.441	338.12
319.67	325.12
319.9	323.12
320.129	359.12
320.358	339.12
320.587	323.12
320.816	331.12
321.046	339.12
321.275	349.12
321.504	343.12
321.733	327.12
321.962	337.12
322.191	332.12
322.42	342.12
322.649	344.12
322.878	333.12
323.108	350.12
323.337	349.12
323.566	361.12
323.795	332.12
324.024	347.12
324.253	357.12
324.482	353.12
324.71	360.12
324.939	347.12
325.168	359.12
325.397	359.12
325.626	350.12
325.855	335.12
326.084	364.12
326.313	358.12
326.542	382.12
326.77	375.12
326.999	372.12
327.228	361.12
327.457	354.12
327.686	369.12
327.914	362.12
328.143	369.12
328.372	369.12
328.6	353.12
328.829	379.12
329.058	353.12
329.287	361.12
329.515	369.12
329.744	381.12
329.972	364.12
330.201	397.12
330.43	374.12
330.658	361.12
330.887	369.12
331.115	390.12
331.344	395.12
331.572	383.12
331.801	387.12
332.03	387.12
332.258	403.12
332.486	412.12
332.715	410.12
332.943	439.12
333.172	473.12
333.4	475.12
333.629	467.12
333.857	497.12
334.085	481.12
334.314	456.12
334.542	451.12
334.771	446.12
334.999	457.12
335.227	453.12
335.455	443.12
335.684	428.12
335.912	441.12
336.14	440.12
336.369	429.12
336.597	407.12
336.825	441.12
337.053	427.12
337.281	425.12
337.51	426.12
337.738	428.12
337.966	416.12
338.194	407.12
338.422	394.12
338.65	408.12
338.878	419.12
339.106	388.12
339.334	397.12
339.562	403.12
339.79	387.12
340.018	395.12
340.246	375.12
340.474	379.12
340.702	383.12
340.93	399.12
341.158	371.12
341.386	377.12
341.614	398.12
341.842	387.12
342.07	371.12
342.298	376.12
342.526	399.12
342.754	384.12
342.981	394.12
343.209	413.12
343.437	408.12
343.665	437.12
343.893	443.12
344.12	460.12
344.348	439.12
344.576	423.12
344.804	418.12
345.031	390.12
345.259	385.12
345.487	388.12
345.714	373.12
345.942	377.12
346.17	385.12
346.397	363.12
346.625	369.12
346.853	365.12
347.08	363.12
347.308	392.12
347.535	387.12
347.763	377.12
347.99	354.12
348.218	367.12
348.445	383.12
348.673	368.12
348.9	376.12
349.128	364.12
349.355	385.12
349.583	382.12
349.81	386.12
350.037	377.12
350.265	371.12
350.492	360.12
350.72	383.12
350.947	353.12
351.174	377.12
351.402	349.12
351.629	367.12
351.856	355.12
352.083	375.12
352.311	359.12
352.538	350.12
352.765	368.12
352.992	353.12
353.22	345.12
353.447	358.12
353.674	377.12
353.901	373.12
354.128	368.12
354.355	377.12
354.583	364.12
354.81	379.12
355.037	375.12
355.264	358.12
355.491	353.12
355.718	367.12
355.945	392.12
356.172	364.12
356.399	370.12
356.626	382.12
356.853	357.12
357.08	374.12
357.307	387.12
357.534	366.12
357.761	360.12
357.988	364.12
358.215	362.12
358.441	373.12
358.668	365.12
358.895	383.12
359.122	363.12
359.349	360.12
359.576	372.12
359.802	364.12
360.029	377.12
360.256	369.12
360.483	367.12
360.709	360.12
360.936	367.12
361.163	372.12
361.39	365.12
361.616	375.12
361.843	353.12
362.07	341.12
362.296	358.12
362.523	359.12
362.749	346.12
362.976	365.12
363.203	391.12
363.429	368.12
363.656	362.12
363.882	349.12
364.109	354.12
364.335	389.12
364.562	375.12
364.788	369.12
365.015	383.12
365.241	363.12
365.468	376.12
365.694	361.12
365.92	375.12
366.147	382.12
366.373	363.12
366.599	371.12
366.826	363.12
367.052	363.12
367.278	361.12
367.505	369.12
367.731	379.12
367.957	378.12
368.184	376.12
368.41	381.12
368.636	375.12
368.862	402.12
369.089	386.12
369.315	398.12
369.541	377.12
369.767	391.12
369.993	377.12
370.219	379.12
370.445	403.12
370.672	405.12
370.898	396.12
371.124	418.12
371.35	372.12
371.576	386.12
371.802	389.12
372.028	409.12
372.254	379.12
372.48	398.12
372.706	410.12
372.932	387.12
373.158	418.12
373.384	415.12
373.61	400.12
373.835	397.12
374.061	399.12
374.287	402.12
374.513	419.12
374.739	420.12
374.965	424.12
375.191	439.12
375.416	440.12
375.642	427.12
375.868	425.12
376.094	415.12
376.319	394.12
376.545	400.12
376.771	394.12
376.997	424.12
377.222	403.12
377.448	403.12
377.674	415.12
377.899	412.12
378.125	397.12
378.35	390.12
378.576	393.12
378.802	386.12
379.027	400.12
379.253	411.12
379.478	408.12
379.704	400.12
379.929	405.12
380.155	405.12
380.38	394.12
380.606	393.12
380.831	410.12
381.057	403.12
381.282	422.12
381.507	404.12
381.733	396.12
381.958	417.12
382.184	407.12
382.409	395.12
382.634	426.12
382.86	427.12
383.085	434.12
383.31	431.12
383.535	444.12
383.761	444.12
383.986	434.12
384.211	458.12
384.436	466.12
384.662	452.12
384.887	456.12
385.112	479.12
385.337	480.12
385.562	481.12
385.787	471.12
386.013	500.12
386.238	482.12
386.463	501.12
386.688	492.12
386.913	478.12
387.138	500.12
387.363	488.12
387.588	469.12
387.813	464.12
388.038	498.12
388.263	485.12
388.488	495.12
388.713	474.12
388.938	467.12
389.163	479.12
389.387	473.12
389.612	482.12
389.837	470.12
390.062	476.12
390.287	498.12
390.512	479.12
390.736	488.12
390.961	505.12
391.186	508.12
391.411	510.12
391.636	537.12
391.86	543.12
392.085	529.12
392.31	540.12
392.534	532.12
392.759	508.12
392.984	523.12
393.208	515.12
393.433	478.12
393.658	483.12
393.882	513.12
394.107	531.12
394.331	493.12
394.556	497.12
394.78	510.12
395.005	515.12
395.229	523.12
395.454	543.12
395.678	542.12
395.903	556.12
396.127	531.12
396.352	521.12
396.576	523.12
396.801	517.12
397.025	525.12
397.249	553.12
397.474	548.12
397.698	562.12
397.922	564.12
398.147	545.12
398.371	547.12
398.595	588.12
398.82	599.12
399.044	624.12
399.268	693.12
399.492	801.12
399.717	866.12
399.941	845.12
400.165	791.12
400.389	695.12
400.613	653.12
400.837	625.12
401.062	639.12
401.286	614.12
401.51	623.12
401.734	597.12
401.958	600.12
402.182	623.12
402.406	617.12
402.63	625.12
402.854	626.12
403.078	609.12
403.302	641.12
403.526	640.12
403.75	696.12
403.974	681.12
404.198	668.12
404.422	681.12
404.645	699.12
404.869	651.12
405.093	671.12
405.317	671.12
405.541	659.12
405.765	665.12
405.988	665.12
406.212	658.12
406.436	666.12
406.66	707.12
406.883	657.12
407.107	737.12
407.331	751.12
407.555	777.12
407.778	779.12
408.002	731.12
408.226	728.12
408.449	728.12
408.673	707.12
408.896	669.12
409.12	695.12
409.344	697.12
409.567	694.12
409.791	694.12
410.014	681.12
410.238	661.12
410.461	685.12
410.685	674.12
410.908	650.12
411.132	677.12
411.355	637.12
411.578	648.12
411.802	635.12
412.025	676.12
412.249	651.12
412.472	645.12
412.695	620.12
412.919	639.12
413.142	624.12
413.365	615.12
413.589	601.12
413.812	632.12
414.035	606.12
414.258	623.12
414.482	614.12
414.705	614.12
414.928	600.12
415.151	608.12
415.374	597.12
415.597	616.12
415.821	593.12
416.044	606.12
416.267	600.12
416.49	594.12
416.713	593.12
416.936	595.12
417.159	589.12
417.382	602.12
417.605	587.12
417.828	582.12
418.051	625.12
418.274	579.12
418.497	605.12
418.72	627.12
418.943	615.12
419.166	630.12
419.389	699.12
419.611	677.12
419.834	639.12
420.057	626.12
420.28	635.12
420.503	617.12
420.726	589.12
420.948	605.12
421.171	587.12
421.394	610.12
421.617	606.12
421.839	600.12
422.062	621.12
422.285	597.12
422.507	648.12
422.73	613.12
422.953	646.12
423.175	630.12
423.398	631.12
423.621	626.12
423.843	641.12
424.066	623.12
424.288	596.12
424.511	625.12
424.733	628.12
424.956	622.12
425.178	586.12
425.401	628.12
425.623	623.12
425.846	583.12
426.068	583.12
426.291	568.12
426.513	566.12
426.735	573.12
426.958	577.12
427.18	556.12
427.402	568.12
427.625	556.12
427.847	551.12
428.069	566.12
428.292	567.12
428.514	565.12
428.736	529.12
428.958	548.12
429.181	550.12
429.403	538.12
429.625	521.12
429.847	533.12
430.069	498.12
430.292	554.12
430.514	550.12
430.736	532.12
430.958	549.12
431.18	565.12
431.402	559.12
431.624	562.12
431.846	560.12
432.068	573.12
432.29	571.12
432.512	552.12
432.734	549.12
432.956	577.12
433.178	570.12
433.4	552.12
433.622	581.12
433.844	577.12
434.066	565.12
434.287	553.12
434.509	587.12
434.731	581.12
434.953	622.12
435.175	635.12
435.397	631.12
435.618	592.12
435.84	561.12
436.062	576.12
436.284	563.12
436.505	555.12
436.727	561.12
436.949	573.12
437.17	576.12
437.392	542.12
437.614	527.12
437.835	511.12
438.057	551.12
438.278	535.12
438.5	534.12
438.721	546.12
438.943	550.12
439.165	535.12
439.386	528.12
439.608	573.12
439.829	550.12
440.05	567.12
440.272	569.12
440.493	570.12
440.715	570.12
440.936	576.12
441.158	573.12
441.379	589.12
441.6	612.12
441.822	626.12
442.043	603.12
442.264	611.12
442.486	596.12
442.707	605.12
442.928	615.12
443.149	605.12
443.371	595.12
443.592	600.12
443.813	624.12
444.034	633.12
444.255	648.12
444.476	697.12
444.698	700.12
444.919	712.12
445.14	811.12
445.361	699.12
445.582	658.12
445.803	617.12
446.024	597.12
446.245	586.12
446.466	559.12
446.687	559.12
446.908	568.12
447.129	559.12
447.35	545.12
447.571	543.12
447.792	536.12
448.013	536.12
448.234	543.12
448.455	540.12
448.675	549.12
448.896	500.12
449.117	524.12
449.338	521.12
449.559	517.12
449.779	516.12
450	518.12
450.221	501.12
450.442	502.12
450.662	527.12
450.883	518.12
451.104	551.12
451.324	524.12
451.545	528.12
451.766	519.12
451.986	500.12
452.207	505.12
452.428	522.12
452.648	498.12
452.869	513.12
453.089	519.12
453.31	489.12
453.53	471.12
453.751	490.12
453.971	504.12
454.192	474.12
454.412	488.12
454.633	490.12
454.853	472.12
455.073	481.12
455.294	480.12
455.514	474.12
455.734	486.12
455.955	458.12
456.175	472.12
456.395	474.12
456.616	478.12
456.836	486.12
457.056	469.12
457.276	455.12
457.497	490.12
457.717	487.12
457.937	466.12
458.157	488.12
458.377	504.12
458.598	497.12
458.818	512.12
459.038	538.12
459.258	541.12
459.478	549.12
459.698	570.12
459.918	582.12
460.138	611.12
460.358	630.12
460.578	624.12
460.798	615.12
461.018	656.12
461.238	633.12
461.458	637.12
461.678	635.12
461.898	645.12
462.118	641.12
462.338	687.12
462.558	687.12
462.777	731.12
462.997	766.12
463.217	808.12
463.437	786.12
463.657	756.12
463.876	740.12
464.096	747.12
464.316	706.12
464.536	717.12
464.755	718.12
464.975	694.12
465.195	643.12
465.414	610.12
465.634	583.12
465.854	572.12
466.073	585.12
466.293	555.12
466.512	542.12
466.732	536.12
466.951	556.12
467.171	531.12
467.391	524.12
467.61	546.12
467.829	531.12
468.049	501.12
468.268	534.12
468.488	537.12
468.707	503.12
468.927	506.12
469.146	515.12
469.365	543.12
469.585	533.12
469.804	526.12
470.023	540.12
470.243	544.12
470.462	553.12
470.681	538.12
470.901	551.12
471.12	538.12
471.339	501.12
471.558	535.12
471.777	509.12
471.997	531.12
472.216	492.12
472.435	503.12
472.654	505.12
472.873	500.12
473.092	484.12
473.311	506.12
473.53	515.12
473.749	485.12
473.968	501.12
474.187	484.12
474.406	492.12
474.625	506.12
474.844	490.12
475.063	510.12
475.282	486.12
475.501	505.12
475.72	503.12
475.939	497.12
476.158	529.12
476.377	535.12
476.596	509.12
476.814	519.12
477.033	527.12
477.252	518.12
477.471	524.12
477.69	554.12
477.908	581.12
478.127	568.12
478.346	595.12
478.564	583.12
478.783	584.12
479.002	613.12
479.22	606.12
479.439	590.12
479.658	588.12
479.876	602.12
480.095	598.12
480.313	604.12
480.532	641.12
480.751	633.12
480.969	593.12
481.188	591.12
481.406	574.12
481.624	595.12
481.843	570.12
482.061	545.12
482.28	557.12
482.498	567.12
482.717	539.12
482.935	588.12
483.153	562.12
483.372	589.12
483.59	577.12
483.808	559.12
484.027	574.12
484.245	585.12
484.463	586.12
484.681	579.12
484.9	578.12
485.118	576.12
485.336	538.12
485.554	577.12
485.772	571.12
485.99	560.12
486.209	580.12
486.427	575.12
486.645	577.12
486.863	600.12
487.081	592.12
487.299	579.12
487.517	570.12
487.735	599.12
487.953	609.12
488.171	583.12
488.389	575.12
488.607	578.12
488.825	583.12
489.043	571.12
489.261	571.12
489.479	591.12
489.696	568.12
489.914	550.12
490.132	582.12
490.35	570.12
490.568	571.12
490.786	582.12
491.003	588.12
491.221	572.12
491.439	578.12
491.657	588.12
491.874	603.12
492.092	598.12
492.31	608.12
492.527	591.12
492.745	602.12
492.963	610.12
493.18	617.12
493.398	615.12
493.615	605.12
493.833	596.12
494.05	607.12
494.268	620.12
494.485	615.12
494.703	624.12
494.92	627.12
495.138	597.12
495.355	599.12
495.573	596.12
495.79	627.12
496.008	647.12
496.225	622.12
496.442	641.12
496.66	652.12
496.877	675.12
497.094	640.12
497.312	651.12
497.529	669.12
497.746	675.12
497.963	710.12
498.181	759.12
498.398	782.12
498.615	810.12
498.832	846.12
499.049	921.12
499.267	963.12
499.484	1089.12
499.701	1174.12
499.918	1247.12
500.135	1412.12
500.352	1549.12
500.569	1677.12
500.786	1613.12
501.003	1504.12
501.22	1386.12
501.437	1225.12
501.654	1134.12
