Data from Fe(NO3)3@0.05M.TitratingCurve.Agarose3%dH2O.NegLispCup.LampEnergy10.LIBS07252019_HRD10591_16-45-56-334.txt Node
Date: Thu Jul 25 16:45:56 EDT 2019
User: cochatt
Spectrometer: HR+D1059
Trigger mode: 1
Integration Time (sec): 1.000000E-1
Scans to average: 1
Electric dark correction enabled: true
Nonlinearity correction enabled: false
Boxcar width: 0
XAxis mode: Wavelengths
Number of Pixels in Spectrum: 2048
>>>>>Begin Spectral Data<<<<<
223.165	-6.25
223.4	-6.25
223.635	-6.25
223.869	-6.25
224.104	-26.25
224.338	-29.25
224.573	-15.25
224.808	-20.25
225.042	-9.25
225.277	0.75
225.511	-4.25
225.746	-3.25
225.98	5.75
226.215	20.75
226.449	29.75
226.683	23.75
226.918	24.75
227.152	14.75
227.387	33.75
227.621	52.75
227.856	37.75
228.09	32.75
228.324	46.75
228.559	49.75
228.793	71.75
229.027	110.75
229.262	117.75
229.496	113.75
229.73	126.75
229.964	119.75
230.199	134.75
230.433	118.75
230.667	130.75
230.901	137.75
231.136	127.75
231.37	130.75
231.604	137.75
231.838	161.75
232.072	126.75
232.306	150.75
232.541	152.75
232.775	134.75
233.009	151.75
233.243	166.75
233.477	166.75
233.711	166.75
233.945	147.75
234.179	168.75
234.413	173.75
234.647	175.75
234.881	190.75
235.115	179.75
235.349	162.75
235.583	161.75
235.817	167.75
236.051	162.75
236.285	180.75
236.519	178.75
236.753	171.75
236.987	183.75
237.221	157.75
237.455	188.75
237.689	170.75
237.922	189.75
238.156	189.75
238.39	210.75
238.624	224.75
238.858	205.75
239.091	191.75
239.325	185.75
239.559	201.75
239.793	213.75
240.027	232.75
240.26	217.75
240.494	214.75
240.728	217.75
240.961	213.75
241.195	218.75
241.429	228.75
241.662	217.75
241.896	214.75
242.13	193.75
242.363	200.75
242.597	213.75
242.83	211.75
243.064	206.75
243.298	212.75
243.531	229.75
243.765	231.75
243.998	215.75
244.232	225.75
244.465	224.75
244.699	237.75
244.932	224.75
245.166	236.75
245.399	235.75
245.633	208.75
245.866	231.75
246.099	227.75
246.333	247.75
246.566	231.75
246.8	243.75
247.033	245.75
247.266	234.75
247.5	240.75
247.733	247.75
247.966	255.75
248.2	249.75
248.433	276.75
248.666	256.75
248.899	271.75
249.133	276.75
249.366	271.75
249.599	285.75
249.832	294.75
250.066	274.75
250.299	285.75
250.532	288.75
250.765	277.75
250.998	276.75
251.231	291.75
251.465	299.75
251.698	274.75
251.931	269.75
252.164	296.75
252.397	304.75
252.63	303.75
252.863	319.75
253.096	322.75
253.329	325.75
253.562	323.75
253.795	325.75
254.028	326.75
254.261	335.75
254.494	342.75
254.727	318.75
254.96	324.75
255.193	320.75
255.426	326.75
255.659	297.75
255.892	303.75
256.124	309.75
256.357	339.75
256.59	337.75
256.823	341.75
257.056	320.75
257.289	308.75
257.521	321.75
257.754	329.75
257.987	335.75
258.22	347.75
258.452	347.75
258.685	339.75
258.918	371.75
259.151	348.75
259.383	354.75
259.616	366.75
259.849	358.75
260.081	439.75
260.314	494.75
260.547	400.75
260.779	365.75
261.012	372.75
261.244	403.75
261.477	403.75
261.71	391.75
261.942	367.75
262.175	356.75
262.407	365.75
262.64	377.75
262.872	381.75
263.105	423.75
263.337	417.75
263.57	409.75
263.802	395.75
264.035	370.75
264.267	360.75
264.499	365.75
264.732	367.75
264.964	358.75
265.197	367.75
265.429	372.75
265.661	360.75
265.894	369.75
266.126	369.75
266.358	374.75
266.591	388.75
266.823	394.75
267.055	405.75
267.287	383.75
267.52	385.75
267.752	381.75
267.984	391.75
268.216	385.75
268.448	407.75
268.681	413.75
268.913	400.75
269.145	396.75
269.377	410.75
269.609	400.75
269.841	375.75
270.073	407.75
270.306	393.75
270.538	403.75
270.77	403.75
271.002	412.75
271.234	420.75
271.466	436.75
271.698	444.75
271.93	419.75
272.162	448.75
272.394	448.75
272.626	457.75
272.858	451.75
273.09	448.75
273.322	454.75
273.553	454.75
273.785	467.75
274.017	519.75
274.249	547.75
274.481	550.75
274.713	558.75
274.945	605.75
275.176	628.75
275.408	564.75
275.64	550.75
275.872	543.75
276.104	498.75
276.335	483.75
276.567	473.75
276.799	477.75
277.031	478.75
277.262	499.75
277.494	484.75
277.726	466.75
277.957	466.75
278.189	489.75
278.421	482.75
278.652	473.75
278.884	480.75
279.115	472.75
279.347	483.75
279.579	489.75
279.81	471.75
280.042	476.75
280.273	483.75
280.505	488.75
280.736	490.75
280.968	474.75
281.199	502.75
281.431	511.75
281.662	479.75
281.894	490.75
282.125	477.75
282.356	499.75
282.588	481.75
282.819	509.75
283.051	493.75
283.282	502.75
283.513	509.75
283.745	537.75
283.976	511.75
284.207	486.75
284.439	491.75
284.67	515.75
284.901	502.75
285.132	511.75
285.364	504.75
285.595	489.75
285.826	503.75
286.057	517.75
286.288	533.75
286.52	529.75
286.751	521.75
286.982	543.75
287.213	536.75
287.444	519.75
287.675	546.75
287.906	539.75
288.138	544.75
288.369	550.75
288.6	558.75
288.831	542.75
289.062	534.75
289.293	529.75
289.524	550.75
289.755	552.75
289.986	530.75
290.217	547.75
290.448	537.75
290.679	541.75
290.91	565.75
291.141	531.75
291.371	554.75
291.602	566.75
291.833	533.75
292.064	542.75
292.295	539.75
292.526	536.75
292.757	533.75
292.987	534.75
293.218	544.75
293.449	553.75
293.68	547.75
293.91	548.75
294.141	559.75
294.372	549.75
294.603	565.75
294.833	575.75
295.064	577.75
295.295	559.75
295.525	553.75
295.756	551.75
295.987	557.75
296.217	554.75
296.448	567.75
296.679	577.75
296.909	579.75
297.14	589.75
297.37	583.75
297.601	573.75
297.831	579.75
298.062	571.75
298.292	591.75
298.523	621.75
298.753	612.75
298.984	586.75
299.214	583.75
299.445	595.75
299.675	573.75
299.905	597.75
300.136	602.75
300.366	598.75
300.597	606.75
300.827	607.75
301.057	617.75
301.288	601.75
301.518	612.75
301.748	615.75
301.979	632.75
302.209	657.75
302.439	657.75
302.669	622.75
302.9	622.75
303.13	622.75
303.36	631.75
303.59	615.75
303.82	626.75
304.051	623.75
304.281	615.75
304.511	643.75
304.741	630.75
304.971	639.75
305.201	661.75
305.431	624.75
305.661	621.75
305.891	640.75
306.121	653.75
306.352	645.75
306.582	623.75
306.812	625.75
307.042	608.75
307.272	638.75
307.502	631.75
307.731	632.75
307.961	641.75
308.191	634.75
308.421	615.75
308.651	634.75
308.881	606.75
309.111	642.75
309.341	627.75
309.571	634.75
309.8	650.75
310.03	642.75
310.26	643.75
310.49	637.75
310.72	646.75
310.949	628.75
311.179	644.75
311.409	639.75
311.639	632.75
311.868	641.75
312.098	660.75
312.328	664.75
312.557	650.75
312.787	666.75
313.017	659.75
313.246	657.75
313.476	649.75
313.706	657.75
313.935	642.75
314.165	670.75
314.394	690.75
314.624	676.75
314.853	675.75
315.083	695.75
315.312	663.75
315.542	682.75
315.771	669.75
316.001	669.75
316.23	682.75
316.46	680.75
316.689	691.75
316.919	712.75
317.148	693.75
317.377	698.75
317.607	677.75
317.836	674.75
318.065	654.75
318.295	706.75
318.524	687.75
318.753	693.75
318.983	702.75
319.212	694.75
319.441	687.75
319.67	685.75
319.9	690.75
320.129	705.75
320.358	709.75
320.587	712.75
320.816	695.75
321.046	681.75
321.275	706.75
321.504	706.75
321.733	722.75
321.962	676.75
322.191	715.75
322.42	701.75
322.649	706.75
322.878	729.75
323.108	720.75
323.337	720.75
323.566	714.75
323.795	717.75
324.024	711.75
324.253	730.75
324.482	745.75
324.71	739.75
324.939	749.75
325.168	753.75
325.397	729.75
325.626	736.75
325.855	751.75
326.084	725.75
326.313	745.75
326.542	735.75
326.77	766.75
326.999	765.75
327.228	737.75
327.457	764.75
327.686	722.75
327.914	779.75
328.143	759.75
328.372	786.75
328.6	733.75
328.829	736.75
329.058	749.75
329.287	754.75
329.515	743.75
329.744	753.75
329.972	746.75
330.201	780.75
330.43	799.75
330.658	795.75
330.887	791.75
331.115	793.75
331.344	787.75
331.572	785.75
331.801	803.75
332.03	786.75
332.258	785.75
332.486	794.75
332.715	809.75
332.943	797.75
333.172	823.75
333.4	813.75
333.629	831.75
333.857	839.75
334.085	867.75
334.314	847.75
334.542	875.75
334.771	838.75
334.999	849.75
335.227	866.75
335.455	903.75
335.684	873.75
335.912	889.75
336.14	882.75
336.369	872.75
336.597	861.75
336.825	857.75
337.053	874.75
337.281	869.75
337.51	860.75
337.738	832.75
337.966	847.75
338.194	834.75
338.422	821.75
338.65	829.75
338.878	831.75
339.106	810.75
339.334	835.75
339.562	839.75
339.79	819.75
340.018	833.75
340.246	822.75
340.474	823.75
340.702	803.75
340.93	833.75
341.158	807.75
341.386	804.75
341.614	802.75
341.842	820.75
342.07	833.75
342.298	798.75
342.526	836.75
342.754	810.75
342.981	798.75
343.209	816.75
343.437	793.75
343.665	842.75
343.893	845.75
344.12	873.75
344.348	905.75
344.576	846.75
344.804	840.75
345.031	847.75
345.259	831.75
345.487	821.75
345.714	835.75
345.942	826.75
346.17	817.75
346.397	794.75
346.625	813.75
346.853	802.75
347.08	785.75
347.308	779.75
347.535	793.75
347.763	787.75
347.99	769.75
348.218	818.75
348.445	802.75
348.673	784.75
348.9	778.75
349.128	819.75
349.355	790.75
349.583	761.75
349.81	806.75
350.037	792.75
350.265	768.75
350.492	771.75
350.72	744.75
350.947	756.75
351.174	778.75
351.402	788.75
351.629	778.75
351.856	755.75
352.083	805.75
352.311	785.75
352.538	750.75
352.765	777.75
352.992	771.75
353.22	765.75
353.447	774.75
353.674	760.75
353.901	787.75
354.128	785.75
354.355	754.75
354.583	774.75
354.81	771.75
355.037	789.75
355.264	774.75
355.491	779.75
355.718	775.75
355.945	785.75
356.172	759.75
356.399	788.75
356.626	771.75
356.853	789.75
357.08	793.75
357.307	814.75
357.534	789.75
357.761	787.75
357.988	803.75
358.215	809.75
358.441	826.75
358.668	825.75
358.895	799.75
359.122	792.75
359.349	779.75
359.576	763.75
359.802	742.75
360.029	768.75
360.256	783.75
360.483	783.75
360.709	819.75
360.936	811.75
361.163	825.75
361.39	757.75
361.616	767.75
361.843	824.75
362.07	806.75
362.296	808.75
362.523	788.75
362.749	804.75
362.976	779.75
363.203	803.75
363.429	829.75
363.656	795.75
363.882	797.75
364.109	786.75
364.335	787.75
364.562	801.75
364.788	804.75
365.015	832.75
365.241	807.75
365.468	774.75
365.694	822.75
365.92	807.75
366.147	793.75
366.373	815.75
366.599	819.75
366.826	800.75
367.052	808.75
367.278	789.75
367.505	791.75
367.731	795.75
367.957	845.75
368.184	830.75
368.41	838.75
368.636	857.75
368.862	845.75
369.089	827.75
369.315	829.75
369.541	853.75
369.767	842.75
369.993	832.75
370.219	813.75
370.445	832.75
370.672	891.75
370.898	847.75
371.124	868.75
371.35	846.75
371.576	875.75
371.802	887.75
372.028	865.75
372.254	903.75
372.48	875.75
372.706	863.75
372.932	881.75
373.158	878.75
373.384	918.75
373.61	954.75
373.835	994.75
374.061	917.75
374.287	902.75
374.513	897.75
374.739	923.75
374.965	970.75
375.191	928.75
375.416	919.75
375.642	922.75
375.868	934.75
376.094	912.75
376.319	895.75
376.545	906.75
376.771	897.75
376.997	864.75
377.222	849.75
377.448	855.75
377.674	847.75
377.899	836.75
378.125	861.75
378.35	877.75
378.576	831.75
378.802	872.75
379.027	913.75
379.253	889.75
379.478	881.75
379.704	884.75
379.929	879.75
380.155	888.75
380.38	842.75
380.606	890.75
380.831	886.75
381.057	882.75
381.282	872.75
381.507	903.75
381.733	943.75
381.958	925.75
382.184	959.75
382.409	937.75
382.634	959.75
382.86	960.75
383.085	943.75
383.31	941.75
383.535	965.75
383.761	963.75
383.986	950.75
384.211	945.75
384.436	975.75
384.662	953.75
384.887	968.75
385.112	968.75
385.337	995.75
385.562	958.75
385.787	979.75
386.013	994.75
386.238	1045.75
386.463	1033.75
386.688	1020.75
386.913	1000.75
387.138	986.75
387.363	1038.75
387.588	1029.75
387.813	1040.75
388.038	1007.75
388.263	1032.75
388.488	1044.75
388.713	1064.75
388.938	1063.75
389.163	1031.75
389.387	1006.75
389.612	1031.75
389.837	1027.75
390.062	1023.75
390.287	1035.75
390.512	1014.75
390.736	1024.75
390.961	1044.75
391.186	1044.75
391.411	1052.75
391.636	1069.75
391.86	1066.75
392.085	1069.75
392.31	1096.75
392.534	1094.75
392.759	1082.75
392.984	1075.75
393.208	1083.75
393.433	1089.75
393.658	1086.75
393.882	1070.75
394.107	1065.75
394.331	1039.75
394.556	1041.75
394.78	1087.75
395.005	1070.75
395.229	1083.75
395.454	1116.75
395.678	1087.75
395.903	1089.75
396.127	1090.75
396.352	1117.75
396.576	1081.75
396.801	1098.75
397.025	1133.75
397.249	1146.75
397.474	1130.75
397.698	1143.75
397.922	1139.75
398.147	1141.75
398.371	1165.75
398.595	1189.75
398.82	1188.75
399.044	1259.75
399.268	1285.75
399.492	1285.75
399.717	1338.75
399.941	1376.75
400.165	1339.75
400.389	1331.75
400.613	1302.75
400.837	1284.75
401.062	1273.75
401.286	1219.75
401.51	1229.75
401.734	1255.75
401.958	1228.75
402.182	1230.75
402.406	1204.75
402.63	1222.75
402.854	1239.75
403.078	1227.75
403.302	1205.75
403.526	1203.75
403.75	1247.75
403.974	1223.75
404.198	1212.75
404.422	1235.75
404.645	1252.75
404.869	1249.75
405.093	1266.75
405.317	1250.75
405.541	1296.75
405.765	1236.75
405.988	1263.75
406.212	1306.75
406.436	1317.75
406.66	1345.75
406.883	1300.75
407.107	1345.75
407.331	1370.75
407.555	1410.75
407.778	1370.75
408.002	1385.75
408.226	1425.75
408.449	1414.75
408.673	1389.75
408.896	1352.75
409.12	1361.75
409.344	1341.75
409.567	1347.75
409.791	1342.75
410.014	1336.75
410.238	1320.75
410.461	1329.75
410.685	1332.75
410.908	1303.75
411.132	1315.75
411.355	1297.75
411.578	1315.75
411.802	1322.75
412.025	1306.75
412.249	1282.75
412.472	1280.75
412.695	1281.75
412.919	1249.75
413.142	1263.75
413.365	1291.75
413.589	1268.75
413.812	1263.75
414.035	1253.75
414.258	1253.75
414.482	1257.75
414.705	1264.75
414.928	1270.75
415.151	1269.75
415.374	1239.75
415.597	1235.75
415.821	1231.75
416.044	1227.75
416.267	1213.75
416.49	1231.75
416.713	1194.75
416.936	1203.75
417.159	1190.75
417.382	1201.75
417.605	1177.75
417.828	1165.75
418.051	1209.75
418.274	1202.75
418.497	1177.75
418.72	1188.75
418.943	1160.75
419.166	1233.75
419.389	1337.75
419.611	1306.75
419.834	1245.75
420.057	1232.75
420.28	1202.75
420.503	1177.75
420.726	1176.75
420.948	1178.75
421.171	1179.75
421.394	1191.75
421.617	1166.75
421.839	1169.75
422.062	1210.75
422.285	1149.75
422.507	1190.75
422.73	1202.75
422.953	1174.75
423.175	1200.75
423.398	1183.75
423.621	1154.75
423.843	1174.75
424.066	1168.75
424.288	1183.75
424.511	1200.75
424.733	1172.75
424.956	1171.75
425.178	1158.75
425.401	1151.75
425.623	1184.75
425.846	1175.75
426.068	1165.75
426.291	1169.75
426.513	1164.75
426.735	1152.75
426.958	1167.75
427.18	1169.75
427.402	1175.75
427.625	1166.75
427.847	1149.75
428.069	1134.75
428.292	1141.75
428.514	1147.75
428.736	1159.75
428.958	1169.75
429.181	1131.75
429.403	1129.75
429.625	1142.75
429.847	1140.75
430.069	1123.75
430.292	1153.75
430.514	1125.75
430.736	1178.75
430.958	1203.75
431.18	1171.75
431.402	1170.75
431.624	1164.75
431.846	1140.75
432.068	1142.75
432.29	1157.75
432.512	1136.75
432.734	1159.75
432.956	1184.75
433.178	1193.75
433.4	1175.75
433.622	1179.75
433.844	1156.75
434.066	1153.75
434.287	1153.75
434.509	1173.75
434.731	1219.75
434.953	1211.75
435.175	1198.75
435.397	1229.75
435.618	1230.75
435.84	1168.75
436.062	1169.75
436.284	1185.75
436.505	1161.75
436.727	1166.75
436.949	1164.75
437.17	1135.75
437.392	1147.75
437.614	1119.75
437.835	1101.75
438.057	1137.75
438.278	1123.75
438.5	1160.75
438.721	1159.75
438.943	1137.75
439.165	1100.75
439.386	1140.75
439.608	1139.75
439.829	1143.75
440.05	1133.75
440.272	1134.75
440.493	1165.75
440.715	1165.75
440.936	1174.75
441.158	1147.75
441.379	1157.75
441.6	1197.75
441.822	1195.75
442.043	1195.75
442.264	1167.75
442.486	1177.75
442.707	1164.75
442.928	1182.75
443.149	1219.75
443.371	1147.75
443.592	1173.75
443.813	1192.75
444.034	1230.75
444.255	1214.75
444.476	1207.75
444.698	1218.75
444.919	1257.75
445.14	1352.75
445.361	1248.75
445.582	1238.75
445.803	1175.75
446.024	1187.75
446.245	1184.75
446.466	1164.75
446.687	1160.75
446.908	1190.75
447.129	1147.75
447.35	1126.75
447.571	1157.75
447.792	1147.75
448.013	1113.75
448.234	1101.75
448.455	1094.75
448.675	1065.75
448.896	1096.75
449.117	1074.75
449.338	1066.75
449.559	1085.75
449.779	1073.75
450	1047.75
450.221	1067.75
450.442	1098.75
450.662	1057.75
450.883	1058.75
451.104	1076.75
451.324	1053.75
451.545	1070.75
451.766	1069.75
451.986	1070.75
452.207	1053.75
452.428	1041.75
452.648	1059.75
452.869	1033.75
453.089	1025.75
453.31	1017.75
453.53	1035.75
453.751	1010.75
453.971	1030.75
454.192	1011.75
454.412	1021.75
454.633	998.75
454.853	1044.75
455.073	1008.75
455.294	1010.75
455.514	993.75
455.734	1028.75
455.955	1001.75
456.175	989.75
456.395	995.75
456.616	1000.75
456.836	1024.75
457.056	1035.75
457.276	1001.75
457.497	1059.75
457.717	1038.75
457.937	1067.75
458.157	1062.75
458.377	1072.75
458.598	1069.75
458.818	1065.75
459.038	1079.75
459.258	1083.75
459.478	1140.75
459.698	1141.75
459.918	1165.75
460.138	1164.75
460.358	1183.75
460.578	1192.75
460.798	1185.75
461.018	1207.75
461.238	1229.75
461.458	1250.75
461.678	1229.75
461.898	1245.75
462.118	1235.75
462.338	1287.75
462.558	1294.75
462.777	1296.75
462.997	1354.75
463.217	1320.75
463.437	1361.75
463.657	1360.75
463.876	1339.75
464.096	1341.75
464.316	1336.75
464.536	1315.75
464.755	1281.75
464.975	1289.75
465.195	1247.75
465.414	1257.75
465.634	1197.75
465.854	1218.75
466.073	1210.75
466.293	1150.75
466.512	1161.75
466.732	1131.75
466.951	1128.75
467.171	1105.75
467.391	1133.75
467.61	1103.75
467.829	1105.75
468.049	1133.75
468.268	1135.75
468.488	1103.75
468.707	1129.75
468.927	1153.75
469.146	1135.75
469.365	1143.75
469.585	1088.75
469.804	1122.75
470.023	1154.75
470.243	1136.75
470.462	1122.75
470.681	1152.75
470.901	1119.75
471.12	1137.75
471.339	1142.75
471.558	1136.75
471.777	1099.75
471.997	1114.75
472.216	1155.75
472.435	1109.75
472.654	1110.75
472.873	1091.75
473.092	1111.75
473.311	1109.75
473.53	1127.75
473.749	1085.75
473.968	1149.75
474.187	1114.75
474.406	1112.75
474.625	1129.75
474.844	1142.75
475.063	1134.75
475.282	1153.75
475.501	1146.75
475.72	1149.75
475.939	1152.75
476.158	1173.75
476.377	1225.75
476.596	1207.75
476.814	1257.75
477.033	1203.75
477.252	1217.75
477.471	1217.75
477.69	1216.75
477.908	1256.75
478.127	1287.75
478.346	1269.75
478.564	1281.75
478.783	1274.75
479.002	1284.75
479.22	1355.75
479.439	1341.75
479.658	1323.75
479.876	1300.75
480.095	1354.75
480.313	1336.75
480.532	1338.75
480.751	1373.75
480.969	1317.75
481.188	1351.75
481.406	1391.75
481.624	1347.75
481.843	1309.75
482.061	1297.75
482.28	1343.75
482.498	1345.75
482.717	1322.75
482.935	1345.75
483.153	1335.75
483.372	1317.75
483.59	1337.75
483.808	1316.75
484.027	1325.75
484.245	1329.75
484.463	1332.75
484.681	1341.75
484.9	1348.75
485.118	1358.75
485.336	1329.75
485.554	1367.75
485.772	1361.75
485.99	1365.75
486.209	1385.75
486.427	1385.75
486.645	1386.75
486.863	1373.75
487.081	1382.75
487.299	1426.75
487.517	1394.75
487.735	1373.75
487.953	1393.75
488.171	1367.75
488.389	1376.75
488.607	1329.75
488.825	1359.75
489.043	1365.75
489.261	1384.75
489.479	1362.75
489.696	1383.75
489.914	1358.75
490.132	1397.75
490.35	1380.75
490.568	1366.75
490.786	1368.75
491.003	1353.75
491.221	1397.75
491.439	1413.75
491.657	1393.75
491.874	1424.75
492.092	1430.75
492.31	1429.75
492.527	1420.75
492.745	1438.75
492.963	1429.75
493.18	1402.75
493.398	1452.75
493.615	1390.75
493.833	1419.75
494.05	1420.75
494.268	1435.75
494.485	1432.75
494.703	1430.75
494.92	1445.75
