Data from Fe(NO3)3@0.05M.TitratingCurve.Agarose3%dH2O.NegLispCup.LampEnergy10.LIBS07252019_HRD10591_16-45-59-334.txt Node
Date: Thu Jul 25 16:45:59 EDT 2019
User: cochatt
Spectrometer: HR+D1059
Trigger mode: 1
Integration Time (sec): 1.000000E-1
Scans to average: 1
Electric dark correction enabled: true
Nonlinearity correction enabled: false
Boxcar width: 0
XAxis mode: Wavelengths
Number of Pixels in Spectrum: 2048
>>>>>Begin Spectral Data<<<<<
223.165	-29.06
223.4	-29.06
223.635	-29.06
223.869	-21.06
224.104	-14.06
224.338	-4.06
224.573	-12.06
224.808	-5.06
225.042	-17.06
225.277	-14.06
225.511	-3.06
225.746	5.94
225.98	6.94
226.215	16.94
226.449	15.94
226.683	22.94
226.918	21.94
227.152	28.94
227.387	26.94
227.621	39.94
227.856	40.94
228.09	52.94
228.324	35.94
228.559	56.94
228.793	62.94
229.027	90.94
229.262	88.94
229.496	85.94
229.73	77.94
229.964	96.94
230.199	100.94
230.433	102.94
230.667	94.94
230.901	108.94
231.136	102.94
231.37	100.94
231.604	98.94
231.838	104.94
232.072	108.94
232.306	105.94
232.541	111.94
232.775	117.94
233.009	100.94
233.243	108.94
233.477	108.94
233.711	95.94
233.945	111.94
234.179	117.94
234.413	111.94
234.647	116.94
234.881	110.94
235.115	117.94
235.349	116.94
235.583	118.94
235.817	118.94
236.051	122.94
236.285	121.94
236.519	104.94
236.753	108.94
236.987	110.94
237.221	130.94
237.455	122.94
237.689	117.94
237.922	114.94
238.156	113.94
238.39	132.94
238.624	129.94
238.858	141.94
239.091	126.94
239.325	124.94
239.559	122.94
239.793	122.94
240.027	130.94
240.26	120.94
240.494	142.94
240.728	135.94
240.961	142.94
241.195	133.94
241.429	137.94
241.662	134.94
241.896	133.94
242.13	133.94
242.363	108.94
242.597	127.94
242.83	128.94
243.064	123.94
243.298	127.94
243.531	123.94
243.765	131.94
243.998	151.94
244.232	127.94
244.465	128.94
244.699	140.94
244.932	146.94
245.166	151.94
245.399	124.94
245.633	158.94
245.866	146.94
246.099	147.94
246.333	140.94
246.566	138.94
246.8	135.94
247.033	164.94
247.266	164.94
247.5	151.94
247.733	145.94
247.966	148.94
248.2	152.94
248.433	148.94
248.666	166.94
248.899	166.94
249.133	165.94
249.366	172.94
249.599	163.94
249.832	154.94
250.066	170.94
250.299	167.94
250.532	150.94
250.765	153.94
250.998	161.94
251.231	153.94
251.465	161.94
251.698	184.94
251.931	174.94
252.164	174.94
252.397	170.94
252.63	173.94
252.863	190.94
253.096	199.94
253.329	177.94
253.562	188.94
253.795	174.94
254.028	196.94
254.261	186.94
254.494	186.94
254.727	174.94
254.96	179.94
255.193	180.94
255.426	184.94
255.659	173.94
255.892	183.94
256.124	161.94
256.357	196.94
256.59	197.94
256.823	186.94
257.056	206.94
257.289	192.94
257.521	190.94
257.754	178.94
257.987	199.94
258.22	191.94
258.452	192.94
258.685	206.94
258.918	197.94
259.151	192.94
259.383	209.94
259.616	212.94
259.849	205.94
260.081	225.94
260.314	227.94
260.547	213.94
260.779	203.94
261.012	204.94
261.244	210.94
261.477	230.94
261.71	209.94
261.942	197.94
262.175	199.94
262.407	198.94
262.64	215.94
262.872	209.94
263.105	223.94
263.337	245.94
263.57	218.94
263.802	206.94
264.035	207.94
264.267	217.94
264.499	203.94
264.732	204.94
264.964	205.94
265.197	210.94
265.429	206.94
265.661	220.94
265.894	207.94
266.126	211.94
266.358	217.94
266.591	227.94
266.823	205.94
267.055	207.94
267.287	219.94
267.52	218.94
267.752	223.94
267.984	218.94
268.216	217.94
268.448	218.94
268.681	215.94
268.913	215.94
269.145	219.94
269.377	225.94
269.609	228.94
269.841	231.94
270.073	230.94
270.306	202.94
270.538	230.94
270.77	216.94
271.002	226.94
271.234	248.94
271.466	243.94
271.698	222.94
271.93	232.94
272.162	241.94
272.394	232.94
272.626	255.94
272.858	253.94
273.09	231.94
273.322	238.94
273.553	239.94
273.785	251.94
274.017	277.94
274.249	279.94
274.481	282.94
274.713	279.94
274.945	285.94
275.176	296.94
275.408	262.94
275.64	264.94
275.872	275.94
276.104	282.94
276.335	251.94
276.567	241.94
276.799	251.94
277.031	246.94
277.262	230.94
277.494	260.94
277.726	263.94
277.957	265.94
278.189	262.94
278.421	252.94
278.652	256.94
278.884	255.94
279.115	266.94
279.347	270.94
279.579	252.94
279.81	250.94
280.042	268.94
280.273	273.94
280.505	265.94
280.736	263.94
280.968	263.94
281.199	242.94
281.431	244.94
281.662	274.94
281.894	270.94
282.125	278.94
282.356	272.94
282.588	264.94
282.819	272.94
283.051	260.94
283.282	289.94
283.513	259.94
283.745	275.94
283.976	272.94
284.207	291.94
284.439	270.94
284.67	279.94
284.901	298.94
285.132	293.94
285.364	275.94
285.595	270.94
285.826	280.94
286.057	284.94
286.288	286.94
286.52	308.94
286.751	290.94
286.982	284.94
287.213	285.94
287.444	292.94
287.675	294.94
287.906	281.94
288.138	286.94
288.369	293.94
288.6	306.94
288.831	280.94
289.062	298.94
289.293	302.94
289.524	293.94
289.755	290.94
289.986	281.94
290.217	298.94
290.448	272.94
290.679	305.94
290.91	288.94
291.141	294.94
291.371	299.94
291.602	310.94
291.833	304.94
292.064	291.94
292.295	302.94
292.526	291.94
292.757	287.94
292.987	296.94
293.218	275.94
293.449	292.94
293.68	304.94
293.91	273.94
294.141	298.94
294.372	310.94
294.603	301.94
294.833	309.94
295.064	314.94
295.295	306.94
295.525	293.94
295.756	286.94
295.987	296.94
296.217	312.94
296.448	311.94
296.679	306.94
296.909	317.94
297.14	308.94
297.37	326.94
297.601	304.94
297.831	308.94
298.062	320.94
298.292	331.94
298.523	322.94
298.753	335.94
298.984	322.94
299.214	296.94
299.445	328.94
299.675	346.94
299.905	320.94
300.136	303.94
300.366	304.94
300.597	317.94
300.827	330.94
301.057	323.94
301.288	314.94
301.518	342.94
301.748	339.94
301.979	323.94
302.209	352.94
302.439	353.94
302.669	337.94
302.9	337.94
303.13	341.94
303.36	334.94
303.59	320.94
303.82	321.94
304.051	334.94
304.281	327.94
304.511	334.94
304.741	339.94
304.971	346.94
305.201	330.94
305.431	325.94
305.661	343.94
305.891	341.94
306.121	337.94
306.352	343.94
306.582	318.94
306.812	329.94
307.042	333.94
307.272	335.94
307.502	318.94
307.731	339.94
307.961	317.94
308.191	338.94
308.421	312.94
308.651	318.94
308.881	336.94
309.111	325.94
309.341	317.94
309.571	326.94
309.8	327.94
310.03	354.94
310.26	325.94
310.49	335.94
310.72	344.94
310.949	320.94
311.179	340.94
311.409	325.94
311.639	354.94
311.868	339.94
312.098	339.94
312.328	341.94
312.557	347.94
312.787	357.94
313.017	333.94
313.246	352.94
313.476	349.94
313.706	364.94
313.935	355.94
314.165	358.94
314.394	357.94
314.624	384.94
314.853	348.94
315.083	348.94
315.312	366.94
315.542	340.94
315.771	342.94
316.001	354.94
316.23	353.94
316.46	338.94
316.689	363.94
316.919	362.94
317.148	351.94
317.377	358.94
317.607	365.94
317.836	355.94
318.065	356.94
318.295	338.94
318.524	348.94
318.753	341.94
318.983	370.94
319.212	347.94
319.441	362.94
319.67	372.94
319.9	355.94
320.129	360.94
320.358	334.94
320.587	372.94
320.816	350.94
321.046	357.94
321.275	364.94
321.504	368.94
321.733	354.94
321.962	364.94
322.191	343.94
322.42	370.94
322.649	360.94
322.878	340.94
323.108	367.94
323.337	386.94
323.566	358.94
323.795	362.94
324.024	371.94
324.253	376.94
324.482	367.94
324.71	362.94
324.939	378.94
325.168	373.94
325.397	383.94
325.626	354.94
325.855	393.94
326.084	385.94
326.313	393.94
326.542	380.94
326.77	374.94
326.999	378.94
327.228	386.94
327.457	376.94
327.686	379.94
327.914	374.94
328.143	392.94
328.372	386.94
328.6	367.94
328.829	359.94
329.058	386.94
329.287	372.94
329.515	397.94
329.744	402.94
329.972	392.94
330.201	393.94
330.43	398.94
330.658	381.94
330.887	387.94
331.115	391.94
331.344	398.94
331.572	386.94
331.801	422.94
332.03	397.94
332.258	414.94
332.486	417.94
332.715	410.94
332.943	436.94
333.172	451.94
333.4	464.94
333.629	460.94
333.857	461.94
334.085	473.94
334.314	475.94
334.542	472.94
334.771	441.94
334.999	454.94
335.227	464.94
335.455	482.94
335.684	474.94
335.912	447.94
336.14	458.94
336.369	458.94
336.597	464.94
336.825	428.94
337.053	455.94
337.281	456.94
337.51	444.94
337.738	444.94
337.966	420.94
338.194	443.94
338.422	416.94
338.65	418.94
338.878	421.94
339.106	408.94
339.334	426.94
339.562	427.94
339.79	401.94
340.018	384.94
340.246	436.94
340.474	393.94
340.702	422.94
340.93	419.94
341.158	386.94
341.386	406.94
341.614	408.94
341.842	416.94
342.07	412.94
342.298	400.94
342.526	430.94
342.754	413.94
342.981	392.94
343.209	396.94
343.437	418.94
343.665	412.94
343.893	423.94
344.12	479.94
344.348	479.94
344.576	469.94
344.804	428.94
345.031	430.94
345.259	423.94
345.487	407.94
345.714	403.94
345.942	417.94
346.17	426.94
346.397	400.94
346.625	406.94
346.853	403.94
347.08	396.94
347.308	389.94
347.535	409.94
347.763	417.94
347.99	379.94
348.218	402.94
348.445	380.94
348.673	378.94
348.9	387.94
349.128	385.94
349.355	381.94
349.583	383.94
349.81	401.94
350.037	390.94
350.265	399.94
350.492	380.94
350.72	357.94
350.947	389.94
351.174	372.94
351.402	371.94
351.629	379.94
351.856	370.94
352.083	380.94
352.311	399.94
352.538	360.94
352.765	388.94
352.992	391.94
353.22	381.94
353.447	366.94
353.674	380.94
353.901	391.94
354.128	384.94
354.355	365.94
354.583	398.94
354.81	349.94
355.037	370.94
355.264	371.94
355.491	390.94
355.718	398.94
355.945	378.94
356.172	385.94
356.399	391.94
356.626	386.94
356.853	380.94
357.08	409.94
357.307	395.94
357.534	398.94
357.761	389.94
357.988	404.94
358.215	383.94
358.441	391.94
358.668	406.94
358.895	375.94
359.122	400.94
359.349	371.94
359.576	369.94
359.802	384.94
360.029	376.94
360.256	395.94
360.483	377.94
360.709	379.94
360.936	389.94
361.163	395.94
361.39	401.94
361.616	393.94
361.843	412.94
362.07	406.94
362.296	392.94
362.523	399.94
362.749	386.94
362.976	400.94
363.203	406.94
363.429	389.94
363.656	398.94
363.882	388.94
364.109	384.94
364.335	391.94
364.562	402.94
364.788	393.94
365.015	394.94
365.241	393.94
365.468	390.94
365.694	392.94
365.92	387.94
366.147	386.94
366.373	382.94
366.599	403.94
366.826	394.94
367.052	395.94
367.278	403.94
367.505	403.94
367.731	417.94
367.957	405.94
368.184	404.94
368.41	386.94
368.636	389.94
368.862	420.94
369.089	424.94
369.315	400.94
369.541	430.94
369.767	401.94
369.993	412.94
370.219	407.94
370.445	437.94
370.672	440.94
370.898	449.94
371.124	433.94
371.35	428.94
371.576	420.94
371.802	450.94
372.028	435.94
372.254	463.94
372.48	457.94
372.706	442.94
372.932	446.94
373.158	465.94
373.384	453.94
373.61	463.94
373.835	488.94
374.061	454.94
374.287	445.94
374.513	456.94
374.739	483.94
374.965	476.94
375.191	488.94
375.416	454.94
375.642	449.94
375.868	455.94
376.094	470.94
376.319	448.94
376.545	446.94
376.771	447.94
376.997	440.94
377.222	443.94
377.448	443.94
377.674	456.94
377.899	407.94
378.125	412.94
378.35	440.94
378.576	448.94
378.802	431.94
379.027	438.94
379.253	419.94
379.478	428.94
379.704	447.94
379.929	421.94
380.155	436.94
380.38	438.94
380.606	434.94
380.831	427.94
381.057	426.94
381.282	439.94
381.507	448.94
381.733	479.94
381.958	463.94
382.184	485.94
382.409	483.94
382.634	483.94
382.86	468.94
383.085	453.94
383.31	494.94
383.535	478.94
383.761	467.94
383.986	483.94
384.211	491.94
384.436	503.94
384.662	472.94
384.887	495.94
385.112	495.94
385.337	513.94
385.562	514.94
385.787	514.94
386.013	539.94
386.238	532.94
386.463	521.94
386.688	506.94
386.913	498.94
387.138	509.94
387.363	502.94
387.588	516.94
387.813	550.94
388.038	524.94
388.263	517.94
388.488	539.94
388.713	517.94
388.938	515.94
389.163	520.94
389.387	525.94
389.612	504.94
389.837	524.94
390.062	544.94
390.287	523.94
390.512	532.94
390.736	521.94
390.961	538.94
391.186	538.94
391.411	565.94
391.636	573.94
391.86	565.94
392.085	591.94
392.31	570.94
392.534	550.94
392.759	552.94
392.984	541.94
393.208	563.94
393.433	564.94
393.658	540.94
393.882	558.94
394.107	562.94
394.331	559.94
394.556	562.94
394.78	551.94
395.005	580.94
395.229	561.94
395.454	556.94
395.678	556.94
395.903	576.94
396.127	565.94
396.352	563.94
396.576	564.94
396.801	580.94
397.025	587.94
397.249	584.94
397.474	586.94
397.698	581.94
397.922	593.94
398.147	595.94
398.371	609.94
398.595	621.94
398.82	634.94
399.044	629.94
399.268	687.94
399.492	731.94
399.717	799.94
399.941	777.94
400.165	758.94
400.389	749.94
400.613	695.94
400.837	666.94
401.062	662.94
401.286	629.94
401.51	647.94
401.734	649.94
401.958	647.94
402.182	649.94
402.406	646.94
402.63	658.94
402.854	641.94
403.078	659.94
403.302	655.94
403.526	670.94
403.75	683.94
403.974	663.94
404.198	682.94
404.422	688.94
404.645	691.94
404.869	694.94
405.093	688.94
405.317	668.94
405.541	670.94
405.765	673.94
405.988	671.94
406.212	706.94
406.436	704.94
406.66	737.94
406.883	708.94
407.107	757.94
407.331	773.94
407.555	801.94
407.778	765.94
408.002	770.94
408.226	753.94
408.449	764.94
408.673	755.94
408.896	743.94
409.12	722.94
409.344	743.94
409.567	703.94
409.791	728.94
410.014	728.94
410.238	712.94
410.461	707.94
410.685	712.94
410.908	708.94
411.132	699.94
411.355	672.94
411.578	680.94
411.802	700.94
412.025	684.94
412.249	703.94
412.472	686.94
412.695	682.94
412.919	674.94
413.142	669.94
413.365	627.94
413.589	698.94
413.812	667.94
414.035	647.94
414.258	671.94
414.482	687.94
414.705	650.94
414.928	674.94
415.151	655.94
415.374	664.94
415.597	636.94
415.821	651.94
416.044	629.94
416.267	640.94
416.49	655.94
416.713	635.94
416.936	637.94
417.159	634.94
417.382	637.94
417.605	640.94
417.828	631.94
418.051	642.94
418.274	643.94
418.497	631.94
418.72	648.94
418.943	636.94
419.166	701.94
419.389	703.94
419.611	710.94
419.834	696.94
420.057	675.94
420.28	664.94
420.503	639.94
420.726	630.94
420.948	643.94
421.171	657.94
421.394	643.94
421.617	658.94
421.839	620.94
422.062	637.94
422.285	630.94
422.507	655.94
422.73	634.94
422.953	646.94
423.175	663.94
423.398	648.94
423.621	662.94
423.843	648.94
424.066	655.94
424.288	660.94
424.511	630.94
424.733	631.94
424.956	635.94
425.178	644.94
425.401	654.94
425.623	642.94
425.846	627.94
426.068	631.94
426.291	627.94
426.513	613.94
426.735	615.94
426.958	615.94
427.18	607.94
427.402	613.94
427.625	626.94
427.847	624.94
428.069	610.94
428.292	608.94
428.514	621.94
428.736	612.94
428.958	628.94
429.181	599.94
429.403	605.94
429.625	597.94
429.847	613.94
430.069	585.94
430.292	622.94
430.514	605.94
430.736	606.94
430.958	597.94
431.18	606.94
431.402	602.94
431.624	613.94
431.846	584.94
432.068	600.94
432.29	598.94
432.512	601.94
432.734	638.94
432.956	612.94
433.178	643.94
433.4	619.94
433.622	641.94
433.844	639.94
434.066	624.94
434.287	640.94
434.509	630.94
434.731	662.94
434.953	646.94
435.175	653.94
435.397	654.94
435.618	628.94
435.84	630.94
436.062	623.94
436.284	602.94
436.505	618.94
436.727	601.94
436.949	602.94
437.17	605.94
437.392	614.94
437.614	613.94
437.835	579.94
438.057	596.94
438.278	608.94
438.5	599.94
438.721	611.94
438.943	606.94
439.165	598.94
439.386	594.94
439.608	616.94
439.829	605.94
440.05	605.94
440.272	604.94
440.493	629.94
440.715	610.94
440.936	613.94
441.158	638.94
441.379	636.94
441.6	643.94
441.822	655.94
442.043	674.94
442.264	631.94
442.486	627.94
442.707	656.94
442.928	637.94
443.149	663.94
443.371	640.94
443.592	685.94
443.813	677.94
444.034	670.94
444.255	684.94
444.476	682.94
444.698	686.94
444.919	711.94
445.14	839.94
445.361	748.94
445.582	692.94
445.803	668.94
446.024	634.94
446.245	635.94
446.466	628.94
446.687	600.94
446.908	622.94
447.129	596.94
447.35	611.94
447.571	616.94
447.792	590.94
448.013	581.94
448.234	551.94
448.455	572.94
448.675	586.94
448.896	594.94
449.117	576.94
449.338	565.94
449.559	559.94
449.779	582.94
450	582.94
450.221	574.94
450.442	582.94
450.662	586.94
450.883	595.94
451.104	557.94
451.324	577.94
451.545	573.94
451.766	565.94
451.986	568.94
452.207	566.94
452.428	542.94
452.648	575.94
452.869	562.94
453.089	554.94
453.31	538.94
453.53	525.94
453.751	531.94
453.971	555.94
454.192	538.94
454.412	538.94
454.633	532.94
454.853	538.94
455.073	533.94
455.294	576.94
455.514	539.94
455.734	538.94
455.955	528.94
456.175	543.94
456.395	551.94
456.616	534.94
456.836	530.94
457.056	542.94
457.276	521.94
457.497	527.94
457.717	533.94
457.937	532.94
458.157	551.94
458.377	547.94
458.598	550.94
458.818	556.94
459.038	558.94
459.258	585.94
459.478	600.94
459.698	607.94
459.918	622.94
460.138	622.94
460.358	670.94
460.578	667.94
460.798	671.94
461.018	661.94
461.238	685.94
461.458	676.94
461.678	689.94
461.898	720.94
462.118	679.94
462.338	706.94
462.558	715.94
462.777	717.94
462.997	774.94
463.217	790.94
463.437	825.94
463.657	763.94
463.876	748.94
464.096	746.94
464.316	703.94
464.536	746.94
464.755	702.94
464.975	717.94
465.195	706.94
465.414	692.94
465.634	653.94
465.854	636.94
466.073	615.94
466.293	630.94
466.512	586.94
466.732	597.94
466.951	588.94
467.171	593.94
467.391	597.94
467.61	581.94
467.829	613.94
468.049	600.94
468.268	564.94
468.488	567.94
468.707	567.94
468.927	585.94
469.146	590.94
469.365	593.94
469.585	564.94
469.804	576.94
470.023	596.94
470.243	595.94
470.462	595.94
470.681	593.94
470.901	608.94
471.12	622.94
471.339	570.94
471.558	576.94
471.777	583.94
471.997	573.94
472.216	585.94
472.435	587.94
472.654	575.94
472.873	572.94
473.092	572.94
473.311	574.94
473.53	546.94
473.749	569.94
473.968	562.94
474.187	576.94
474.406	571.94
474.625	557.94
474.844	560.94
475.063	577.94
475.282	575.94
475.501	577.94
475.72	596.94
475.939	563.94
476.158	585.94
476.377	610.94
476.596	622.94
476.814	614.94
477.033	601.94
477.252	636.94
477.471	618.94
477.69	616.94
477.908	648.94
478.127	673.94
478.346	642.94
478.564	662.94
478.783	646.94
479.002	669.94
479.22	688.94
479.439	689.94
479.658	687.94
479.876	685.94
480.095	664.94
480.313	707.94
480.532	689.94
480.751	684.94
480.969	708.94
481.188	663.94
481.406	676.94
481.624	637.94
481.843	638.94
482.061	635.94
482.28	636.94
482.498	653.94
482.717	628.94
482.935	645.94
483.153	661.94
483.372	663.94
483.59	649.94
483.808	659.94
484.027	653.94
484.245	656.94
484.463	646.94
484.681	696.94
484.9	654.94
485.118	669.94
485.336	642.94
485.554	648.94
485.772	670.94
485.99	676.94
486.209	702.94
486.427	654.94
486.645	665.94
486.863	660.94
487.081	671.94
487.299	686.94
487.517	679.94
487.735	674.94
487.953	688.94
488.171	694.94
488.389	696.94
488.607	666.94
488.825	652.94
489.043	684.94
489.261	670.94
489.479	651.94
489.696	654.94
489.914	649.94
490.132	690.94
490.35	707.94
490.568	678.94
490.786	695.94
491.003	700.94
491.221	670.94
491.439	680.94
491.657	703.94
491.874	683.94
492.092	692.94
492.31	735.94
492.527	701.94
492.745	731.94
492.963	742.94
493.18	699.94
493.398	715.94
493.615	714.94
493.833	700.94
494.05	711.94
494.268	733.94
494.485	689.94
494.703	718.94
494.92	709.94
495.138	699.94
495.355	738.94
495.573	732.94
495.79	710.94
496.008	748.94
496.225	747.94
496.442	728.94
496.66	750.94
496.877	762.94
497.094	758.94
497.312	769.94
497.529	788.94
497.746	804.94
497.963	821.94
498.181	861.94
498.398	850.94
498.615	876.94
498.832	951.94
499.049	973.94
499.267	1033.94
499.484	1099.94
499.701	1189.94
499.918	1253.94
500.135	1306.94
500.352	1446.94
500.569	1451.94
500.786	1460.94
501.003	1420.94
501.22	1304.94
501.437	1223.94
