Data from Fe(NO3)3@0.1M.TitratingCurve.Agarose3%dH2O.NegLispCup.LampEnergy10.LIBS07252019_HRD10591_16-37-54-331.txt Node
Date: Thu Jul 25 16:37:54 EDT 2019
User: cochatt
Spectrometer: HR+D1059
Trigger mode: 1
Integration Time (sec): 1.000000E-1
Scans to average: 1
Electric dark correction enabled: true
Nonlinearity correction enabled: false
Boxcar width: 0
XAxis mode: Wavelengths
Number of Pixels in Spectrum: 2048
>>>>>Begin Spectral Data<<<<<
223.165	-9.56
223.4	-9.56
223.635	-9.56
223.869	-17.56
224.104	0.44
224.338	-15.56
224.573	-11.56
224.808	-25.56
225.042	-13.56
225.277	-6.56
225.511	1.44
225.746	-2.56
225.98	-7.56
226.215	8.44
226.449	25.44
226.683	28.44
226.918	14.44
227.152	31.44
227.387	56.44
227.621	32.44
227.856	43.44
228.09	60.44
228.324	59.44
228.559	52.44
228.793	58.44
229.027	59.44
229.262	70.44
229.496	73.44
229.73	79.44
229.964	72.44
230.199	79.44
230.433	66.44
230.667	85.44
230.901	80.44
231.136	88.44
231.37	79.44
231.604	85.44
231.838	86.44
232.072	83.44
232.306	99.44
232.541	94.44
232.775	80.44
233.009	88.44
233.243	114.44
233.477	84.44
233.711	105.44
233.945	99.44
234.179	84.44
234.413	90.44
234.647	92.44
234.881	82.44
235.115	86.44
235.349	81.44
235.583	90.44
235.817	83.44
236.051	87.44
236.285	77.44
236.519	67.44
236.753	90.44
236.987	76.44
237.221	70.44
237.455	78.44
237.689	86.44
237.922	89.44
238.156	92.44
238.39	90.44
238.624	71.44
238.858	88.44
239.091	75.44
239.325	87.44
239.559	75.44
239.793	76.44
240.027	86.44
240.26	82.44
240.494	90.44
240.728	76.44
240.961	84.44
241.195	90.44
241.429	75.44
241.662	90.44
241.896	76.44
242.13	81.44
242.363	81.44
242.597	84.44
242.83	90.44
243.064	80.44
243.298	84.44
243.531	78.44
243.765	93.44
243.998	85.44
244.232	88.44
244.465	78.44
244.699	88.44
244.932	72.44
245.166	94.44
245.399	83.44
245.633	74.44
245.866	86.44
246.099	80.44
246.333	91.44
246.566	90.44
246.8	84.44
247.033	79.44
247.266	87.44
247.5	86.44
247.733	86.44
247.966	89.44
248.2	91.44
248.433	79.44
248.666	80.44
248.899	86.44
249.133	79.44
249.366	79.44
249.599	87.44
249.832	87.44
250.066	86.44
250.299	95.44
250.532	91.44
250.765	84.44
250.998	86.44
251.231	91.44
251.465	84.44
251.698	79.44
251.931	84.44
252.164	102.44
252.397	79.44
252.63	85.44
252.863	90.44
253.096	93.44
253.329	97.44
253.562	76.44
253.795	96.44
254.028	84.44
254.261	87.44
254.494	96.44
254.727	86.44
254.96	89.44
255.193	102.44
255.426	99.44
255.659	71.44
255.892	84.44
256.124	91.44
256.357	108.44
256.59	85.44
256.823	84.44
257.056	96.44
257.289	99.44
257.521	92.44
257.754	80.44
257.987	91.44
258.22	92.44
258.452	99.44
258.685	79.44
258.918	74.44
259.151	82.44
259.383	91.44
259.616	78.44
259.849	94.44
260.081	91.44
260.314	92.44
260.547	101.44
260.779	99.44
261.012	93.44
261.244	99.44
261.477	77.44
261.71	81.44
261.942	83.44
262.175	91.44
262.407	91.44
262.64	92.44
262.872	99.44
263.105	94.44
263.337	94.44
263.57	91.44
263.802	92.44
264.035	87.44
264.267	94.44
264.499	81.44
264.732	91.44
264.964	100.44
265.197	96.44
265.429	80.44
265.661	98.44
265.894	90.44
266.126	88.44
266.358	92.44
266.591	104.44
266.823	88.44
267.055	96.44
267.287	89.44
267.52	97.44
267.752	90.44
267.984	98.44
268.216	75.44
268.448	105.44
268.681	94.44
268.913	87.44
269.145	92.44
269.377	90.44
269.609	100.44
269.841	99.44
270.073	96.44
270.306	86.44
270.538	99.44
270.77	99.44
271.002	81.44
271.234	92.44
271.466	98.44
271.698	92.44
271.93	94.44
272.162	95.44
272.394	102.44
272.626	84.44
272.858	93.44
273.09	91.44
273.322	89.44
273.553	97.44
273.785	96.44
274.017	100.44
274.249	100.44
274.481	104.44
274.713	92.44
274.945	103.44
275.176	104.44
275.408	95.44
275.64	103.44
275.872	85.44
276.104	94.44
276.335	95.44
276.567	103.44
276.799	86.44
277.031	99.44
277.262	107.44
277.494	100.44
277.726	99.44
277.957	93.44
278.189	88.44
278.421	98.44
278.652	89.44
278.884	105.44
279.115	86.44
279.347	99.44
279.579	94.44
279.81	90.44
280.042	99.44
280.273	106.44
280.505	95.44
280.736	89.44
280.968	102.44
281.199	97.44
281.431	115.44
281.662	103.44
281.894	88.44
282.125	89.44
282.356	89.44
282.588	85.44
282.819	85.44
283.051	97.44
283.282	110.44
283.513	98.44
283.745	85.44
283.976	85.44
284.207	111.44
284.439	82.44
284.67	96.44
284.901	93.44
285.132	100.44
285.364	106.44
285.595	102.44
285.826	103.44
286.057	105.44
286.288	83.44
286.52	93.44
286.751	100.44
286.982	94.44
287.213	95.44
287.444	107.44
287.675	109.44
287.906	104.44
288.138	99.44
288.369	103.44
288.6	100.44
288.831	111.44
289.062	116.44
289.293	103.44
289.524	96.44
289.755	93.44
289.986	104.44
290.217	106.44
290.448	102.44
290.679	88.44
290.91	102.44
291.141	95.44
291.371	100.44
291.602	100.44
291.833	101.44
292.064	95.44
292.295	105.44
292.526	115.44
292.757	104.44
292.987	98.44
293.218	94.44
293.449	89.44
293.68	104.44
293.91	102.44
294.141	93.44
294.372	96.44
294.603	86.44
294.833	88.44
295.064	104.44
295.295	109.44
295.525	100.44
295.756	109.44
295.987	100.44
296.217	99.44
296.448	84.44
296.679	99.44
296.909	108.44
297.14	104.44
297.37	102.44
297.601	103.44
297.831	104.44
298.062	107.44
298.292	105.44
298.523	126.44
298.753	102.44
298.984	84.44
299.214	112.44
299.445	104.44
299.675	101.44
299.905	108.44
300.136	92.44
300.366	106.44
300.597	102.44
300.827	116.44
301.057	107.44
301.288	95.44
301.518	111.44
301.748	119.44
301.979	106.44
302.209	99.44
302.439	95.44
302.669	102.44
302.9	100.44
303.13	109.44
303.36	104.44
303.59	100.44
303.82	86.44
304.051	102.44
304.281	109.44
304.511	108.44
304.741	119.44
304.971	114.44
305.201	111.44
305.431	117.44
305.661	90.44
305.891	90.44
306.121	95.44
306.352	108.44
306.582	105.44
306.812	100.44
307.042	100.44
307.272	94.44
307.502	106.44
307.731	109.44
307.961	101.44
308.191	104.44
308.421	117.44
308.651	106.44
308.881	103.44
309.111	86.44
309.341	99.44
309.571	109.44
309.8	95.44
310.03	95.44
310.26	87.44
310.49	99.44
310.72	105.44
310.949	95.44
311.179	103.44
311.409	112.44
311.639	97.44
311.868	104.44
312.098	125.44
312.328	104.44
312.557	115.44
312.787	116.44
313.017	95.44
313.246	98.44
313.476	92.44
313.706	102.44
313.935	120.44
314.165	110.44
314.394	108.44
314.624	107.44
314.853	100.44
315.083	105.44
315.312	117.44
315.542	106.44
315.771	103.44
316.001	126.44
316.23	103.44
316.46	105.44
316.689	117.44
316.919	118.44
317.148	94.44
317.377	114.44
317.607	110.44
317.836	111.44
318.065	119.44
318.295	103.44
318.524	122.44
318.753	100.44
318.983	103.44
319.212	105.44
319.441	114.44
319.67	101.44
319.9	115.44
320.129	117.44
320.358	110.44
320.587	102.44
320.816	91.44
321.046	100.44
321.275	109.44
321.504	101.44
321.733	107.44
321.962	106.44
322.191	106.44
322.42	120.44
322.649	100.44
322.878	114.44
323.108	120.44
323.337	110.44
323.566	103.44
323.795	96.44
324.024	104.44
324.253	106.44
324.482	100.44
324.71	99.44
324.939	106.44
325.168	106.44
325.397	116.44
325.626	104.44
325.855	95.44
326.084	118.44
326.313	103.44
326.542	116.44
326.77	113.44
326.999	95.44
327.228	109.44
327.457	106.44
327.686	98.44
327.914	105.44
328.143	121.44
328.372	114.44
328.6	98.44
328.829	111.44
329.058	104.44
329.287	114.44
329.515	97.44
329.744	108.44
329.972	105.44
330.201	123.44
330.43	102.44
330.658	112.44
330.887	104.44
331.115	110.44
331.344	115.44
331.572	103.44
331.801	115.44
332.03	107.44
332.258	122.44
332.486	111.44
332.715	106.44
332.943	112.44
333.172	103.44
333.4	111.44
333.629	102.44
333.857	109.44
334.085	116.44
334.314	119.44
334.542	114.44
334.771	112.44
334.999	101.44
335.227	101.44
335.455	124.44
335.684	112.44
335.912	115.44
336.14	120.44
336.369	127.44
336.597	114.44
336.825	118.44
337.053	104.44
337.281	105.44
337.51	99.44
337.738	95.44
337.966	123.44
338.194	97.44
338.422	114.44
338.65	114.44
338.878	111.44
339.106	107.44
339.334	113.44
339.562	119.44
339.79	117.44
340.018	114.44
340.246	111.44
340.474	120.44
340.702	104.44
340.93	114.44
341.158	104.44
341.386	102.44
341.614	107.44
341.842	117.44
342.07	94.44
342.298	111.44
342.526	111.44
342.754	129.44
342.981	82.44
343.209	109.44
343.437	124.44
343.665	111.44
343.893	119.44
344.12	115.44
344.348	135.44
344.576	121.44
344.804	106.44
345.031	100.44
345.259	126.44
345.487	114.44
345.714	125.44
345.942	118.44
346.17	111.44
346.397	106.44
346.625	123.44
346.853	112.44
347.08	106.44
347.308	110.44
347.535	109.44
347.763	90.44
347.99	111.44
348.218	109.44
348.445	110.44
348.673	99.44
348.9	117.44
349.128	118.44
349.355	92.44
349.583	114.44
349.81	110.44
350.037	102.44
350.265	119.44
350.492	99.44
350.72	107.44
350.947	110.44
351.174	126.44
351.402	110.44
351.629	111.44
351.856	122.44
352.083	108.44
352.311	119.44
352.538	110.44
352.765	106.44
352.992	117.44
353.22	111.44
353.447	102.44
353.674	111.44
353.901	104.44
354.128	95.44
354.355	116.44
354.583	115.44
354.81	109.44
355.037	114.44
355.264	119.44
355.491	125.44
355.718	112.44
355.945	115.44
356.172	121.44
356.399	105.44
356.626	108.44
356.853	115.44
357.08	123.44
357.307	125.44
357.534	121.44
357.761	99.44
357.988	116.44
358.215	112.44
358.441	128.44
358.668	119.44
358.895	109.44
359.122	111.44
359.349	100.44
359.576	111.44
359.802	111.44
360.029	115.44
360.256	121.44
360.483	116.44
360.709	115.44
360.936	104.44
361.163	115.44
361.39	104.44
361.616	111.44
361.843	117.44
362.07	124.44
362.296	123.44
362.523	101.44
362.749	118.44
362.976	123.44
363.203	115.44
363.429	117.44
363.656	120.44
363.882	117.44
364.109	124.44
364.335	116.44
364.562	116.44
364.788	120.44
365.015	114.44
365.241	99.44
365.468	116.44
365.694	103.44
365.92	111.44
366.147	117.44
366.373	97.44
366.599	110.44
366.826	114.44
367.052	124.44
367.278	112.44
367.505	110.44
367.731	94.44
367.957	119.44
368.184	107.44
368.41	102.44
368.636	107.44
368.862	120.44
369.089	119.44
369.315	118.44
369.541	123.44
369.767	114.44
369.993	115.44
370.219	123.44
370.445	132.44
370.672	113.44
370.898	120.44
371.124	127.44
371.35	121.44
371.576	120.44
371.802	116.44
372.028	131.44
372.254	112.44
372.48	126.44
372.706	127.44
372.932	118.44
373.158	124.44
373.384	130.44
373.61	135.44
373.835	141.44
374.061	124.44
374.287	121.44
374.513	120.44
374.739	116.44
374.965	135.44
375.191	128.44
375.416	121.44
375.642	116.44
375.868	126.44
376.094	137.44
376.319	134.44
376.545	121.44
376.771	130.44
376.997	127.44
377.222	115.44
377.448	124.44
377.674	112.44
377.899	119.44
378.125	120.44
378.35	130.44
378.576	138.44
378.802	105.44
379.027	120.44
379.253	109.44
379.478	140.44
379.704	108.44
379.929	118.44
380.155	123.44
380.38	125.44
380.606	120.44
380.831	129.44
381.057	132.44
381.282	127.44
381.507	118.44
381.733	138.44
381.958	133.44
382.184	126.44
382.409	136.44
382.634	130.44
382.86	149.44
383.085	150.44
383.31	124.44
383.535	120.44
383.761	134.44
383.986	124.44
384.211	143.44
384.436	131.44
384.662	133.44
384.887	125.44
385.112	138.44
385.337	136.44
385.562	128.44
385.787	143.44
386.013	137.44
386.238	144.44
386.463	140.44
386.688	145.44
386.913	121.44
387.138	140.44
387.363	134.44
387.588	135.44
387.813	131.44
388.038	143.44
388.263	132.44
388.488	150.44
388.713	138.44
388.938	140.44
389.163	132.44
389.387	142.44
389.612	123.44
389.837	139.44
390.062	134.44
390.287	152.44
390.512	138.44
390.736	130.44
390.961	137.44
391.186	133.44
391.411	118.44
391.636	142.44
391.86	134.44
392.085	175.44
392.31	140.44
392.534	145.44
392.759	135.44
392.984	144.44
393.208	141.44
393.433	151.44
393.658	143.44
393.882	145.44
394.107	133.44
394.331	126.44
394.556	134.44
394.78	132.44
395.005	131.44
395.229	123.44
395.454	148.44
395.678	162.44
395.903	138.44
396.127	137.44
396.352	151.44
396.576	144.44
396.801	139.44
397.025	130.44
397.249	144.44
397.474	148.44
397.698	154.44
397.922	148.44
398.147	154.44
398.371	139.44
398.595	135.44
398.82	160.44
399.044	152.44
399.268	172.44
399.492	184.44
399.717	186.44
399.941	170.44
400.165	175.44
400.389	169.44
400.613	174.44
400.837	170.44
401.062	155.44
401.286	149.44
401.51	150.44
401.734	145.44
401.958	160.44
402.182	156.44
402.406	154.44
402.63	168.44
402.854	156.44
403.078	157.44
403.302	170.44
403.526	151.44
403.75	168.44
403.974	167.44
404.198	163.44
404.422	163.44
404.645	175.44
404.869	178.44
405.093	152.44
405.317	169.44
405.541	163.44
405.765	180.44
405.988	168.44
406.212	182.44
406.436	170.44
406.66	164.44
406.883	174.44
407.107	169.44
407.331	162.44
407.555	163.44
407.778	181.44
408.002	178.44
408.226	175.44
408.449	164.44
408.673	166.44
408.896	174.44
409.12	158.44
409.344	170.44
409.567	171.44
409.791	169.44
410.014	175.44
410.238	171.44
410.461	163.44
410.685	181.44
410.908	176.44
411.132	157.44
411.355	159.44
411.578	181.44
411.802	167.44
412.025	170.44
412.249	171.44
412.472	160.44
412.695	154.44
412.919	161.44
413.142	159.44
413.365	168.44
413.589	175.44
413.812	164.44
414.035	163.44
414.258	155.44
414.482	175.44
414.705	175.44
414.928	161.44
415.151	179.44
415.374	171.44
415.597	172.44
415.821	165.44
416.044	165.44
416.267	172.44
416.49	162.44
416.713	175.44
416.936	180.44
417.159	170.44
417.382	166.44
417.605	162.44
417.828	167.44
418.051	183.44
418.274	166.44
418.497	170.44
418.72	163.44
418.943	162.44
419.166	157.44
419.389	178.44
419.611	183.44
419.834	168.44
420.057	156.44
420.28	186.44
420.503	169.44
420.726	170.44
420.948	178.44
421.171	173.44
421.394	171.44
421.617	158.44
421.839	165.44
422.062	161.44
422.285	178.44
422.507	169.44
422.73	150.44
422.953	167.44
423.175	178.44
423.398	179.44
423.621	199.44
423.843	189.44
424.066	172.44
424.288	170.44
424.511	164.44
424.733	160.44
424.956	167.44
425.178	175.44
425.401	152.44
425.623	187.44
425.846	179.44
426.068	170.44
426.291	174.44
426.513	164.44
426.735	150.44
426.958	165.44
427.18	171.44
427.402	163.44
427.625	164.44
427.847	150.44
428.069	160.44
428.292	179.44
428.514	148.44
428.736	165.44
428.958	154.44
429.181	164.44
429.403	159.44
429.625	164.44
429.847	168.44
430.069	163.44
430.292	166.44
430.514	162.44
430.736	157.44
430.958	162.44
431.18	161.44
431.402	170.44
431.624	166.44
431.846	165.44
432.068	165.44
432.29	159.44
432.512	163.44
432.734	166.44
432.956	154.44
433.178	150.44
433.4	167.44
433.622	159.44
433.844	157.44
434.066	166.44
434.287	171.44
434.509	175.44
434.731	172.44
434.953	163.44
435.175	178.44
435.397	180.44
435.618	167.44
435.84	164.44
436.062	156.44
436.284	163.44
436.505	171.44
436.727	167.44
436.949	170.44
437.17	146.44
437.392	151.44
437.614	162.44
437.835	138.44
438.057	169.44
438.278	168.44
438.5	168.44
438.721	162.44
438.943	163.44
439.165	159.44
439.386	174.44
439.608	182.44
439.829	176.44
440.05	174.44
440.272	162.44
440.493	145.44
440.715	162.44
440.936	166.44
441.158	167.44
441.379	171.44
441.6	164.44
441.822	164.44
442.043	174.44
442.264	169.44
442.486	181.44
442.707	183.44
442.928	202.44
443.149	172.44
443.371	179.44
443.592	178.44
443.813	178.44
444.034	157.44
444.255	182.44
444.476	186.44
444.698	185.44
444.919	181.44
445.14	314.44
445.361	239.44
445.582	175.44
445.803	183.44
446.024	176.44
446.245	173.44
446.466	164.44
446.687	181.44
446.908	172.44
447.129	169.44
447.35	148.44
447.571	176.44
447.792	162.44
448.013	170.44
448.234	156.44
448.455	163.44
448.675	167.44
448.896	169.44
449.117	166.44
449.338	158.44
449.559	162.44
449.779	160.44
450	147.44
450.221	145.44
450.442	178.44
450.662	171.44
450.883	152.44
451.104	132.44
451.324	176.44
451.545	151.44
451.766	175.44
451.986	162.44
452.207	145.44
452.428	170.44
452.648	152.44
452.869	150.44
453.089	162.44
453.31	153.44
453.53	149.44
453.751	167.44
453.971	168.44
454.192	159.44
454.412	148.44
454.633	165.44
454.853	158.44
455.073	156.44
455.294	158.44
455.514	159.44
455.734	154.44
455.955	155.44
456.175	147.44
456.395	150.44
456.616	147.44
456.836	163.44
457.056	151.44
457.276	164.44
457.497	164.44
457.717	168.44
457.937	153.44
458.157	159.44
458.377	157.44
458.598	151.44
458.818	165.44
459.038	173.44
459.258	158.44
459.478	162.44
459.698	156.44
459.918	196.44
460.138	174.44
460.358	182.44
460.578	165.44
460.798	181.44
461.018	186.44
461.238	190.44
461.458	190.44
461.678	189.44
461.898	195.44
462.118	179.44
462.338	189.44
462.558	186.44
462.777	194.44
462.997	197.44
463.217	205.44
463.437	198.44
463.657	216.44
463.876	205.44
464.096	199.44
464.316	191.44
464.536	203.44
464.755	205.44
464.975	193.44
465.195	181.44
465.414	187.44
465.634	170.44
465.854	174.44
466.073	162.44
466.293	175.44
466.512	174.44
466.732	164.44
466.951	166.44
467.171	171.44
467.391	160.44
467.61	164.44
467.829	181.44
468.049	156.44
468.268	165.44
468.488	155.44
468.707	167.44
468.927	160.44
469.146	158.44
469.365	169.44
469.585	172.44
469.804	174.44
470.023	174.44
470.243	150.44
470.462	170.44
470.681	173.44
470.901	178.44
471.12	171.44
471.339	162.44
471.558	165.44
471.777	160.44
471.997	164.44
472.216	160.44
472.435	172.44
472.654	156.44
472.873	165.44
473.092	177.44
473.311	158.44
473.53	168.44
473.749	172.44
473.968	167.44
474.187	157.44
474.406	162.44
474.625	159.44
474.844	158.44
475.063	161.44
475.282	167.44
475.501	165.44
475.72	173.44
475.939	181.44
476.158	171.44
476.377	197.44
476.596	174.44
476.814	200.44
477.033	170.44
477.252	155.44
477.471	156.44
477.69	165.44
477.908	186.44
478.127	172.44
478.346	184.44
478.564	173.44
478.783	191.44
479.002	195.44
479.22	194.44
479.439	200.44
479.658	181.44
479.876	171.44
480.095	169.44
480.313	182.44
480.532	199.44
480.751	195.44
480.969	190.44
481.188	182.44
481.406	183.44
481.624	180.44
481.843	168.44
482.061	170.44
482.28	169.44
482.498	164.44
482.717	160.44
482.935	165.44
483.153	172.44
483.372	182.44
483.59	170.44
483.808	152.44
484.027	172.44
484.245	181.44
484.463	188.44
484.681	192.44
484.9	186.44
485.118	174.44
485.336	184.44
485.554	186.44
485.772	204.44
485.99	181.44
486.209	198.44
486.427	196.44
486.645	199.44
486.863	198.44
487.081	183.44
487.299	187.44
487.517	190.44
487.735	198.44
487.953	204.44
488.171	183.44
488.389	192.44
488.607	199.44
488.825	176.44
489.043	197.44
489.261	195.44
489.479	194.44
489.696	181.44
489.914	198.44
490.132	186.44
490.35	213.44
490.568	193.44
490.786	189.44
491.003	188.44
491.221	199.44
491.439	191.44
491.657	214.44
491.874	213.44
492.092	199.44
492.31	198.44
492.527	200.44
492.745	198.44
492.963	189.44
493.18	200.44
493.398	207.44
493.615	208.44
493.833	207.44
494.05	206.44
494.268	203.44
494.485	197.44
494.703	198.44
494.92	202.44
495.138	186.44
495.355	192.44
495.573	187.44
495.79	198.44
496.008	201.44
496.225	192.44
496.442	199.44
496.66	197.44
496.877	203.44
497.094	214.44
497.312	199.44
497.529	208.44
497.746	196.44
497.963	212.44
498.181	192.44
498.398	206.44
498.615	211.44
498.832	237.44
499.049	266.44
499.267	244.44
499.484	264.44
499.701	272.44
499.918	306.44
500.135	323.44
500.352	335.44
500.569	373.44
500.786	345.44
501.003	332.44
501.22	313.44
501.437	287.44
501.654	281.44
501.871	260.44
502.088	230.44
502.305	229.44
502.522	208.44
502.739	200.44
502.956	215.44
503.172	227.44
503.389	213.44
503.606	222.44
503.823	203.44
504.04	204.44
504.256	207.44
504.473	201.44
504.69	218.44
504.907	196.44
505.123	198.44
505.34	181.44
