Data from Fe(NO3)3@0.025M.TitratingCurve.Agarose3%dH2O.NegLispCup.LampEnergy10.LIBS07252019_HRD10591_16-54-12-335.txt Node
Date: Thu Jul 25 16:54:12 EDT 2019
User: cochatt
Spectrometer: HR+D1059
Trigger mode: 1
Integration Time (sec): 1.000000E-1
Scans to average: 1
Electric dark correction enabled: true
Nonlinearity correction enabled: false
Boxcar width: 0
XAxis mode: Wavelengths
Number of Pixels in Spectrum: 2048
>>>>>Begin Spectral Data<<<<<
223.165	-12.06
223.4	-12.06
223.635	-12.06
223.869	-20.06
224.104	-2.06
224.338	-14.06
224.573	-24.06
224.808	-2.06
225.042	-4.06
225.277	-8.06
225.511	-1.06
225.746	8.94
225.98	0.94
226.215	-3.06
226.449	16.94
226.683	20.94
226.918	23.94
227.152	18.94
227.387	36.94
227.621	36.94
227.856	41.94
228.09	45.94
228.324	49.94
228.559	57.94
228.793	76.94
229.027	97.94
229.262	91.94
229.496	97.94
229.73	102.94
229.964	89.94
230.199	115.94
230.433	93.94
230.667	96.94
230.901	108.94
231.136	99.94
231.37	116.94
231.604	102.94
231.838	124.94
232.072	118.94
232.306	125.94
232.541	113.94
232.775	118.94
233.009	116.94
233.243	132.94
233.477	125.94
233.711	120.94
233.945	126.94
234.179	127.94
234.413	130.94
234.647	123.94
234.881	134.94
235.115	121.94
235.349	127.94
235.583	130.94
235.817	133.94
236.051	120.94
236.285	130.94
236.519	128.94
236.753	127.94
236.987	127.94
237.221	126.94
237.455	132.94
237.689	136.94
237.922	126.94
238.156	134.94
238.39	145.94
238.624	134.94
238.858	135.94
239.091	136.94
239.325	153.94
239.559	145.94
239.793	144.94
240.027	164.94
240.26	142.94
240.494	157.94
240.728	155.94
240.961	141.94
241.195	157.94
241.429	150.94
241.662	153.94
241.896	156.94
242.13	143.94
242.363	151.94
242.597	149.94
242.83	162.94
243.064	144.94
243.298	138.94
243.531	147.94
243.765	148.94
243.998	151.94
244.232	180.94
244.465	143.94
244.699	158.94
244.932	163.94
245.166	163.94
245.399	155.94
245.633	167.94
245.866	158.94
246.099	163.94
246.333	171.94
246.566	172.94
246.8	185.94
247.033	171.94
247.266	180.94
247.5	166.94
247.733	178.94
247.966	179.94
248.2	192.94
248.433	184.94
248.666	163.94
248.899	201.94
249.133	179.94
249.366	192.94
249.599	187.94
249.832	193.94
250.066	177.94
250.299	181.94
250.532	197.94
250.765	192.94
250.998	183.94
251.231	176.94
251.465	193.94
251.698	197.94
251.931	193.94
252.164	174.94
252.397	183.94
252.63	208.94
252.863	200.94
253.096	195.94
253.329	201.94
253.562	199.94
253.795	212.94
254.028	217.94
254.261	204.94
254.494	204.94
254.727	214.94
254.96	213.94
255.193	212.94
255.426	220.94
255.659	202.94
255.892	203.94
256.124	204.94
256.357	221.94
256.59	214.94
256.823	219.94
257.056	200.94
257.289	217.94
257.521	220.94
257.754	217.94
257.987	194.94
258.22	229.94
258.452	233.94
258.685	213.94
258.918	228.94
259.151	240.94
259.383	229.94
259.616	234.94
259.849	229.94
260.081	254.94
260.314	285.94
260.547	233.94
260.779	240.94
261.012	258.94
261.244	247.94
261.477	250.94
261.71	252.94
261.942	251.94
262.175	239.94
262.407	242.94
262.64	240.94
262.872	266.94
263.105	261.94
263.337	259.94
263.57	269.94
263.802	257.94
264.035	236.94
264.267	238.94
264.499	232.94
264.732	248.94
264.964	226.94
265.197	234.94
265.429	241.94
265.661	221.94
265.894	229.94
266.126	246.94
266.358	245.94
266.591	247.94
266.823	260.94
267.055	261.94
267.287	251.94
267.52	276.94
267.752	239.94
267.984	248.94
268.216	252.94
268.448	233.94
268.681	269.94
268.913	256.94
269.145	252.94
269.377	256.94
269.609	258.94
269.841	236.94
270.073	276.94
270.306	265.94
270.538	250.94
270.77	260.94
271.002	266.94
271.234	256.94
271.466	267.94
271.698	270.94
271.93	273.94
272.162	285.94
272.394	292.94
272.626	255.94
272.858	287.94
273.09	288.94
273.322	289.94
273.553	286.94
273.785	315.94
274.017	309.94
274.249	318.94
274.481	313.94
274.713	326.94
274.945	371.94
275.176	363.94
275.408	340.94
275.64	326.94
275.872	321.94
276.104	311.94
276.335	298.94
276.567	305.94
276.799	293.94
277.031	302.94
277.262	304.94
277.494	310.94
277.726	289.94
277.957	290.94
278.189	299.94
278.421	317.94
278.652	289.94
278.884	297.94
279.115	306.94
279.347	320.94
279.579	301.94
279.81	306.94
280.042	298.94
280.273	301.94
280.505	292.94
280.736	327.94
280.968	296.94
281.199	320.94
281.431	314.94
281.662	308.94
281.894	321.94
282.125	292.94
282.356	321.94
282.588	311.94
282.819	326.94
283.051	323.94
283.282	328.94
283.513	333.94
283.745	332.94
283.976	333.94
284.207	304.94
284.439	336.94
284.67	336.94
284.901	342.94
285.132	324.94
285.364	320.94
285.595	326.94
285.826	329.94
286.057	341.94
286.288	316.94
286.52	337.94
286.751	328.94
286.982	330.94
287.213	333.94
287.444	341.94
287.675	350.94
287.906	339.94
288.138	337.94
288.369	335.94
288.6	336.94
288.831	338.94
289.062	350.94
289.293	340.94
289.524	335.94
289.755	350.94
289.986	344.94
290.217	351.94
290.448	347.94
290.679	352.94
290.91	352.94
291.141	351.94
291.371	327.94
291.602	348.94
291.833	355.94
292.064	350.94
292.295	348.94
292.526	349.94
292.757	345.94
292.987	364.94
293.218	341.94
293.449	344.94
293.68	338.94
293.91	365.94
294.141	362.94
294.372	360.94
294.603	348.94
294.833	354.94
295.064	348.94
295.295	352.94
295.525	335.94
295.756	339.94
295.987	346.94
296.217	356.94
296.448	371.94
296.679	342.94
296.909	358.94
297.14	359.94
297.37	372.94
297.601	357.94
297.831	365.94
298.062	357.94
298.292	379.94
298.523	388.94
298.753	395.94
298.984	381.94
299.214	378.94
299.445	387.94
299.675	374.94
299.905	372.94
300.136	387.94
300.366	386.94
300.597	378.94
300.827	373.94
301.057	385.94
301.288	371.94
301.518	374.94
301.748	384.94
301.979	389.94
302.209	404.94
302.439	406.94
302.669	405.94
302.9	402.94
303.13	395.94
303.36	398.94
303.59	408.94
303.82	382.94
304.051	396.94
304.281	424.94
304.511	394.94
304.741	391.94
304.971	403.94
305.201	408.94
305.431	402.94
305.661	407.94
305.891	402.94
306.121	388.94
306.352	400.94
306.582	412.94
306.812	417.94
307.042	414.94
307.272	384.94
307.502	397.94
307.731	394.94
307.961	394.94
308.191	368.94
308.421	396.94
308.651	397.94
308.881	414.94
309.111	394.94
309.341	405.94
309.571	390.94
309.8	412.94
310.03	420.94
310.26	403.94
310.49	400.94
310.72	402.94
310.949	416.94
311.179	403.94
311.409	411.94
311.639	431.94
311.868	416.94
312.098	432.94
312.328	427.94
312.557	438.94
312.787	433.94
313.017	421.94
313.246	412.94
313.476	428.94
313.706	427.94
313.935	439.94
314.165	437.94
314.394	436.94
314.624	442.94
314.853	418.94
315.083	423.94
315.312	417.94
315.542	427.94
315.771	429.94
316.001	422.94
316.23	450.94
316.46	408.94
316.689	409.94
316.919	428.94
317.148	427.94
317.377	431.94
317.607	422.94
317.836	471.94
318.065	450.94
318.295	458.94
318.524	456.94
318.753	438.94
318.983	447.94
319.212	424.94
319.441	444.94
319.67	445.94
319.9	449.94
320.129	432.94
320.358	441.94
320.587	449.94
320.816	448.94
321.046	427.94
321.275	470.94
321.504	425.94
321.733	455.94
321.962	434.94
322.191	457.94
322.42	449.94
322.649	469.94
322.878	451.94
323.108	452.94
323.337	468.94
323.566	444.94
323.795	472.94
324.024	453.94
324.253	470.94
324.482	452.94
324.71	461.94
324.939	450.94
325.168	441.94
325.397	450.94
325.626	453.94
325.855	453.94
326.084	462.94
326.313	484.94
326.542	470.94
326.77	473.94
326.999	474.94
327.228	482.94
327.457	467.94
327.686	470.94
327.914	468.94
328.143	478.94
328.372	480.94
328.6	469.94
328.829	486.94
329.058	480.94
329.287	489.94
329.515	467.94
329.744	481.94
329.972	474.94
330.201	492.94
330.43	497.94
330.658	479.94
330.887	478.94
331.115	484.94
331.344	492.94
331.572	474.94
331.801	498.94
332.03	518.94
332.258	523.94
332.486	506.94
332.715	516.94
332.943	527.94
333.172	520.94
333.4	517.94
333.629	533.94
333.857	538.94
334.085	561.94
334.314	552.94
334.542	557.94
334.771	564.94
334.999	552.94
335.227	566.94
335.455	538.94
335.684	547.94
335.912	549.94
336.14	545.94
336.369	542.94
336.597	552.94
336.825	525.94
337.053	553.94
337.281	538.94
337.51	524.94
337.738	531.94
337.966	529.94
338.194	521.94
338.422	532.94
338.65	542.94
338.878	539.94
339.106	535.94
339.334	536.94
339.562	533.94
339.79	512.94
340.018	515.94
340.246	504.94
340.474	520.94
340.702	507.94
340.93	516.94
341.158	520.94
341.386	506.94
341.614	526.94
341.842	514.94
342.07	484.94
342.298	516.94
342.526	514.94
342.754	533.94
342.981	516.94
343.209	522.94
343.437	541.94
343.665	530.94
343.893	560.94
344.12	583.94
344.348	557.94
344.576	538.94
344.804	542.94
345.031	515.94
345.259	521.94
345.487	526.94
345.714	494.94
345.942	501.94
346.17	519.94
346.397	509.94
346.625	505.94
346.853	488.94
347.08	503.94
347.308	518.94
347.535	501.94
347.763	520.94
347.99	475.94
348.218	509.94
348.445	496.94
348.673	484.94
348.9	502.94
349.128	491.94
349.355	512.94
349.583	493.94
349.81	494.94
350.037	500.94
350.265	473.94
350.492	493.94
350.72	481.94
350.947	480.94
351.174	490.94
351.402	518.94
351.629	503.94
351.856	470.94
352.083	469.94
352.311	488.94
352.538	475.94
352.765	487.94
352.992	492.94
353.22	476.94
353.447	482.94
353.674	460.94
353.901	506.94
354.128	491.94
354.355	477.94
354.583	469.94
354.81	477.94
355.037	494.94
355.264	484.94
355.491	492.94
355.718	493.94
355.945	465.94
356.172	493.94
356.399	494.94
356.626	490.94
356.853	515.94
357.08	511.94
357.307	491.94
357.534	489.94
357.761	485.94
357.988	499.94
358.215	516.94
358.441	496.94
358.668	491.94
358.895	510.94
359.122	477.94
359.349	471.94
359.576	500.94
359.802	492.94
360.029	492.94
360.256	492.94
360.483	489.94
360.709	476.94
360.936	504.94
361.163	508.94
361.39	509.94
361.616	497.94
361.843	501.94
362.07	505.94
362.296	492.94
362.523	486.94
362.749	500.94
362.976	498.94
363.203	501.94
363.429	482.94
363.656	511.94
363.882	510.94
364.109	515.94
364.335	508.94
364.562	488.94
364.788	488.94
365.015	491.94
365.241	503.94
365.468	501.94
365.694	469.94
365.92	514.94
366.147	503.94
366.373	476.94
366.599	478.94
366.826	507.94
367.052	510.94
367.278	510.94
367.505	489.94
367.731	491.94
367.957	516.94
368.184	491.94
368.41	518.94
368.636	509.94
368.862	514.94
369.089	512.94
369.315	536.94
369.541	504.94
369.767	488.94
369.993	516.94
370.219	515.94
370.445	533.94
370.672	525.94
370.898	516.94
371.124	577.94
371.35	527.94
371.576	526.94
371.802	561.94
372.028	529.94
372.254	541.94
372.48	540.94
372.706	530.94
372.932	530.94
373.158	581.94
373.384	541.94
373.61	554.94
373.835	558.94
374.061	565.94
374.287	539.94
374.513	574.94
374.739	553.94
374.965	553.94
375.191	565.94
375.416	544.94
375.642	540.94
375.868	566.94
376.094	554.94
376.319	530.94
376.545	538.94
376.771	561.94
376.997	538.94
377.222	536.94
377.448	539.94
377.674	548.94
377.899	526.94
378.125	535.94
378.35	533.94
378.576	548.94
378.802	521.94
379.027	539.94
379.253	512.94
379.478	524.94
379.704	539.94
379.929	532.94
380.155	555.94
380.38	550.94
380.606	546.94
380.831	512.94
381.057	532.94
381.282	531.94
381.507	560.94
381.733	547.94
381.958	539.94
382.184	567.94
382.409	580.94
382.634	548.94
382.86	585.94
383.085	556.94
383.31	562.94
383.535	564.94
383.761	575.94
383.986	572.94
384.211	594.94
384.436	578.94
384.662	581.94
384.887	568.94
385.112	591.94
385.337	584.94
385.562	590.94
385.787	578.94
386.013	592.94
386.238	604.94
386.463	617.94
386.688	630.94
386.913	616.94
387.138	598.94
387.363	614.94
387.588	598.94
387.813	620.94
388.038	611.94
388.263	633.94
388.488	599.94
388.713	595.94
388.938	626.94
389.163	599.94
389.387	616.94
389.612	628.94
389.837	594.94
390.062	629.94
390.287	625.94
390.512	622.94
390.736	626.94
390.961	622.94
391.186	618.94
391.411	620.94
391.636	630.94
391.86	646.94
392.085	661.94
392.31	666.94
392.534	652.94
392.759	678.94
392.984	633.94
393.208	648.94
393.433	644.94
393.658	644.94
393.882	644.94
394.107	629.94
394.331	628.94
394.556	621.94
394.78	626.94
395.005	644.94
395.229	626.94
395.454	639.94
395.678	670.94
395.903	657.94
396.127	664.94
396.352	657.94
396.576	656.94
396.801	650.94
397.025	674.94
397.249	671.94
397.474	704.94
397.698	696.94
397.922	697.94
398.147	674.94
398.371	688.94
398.595	688.94
398.82	702.94
399.044	728.94
399.268	765.94
399.492	789.94
399.717	828.94
399.941	819.94
400.165	821.94
400.389	804.94
400.613	784.94
400.837	747.94
401.062	747.94
401.286	731.94
401.51	752.94
401.734	734.94
401.958	743.94
402.182	717.94
402.406	749.94
402.63	737.94
402.854	719.94
403.078	746.94
403.302	710.94
403.526	723.94
403.75	723.94
403.974	716.94
404.198	718.94
404.422	760.94
404.645	742.94
404.869	740.94
405.093	740.94
405.317	749.94
405.541	752.94
405.765	760.94
405.988	766.94
406.212	747.94
406.436	780.94
406.66	743.94
406.883	777.94
407.107	788.94
407.331	794.94
407.555	816.94
407.778	814.94
408.002	818.94
408.226	817.94
408.449	809.94
408.673	774.94
408.896	783.94
409.12	775.94
409.344	770.94
409.567	739.94
409.791	768.94
410.014	776.94
410.238	773.94
410.461	743.94
410.685	745.94
410.908	754.94
411.132	753.94
411.355	722.94
411.578	733.94
411.802	738.94
412.025	749.94
412.249	745.94
412.472	749.94
412.695	738.94
412.919	736.94
413.142	732.94
413.365	737.94
413.589	747.94
413.812	729.94
414.035	724.94
414.258	730.94
414.482	731.94
414.705	698.94
414.928	714.94
415.151	720.94
415.374	714.94
415.597	684.94
415.821	693.94
416.044	690.94
416.267	679.94
416.49	706.94
416.713	683.94
416.936	681.94
417.159	695.94
417.382	677.94
417.605	687.94
417.828	686.94
418.051	685.94
418.274	664.94
418.497	710.94
418.72	675.94
418.943	680.94
419.166	715.94
419.389	765.94
419.611	753.94
419.834	722.94
420.057	718.94
420.28	695.94
420.503	667.94
420.726	667.94
420.948	675.94
421.171	692.94
421.394	690.94
421.617	665.94
421.839	696.94
422.062	690.94
422.285	689.94
422.507	691.94
422.73	673.94
422.953	684.94
423.175	681.94
423.398	690.94
423.621	685.94
423.843	695.94
424.066	696.94
424.288	672.94
424.511	698.94
424.733	674.94
424.956	658.94
425.178	668.94
425.401	668.94
425.623	676.94
425.846	669.94
426.068	654.94
426.291	664.94
426.513	658.94
426.735	660.94
426.958	660.94
427.18	662.94
427.402	663.94
427.625	658.94
427.847	637.94
428.069	638.94
428.292	654.94
428.514	656.94
428.736	664.94
428.958	655.94
429.181	662.94
429.403	656.94
429.625	657.94
429.847	630.94
430.069	652.94
430.292	649.94
430.514	636.94
430.736	648.94
430.958	629.94
431.18	633.94
431.402	641.94
431.624	640.94
431.846	646.94
432.068	643.94
432.29	652.94
432.512	632.94
432.734	670.94
432.956	640.94
433.178	670.94
433.4	660.94
433.622	658.94
433.844	651.94
434.066	646.94
434.287	646.94
434.509	644.94
434.731	673.94
434.953	674.94
435.175	658.94
435.397	693.94
435.618	660.94
435.84	659.94
436.062	645.94
436.284	636.94
436.505	638.94
436.727	648.94
436.949	642.94
437.17	637.94
437.392	632.94
437.614	633.94
437.835	602.94
438.057	620.94
438.278	590.94
438.5	610.94
438.721	619.94
438.943	640.94
439.165	613.94
439.386	638.94
439.608	632.94
439.829	613.94
440.05	616.94
440.272	634.94
440.493	651.94
440.715	620.94
440.936	613.94
441.158	642.94
441.379	642.94
441.6	654.94
441.822	654.94
442.043	658.94
442.264	650.94
442.486	643.94
442.707	658.94
442.928	648.94
443.149	627.94
443.371	634.94
443.592	646.94
443.813	650.94
444.034	691.94
444.255	676.94
444.476	671.94
444.698	692.94
444.919	671.94
445.14	791.94
445.361	717.94
445.582	696.94
445.803	634.94
446.024	624.94
446.245	627.94
446.466	638.94
446.687	606.94
446.908	640.94
447.129	612.94
447.35	616.94
447.571	630.94
447.792	606.94
448.013	626.94
448.234	600.94
448.455	600.94
448.675	581.94
448.896	601.94
449.117	570.94
449.338	580.94
449.559	596.94
449.779	594.94
450	574.94
450.221	593.94
450.442	607.94
450.662	579.94
450.883	586.94
451.104	559.94
451.324	562.94
451.545	578.94
451.766	565.94
451.986	553.94
452.207	581.94
452.428	569.94
452.648	556.94
452.869	559.94
453.089	562.94
453.31	572.94
453.53	583.94
453.751	567.94
453.971	581.94
454.192	564.94
454.412	568.94
454.633	567.94
454.853	564.94
455.073	552.94
455.294	578.94
455.514	554.94
455.734	567.94
455.955	542.94
456.175	561.94
456.395	546.94
456.616	582.94
456.836	552.94
457.056	581.94
457.276	554.94
457.497	571.94
457.717	591.94
457.937	573.94
458.157	603.94
458.377	575.94
458.598	584.94
458.818	593.94
459.038	598.94
459.258	633.94
459.478	632.94
459.698	630.94
459.918	642.94
460.138	639.94
460.358	656.94
460.578	635.94
460.798	670.94
461.018	703.94
461.238	696.94
461.458	679.94
461.678	683.94
461.898	685.94
462.118	701.94
462.338	723.94
462.558	736.94
462.777	762.94
462.997	755.94
463.217	754.94
463.437	777.94
463.657	745.94
463.876	776.94
464.096	755.94
464.316	739.94
464.536	733.94
464.755	717.94
464.975	701.94
465.195	672.94
465.414	682.94
465.634	682.94
465.854	680.94
466.073	643.94
466.293	632.94
466.512	617.94
466.732	656.94
466.951	634.94
467.171	610.94
467.391	613.94
467.61	620.94
467.829	616.94
468.049	643.94
468.268	626.94
468.488	602.94
468.707	628.94
468.927	596.94
469.146	619.94
469.365	616.94
469.585	621.94
469.804	631.94
470.023	619.94
470.243	613.94
470.462	627.94
470.681	637.94
470.901	619.94
471.12	605.94
471.339	613.94
471.558	616.94
471.777	617.94
471.997	585.94
472.216	614.94
472.435	641.94
472.654	629.94
472.873	609.94
473.092	638.94
473.311	609.94
473.53	595.94
473.749	617.94
473.968	619.94
474.187	621.94
474.406	626.94
474.625	629.94
474.844	612.94
475.063	627.94
475.282	640.94
475.501	642.94
475.72	626.94
475.939	627.94
476.158	646.94
476.377	664.94
476.596	681.94
476.814	684.94
477.033	656.94
477.252	676.94
477.471	691.94
477.69	669.94
477.908	698.94
478.127	688.94
478.346	697.94
478.564	701.94
478.783	712.94
479.002	729.94
479.22	725.94
479.439	734.94
479.658	723.94
479.876	742.94
480.095	750.94
480.313	725.94
480.532	731.94
480.751	745.94
480.969	739.94
481.188	749.94
481.406	756.94
481.624	732.94
481.843	716.94
482.061	721.94
482.28	746.94
482.498	722.94
482.717	726.94
482.935	732.94
483.153	718.94
483.372	713.94
483.59	736.94
483.808	698.94
484.027	714.94
484.245	742.94
484.463	748.94
484.681	760.94
484.9	747.94
485.118	753.94
485.336	743.94
485.554	745.94
485.772	763.94
485.99	749.94
486.209	743.94
486.427	744.94
486.645	735.94
486.863	776.94
487.081	759.94
487.299	757.94
487.517	745.94
487.735	788.94
487.953	755.94
488.171	742.94
488.389	767.94
488.607	772.94
488.825	758.94
489.043	746.94
489.261	753.94
489.479	745.94
489.696	718.94
489.914	732.94
490.132	755.94
490.35	781.94
490.568	739.94
490.786	754.94
491.003	772.94
491.221	735.94
491.439	737.94
491.657	756.94
491.874	757.94
492.092	750.94
492.31	761.94
492.527	796.94
492.745	774.94
492.963	779.94
493.18	792.94
493.398	770.94
493.615	773.94
493.833	766.94
494.05	795.94
494.268	773.94
494.485	789.94
494.703	771.94
494.92	770.94
495.138	782.94
495.355	777.94
495.573	770.94
495.79	795.94
496.008	820.94
496.225	798.94
496.442	835.94
496.66	852.94
496.877	818.94
497.094	860.94
497.312	866.94
497.529	892.94
497.746	916.94
497.963	916.94
498.181	930.94
498.398	930.94
498.615	990.94
498.832	993.94
499.049	1029.94
499.267	1091.94
499.484	1090.94
499.701	1130.94
499.918	1188.94
500.135	1273.94
500.352	1320.94
500.569	1314.94
500.786	1308.94
501.003	1298.94
501.22	1264.94
501.437	1190.94
