Data from Fe(NO3)3@0.025M.TitratingCurve.Agarose3%dH2O.NegLispCup.LampEnergy10.LIBS07252019_HRD10591_16-53-56-335.txt Node
Date: Thu Jul 25 16:53:56 EDT 2019
User: cochatt
Spectrometer: HR+D1059
Trigger mode: 1
Integration Time (sec): 1.000000E-1
Scans to average: 1
Electric dark correction enabled: true
Nonlinearity correction enabled: false
Boxcar width: 0
XAxis mode: Wavelengths
Number of Pixels in Spectrum: 2048
>>>>>Begin Spectral Data<<<<<
223.165	-19.12
223.4	-19.12
223.635	-19.12
223.869	-15.12
224.104	-13.12
224.338	0.88
224.573	-20.12
224.808	-11.12
225.042	1.88
225.277	-6.12
225.511	-10.12
225.746	-12.12
225.98	-2.12
226.215	14.88
226.449	15.88
226.683	20.88
226.918	20.88
227.152	33.88
227.387	37.88
227.621	45.88
227.856	26.88
228.09	40.88
228.324	57.88
228.559	50.88
228.793	61.88
229.027	82.88
229.262	73.88
229.496	80.88
229.73	66.88
229.964	106.88
230.199	99.88
230.433	89.88
230.667	96.88
230.901	95.88
231.136	83.88
231.37	93.88
231.604	105.88
231.838	100.88
232.072	96.88
232.306	96.88
232.541	106.88
232.775	98.88
233.009	106.88
233.243	99.88
233.477	98.88
233.711	92.88
233.945	99.88
234.179	93.88
234.413	112.88
234.647	107.88
234.881	101.88
235.115	104.88
235.349	104.88
235.583	103.88
235.817	104.88
236.051	104.88
236.285	110.88
236.519	101.88
236.753	113.88
236.987	114.88
237.221	101.88
237.455	117.88
237.689	101.88
237.922	101.88
238.156	106.88
238.39	99.88
238.624	124.88
238.858	112.88
239.091	97.88
239.325	102.88
239.559	105.88
239.793	105.88
240.027	113.88
240.26	102.88
240.494	96.88
240.728	109.88
240.961	112.88
241.195	102.88
241.429	117.88
241.662	103.88
241.896	113.88
242.13	112.88
242.363	107.88
242.597	106.88
242.83	115.88
243.064	116.88
243.298	117.88
243.531	114.88
243.765	112.88
243.998	122.88
244.232	120.88
244.465	112.88
244.699	119.88
244.932	118.88
245.166	115.88
245.399	119.88
245.633	115.88
245.866	112.88
246.099	119.88
246.333	108.88
246.566	120.88
246.8	110.88
247.033	123.88
247.266	120.88
247.5	125.88
247.733	124.88
247.966	124.88
248.2	107.88
248.433	114.88
248.666	118.88
248.899	128.88
249.133	140.88
249.366	119.88
249.599	136.88
249.832	137.88
250.066	130.88
250.299	132.88
250.532	123.88
250.765	123.88
250.998	119.88
251.231	128.88
251.465	129.88
251.698	142.88
251.931	128.88
252.164	144.88
252.397	132.88
252.63	130.88
252.863	133.88
253.096	126.88
253.329	153.88
253.562	131.88
253.795	128.88
254.028	130.88
254.261	136.88
254.494	134.88
254.727	146.88
254.96	135.88
255.193	142.88
255.426	145.88
255.659	137.88
255.892	148.88
256.124	140.88
256.357	155.88
256.59	146.88
256.823	128.88
257.056	136.88
257.289	137.88
257.521	148.88
257.754	138.88
257.987	133.88
258.22	156.88
258.452	160.88
258.685	152.88
258.918	162.88
259.151	148.88
259.383	153.88
259.616	154.88
259.849	136.88
260.081	168.88
260.314	176.88
260.547	143.88
260.779	150.88
261.012	156.88
261.244	165.88
261.477	161.88
261.71	146.88
261.942	152.88
262.175	154.88
262.407	143.88
262.64	156.88
262.872	161.88
263.105	157.88
263.337	168.88
263.57	176.88
263.802	152.88
264.035	177.88
264.267	148.88
264.499	154.88
264.732	158.88
264.964	166.88
265.197	157.88
265.429	174.88
265.661	166.88
265.894	163.88
266.126	168.88
266.358	173.88
266.591	173.88
266.823	156.88
267.055	167.88
267.287	158.88
267.52	158.88
267.752	158.88
267.984	169.88
268.216	186.88
268.448	171.88
268.681	165.88
268.913	179.88
269.145	171.88
269.377	165.88
269.609	176.88
269.841	157.88
270.073	172.88
270.306	164.88
270.538	166.88
270.77	178.88
271.002	162.88
271.234	164.88
271.466	189.88
271.698	180.88
271.93	177.88
272.162	182.88
272.394	190.88
272.626	196.88
272.858	192.88
273.09	197.88
273.322	181.88
273.553	180.88
273.785	183.88
274.017	199.88
274.249	194.88
274.481	204.88
274.713	194.88
274.945	232.88
275.176	212.88
275.408	210.88
275.64	203.88
275.872	210.88
276.104	210.88
276.335	200.88
276.567	175.88
276.799	179.88
277.031	208.88
277.262	192.88
277.494	203.88
277.726	209.88
277.957	212.88
278.189	208.88
278.421	201.88
278.652	200.88
278.884	195.88
279.115	197.88
279.347	204.88
279.579	196.88
279.81	199.88
280.042	192.88
280.273	203.88
280.505	200.88
280.736	212.88
280.968	203.88
281.199	207.88
281.431	219.88
281.662	200.88
281.894	225.88
282.125	219.88
282.356	216.88
282.588	214.88
282.819	210.88
283.051	198.88
283.282	224.88
283.513	217.88
283.745	228.88
283.976	228.88
284.207	218.88
284.439	209.88
284.67	212.88
284.901	225.88
285.132	216.88
285.364	228.88
285.595	224.88
285.826	202.88
286.057	221.88
286.288	241.88
286.52	224.88
286.751	212.88
286.982	224.88
287.213	210.88
287.444	216.88
287.675	224.88
287.906	232.88
288.138	233.88
288.369	213.88
288.6	224.88
288.831	217.88
289.062	238.88
289.293	233.88
289.524	226.88
289.755	228.88
289.986	219.88
290.217	220.88
290.448	239.88
290.679	230.88
290.91	231.88
291.141	231.88
291.371	230.88
291.602	226.88
291.833	226.88
292.064	235.88
292.295	226.88
292.526	240.88
292.757	230.88
292.987	241.88
293.218	230.88
293.449	233.88
293.68	236.88
293.91	247.88
294.141	229.88
294.372	242.88
294.603	260.88
294.833	234.88
295.064	240.88
295.295	244.88
295.525	228.88
295.756	224.88
295.987	242.88
296.217	244.88
296.448	229.88
296.679	252.88
296.909	251.88
297.14	246.88
297.37	267.88
297.601	246.88
297.831	243.88
298.062	253.88
298.292	253.88
298.523	249.88
298.753	266.88
298.984	270.88
299.214	260.88
299.445	251.88
299.675	262.88
299.905	267.88
300.136	261.88
300.366	262.88
300.597	266.88
300.827	274.88
301.057	273.88
301.288	241.88
301.518	263.88
301.748	249.88
301.979	251.88
302.209	266.88
302.439	278.88
302.669	278.88
302.9	282.88
303.13	273.88
303.36	264.88
303.59	267.88
303.82	279.88
304.051	265.88
304.281	271.88
304.511	266.88
304.741	269.88
304.971	274.88
305.201	291.88
305.431	262.88
305.661	258.88
305.891	285.88
306.121	266.88
306.352	271.88
306.582	278.88
306.812	269.88
307.042	270.88
307.272	287.88
307.502	271.88
307.731	282.88
307.961	282.88
308.191	275.88
308.421	270.88
308.651	268.88
308.881	284.88
309.111	287.88
309.341	271.88
309.571	280.88
309.8	271.88
310.03	295.88
310.26	270.88
310.49	284.88
310.72	272.88
310.949	271.88
311.179	293.88
311.409	287.88
311.639	289.88
311.868	289.88
312.098	292.88
312.328	304.88
312.557	294.88
312.787	290.88
313.017	300.88
313.246	285.88
313.476	278.88
313.706	305.88
313.935	306.88
314.165	286.88
314.394	300.88
314.624	307.88
314.853	299.88
315.083	306.88
315.312	308.88
315.542	289.88
315.771	294.88
316.001	302.88
316.23	283.88
316.46	306.88
316.689	308.88
316.919	303.88
317.148	313.88
317.377	294.88
317.607	292.88
317.836	314.88
318.065	304.88
318.295	300.88
318.524	297.88
318.753	299.88
318.983	312.88
319.212	304.88
319.441	306.88
319.67	312.88
319.9	304.88
320.129	295.88
320.358	305.88
320.587	299.88
320.816	304.88
321.046	311.88
321.275	293.88
321.504	304.88
321.733	316.88
321.962	300.88
322.191	298.88
322.42	312.88
322.649	334.88
322.878	316.88
323.108	318.88
323.337	335.88
323.566	318.88
323.795	314.88
324.024	299.88
324.253	298.88
324.482	314.88
324.71	312.88
324.939	302.88
325.168	320.88
325.397	309.88
325.626	326.88
325.855	328.88
326.084	325.88
326.313	323.88
326.542	342.88
326.77	322.88
326.999	328.88
327.228	325.88
327.457	329.88
327.686	319.88
327.914	334.88
328.143	312.88
328.372	314.88
328.6	328.88
328.829	319.88
329.058	318.88
329.287	350.88
329.515	330.88
329.744	360.88
329.972	345.88
330.201	339.88
330.43	316.88
330.658	340.88
330.887	332.88
331.115	339.88
331.344	342.88
331.572	320.88
331.801	330.88
332.03	351.88
332.258	353.88
332.486	363.88
332.715	373.88
332.943	348.88
333.172	358.88
333.4	361.88
333.629	374.88
333.857	361.88
334.085	379.88
334.314	371.88
334.542	375.88
334.771	361.88
334.999	354.88
335.227	380.88
335.455	352.88
335.684	384.88
335.912	387.88
336.14	377.88
336.369	393.88
336.597	365.88
336.825	361.88
337.053	376.88
337.281	388.88
337.51	362.88
337.738	360.88
337.966	384.88
338.194	372.88
338.422	360.88
338.65	340.88
338.878	376.88
339.106	352.88
339.334	366.88
339.562	357.88
339.79	347.88
340.018	365.88
340.246	350.88
340.474	350.88
340.702	348.88
340.93	363.88
341.158	374.88
341.386	345.88
341.614	330.88
341.842	363.88
342.07	369.88
342.298	360.88
342.526	368.88
342.754	373.88
342.981	345.88
343.209	361.88
343.437	376.88
343.665	367.88
343.893	366.88
344.12	357.88
344.348	379.88
344.576	368.88
344.804	366.88
345.031	355.88
345.259	369.88
345.487	348.88
345.714	338.88
345.942	354.88
346.17	356.88
346.397	364.88
346.625	336.88
346.853	360.88
347.08	347.88
347.308	345.88
347.535	347.88
347.763	347.88
347.99	347.88
348.218	334.88
348.445	340.88
348.673	349.88
348.9	362.88
349.128	335.88
349.355	343.88
349.583	340.88
349.81	338.88
350.037	359.88
350.265	338.88
350.492	344.88
350.72	362.88
350.947	331.88
351.174	356.88
351.402	339.88
351.629	337.88
351.856	354.88
352.083	352.88
352.311	337.88
352.538	345.88
352.765	345.88
352.992	342.88
353.22	337.88
353.447	344.88
353.674	335.88
353.901	347.88
354.128	331.88
354.355	341.88
354.583	331.88
354.81	346.88
355.037	345.88
355.264	354.88
355.491	350.88
355.718	334.88
355.945	355.88
356.172	337.88
356.399	358.88
356.626	332.88
356.853	372.88
357.08	332.88
357.307	343.88
357.534	349.88
357.761	362.88
357.988	348.88
358.215	346.88
358.441	350.88
358.668	349.88
358.895	334.88
359.122	362.88
359.349	355.88
359.576	349.88
359.802	349.88
360.029	343.88
360.256	354.88
360.483	365.88
360.709	346.88
360.936	351.88
361.163	341.88
361.39	357.88
361.616	332.88
361.843	358.88
362.07	348.88
362.296	348.88
362.523	344.88
362.749	345.88
362.976	340.88
363.203	364.88
363.429	355.88
363.656	348.88
363.882	338.88
364.109	357.88
364.335	361.88
364.562	349.88
364.788	344.88
365.015	352.88
365.241	343.88
365.468	352.88
365.694	326.88
365.92	356.88
366.147	346.88
366.373	349.88
366.599	348.88
366.826	349.88
367.052	350.88
367.278	363.88
367.505	358.88
367.731	364.88
367.957	356.88
368.184	356.88
368.41	359.88
368.636	379.88
368.862	368.88
369.089	348.88
369.315	361.88
369.541	377.88
369.767	372.88
369.993	368.88
370.219	363.88
370.445	368.88
370.672	364.88
370.898	383.88
371.124	372.88
371.35	389.88
371.576	370.88
371.802	376.88
372.028	369.88
372.254	389.88
372.48	364.88
372.706	382.88
372.932	352.88
373.158	376.88
373.384	390.88
373.61	395.88
373.835	392.88
374.061	380.88
374.287	408.88
374.513	383.88
374.739	409.88
374.965	391.88
375.191	396.88
375.416	389.88
375.642	404.88
375.868	380.88
376.094	394.88
376.319	383.88
376.545	381.88
376.771	360.88
376.997	388.88
377.222	360.88
377.448	362.88
377.674	352.88
377.899	380.88
378.125	363.88
378.35	374.88
378.576	376.88
378.802	390.88
379.027	371.88
379.253	382.88
379.478	384.88
379.704	371.88
379.929	362.88
380.155	388.88
380.38	372.88
380.606	372.88
380.831	381.88
381.057	377.88
381.282	383.88
381.507	380.88
381.733	381.88
381.958	385.88
382.184	399.88
382.409	391.88
382.634	390.88
382.86	396.88
383.085	392.88
383.31	397.88
383.535	411.88
383.761	403.88
383.986	400.88
384.211	396.88
384.436	400.88
384.662	419.88
384.887	412.88
385.112	416.88
385.337	418.88
385.562	438.88
385.787	449.88
386.013	443.88
386.238	412.88
386.463	439.88
386.688	460.88
386.913	429.88
387.138	409.88
387.363	441.88
387.588	442.88
387.813	436.88
388.038	426.88
388.263	429.88
388.488	424.88
388.713	437.88
388.938	444.88
389.163	439.88
389.387	440.88
389.612	431.88
389.837	440.88
390.062	447.88
390.287	428.88
390.512	441.88
390.736	417.88
390.961	424.88
391.186	450.88
391.411	455.88
391.636	446.88
391.86	440.88
392.085	467.88
392.31	464.88
392.534	456.88
392.759	470.88
392.984	464.88
393.208	459.88
393.433	481.88
393.658	482.88
393.882	465.88
394.107	452.88
394.331	454.88
394.556	460.88
394.78	441.88
395.005	464.88
395.229	468.88
395.454	452.88
395.678	462.88
395.903	461.88
396.127	468.88
396.352	486.88
396.576	493.88
396.801	476.88
397.025	478.88
397.249	488.88
397.474	486.88
397.698	493.88
397.922	496.88
398.147	488.88
398.371	489.88
398.595	512.88
398.82	498.88
399.044	522.88
399.268	528.88
399.492	570.88
399.717	590.88
399.941	580.88
400.165	572.88
400.389	568.88
400.613	555.88
400.837	549.88
401.062	540.88
401.286	537.88
401.51	526.88
401.734	511.88
401.958	517.88
402.182	532.88
402.406	491.88
402.63	534.88
402.854	514.88
403.078	520.88
403.302	517.88
403.526	525.88
403.75	531.88
403.974	530.88
404.198	542.88
404.422	527.88
404.645	526.88
404.869	512.88
405.093	514.88
405.317	531.88
405.541	533.88
405.765	517.88
405.988	525.88
406.212	555.88
406.436	539.88
406.66	558.88
406.883	551.88
407.107	553.88
407.331	589.88
407.555	615.88
407.778	586.88
408.002	580.88
408.226	578.88
408.449	585.88
408.673	552.88
408.896	564.88
409.12	570.88
409.344	544.88
409.567	554.88
409.791	543.88
410.014	546.88
410.238	548.88
410.461	534.88
410.685	530.88
410.908	544.88
411.132	531.88
411.355	506.88
411.578	524.88
411.802	526.88
412.025	525.88
412.249	535.88
412.472	525.88
412.695	516.88
412.919	523.88
413.142	529.88
413.365	537.88
413.589	509.88
413.812	488.88
414.035	498.88
414.258	532.88
414.482	525.88
414.705	517.88
414.928	522.88
415.151	502.88
415.374	499.88
415.597	505.88
415.821	500.88
416.044	502.88
416.267	488.88
416.49	496.88
416.713	511.88
416.936	492.88
417.159	469.88
417.382	489.88
417.605	493.88
417.828	473.88
418.051	505.88
418.274	477.88
418.497	480.88
418.72	500.88
418.943	501.88
419.166	500.88
419.389	549.88
419.611	542.88
419.834	508.88
420.057	494.88
420.28	496.88
420.503	475.88
420.726	459.88
420.948	481.88
421.171	477.88
421.394	483.88
421.617	480.88
421.839	492.88
422.062	477.88
422.285	463.88
422.507	482.88
422.73	492.88
422.953	504.88
423.175	482.88
423.398	483.88
423.621	472.88
423.843	498.88
424.066	478.88
424.288	498.88
424.511	498.88
424.733	476.88
424.956	485.88
425.178	496.88
425.401	488.88
425.623	484.88
425.846	492.88
426.068	487.88
426.291	493.88
426.513	486.88
426.735	474.88
426.958	473.88
427.18	477.88
427.402	453.88
427.625	477.88
427.847	475.88
428.069	467.88
428.292	469.88
428.514	469.88
428.736	473.88
428.958	472.88
429.181	466.88
429.403	466.88
429.625	475.88
429.847	468.88
430.069	472.88
430.292	447.88
430.514	453.88
430.736	470.88
430.958	471.88
431.18	449.88
431.402	466.88
431.624	469.88
431.846	463.88
432.068	459.88
432.29	465.88
432.512	449.88
432.734	478.88
432.956	468.88
433.178	453.88
433.4	442.88
433.622	474.88
433.844	461.88
434.066	493.88
434.287	450.88
434.509	486.88
434.731	502.88
434.953	486.88
435.175	491.88
435.397	492.88
435.618	491.88
435.84	493.88
436.062	466.88
436.284	435.88
436.505	468.88
436.727	450.88
436.949	462.88
437.17	460.88
437.392	466.88
437.614	470.88
437.835	449.88
438.057	445.88
438.278	431.88
438.5	432.88
438.721	451.88
438.943	467.88
439.165	427.88
439.386	458.88
439.608	470.88
439.829	473.88
440.05	467.88
440.272	460.88
440.493	454.88
440.715	449.88
440.936	467.88
441.158	473.88
441.379	467.88
441.6	458.88
441.822	489.88
442.043	472.88
442.264	497.88
442.486	468.88
442.707	475.88
442.928	467.88
443.149	489.88
443.371	477.88
443.592	468.88
443.813	489.88
444.034	472.88
444.255	483.88
444.476	493.88
444.698	496.88
444.919	514.88
445.14	602.88
445.361	535.88
445.582	511.88
445.803	478.88
446.024	469.88
446.245	452.88
446.466	475.88
446.687	458.88
446.908	457.88
447.129	462.88
447.35	469.88
447.571	466.88
447.792	443.88
448.013	446.88
448.234	466.88
448.455	452.88
448.675	404.88
448.896	451.88
449.117	424.88
449.338	420.88
449.559	438.88
449.779	432.88
450	446.88
450.221	436.88
450.442	426.88
450.662	414.88
450.883	409.88
451.104	430.88
451.324	422.88
451.545	438.88
451.766	422.88
451.986	423.88
452.207	420.88
452.428	420.88
452.648	423.88
452.869	416.88
453.089	416.88
453.31	439.88
453.53	408.88
453.751	432.88
453.971	416.88
454.192	409.88
454.412	404.88
454.633	395.88
454.853	413.88
455.073	409.88
455.294	411.88
455.514	406.88
455.734	416.88
455.955	406.88
456.175	419.88
456.395	416.88
456.616	410.88
456.836	403.88
457.056	439.88
457.276	436.88
457.497	409.88
457.717	425.88
457.937	440.88
458.157	438.88
458.377	440.88
458.598	417.88
458.818	453.88
459.038	458.88
459.258	457.88
459.478	476.88
459.698	465.88
459.918	463.88
460.138	461.88
460.358	493.88
460.578	487.88
460.798	488.88
461.018	492.88
461.238	509.88
461.458	504.88
461.678	509.88
461.898	523.88
462.118	518.88
462.338	537.88
462.558	532.88
462.777	542.88
462.997	547.88
463.217	553.88
463.437	553.88
463.657	555.88
463.876	569.88
464.096	563.88
464.316	557.88
464.536	557.88
464.755	533.88
464.975	514.88
465.195	510.88
465.414	513.88
465.634	488.88
465.854	484.88
466.073	464.88
466.293	467.88
466.512	470.88
466.732	460.88
466.951	454.88
467.171	468.88
467.391	466.88
467.61	467.88
467.829	458.88
468.049	448.88
468.268	453.88
468.488	445.88
468.707	438.88
468.927	454.88
469.146	462.88
469.365	470.88
469.585	441.88
469.804	473.88
470.023	453.88
470.243	467.88
470.462	473.88
470.681	468.88
470.901	460.88
471.12	449.88
471.339	481.88
471.558	450.88
471.777	457.88
471.997	461.88
472.216	451.88
472.435	459.88
472.654	454.88
472.873	436.88
473.092	462.88
473.311	473.88
473.53	460.88
473.749	461.88
473.968	454.88
474.187	457.88
474.406	460.88
474.625	479.88
474.844	448.88
475.063	470.88
475.282	462.88
475.501	468.88
475.72	467.88
475.939	480.88
476.158	454.88
476.377	484.88
476.596	471.88
476.814	466.88
477.033	485.88
477.252	490.88
477.471	500.88
477.69	516.88
477.908	502.88
478.127	498.88
478.346	524.88
478.564	524.88
478.783	522.88
479.002	528.88
479.22	547.88
479.439	517.88
479.658	544.88
479.876	537.88
480.095	544.88
480.313	535.88
480.532	548.88
480.751	526.88
480.969	538.88
481.188	558.88
481.406	552.88
481.624	541.88
481.843	501.88
482.061	512.88
482.28	521.88
482.498	522.88
482.717	531.88
482.935	514.88
483.153	519.88
483.372	518.88
483.59	535.88
483.808	554.88
484.027	543.88
484.245	524.88
484.463	558.88
484.681	547.88
484.9	530.88
485.118	554.88
485.336	554.88
485.554	543.88
485.772	533.88
485.99	537.88
486.209	547.88
486.427	564.88
486.645	544.88
486.863	553.88
487.081	544.88
487.299	542.88
487.517	549.88
487.735	549.88
487.953	541.88
488.171	556.88
488.389	560.88
488.607	540.88
488.825	549.88
489.043	540.88
489.261	528.88
489.479	552.88
489.696	554.88
489.914	538.88
490.132	535.88
490.35	543.88
490.568	544.88
490.786	549.88
491.003	560.88
491.221	542.88
491.439	547.88
491.657	536.88
491.874	557.88
492.092	569.88
492.31	553.88
492.527	573.88
492.745	556.88
492.963	553.88
493.18	570.88
493.398	566.88
493.615	564.88
493.833	591.88
494.05	581.88
494.268	555.88
494.485	573.88
494.703	587.88
494.92	580.88
495.138	590.88
495.355	575.88
495.573	613.88
495.79	593.88
496.008	628.88
496.225	618.88
496.442	610.88
496.66	589.88
496.877	630.88
497.094	624.88
497.312	652.88
497.529	654.88
497.746	655.88
497.963	686.88
498.181	686.88
498.398	713.88
498.615	733.88
498.832	752.88
499.049	778.88
499.267	797.88
499.484	820.88
499.701	838.88
499.918	882.88
500.135	885.88
500.352	932.88
500.569	922.88
500.786	946.88
501.003	939.88
501.22	908.88
501.437	896.88
501.654	843.88
501.871	841.88
