Data from Fe(NO3)3@0.1M.TitratingCurve.Agarose3%dH2O.NegLispCup.LampEnergy10.LIBS07252019_HRD10591_16-41-15-332.txt Node
Date: Thu Jul 25 16:41:15 EDT 2019
User: cochatt
Spectrometer: HR+D1059
Trigger mode: 1
Integration Time (sec): 1.000000E-1
Scans to average: 1
Electric dark correction enabled: true
Nonlinearity correction enabled: false
Boxcar width: 0
XAxis mode: Wavelengths
Number of Pixels in Spectrum: 2048
>>>>>Begin Spectral Data<<<<<
223.165	-13.19
223.4	-13.19
223.635	-13.19
223.869	-21.19
224.104	-19.19
224.338	-8.19
224.573	-22.19
224.808	-2.19
225.042	-13.19
225.277	-10.19
225.511	8.81
225.746	1.81
225.98	11.81
226.215	-4.19
226.449	22.81
226.683	17.81
226.918	24.81
227.152	25.81
227.387	35.81
227.621	37.81
227.856	47.81
228.09	29.81
228.324	49.81
228.559	52.81
228.793	63.81
229.027	73.81
229.262	79.81
229.496	90.81
229.73	69.81
229.964	71.81
230.199	84.81
230.433	80.81
230.667	91.81
230.901	101.81
231.136	100.81
231.37	84.81
231.604	95.81
231.838	109.81
232.072	90.81
232.306	92.81
232.541	107.81
232.775	87.81
233.009	94.81
233.243	110.81
233.477	101.81
233.711	96.81
233.945	99.81
234.179	92.81
234.413	91.81
234.647	91.81
234.881	106.81
235.115	104.81
235.349	101.81
235.583	104.81
235.817	103.81
236.051	91.81
236.285	94.81
236.519	94.81
236.753	93.81
236.987	92.81
237.221	92.81
237.455	79.81
237.689	94.81
237.922	98.81
238.156	89.81
238.39	97.81
238.624	103.81
238.858	103.81
239.091	86.81
239.325	80.81
239.559	94.81
239.793	98.81
240.027	102.81
240.26	104.81
240.494	110.81
240.728	94.81
240.961	97.81
241.195	101.81
241.429	102.81
241.662	103.81
241.896	102.81
242.13	92.81
242.363	96.81
242.597	100.81
242.83	106.81
243.064	95.81
243.298	107.81
243.531	103.81
243.765	109.81
243.998	103.81
244.232	98.81
244.465	108.81
244.699	92.81
244.932	116.81
245.166	100.81
245.399	110.81
245.633	103.81
245.866	113.81
246.099	112.81
246.333	106.81
246.566	109.81
246.8	111.81
247.033	107.81
247.266	106.81
247.5	102.81
247.733	90.81
247.966	103.81
248.2	103.81
248.433	111.81
248.666	110.81
248.899	108.81
249.133	112.81
249.366	117.81
249.599	113.81
249.832	123.81
250.066	125.81
250.299	118.81
250.532	104.81
250.765	112.81
250.998	115.81
251.231	107.81
251.465	109.81
251.698	109.81
251.931	108.81
252.164	101.81
252.397	119.81
252.63	119.81
252.863	138.81
253.096	105.81
253.329	111.81
253.562	126.81
253.795	123.81
254.028	116.81
254.261	131.81
254.494	126.81
254.727	125.81
254.96	113.81
255.193	121.81
255.426	124.81
255.659	111.81
255.892	122.81
256.124	113.81
256.357	121.81
256.59	131.81
256.823	122.81
257.056	121.81
257.289	133.81
257.521	114.81
257.754	117.81
257.987	118.81
258.22	117.81
258.452	124.81
258.685	124.81
258.918	125.81
259.151	126.81
259.383	131.81
259.616	123.81
259.849	109.81
260.081	112.81
260.314	131.81
260.547	121.81
260.779	127.81
261.012	125.81
261.244	135.81
261.477	138.81
261.71	129.81
261.942	135.81
262.175	126.81
262.407	133.81
262.64	147.81
262.872	149.81
263.105	135.81
263.337	129.81
263.57	132.81
263.802	127.81
264.035	135.81
264.267	125.81
264.499	157.81
264.732	139.81
264.964	135.81
265.197	120.81
265.429	133.81
265.661	137.81
265.894	135.81
266.126	134.81
266.358	121.81
266.591	132.81
266.823	140.81
267.055	136.81
267.287	142.81
267.52	139.81
267.752	141.81
267.984	138.81
268.216	141.81
268.448	144.81
268.681	137.81
268.913	137.81
269.145	147.81
269.377	142.81
269.609	146.81
269.841	126.81
270.073	121.81
270.306	130.81
270.538	137.81
270.77	141.81
271.002	153.81
271.234	142.81
271.466	141.81
271.698	141.81
271.93	129.81
272.162	144.81
272.394	149.81
272.626	149.81
272.858	150.81
273.09	141.81
273.322	153.81
273.553	150.81
273.785	153.81
274.017	154.81
274.249	155.81
274.481	139.81
274.713	155.81
274.945	138.81
275.176	156.81
275.408	147.81
275.64	161.81
275.872	153.81
276.104	157.81
276.335	158.81
276.567	146.81
276.799	148.81
277.031	162.81
277.262	144.81
277.494	160.81
277.726	153.81
277.957	147.81
278.189	139.81
278.421	150.81
278.652	147.81
278.884	161.81
279.115	155.81
279.347	146.81
279.579	154.81
279.81	166.81
280.042	160.81
280.273	167.81
280.505	142.81
280.736	151.81
280.968	164.81
281.199	187.81
281.431	157.81
281.662	160.81
281.894	160.81
282.125	159.81
282.356	169.81
282.588	175.81
282.819	166.81
283.051	165.81
283.282	167.81
283.513	157.81
283.745	175.81
283.976	167.81
284.207	166.81
284.439	168.81
284.67	157.81
284.901	161.81
285.132	185.81
285.364	179.81
285.595	180.81
285.826	161.81
286.057	171.81
286.288	175.81
286.52	178.81
286.751	163.81
286.982	181.81
287.213	172.81
287.444	174.81
287.675	175.81
287.906	170.81
288.138	178.81
288.369	164.81
288.6	181.81
288.831	183.81
289.062	183.81
289.293	170.81
289.524	181.81
289.755	153.81
289.986	175.81
290.217	187.81
290.448	168.81
290.679	177.81
290.91	183.81
291.141	170.81
291.371	175.81
291.602	181.81
291.833	174.81
292.064	173.81
292.295	170.81
292.526	178.81
292.757	181.81
292.987	178.81
293.218	179.81
293.449	178.81
293.68	178.81
293.91	178.81
294.141	177.81
294.372	190.81
294.603	182.81
294.833	168.81
295.064	179.81
295.295	186.81
295.525	178.81
295.756	173.81
295.987	180.81
296.217	199.81
296.448	193.81
296.679	192.81
296.909	186.81
297.14	183.81
297.37	171.81
297.601	190.81
297.831	193.81
298.062	177.81
298.292	190.81
298.523	189.81
298.753	215.81
298.984	186.81
299.214	201.81
299.445	187.81
299.675	180.81
299.905	190.81
300.136	176.81
300.366	190.81
300.597	196.81
300.827	193.81
301.057	162.81
301.288	203.81
301.518	200.81
301.748	180.81
301.979	185.81
302.209	193.81
302.439	182.81
302.669	199.81
302.9	188.81
303.13	184.81
303.36	202.81
303.59	201.81
303.82	173.81
304.051	193.81
304.281	206.81
304.511	201.81
304.741	203.81
304.971	201.81
305.201	179.81
305.431	186.81
305.661	202.81
305.891	192.81
306.121	201.81
306.352	201.81
306.582	198.81
306.812	181.81
307.042	186.81
307.272	199.81
307.502	200.81
307.731	187.81
307.961	192.81
308.191	178.81
308.421	189.81
308.651	207.81
308.881	185.81
309.111	188.81
309.341	185.81
309.571	197.81
309.8	196.81
310.03	205.81
310.26	195.81
310.49	188.81
310.72	199.81
310.949	190.81
311.179	200.81
311.409	189.81
311.639	222.81
311.868	193.81
312.098	203.81
312.328	207.81
312.557	213.81
312.787	205.81
313.017	211.81
313.246	209.81
313.476	193.81
313.706	221.81
313.935	202.81
314.165	205.81
314.394	210.81
314.624	211.81
314.853	207.81
315.083	208.81
315.312	193.81
315.542	204.81
315.771	196.81
316.001	209.81
316.23	211.81
316.46	199.81
316.689	209.81
316.919	205.81
317.148	227.81
317.377	215.81
317.607	223.81
317.836	186.81
318.065	209.81
318.295	217.81
318.524	221.81
318.753	221.81
318.983	215.81
319.212	206.81
319.441	201.81
319.67	205.81
319.9	198.81
320.129	217.81
320.358	231.81
320.587	212.81
320.816	211.81
321.046	202.81
321.275	214.81
321.504	206.81
321.733	207.81
321.962	212.81
322.191	220.81
322.42	206.81
322.649	200.81
322.878	215.81
323.108	222.81
323.337	211.81
323.566	213.81
323.795	225.81
324.024	203.81
324.253	215.81
324.482	204.81
324.71	215.81
324.939	232.81
325.168	242.81
325.397	220.81
325.626	215.81
325.855	222.81
326.084	221.81
326.313	223.81
326.542	213.81
326.77	249.81
326.999	215.81
327.228	211.81
327.457	208.81
327.686	206.81
327.914	235.81
328.143	238.81
328.372	224.81
328.6	232.81
328.829	214.81
329.058	222.81
329.287	247.81
329.515	226.81
329.744	226.81
329.972	222.81
330.201	204.81
330.43	248.81
330.658	228.81
330.887	213.81
331.115	237.81
331.344	236.81
331.572	238.81
331.801	241.81
332.03	243.81
332.258	263.81
332.486	264.81
332.715	265.81
332.943	246.81
333.172	263.81
333.4	273.81
333.629	294.81
333.857	287.81
334.085	285.81
334.314	275.81
334.542	287.81
334.771	269.81
334.999	247.81
335.227	270.81
335.455	272.81
335.684	258.81
335.912	248.81
336.14	263.81
336.369	262.81
336.597	250.81
336.825	265.81
337.053	260.81
337.281	262.81
337.51	266.81
337.738	237.81
337.966	238.81
338.194	242.81
338.422	243.81
338.65	244.81
338.878	251.81
339.106	252.81
339.334	247.81
339.562	245.81
339.79	242.81
340.018	234.81
340.246	227.81
340.474	238.81
340.702	243.81
340.93	230.81
341.158	250.81
341.386	239.81
341.614	232.81
341.842	221.81
342.07	215.81
342.298	230.81
342.526	229.81
342.754	223.81
342.981	251.81
343.209	247.81
343.437	261.81
343.665	268.81
343.893	281.81
344.12	283.81
344.348	266.81
344.576	269.81
344.804	243.81
345.031	245.81
345.259	254.81
345.487	214.81
345.714	244.81
345.942	222.81
346.17	234.81
346.397	218.81
346.625	220.81
346.853	235.81
347.08	229.81
347.308	226.81
347.535	228.81
347.763	241.81
347.99	229.81
348.218	235.81
348.445	233.81
348.673	235.81
348.9	235.81
349.128	242.81
349.355	224.81
349.583	223.81
349.81	240.81
350.037	218.81
350.265	227.81
350.492	217.81
350.72	243.81
350.947	251.81
351.174	228.81
351.402	213.81
351.629	239.81
351.856	235.81
352.083	236.81
352.311	219.81
352.538	222.81
352.765	220.81
352.992	231.81
353.22	215.81
353.447	227.81
353.674	214.81
353.901	214.81
354.128	231.81
354.355	222.81
354.583	228.81
354.81	242.81
355.037	238.81
355.264	232.81
355.491	217.81
355.718	229.81
355.945	228.81
356.172	218.81
356.399	229.81
356.626	229.81
356.853	225.81
357.08	247.81
357.307	238.81
357.534	231.81
357.761	224.81
357.988	237.81
358.215	238.81
358.441	245.81
358.668	249.81
358.895	229.81
359.122	241.81
359.349	225.81
359.576	226.81
359.802	234.81
360.029	211.81
360.256	225.81
360.483	218.81
360.709	221.81
360.936	225.81
361.163	232.81
361.39	225.81
361.616	221.81
361.843	215.81
362.07	226.81
362.296	238.81
362.523	230.81
362.749	241.81
362.976	226.81
363.203	229.81
363.429	224.81
363.656	254.81
363.882	228.81
364.109	225.81
364.335	237.81
364.562	239.81
364.788	234.81
365.015	218.81
365.241	219.81
365.468	236.81
365.694	226.81
365.92	235.81
366.147	216.81
366.373	219.81
366.599	225.81
366.826	240.81
367.052	230.81
367.278	242.81
367.505	242.81
367.731	233.81
367.957	237.81
368.184	236.81
368.41	229.81
368.636	233.81
368.862	228.81
369.089	226.81
369.315	227.81
369.541	253.81
369.767	265.81
369.993	242.81
370.219	213.81
370.445	240.81
370.672	242.81
370.898	250.81
371.124	243.81
371.35	250.81
371.576	234.81
371.802	245.81
372.028	241.81
372.254	236.81
372.48	252.81
372.706	243.81
372.932	251.81
373.158	259.81
373.384	243.81
373.61	265.81
373.835	248.81
374.061	245.81
374.287	252.81
374.513	246.81
374.739	246.81
374.965	261.81
375.191	259.81
375.416	250.81
375.642	263.81
375.868	282.81
376.094	262.81
376.319	266.81
376.545	246.81
376.771	253.81
376.997	244.81
377.222	262.81
377.448	242.81
377.674	234.81
377.899	249.81
378.125	247.81
378.35	249.81
378.576	251.81
378.802	251.81
379.027	254.81
379.253	246.81
379.478	247.81
379.704	239.81
379.929	275.81
380.155	243.81
380.38	251.81
380.606	256.81
380.831	232.81
381.057	255.81
381.282	259.81
381.507	243.81
381.733	250.81
381.958	261.81
382.184	259.81
382.409	258.81
382.634	270.81
382.86	263.81
383.085	263.81
383.31	262.81
383.535	273.81
383.761	289.81
383.986	281.81
384.211	259.81
384.436	275.81
384.662	292.81
384.887	288.81
385.112	288.81
385.337	284.81
385.562	291.81
385.787	291.81
386.013	300.81
386.238	298.81
386.463	299.81
386.688	279.81
386.913	288.81
387.138	286.81
387.363	280.81
387.588	276.81
387.813	276.81
388.038	285.81
388.263	292.81
388.488	282.81
388.713	295.81
388.938	283.81
389.163	287.81
389.387	269.81
389.612	287.81
389.837	282.81
390.062	283.81
390.287	287.81
390.512	286.81
390.736	299.81
390.961	279.81
391.186	285.81
391.411	283.81
391.636	298.81
391.86	323.81
392.085	322.81
392.31	308.81
392.534	323.81
392.759	310.81
392.984	315.81
393.208	305.81
393.433	297.81
393.658	314.81
393.882	293.81
394.107	307.81
394.331	297.81
394.556	307.81
394.78	287.81
395.005	305.81
395.229	310.81
395.454	307.81
395.678	326.81
395.903	311.81
396.127	317.81
396.352	298.81
396.576	309.81
396.801	315.81
397.025	320.81
397.249	332.81
397.474	333.81
397.698	326.81
397.922	311.81
398.147	327.81
398.371	346.81
398.595	373.81
398.82	333.81
399.044	353.81
399.268	392.81
399.492	449.81
399.717	488.81
399.941	470.81
400.165	427.81
400.389	379.81
400.613	377.81
400.837	358.81
401.062	342.81
401.286	344.81
401.51	345.81
401.734	328.81
401.958	343.81
402.182	348.81
402.406	365.81
402.63	369.81
402.854	365.81
403.078	369.81
403.302	377.81
403.526	395.81
403.75	394.81
403.974	371.81
404.198	403.81
404.422	404.81
404.645	394.81
404.869	371.81
405.093	373.81
405.317	391.81
405.541	364.81
405.765	384.81
405.988	385.81
406.212	384.81
406.436	377.81
406.66	390.81
406.883	419.81
407.107	414.81
407.331	440.81
407.555	435.81
407.778	410.81
408.002	426.81
408.226	416.81
408.449	423.81
408.673	406.81
408.896	384.81
409.12	381.81
409.344	376.81
409.567	378.81
409.791	393.81
410.014	394.81
410.238	375.81
410.461	381.81
410.685	386.81
410.908	383.81
411.132	369.81
411.355	385.81
411.578	367.81
411.802	372.81
412.025	383.81
412.249	383.81
412.472	356.81
412.695	381.81
412.919	366.81
413.142	361.81
413.365	378.81
413.589	353.81
413.812	369.81
414.035	378.81
414.258	367.81
414.482	355.81
414.705	348.81
414.928	361.81
415.151	369.81
415.374	362.81
415.597	359.81
415.821	365.81
416.044	355.81
416.267	335.81
416.49	351.81
416.713	350.81
416.936	355.81
417.159	338.81
417.382	340.81
417.605	350.81
417.828	358.81
418.051	346.81
418.274	372.81
418.497	367.81
418.72	385.81
418.943	383.81
419.166	362.81
419.389	389.81
419.611	393.81
419.834	376.81
420.057	381.81
420.28	362.81
420.503	347.81
420.726	353.81
420.948	355.81
421.171	383.81
421.394	363.81
421.617	369.81
421.839	362.81
422.062	364.81
422.285	333.81
422.507	357.81
422.73	359.81
422.953	366.81
423.175	384.81
423.398	381.81
423.621	372.81
423.843	377.81
424.066	367.81
424.288	391.81
424.511	378.81
424.733	361.81
424.956	373.81
425.178	355.81
425.401	363.81
425.623	366.81
425.846	330.81
426.068	338.81
426.291	348.81
426.513	321.81
426.735	325.81
426.958	335.81
427.18	333.81
427.402	331.81
427.625	338.81
427.847	337.81
428.069	342.81
428.292	335.81
428.514	311.81
428.736	334.81
428.958	332.81
429.181	315.81
429.403	324.81
429.625	329.81
429.847	341.81
430.069	319.81
430.292	330.81
430.514	322.81
430.736	320.81
430.958	323.81
431.18	321.81
431.402	337.81
431.624	323.81
431.846	333.81
432.068	320.81
432.29	331.81
432.512	340.81
432.734	315.81
432.956	321.81
433.178	335.81
433.4	332.81
433.622	335.81
433.844	325.81
434.066	358.81
434.287	356.81
434.509	328.81
434.731	335.81
434.953	366.81
435.175	347.81
435.397	347.81
435.618	343.81
435.84	350.81
436.062	321.81
436.284	340.81
436.505	342.81
436.727	339.81
436.949	337.81
437.17	321.81
437.392	320.81
437.614	321.81
437.835	310.81
438.057	318.81
438.278	325.81
438.5	326.81
438.721	327.81
438.943	331.81
439.165	310.81
439.386	333.81
439.608	355.81
439.829	337.81
440.05	351.81
440.272	341.81
440.493	350.81
440.715	352.81
440.936	354.81
441.158	356.81
441.379	364.81
441.6	375.81
441.822	369.81
442.043	380.81
442.264	354.81
442.486	361.81
442.707	380.81
442.928	353.81
443.149	371.81
443.371	338.81
443.592	369.81
443.813	353.81
444.034	385.81
444.255	409.81
444.476	405.81
444.698	402.81
444.919	443.81
445.14	471.81
445.361	417.81
445.582	379.81
445.803	357.81
446.024	351.81
446.245	371.81
446.466	343.81
446.687	351.81
446.908	340.81
447.129	335.81
447.35	334.81
447.571	326.81
447.792	331.81
448.013	309.81
448.234	330.81
448.455	325.81
448.675	326.81
448.896	327.81
449.117	328.81
449.338	299.81
449.559	326.81
449.779	315.81
450	324.81
450.221	341.81
450.442	319.81
450.662	311.81
450.883	312.81
451.104	307.81
451.324	310.81
451.545	322.81
451.766	332.81
451.986	303.81
452.207	312.81
452.428	330.81
452.648	332.81
452.869	293.81
453.089	308.81
453.31	318.81
453.53	317.81
453.751	308.81
453.971	306.81
454.192	302.81
454.412	291.81
454.633	287.81
454.853	297.81
455.073	298.81
455.294	295.81
455.514	315.81
455.734	294.81
455.955	302.81
456.175	297.81
456.395	305.81
456.616	304.81
456.836	308.81
457.056	297.81
457.276	292.81
457.497	297.81
457.717	287.81
457.937	293.81
458.157	301.81
458.377	300.81
458.598	298.81
458.818	292.81
459.038	292.81
459.258	310.81
459.478	337.81
459.698	348.81
459.918	363.81
460.138	367.81
460.358	386.81
460.578	379.81
460.798	364.81
461.018	372.81
461.238	379.81
461.458	371.81
461.678	378.81
461.898	400.81
462.118	370.81
462.338	418.81
462.558	398.81
462.777	422.81
462.997	447.81
463.217	478.81
463.437	454.81
463.657	439.81
463.876	414.81
464.096	420.81
464.316	419.81
464.536	435.81
464.755	427.81
464.975	400.81
465.195	385.81
465.414	386.81
465.634	382.81
465.854	336.81
466.073	323.81
466.293	340.81
466.512	315.81
466.732	328.81
466.951	315.81
467.171	298.81
467.391	338.81
467.61	332.81
467.829	323.81
468.049	317.81
468.268	320.81
468.488	302.81
468.707	327.81
468.927	332.81
469.146	322.81
469.365	323.81
469.585	332.81
469.804	333.81
470.023	324.81
470.243	351.81
470.462	335.81
470.681	328.81
470.901	329.81
471.12	331.81
471.339	307.81
471.558	318.81
471.777	328.81
471.997	307.81
472.216	334.81
472.435	309.81
472.654	301.81
472.873	313.81
473.092	295.81
473.311	311.81
473.53	322.81
473.749	298.81
473.968	305.81
474.187	305.81
474.406	295.81
474.625	294.81
474.844	300.81
475.063	316.81
475.282	298.81
475.501	313.81
475.72	307.81
475.939	300.81
476.158	301.81
476.377	319.81
476.596	312.81
476.814	293.81
477.033	328.81
477.252	318.81
477.471	318.81
477.69	340.81
477.908	333.81
478.127	338.81
478.346	349.81
478.564	346.81
478.783	364.81
479.002	367.81
479.22	347.81
479.439	361.81
479.658	348.81
479.876	358.81
480.095	357.81
480.313	371.81
480.532	394.81
480.751	349.81
480.969	365.81
481.188	342.81
481.406	340.81
481.624	331.81
481.843	332.81
482.061	319.81
482.28	327.81
482.498	338.81
482.717	328.81
482.935	335.81
483.153	325.81
483.372	346.81
483.59	332.81
483.808	345.81
484.027	334.81
484.245	355.81
484.463	331.81
484.681	347.81
484.9	349.81
485.118	336.81
485.336	337.81
485.554	346.81
485.772	333.81
485.99	327.81
486.209	350.81
486.427	339.81
486.645	353.81
486.863	333.81
487.081	341.81
487.299	339.81
487.517	346.81
487.735	351.81
487.953	351.81
488.171	359.81
488.389	351.81
488.607	331.81
488.825	346.81
489.043	326.81
489.261	358.81
489.479	347.81
489.696	348.81
489.914	350.81
490.132	336.81
490.35	353.81
490.568	357.81
490.786	366.81
491.003	371.81
491.221	349.81
491.439	349.81
491.657	344.81
491.874	366.81
492.092	353.81
492.31	352.81
492.527	358.81
492.745	360.81
492.963	356.81
493.18	381.81
493.398	359.81
493.615	355.81
493.833	361.81
494.05	360.81
494.268	379.81
494.485	364.81
494.703	362.81
494.92	367.81
495.138	339.81
495.355	349.81
495.573	362.81
495.79	382.81
496.008	377.81
496.225	357.81
496.442	351.81
496.66	385.81
496.877	377.81
497.094	379.81
497.312	409.81
497.529	399.81
497.746	391.81
497.963	414.81
498.181	427.81
498.398	443.81
498.615	480.81
498.832	479.81
499.049	538.81
499.267	555.81
499.484	589.81
499.701	656.81
499.918	705.81
500.135	822.81
500.352	900.81
500.569	909.81
500.786	874.81
501.003	824.81
501.22	758.81
501.437	660.81
501.654	618.81
501.871	575.81
502.088	520.81
