Data from Fe(NO3)3@0.1M.TitratingCurve.Agarose3%dH2O.NegLispCup.LampEnergy10.LIBS07252019_HRD10591_16-38-20-331.txt Node
Date: Thu Jul 25 16:38:20 EDT 2019
User: cochatt
Spectrometer: HR+D1059
Trigger mode: 1
Integration Time (sec): 1.000000E-1
Scans to average: 1
Electric dark correction enabled: true
Nonlinearity correction enabled: false
Boxcar width: 0
XAxis mode: Wavelengths
Number of Pixels in Spectrum: 2048
>>>>>Begin Spectral Data<<<<<
223.165	-14.56
223.4	-14.56
223.635	-14.56
223.869	-15.56
224.104	-11.56
224.338	-10.56
224.573	-10.56
224.808	-11.56
225.042	-11.56
225.277	-6.56
225.511	-13.56
225.746	-7.56
225.98	-5.56
226.215	19.44
226.449	13.44
226.683	24.44
226.918	25.44
227.152	36.44
227.387	36.44
227.621	37.44
227.856	43.44
228.09	48.44
228.324	45.44
228.559	60.44
228.793	74.44
229.027	85.44
229.262	77.44
229.496	81.44
229.73	68.44
229.964	86.44
230.199	85.44
230.433	86.44
230.667	76.44
230.901	75.44
231.136	93.44
231.37	100.44
231.604	106.44
231.838	96.44
232.072	85.44
232.306	89.44
232.541	94.44
232.775	85.44
233.009	93.44
233.243	93.44
233.477	96.44
233.711	99.44
233.945	91.44
234.179	92.44
234.413	102.44
234.647	93.44
234.881	105.44
235.115	93.44
235.349	97.44
235.583	95.44
235.817	105.44
236.051	91.44
236.285	95.44
236.519	106.44
236.753	85.44
236.987	88.44
237.221	102.44
237.455	102.44
237.689	103.44
237.922	85.44
238.156	82.44
238.39	90.44
238.624	98.44
238.858	104.44
239.091	101.44
239.325	111.44
239.559	96.44
239.793	85.44
240.027	91.44
240.26	104.44
240.494	98.44
240.728	96.44
240.961	103.44
241.195	97.44
241.429	108.44
241.662	106.44
241.896	99.44
242.13	88.44
242.363	96.44
242.597	106.44
242.83	119.44
243.064	95.44
243.298	112.44
243.531	101.44
243.765	114.44
243.998	112.44
244.232	100.44
244.465	125.44
244.699	118.44
244.932	95.44
245.166	106.44
245.399	98.44
245.633	113.44
245.866	115.44
246.099	105.44
246.333	101.44
246.566	97.44
246.8	119.44
247.033	99.44
247.266	122.44
247.5	94.44
247.733	100.44
247.966	116.44
248.2	99.44
248.433	123.44
248.666	101.44
248.899	92.44
249.133	121.44
249.366	119.44
249.599	123.44
249.832	115.44
250.066	117.44
250.299	120.44
250.532	111.44
250.765	128.44
250.998	117.44
251.231	122.44
251.465	111.44
251.698	107.44
251.931	129.44
252.164	126.44
252.397	123.44
252.63	121.44
252.863	115.44
253.096	133.44
253.329	131.44
253.562	108.44
253.795	105.44
254.028	141.44
254.261	130.44
254.494	127.44
254.727	123.44
254.96	113.44
255.193	127.44
255.426	119.44
255.659	109.44
255.892	131.44
256.124	114.44
256.357	132.44
256.59	114.44
256.823	120.44
257.056	118.44
257.289	122.44
257.521	121.44
257.754	115.44
257.987	119.44
258.22	123.44
258.452	129.44
258.685	123.44
258.918	127.44
259.151	128.44
259.383	122.44
259.616	125.44
259.849	129.44
260.081	142.44
260.314	129.44
260.547	129.44
260.779	137.44
261.012	123.44
261.244	118.44
261.477	131.44
261.71	129.44
261.942	116.44
262.175	127.44
262.407	141.44
262.64	129.44
262.872	139.44
263.105	129.44
263.337	133.44
263.57	137.44
263.802	128.44
264.035	120.44
264.267	125.44
264.499	139.44
264.732	137.44
264.964	130.44
265.197	145.44
265.429	147.44
265.661	136.44
265.894	139.44
266.126	130.44
266.358	136.44
266.591	139.44
266.823	139.44
267.055	140.44
267.287	148.44
267.52	134.44
267.752	137.44
267.984	131.44
268.216	140.44
268.448	143.44
268.681	140.44
268.913	135.44
269.145	147.44
269.377	152.44
269.609	133.44
269.841	137.44
270.073	139.44
270.306	160.44
270.538	142.44
270.77	133.44
271.002	143.44
271.234	133.44
271.466	142.44
271.698	142.44
271.93	159.44
272.162	147.44
272.394	145.44
272.626	139.44
272.858	139.44
273.09	159.44
273.322	134.44
273.553	164.44
273.785	136.44
274.017	153.44
274.249	144.44
274.481	168.44
274.713	147.44
274.945	158.44
275.176	146.44
275.408	159.44
275.64	159.44
275.872	151.44
276.104	153.44
276.335	150.44
276.567	153.44
276.799	153.44
277.031	159.44
277.262	151.44
277.494	142.44
277.726	147.44
277.957	143.44
278.189	143.44
278.421	165.44
278.652	138.44
278.884	144.44
279.115	157.44
279.347	168.44
279.579	163.44
279.81	154.44
280.042	159.44
280.273	145.44
280.505	168.44
280.736	155.44
280.968	156.44
281.199	150.44
281.431	155.44
281.662	164.44
281.894	157.44
282.125	152.44
282.356	156.44
282.588	159.44
282.819	146.44
283.051	154.44
283.282	156.44
283.513	153.44
283.745	145.44
283.976	155.44
284.207	156.44
284.439	164.44
284.67	164.44
284.901	160.44
285.132	169.44
285.364	184.44
285.595	183.44
285.826	178.44
286.057	168.44
286.288	156.44
286.52	165.44
286.751	179.44
286.982	180.44
287.213	171.44
287.444	170.44
287.675	169.44
287.906	181.44
288.138	161.44
288.369	163.44
288.6	154.44
288.831	181.44
289.062	180.44
289.293	179.44
289.524	169.44
289.755	178.44
289.986	180.44
290.217	180.44
290.448	163.44
290.679	159.44
290.91	163.44
291.141	163.44
291.371	186.44
291.602	177.44
291.833	180.44
292.064	181.44
292.295	168.44
292.526	149.44
292.757	155.44
292.987	167.44
293.218	165.44
293.449	190.44
293.68	167.44
293.91	147.44
294.141	148.44
294.372	158.44
294.603	176.44
294.833	172.44
295.064	170.44
295.295	178.44
295.525	156.44
295.756	168.44
295.987	191.44
296.217	185.44
296.448	181.44
296.679	177.44
296.909	184.44
297.14	163.44
297.37	175.44
297.601	172.44
297.831	167.44
298.062	169.44
298.292	171.44
298.523	192.44
298.753	183.44
298.984	162.44
299.214	173.44
299.445	171.44
299.675	183.44
299.905	171.44
300.136	188.44
300.366	186.44
300.597	184.44
300.827	201.44
301.057	191.44
301.288	170.44
301.518	192.44
301.748	172.44
301.979	180.44
302.209	193.44
302.439	169.44
302.669	184.44
302.9	183.44
303.13	167.44
303.36	181.44
303.59	181.44
303.82	192.44
304.051	175.44
304.281	191.44
304.511	192.44
304.741	192.44
304.971	191.44
305.201	187.44
305.431	179.44
305.661	178.44
305.891	181.44
306.121	189.44
306.352	170.44
306.582	185.44
306.812	161.44
307.042	187.44
307.272	180.44
307.502	180.44
307.731	189.44
307.961	183.44
308.191	172.44
308.421	189.44
308.651	170.44
308.881	188.44
309.111	186.44
309.341	182.44
309.571	167.44
309.8	183.44
310.03	184.44
310.26	181.44
310.49	196.44
310.72	202.44
310.949	175.44
311.179	184.44
311.409	191.44
311.639	193.44
311.868	181.44
312.098	186.44
312.328	187.44
312.557	195.44
312.787	191.44
313.017	171.44
313.246	188.44
313.476	192.44
313.706	188.44
313.935	192.44
314.165	192.44
314.394	185.44
314.624	203.44
314.853	175.44
315.083	193.44
315.312	187.44
315.542	200.44
315.771	197.44
316.001	198.44
316.23	195.44
316.46	179.44
316.689	180.44
316.919	195.44
317.148	184.44
317.377	188.44
317.607	190.44
317.836	165.44
318.065	175.44
318.295	188.44
318.524	191.44
318.753	201.44
318.983	188.44
319.212	192.44
319.441	196.44
319.67	199.44
319.9	190.44
320.129	190.44
320.358	189.44
320.587	192.44
320.816	192.44
321.046	199.44
321.275	196.44
321.504	170.44
321.733	195.44
321.962	184.44
322.191	193.44
322.42	212.44
322.649	194.44
322.878	197.44
323.108	198.44
323.337	212.44
323.566	189.44
323.795	202.44
324.024	193.44
324.253	197.44
324.482	192.44
324.71	203.44
324.939	186.44
325.168	207.44
325.397	203.44
325.626	189.44
325.855	193.44
326.084	205.44
326.313	197.44
326.542	203.44
326.77	213.44
326.999	207.44
327.228	211.44
327.457	200.44
327.686	193.44
327.914	211.44
328.143	220.44
328.372	201.44
328.6	196.44
328.829	196.44
329.058	202.44
329.287	202.44
329.515	196.44
329.744	187.44
329.972	223.44
330.201	216.44
330.43	201.44
330.658	203.44
330.887	210.44
331.115	214.44
331.344	202.44
331.572	214.44
331.801	212.44
332.03	206.44
332.258	215.44
332.486	240.44
332.715	234.44
332.943	254.44
333.172	243.44
333.4	244.44
333.629	241.44
333.857	243.44
334.085	258.44
334.314	243.44
334.542	265.44
334.771	218.44
334.999	237.44
335.227	244.44
335.455	241.44
335.684	252.44
335.912	257.44
336.14	235.44
336.369	244.44
336.597	242.44
336.825	215.44
337.053	225.44
337.281	226.44
337.51	216.44
337.738	228.44
337.966	249.44
338.194	222.44
338.422	216.44
338.65	216.44
338.878	219.44
339.106	227.44
339.334	217.44
339.562	215.44
339.79	208.44
340.018	229.44
340.246	210.44
340.474	225.44
340.702	213.44
340.93	198.44
341.158	217.44
341.386	219.44
341.614	210.44
341.842	193.44
342.07	200.44
342.298	211.44
342.526	202.44
342.754	210.44
342.981	216.44
343.209	202.44
343.437	231.44
343.665	232.44
343.893	235.44
344.12	230.44
344.348	231.44
344.576	226.44
344.804	213.44
345.031	211.44
345.259	226.44
345.487	220.44
345.714	215.44
345.942	198.44
346.17	199.44
346.397	212.44
346.625	205.44
346.853	207.44
347.08	193.44
347.308	207.44
347.535	218.44
347.763	207.44
347.99	230.44
348.218	220.44
348.445	187.44
348.673	196.44
348.9	229.44
349.128	201.44
349.355	209.44
349.583	197.44
349.81	202.44
350.037	221.44
350.265	196.44
350.492	193.44
350.72	197.44
350.947	204.44
351.174	194.44
351.402	195.44
351.629	213.44
351.856	202.44
352.083	222.44
352.311	200.44
352.538	208.44
352.765	186.44
352.992	214.44
353.22	196.44
353.447	200.44
353.674	202.44
353.901	221.44
354.128	202.44
354.355	199.44
354.583	218.44
354.81	215.44
355.037	216.44
355.264	205.44
355.491	204.44
355.718	204.44
355.945	214.44
356.172	201.44
356.399	202.44
356.626	203.44
356.853	202.44
357.08	205.44
357.307	204.44
357.534	197.44
357.761	202.44
357.988	216.44
358.215	191.44
358.441	203.44
358.668	197.44
358.895	201.44
359.122	215.44
359.349	200.44
359.576	183.44
359.802	205.44
360.029	195.44
360.256	211.44
360.483	208.44
360.709	199.44
360.936	190.44
361.163	196.44
361.39	199.44
361.616	213.44
361.843	195.44
362.07	214.44
362.296	211.44
362.523	220.44
362.749	193.44
362.976	181.44
363.203	210.44
363.429	204.44
363.656	205.44
363.882	209.44
364.109	204.44
364.335	196.44
364.562	208.44
364.788	201.44
365.015	199.44
365.241	204.44
365.468	199.44
365.694	214.44
365.92	195.44
366.147	205.44
366.373	197.44
366.599	196.44
366.826	216.44
367.052	199.44
367.278	203.44
367.505	205.44
367.731	208.44
367.957	217.44
368.184	206.44
368.41	203.44
368.636	210.44
368.862	205.44
369.089	201.44
369.315	216.44
369.541	209.44
369.767	202.44
369.993	191.44
370.219	212.44
370.445	198.44
370.672	219.44
370.898	213.44
371.124	208.44
371.35	229.44
371.576	242.44
371.802	228.44
372.028	229.44
372.254	215.44
372.48	205.44
372.706	227.44
372.932	228.44
373.158	208.44
373.384	229.44
373.61	225.44
373.835	226.44
374.061	232.44
374.287	221.44
374.513	230.44
374.739	234.44
374.965	230.44
375.191	246.44
375.416	228.44
375.642	229.44
375.868	235.44
376.094	243.44
376.319	234.44
376.545	225.44
376.771	219.44
376.997	229.44
377.222	221.44
377.448	219.44
377.674	221.44
377.899	212.44
378.125	216.44
378.35	223.44
378.576	215.44
378.802	217.44
379.027	217.44
379.253	241.44
379.478	222.44
379.704	214.44
379.929	208.44
380.155	216.44
380.38	229.44
380.606	216.44
380.831	227.44
381.057	249.44
381.282	224.44
381.507	253.44
381.733	228.44
381.958	219.44
382.184	240.44
382.409	228.44
382.634	248.44
382.86	231.44
383.085	228.44
383.31	255.44
383.535	235.44
383.761	253.44
383.986	268.44
384.211	262.44
384.436	258.44
384.662	263.44
384.887	270.44
385.112	263.44
385.337	274.44
385.562	275.44
385.787	271.44
386.013	261.44
386.238	273.44
386.463	267.44
386.688	268.44
386.913	241.44
387.138	259.44
387.363	258.44
387.588	258.44
387.813	268.44
388.038	266.44
388.263	250.44
388.488	245.44
388.713	266.44
388.938	266.44
389.163	272.44
389.387	261.44
389.612	257.44
389.837	255.44
390.062	256.44
390.287	264.44
390.512	255.44
390.736	281.44
390.961	250.44
391.186	263.44
391.411	275.44
391.636	269.44
391.86	280.44
392.085	280.44
392.31	291.44
392.534	297.44
392.759	287.44
392.984	283.44
393.208	248.44
393.433	279.44
393.658	279.44
393.882	292.44
394.107	280.44
394.331	265.44
394.556	265.44
394.78	287.44
395.005	282.44
395.229	283.44
395.454	281.44
395.678	298.44
395.903	290.44
396.127	293.44
396.352	277.44
396.576	267.44
396.801	277.44
397.025	265.44
397.249	293.44
397.474	301.44
397.698	287.44
397.922	292.44
398.147	289.44
398.371	282.44
398.595	309.44
398.82	319.44
399.044	329.44
399.268	375.44
399.492	383.44
399.717	463.44
399.941	460.44
400.165	394.44
400.389	347.44
400.613	348.44
400.837	333.44
401.062	323.44
401.286	325.44
401.51	312.44
401.734	344.44
401.958	322.44
402.182	347.44
402.406	318.44
402.63	326.44
402.854	347.44
403.078	357.44
403.302	351.44
403.526	352.44
403.75	379.44
403.974	377.44
404.198	372.44
404.422	350.44
404.645	357.44
404.869	367.44
405.093	375.44
405.317	363.44
405.541	351.44
405.765	363.44
405.988	351.44
406.212	368.44
406.436	358.44
406.66	348.44
406.883	377.44
407.107	381.44
407.331	375.44
407.555	408.44
407.778	412.44
408.002	391.44
408.226	401.44
408.449	397.44
408.673	359.44
408.896	350.44
409.12	354.44
409.344	364.44
409.567	348.44
409.791	376.44
410.014	371.44
410.238	383.44
410.461	367.44
410.685	359.44
410.908	352.44
411.132	356.44
411.355	355.44
411.578	337.44
411.802	351.44
412.025	368.44
412.249	373.44
412.472	351.44
412.695	317.44
412.919	315.44
413.142	333.44
413.365	339.44
413.589	338.44
413.812	336.44
414.035	332.44
414.258	344.44
414.482	337.44
414.705	347.44
414.928	329.44
415.151	344.44
415.374	322.44
415.597	351.44
415.821	337.44
416.044	332.44
416.267	337.44
416.49	314.44
416.713	316.44
416.936	306.44
417.159	306.44
417.382	341.44
417.605	313.44
417.828	333.44
418.051	332.44
418.274	349.44
418.497	337.44
418.72	331.44
418.943	316.44
419.166	365.44
419.389	379.44
419.611	367.44
419.834	367.44
420.057	344.44
420.28	341.44
420.503	324.44
420.726	324.44
420.948	309.44
421.171	353.44
421.394	335.44
421.617	341.44
421.839	340.44
422.062	333.44
422.285	315.44
422.507	331.44
422.73	323.44
422.953	337.44
423.175	347.44
423.398	331.44
423.621	361.44
423.843	360.44
424.066	355.44
424.288	342.44
424.511	345.44
424.733	342.44
424.956	349.44
425.178	338.44
425.401	338.44
425.623	329.44
425.846	312.44
426.068	324.44
426.291	306.44
426.513	311.44
426.735	296.44
426.958	321.44
427.18	293.44
427.402	295.44
427.625	316.44
427.847	296.44
428.069	293.44
428.292	308.44
428.514	319.44
428.736	297.44
428.958	305.44
429.181	298.44
429.403	303.44
429.625	299.44
429.847	306.44
430.069	320.44
430.292	293.44
430.514	307.44
430.736	294.44
430.958	292.44
431.18	303.44
431.402	305.44
431.624	291.44
431.846	289.44
432.068	316.44
432.29	317.44
432.512	292.44
432.734	316.44
432.956	321.44
433.178	297.44
433.4	314.44
433.622	315.44
433.844	315.44
434.066	330.44
434.287	313.44
434.509	293.44
434.731	316.44
434.953	327.44
435.175	338.44
435.397	335.44
435.618	320.44
435.84	314.44
436.062	315.44
436.284	306.44
436.505	314.44
436.727	298.44
436.949	311.44
437.17	304.44
437.392	298.44
437.614	317.44
437.835	291.44
438.057	276.44
438.278	315.44
438.5	280.44
438.721	294.44
438.943	300.44
439.165	282.44
439.386	294.44
439.608	306.44
439.829	295.44
440.05	290.44
440.272	311.44
440.493	302.44
440.715	301.44
440.936	301.44
441.158	320.44
441.379	327.44
441.6	344.44
441.822	339.44
442.043	336.44
442.264	346.44
442.486	342.44
442.707	335.44
442.928	342.44
443.149	330.44
443.371	323.44
443.592	338.44
443.813	342.44
444.034	329.44
444.255	364.44
444.476	353.44
444.698	372.44
444.919	393.44
445.14	488.44
445.361	391.44
445.582	334.44
445.803	323.44
446.024	307.44
446.245	315.44
446.466	319.44
446.687	323.44
446.908	317.44
447.129	317.44
447.35	317.44
447.571	291.44
447.792	280.44
448.013	284.44
448.234	293.44
448.455	288.44
448.675	282.44
448.896	287.44
449.117	297.44
449.338	290.44
449.559	291.44
449.779	275.44
450	283.44
450.221	296.44
450.442	295.44
450.662	281.44
450.883	287.44
451.104	300.44
451.324	281.44
451.545	285.44
451.766	281.44
451.986	268.44
452.207	291.44
452.428	291.44
452.648	282.44
452.869	289.44
453.089	288.44
453.31	275.44
453.53	272.44
453.751	277.44
453.971	282.44
454.192	284.44
454.412	262.44
454.633	277.44
454.853	289.44
455.073	265.44
455.294	281.44
455.514	283.44
455.734	273.44
455.955	282.44
456.175	268.44
456.395	279.44
456.616	246.44
456.836	264.44
457.056	253.44
457.276	262.44
457.497	280.44
457.717	255.44
457.937	284.44
458.157	285.44
458.377	269.44
458.598	291.44
458.818	285.44
459.038	293.44
459.258	296.44
459.478	314.44
459.698	316.44
459.918	323.44
460.138	327.44
460.358	338.44
460.578	333.44
460.798	357.44
461.018	355.44
461.238	356.44
461.458	346.44
461.678	353.44
461.898	332.44
462.118	368.44
462.338	370.44
462.558	399.44
462.777	377.44
462.997	426.44
463.217	427.44
463.437	433.44
463.657	421.44
463.876	390.44
464.096	383.44
464.316	388.44
464.536	358.44
464.755	388.44
464.975	378.44
465.195	360.44
465.414	334.44
465.634	325.44
465.854	307.44
466.073	324.44
466.293	327.44
466.512	299.44
466.732	308.44
466.951	289.44
467.171	299.44
467.391	299.44
467.61	291.44
467.829	307.44
468.049	297.44
468.268	285.44
468.488	311.44
468.707	296.44
468.927	291.44
469.146	292.44
469.365	291.44
469.585	296.44
469.804	312.44
470.023	312.44
470.243	316.44
470.462	294.44
470.681	307.44
470.901	305.44
471.12	305.44
471.339	307.44
471.558	297.44
471.777	289.44
471.997	301.44
472.216	284.44
472.435	296.44
472.654	265.44
472.873	284.44
473.092	261.44
473.311	279.44
473.53	279.44
473.749	277.44
473.968	266.44
474.187	257.44
474.406	278.44
474.625	286.44
474.844	277.44
475.063	284.44
475.282	281.44
475.501	285.44
475.72	309.44
475.939	280.44
476.158	279.44
476.377	296.44
476.596	281.44
476.814	304.44
477.033	298.44
477.252	293.44
477.471	307.44
477.69	322.44
477.908	321.44
478.127	321.44
478.346	327.44
478.564	320.44
478.783	333.44
479.002	353.44
479.22	335.44
479.439	340.44
479.658	322.44
479.876	327.44
480.095	345.44
480.313	356.44
480.532	375.44
480.751	335.44
480.969	336.44
481.188	323.44
481.406	330.44
481.624	324.44
481.843	310.44
482.061	311.44
482.28	315.44
482.498	310.44
482.717	308.44
482.935	311.44
483.153	322.44
483.372	329.44
483.59	345.44
483.808	308.44
484.027	325.44
484.245	330.44
484.463	297.44
484.681	303.44
484.9	348.44
485.118	327.44
485.336	323.44
485.554	323.44
485.772	332.44
485.99	323.44
486.209	327.44
486.427	331.44
486.645	328.44
486.863	332.44
487.081	330.44
487.299	329.44
487.517	338.44
487.735	314.44
487.953	348.44
488.171	349.44
488.389	336.44
488.607	341.44
488.825	331.44
489.043	337.44
489.261	330.44
489.479	328.44
489.696	336.44
489.914	325.44
490.132	346.44
490.35	340.44
490.568	338.44
490.786	340.44
491.003	330.44
491.221	328.44
491.439	356.44
491.657	336.44
491.874	348.44
492.092	341.44
492.31	337.44
492.527	336.44
492.745	336.44
492.963	337.44
493.18	347.44
493.398	356.44
493.615	347.44
493.833	332.44
494.05	354.44
494.268	345.44
494.485	343.44
494.703	362.44
494.92	357.44
495.138	330.44
495.355	353.44
495.573	348.44
495.79	354.44
496.008	357.44
496.225	355.44
496.442	331.44
496.66	362.44
496.877	369.44
497.094	389.44
497.312	367.44
497.529	374.44
497.746	381.44
497.963	388.44
498.181	405.44
498.398	415.44
498.615	435.44
498.832	458.44
499.049	495.44
499.267	522.44
499.484	552.44
499.701	624.44
499.918	684.44
500.135	724.44
500.352	821.44
500.569	871.44
500.786	851.44
501.003	805.44
501.22	707.44
501.437	644.44
501.654	587.44
501.871	543.44
502.088	521.44
502.305	470.44
