Data from Fe(NO3)3@0.0125M.TitratingCurve.Agarose3%dH2O.NegLispCup.LampEnergy10.LIBS07252019_HRD10591_17-00-28-336.txt Node
Date: Thu Jul 25 17:00:28 EDT 2019
User: cochatt
Spectrometer: HR+D1059
Trigger mode: 1
Integration Time (sec): 1.000000E-1
Scans to average: 1
Electric dark correction enabled: true
Nonlinearity correction enabled: false
Boxcar width: 0
XAxis mode: Wavelengths
Number of Pixels in Spectrum: 2048
>>>>>Begin Spectral Data<<<<<
223.165	-8.81
223.4	-8.81
223.635	-8.81
223.869	-15.81
224.104	-10.81
224.338	-15.81
224.573	-17.81
224.808	-3.81
225.042	-19.81
225.277	-2.81
225.511	1.19
225.746	1.19
225.98	2.19
226.215	15.19
226.449	5.19
226.683	33.19
226.918	16.19
227.152	21.19
227.387	32.19
227.621	33.19
227.856	55.19
228.09	40.19
228.324	53.19
228.559	55.19
228.793	53.19
229.027	72.19
229.262	98.19
229.496	95.19
229.73	102.19
229.964	101.19
230.199	89.19
230.433	88.19
230.667	99.19
230.901	112.19
231.136	95.19
231.37	106.19
231.604	119.19
231.838	98.19
232.072	113.19
232.306	94.19
232.541	104.19
232.775	105.19
233.009	115.19
233.243	105.19
233.477	103.19
233.711	107.19
233.945	119.19
234.179	122.19
234.413	106.19
234.647	117.19
234.881	109.19
235.115	111.19
235.349	113.19
235.583	115.19
235.817	113.19
236.051	120.19
236.285	111.19
236.519	118.19
236.753	111.19
236.987	123.19
237.221	106.19
237.455	113.19
237.689	114.19
237.922	109.19
238.156	111.19
238.39	123.19
238.624	121.19
238.858	120.19
239.091	116.19
239.325	125.19
239.559	124.19
239.793	121.19
240.027	137.19
240.26	102.19
240.494	140.19
240.728	124.19
240.961	130.19
241.195	130.19
241.429	135.19
241.662	132.19
241.896	127.19
242.13	127.19
242.363	116.19
242.597	121.19
242.83	139.19
243.064	111.19
243.298	133.19
243.531	130.19
243.765	139.19
243.998	140.19
244.232	138.19
244.465	121.19
244.699	125.19
244.932	123.19
245.166	139.19
245.399	145.19
245.633	135.19
245.866	142.19
246.099	124.19
246.333	144.19
246.566	128.19
246.8	136.19
247.033	133.19
247.266	126.19
247.5	136.19
247.733	139.19
247.966	146.19
248.2	139.19
248.433	147.19
248.666	144.19
248.899	137.19
249.133	127.19
249.366	150.19
249.599	145.19
249.832	164.19
250.066	161.19
250.299	148.19
250.532	150.19
250.765	140.19
250.998	156.19
251.231	154.19
251.465	159.19
251.698	151.19
251.931	158.19
252.164	163.19
252.397	157.19
252.63	165.19
252.863	155.19
253.096	159.19
253.329	165.19
253.562	151.19
253.795	175.19
254.028	179.19
254.261	157.19
254.494	170.19
254.727	163.19
254.96	149.19
255.193	160.19
255.426	176.19
255.659	159.19
255.892	162.19
256.124	157.19
256.357	167.19
256.59	152.19
256.823	177.19
257.056	154.19
257.289	170.19
257.521	177.19
257.754	160.19
257.987	169.19
258.22	175.19
258.452	178.19
258.685	188.19
258.918	189.19
259.151	191.19
259.383	184.19
259.616	184.19
259.849	188.19
260.081	194.19
260.314	179.19
260.547	186.19
260.779	183.19
261.012	194.19
261.244	182.19
261.477	185.19
261.71	198.19
261.942	182.19
262.175	192.19
262.407	192.19
262.64	185.19
262.872	196.19
263.105	190.19
263.337	201.19
263.57	195.19
263.802	202.19
264.035	180.19
264.267	186.19
264.499	208.19
264.732	176.19
264.964	196.19
265.197	191.19
265.429	187.19
265.661	187.19
265.894	209.19
266.126	183.19
266.358	190.19
266.591	191.19
266.823	189.19
267.055	190.19
267.287	187.19
267.52	203.19
267.752	194.19
267.984	208.19
268.216	221.19
268.448	206.19
268.681	206.19
268.913	208.19
269.145	212.19
269.377	214.19
269.609	212.19
269.841	202.19
270.073	223.19
270.306	216.19
270.538	212.19
270.77	212.19
271.002	214.19
271.234	203.19
271.466	204.19
271.698	217.19
271.93	204.19
272.162	231.19
272.394	211.19
272.626	216.19
272.858	223.19
273.09	228.19
273.322	235.19
273.553	245.19
273.785	224.19
274.017	257.19
274.249	257.19
274.481	249.19
274.713	253.19
274.945	267.19
275.176	249.19
275.408	245.19
275.64	243.19
275.872	247.19
276.104	243.19
276.335	234.19
276.567	239.19
276.799	249.19
277.031	235.19
277.262	242.19
277.494	242.19
277.726	246.19
277.957	230.19
278.189	239.19
278.421	235.19
278.652	227.19
278.884	240.19
279.115	243.19
279.347	265.19
279.579	238.19
279.81	227.19
280.042	269.19
280.273	252.19
280.505	235.19
280.736	264.19
280.968	255.19
281.199	241.19
281.431	255.19
281.662	247.19
281.894	240.19
282.125	260.19
282.356	264.19
282.588	255.19
282.819	263.19
283.051	253.19
283.282	273.19
283.513	244.19
283.745	241.19
283.976	255.19
284.207	267.19
284.439	268.19
284.67	269.19
284.901	272.19
285.132	273.19
285.364	263.19
285.595	255.19
285.826	263.19
286.057	275.19
286.288	268.19
286.52	277.19
286.751	296.19
286.982	274.19
287.213	282.19
287.444	287.19
287.675	281.19
287.906	275.19
288.138	279.19
288.369	280.19
288.6	282.19
288.831	276.19
289.062	283.19
289.293	287.19
289.524	272.19
289.755	278.19
289.986	297.19
290.217	292.19
290.448	267.19
290.679	292.19
290.91	289.19
291.141	297.19
291.371	280.19
291.602	299.19
291.833	304.19
292.064	290.19
292.295	301.19
292.526	276.19
292.757	296.19
292.987	288.19
293.218	275.19
293.449	297.19
293.68	281.19
293.91	307.19
294.141	312.19
294.372	272.19
294.603	293.19
294.833	293.19
295.064	287.19
295.295	288.19
295.525	299.19
295.756	303.19
295.987	287.19
296.217	313.19
296.448	308.19
296.679	293.19
296.909	299.19
297.14	313.19
297.37	327.19
297.601	304.19
297.831	322.19
298.062	291.19
298.292	304.19
298.523	311.19
298.753	320.19
298.984	320.19
299.214	338.19
299.445	291.19
299.675	319.19
299.905	312.19
300.136	309.19
300.366	312.19
300.597	319.19
300.827	297.19
301.057	339.19
301.288	329.19
301.518	327.19
301.748	329.19
301.979	333.19
302.209	331.19
302.439	326.19
302.669	333.19
302.9	327.19
303.13	338.19
303.36	321.19
303.59	327.19
303.82	337.19
304.051	349.19
304.281	351.19
304.511	352.19
304.741	315.19
304.971	338.19
305.201	336.19
305.431	325.19
305.661	339.19
305.891	341.19
306.121	349.19
306.352	327.19
306.582	327.19
306.812	332.19
307.042	329.19
307.272	330.19
307.502	329.19
307.731	342.19
307.961	332.19
308.191	321.19
308.421	339.19
308.651	339.19
308.881	328.19
309.111	349.19
309.341	352.19
309.571	335.19
309.8	354.19
310.03	361.19
310.26	354.19
310.49	342.19
310.72	361.19
310.949	338.19
311.179	363.19
311.409	354.19
311.639	343.19
311.868	351.19
312.098	357.19
312.328	356.19
312.557	369.19
312.787	346.19
313.017	345.19
313.246	354.19
313.476	369.19
313.706	351.19
313.935	377.19
314.165	364.19
314.394	348.19
314.624	374.19
314.853	367.19
315.083	374.19
315.312	349.19
315.542	374.19
315.771	369.19
316.001	377.19
316.23	378.19
316.46	383.19
316.689	371.19
316.919	370.19
317.148	369.19
317.377	383.19
317.607	381.19
317.836	377.19
318.065	369.19
318.295	363.19
318.524	368.19
318.753	386.19
318.983	378.19
319.212	387.19
319.441	397.19
319.67	391.19
319.9	379.19
320.129	391.19
320.358	372.19
320.587	359.19
320.816	381.19
321.046	385.19
321.275	380.19
321.504	383.19
321.733	376.19
321.962	386.19
322.191	379.19
322.42	393.19
322.649	389.19
322.878	377.19
323.108	374.19
323.337	406.19
323.566	391.19
323.795	395.19
324.024	403.19
324.253	393.19
324.482	392.19
324.71	400.19
324.939	385.19
325.168	406.19
325.397	402.19
325.626	378.19
325.855	409.19
326.084	395.19
326.313	412.19
326.542	393.19
326.77	411.19
326.999	421.19
327.228	417.19
327.457	399.19
327.686	420.19
327.914	417.19
328.143	428.19
328.372	402.19
328.6	393.19
328.829	410.19
329.058	408.19
329.287	407.19
329.515	419.19
329.744	424.19
329.972	415.19
330.201	413.19
330.43	407.19
330.658	438.19
330.887	419.19
331.115	432.19
331.344	415.19
331.572	430.19
331.801	439.19
332.03	424.19
332.258	457.19
332.486	444.19
332.715	435.19
332.943	458.19
333.172	457.19
333.4	448.19
333.629	456.19
333.857	463.19
334.085	472.19
334.314	447.19
334.542	473.19
334.771	477.19
334.999	460.19
335.227	471.19
335.455	477.19
335.684	467.19
335.912	492.19
336.14	457.19
336.369	464.19
336.597	479.19
336.825	477.19
337.053	487.19
337.281	471.19
337.51	460.19
337.738	476.19
337.966	467.19
338.194	451.19
338.422	448.19
338.65	438.19
338.878	442.19
339.106	443.19
339.334	459.19
339.562	445.19
339.79	448.19
340.018	465.19
340.246	445.19
340.474	435.19
340.702	442.19
340.93	438.19
341.158	445.19
341.386	442.19
341.614	450.19
341.842	441.19
342.07	449.19
342.298	441.19
342.526	451.19
342.754	417.19
342.981	430.19
343.209	451.19
343.437	466.19
343.665	451.19
343.893	468.19
344.12	477.19
344.348	476.19
344.576	469.19
344.804	499.19
345.031	457.19
345.259	452.19
345.487	441.19
345.714	444.19
345.942	446.19
346.17	439.19
346.397	437.19
346.625	431.19
346.853	431.19
347.08	422.19
347.308	447.19
347.535	433.19
347.763	451.19
347.99	429.19
348.218	419.19
348.445	419.19
348.673	435.19
348.9	441.19
349.128	426.19
349.355	436.19
349.583	432.19
349.81	425.19
350.037	419.19
350.265	422.19
350.492	406.19
350.72	435.19
350.947	417.19
351.174	409.19
351.402	426.19
351.629	441.19
351.856	433.19
352.083	427.19
352.311	413.19
352.538	442.19
352.765	420.19
352.992	435.19
353.22	440.19
353.447	422.19
353.674	440.19
353.901	434.19
354.128	439.19
354.355	406.19
354.583	406.19
354.81	428.19
355.037	433.19
355.264	433.19
355.491	424.19
355.718	437.19
355.945	436.19
356.172	448.19
356.399	424.19
356.626	452.19
356.853	428.19
357.08	444.19
357.307	451.19
357.534	455.19
357.761	442.19
357.988	450.19
358.215	435.19
358.441	469.19
358.668	435.19
358.895	429.19
359.122	444.19
359.349	432.19
359.576	422.19
359.802	428.19
360.029	431.19
360.256	417.19
360.483	446.19
360.709	441.19
360.936	444.19
361.163	432.19
361.39	412.19
361.616	444.19
361.843	434.19
362.07	457.19
362.296	440.19
362.523	430.19
362.749	454.19
362.976	441.19
363.203	446.19
363.429	459.19
363.656	443.19
363.882	424.19
364.109	447.19
364.335	439.19
364.562	434.19
364.788	432.19
365.015	450.19
365.241	452.19
365.468	415.19
365.694	454.19
365.92	456.19
366.147	440.19
366.373	438.19
366.599	445.19
366.826	441.19
367.052	450.19
367.278	459.19
367.505	458.19
367.731	471.19
367.957	445.19
368.184	465.19
368.41	461.19
368.636	453.19
368.862	458.19
369.089	469.19
369.315	465.19
369.541	484.19
369.767	449.19
369.993	468.19
370.219	446.19
370.445	473.19
370.672	465.19
370.898	482.19
371.124	463.19
371.35	474.19
371.576	466.19
371.802	474.19
372.028	486.19
372.254	494.19
372.48	480.19
372.706	475.19
372.932	481.19
373.158	475.19
373.384	484.19
373.61	491.19
373.835	499.19
374.061	472.19
374.287	497.19
374.513	491.19
374.739	509.19
374.965	497.19
375.191	525.19
375.416	520.19
375.642	504.19
375.868	528.19
376.094	486.19
376.319	479.19
376.545	479.19
376.771	492.19
376.997	468.19
377.222	477.19
377.448	483.19
377.674	475.19
377.899	487.19
378.125	480.19
378.35	493.19
378.576	455.19
378.802	476.19
379.027	474.19
379.253	480.19
379.478	472.19
379.704	486.19
379.929	489.19
380.155	473.19
380.38	480.19
380.606	460.19
380.831	472.19
381.057	492.19
381.282	461.19
381.507	480.19
381.733	518.19
381.958	507.19
382.184	516.19
382.409	525.19
382.634	522.19
382.86	512.19
383.085	516.19
383.31	499.19
383.535	501.19
383.761	509.19
383.986	513.19
384.211	521.19
384.436	516.19
384.662	533.19
384.887	525.19
385.112	504.19
385.337	541.19
385.562	540.19
385.787	541.19
386.013	556.19
386.238	545.19
386.463	547.19
386.688	530.19
386.913	537.19
387.138	537.19
387.363	544.19
387.588	519.19
387.813	546.19
388.038	555.19
388.263	557.19
388.488	540.19
388.713	542.19
388.938	545.19
389.163	570.19
389.387	531.19
389.612	537.19
389.837	559.19
390.062	567.19
390.287	565.19
390.512	548.19
390.736	583.19
390.961	553.19
391.186	585.19
391.411	578.19
391.636	600.19
391.86	576.19
392.085	569.19
392.31	569.19
392.534	575.19
392.759	603.19
392.984	579.19
393.208	586.19
393.433	590.19
393.658	620.19
393.882	601.19
394.107	576.19
394.331	569.19
394.556	597.19
394.78	592.19
395.005	591.19
395.229	605.19
395.454	565.19
395.678	613.19
395.903	603.19
396.127	583.19
396.352	615.19
396.576	609.19
396.801	616.19
397.025	622.19
397.249	629.19
397.474	633.19
397.698	605.19
397.922	639.19
398.147	639.19
398.371	634.19
398.595	619.19
398.82	643.19
399.044	651.19
399.268	667.19
399.492	707.19
399.717	759.19
399.941	715.19
400.165	728.19
400.389	715.19
400.613	718.19
400.837	679.19
401.062	683.19
401.286	682.19
401.51	653.19
401.734	646.19
401.958	653.19
402.182	642.19
402.406	632.19
402.63	657.19
402.854	652.19
403.078	633.19
403.302	672.19
403.526	643.19
403.75	668.19
403.974	660.19
404.198	658.19
404.422	668.19
404.645	667.19
404.869	674.19
405.093	704.19
405.317	683.19
405.541	661.19
405.765	685.19
405.988	688.19
406.212	684.19
406.436	672.19
406.66	707.19
406.883	707.19
407.107	723.19
407.331	725.19
407.555	747.19
407.778	732.19
408.002	764.19
408.226	731.19
408.449	725.19
408.673	713.19
408.896	729.19
409.12	705.19
409.344	682.19
409.567	695.19
409.791	717.19
410.014	712.19
410.238	699.19
410.461	712.19
410.685	699.19
410.908	680.19
411.132	680.19
411.355	689.19
411.578	679.19
411.802	680.19
412.025	685.19
412.249	696.19
412.472	691.19
412.695	637.19
412.919	666.19
413.142	681.19
413.365	666.19
413.589	667.19
413.812	670.19
414.035	651.19
414.258	669.19
414.482	651.19
414.705	691.19
414.928	655.19
415.151	663.19
415.374	647.19
415.597	649.19
415.821	640.19
416.044	651.19
416.267	641.19
416.49	634.19
416.713	630.19
416.936	650.19
417.159	639.19
417.382	620.19
417.605	639.19
417.828	645.19
418.051	628.19
418.274	621.19
418.497	640.19
418.72	609.19
418.943	610.19
419.166	641.19
419.389	689.19
419.611	676.19
419.834	680.19
420.057	657.19
420.28	653.19
420.503	624.19
420.726	637.19
420.948	631.19
421.171	631.19
421.394	635.19
421.617	605.19
421.839	648.19
422.062	627.19
422.285	619.19
422.507	631.19
422.73	611.19
422.953	636.19
423.175	633.19
423.398	643.19
423.621	624.19
423.843	636.19
424.066	606.19
424.288	608.19
424.511	626.19
424.733	615.19
424.956	611.19
425.178	630.19
425.401	618.19
425.623	623.19
425.846	594.19
426.068	614.19
426.291	602.19
426.513	619.19
426.735	612.19
426.958	645.19
427.18	612.19
427.402	613.19
427.625	613.19
427.847	603.19
428.069	590.19
428.292	604.19
428.514	594.19
428.736	614.19
428.958	634.19
429.181	600.19
429.403	601.19
429.625	597.19
429.847	603.19
430.069	604.19
430.292	616.19
430.514	585.19
430.736	595.19
430.958	605.19
431.18	617.19
431.402	597.19
431.624	593.19
431.846	625.19
432.068	601.19
432.29	615.19
432.512	616.19
432.734	626.19
432.956	634.19
433.178	609.19
433.4	625.19
433.622	618.19
433.844	623.19
434.066	638.19
434.287	580.19
434.509	607.19
434.731	618.19
434.953	616.19
435.175	642.19
435.397	647.19
435.618	628.19
435.84	612.19
436.062	612.19
436.284	612.19
436.505	604.19
436.727	589.19
436.949	609.19
437.17	600.19
437.392	604.19
437.614	594.19
437.835	605.19
438.057	567.19
438.278	582.19
438.5	589.19
438.721	607.19
438.943	618.19
439.165	571.19
439.386	597.19
439.608	604.19
439.829	598.19
440.05	590.19
440.272	602.19
440.493	614.19
440.715	617.19
440.936	623.19
441.158	593.19
441.379	621.19
441.6	616.19
441.822	592.19
442.043	640.19
442.264	633.19
442.486	610.19
442.707	641.19
442.928	620.19
443.149	623.19
443.371	624.19
443.592	628.19
443.813	611.19
444.034	625.19
444.255	621.19
444.476	629.19
444.698	641.19
444.919	650.19
445.14	713.19
445.361	654.19
445.582	637.19
445.803	628.19
446.024	625.19
446.245	608.19
446.466	596.19
446.687	597.19
446.908	607.19
447.129	616.19
447.35	598.19
447.571	584.19
447.792	604.19
448.013	571.19
448.234	565.19
448.455	547.19
448.675	585.19
448.896	577.19
449.117	571.19
449.338	567.19
449.559	549.19
449.779	555.19
450	580.19
450.221	572.19
450.442	563.19
450.662	533.19
450.883	554.19
451.104	561.19
451.324	565.19
451.545	555.19
451.766	588.19
451.986	561.19
452.207	551.19
452.428	564.19
452.648	567.19
452.869	534.19
453.089	536.19
453.31	529.19
453.53	556.19
453.751	548.19
453.971	550.19
454.192	578.19
454.412	552.19
454.633	554.19
454.853	543.19
455.073	544.19
455.294	535.19
455.514	530.19
455.734	555.19
455.955	534.19
456.175	519.19
456.395	522.19
456.616	543.19
456.836	545.19
457.056	551.19
457.276	549.19
457.497	570.19
457.717	555.19
457.937	570.19
458.157	545.19
458.377	539.19
458.598	555.19
458.818	567.19
459.038	596.19
459.258	596.19
459.478	593.19
459.698	605.19
459.918	628.19
460.138	611.19
460.358	628.19
460.578	639.19
460.798	660.19
461.018	637.19
461.238	650.19
461.458	682.19
461.678	641.19
461.898	649.19
462.118	677.19
462.338	676.19
462.558	706.19
462.777	681.19
462.997	707.19
463.217	715.19
463.437	735.19
463.657	705.19
463.876	691.19
464.096	691.19
464.316	717.19
464.536	714.19
464.755	688.19
464.975	681.19
465.195	666.19
465.414	674.19
465.634	642.19
465.854	627.19
466.073	623.19
466.293	616.19
466.512	616.19
466.732	610.19
466.951	605.19
467.171	611.19
467.391	601.19
467.61	590.19
467.829	607.19
468.049	610.19
468.268	605.19
468.488	594.19
468.707	600.19
468.927	610.19
469.146	587.19
469.365	595.19
469.585	576.19
469.804	604.19
470.023	624.19
470.243	595.19
470.462	604.19
470.681	592.19
470.901	621.19
471.12	624.19
471.339	603.19
471.558	612.19
471.777	609.19
471.997	606.19
472.216	596.19
472.435	608.19
472.654	629.19
472.873	613.19
473.092	622.19
473.311	598.19
473.53	609.19
473.749	607.19
473.968	615.19
474.187	608.19
474.406	604.19
474.625	625.19
474.844	609.19
475.063	626.19
475.282	606.19
475.501	617.19
475.72	636.19
475.939	609.19
476.158	611.19
476.377	649.19
476.596	644.19
476.814	690.19
477.033	651.19
477.252	668.19
477.471	661.19
477.69	649.19
477.908	687.19
478.127	706.19
478.346	681.19
478.564	678.19
478.783	706.19
479.002	698.19
479.22	696.19
479.439	715.19
479.658	709.19
479.876	717.19
480.095	713.19
480.313	707.19
480.532	728.19
480.751	767.19
480.969	721.19
481.188	712.19
481.406	715.19
481.624	733.19
481.843	687.19
482.061	707.19
482.28	734.19
482.498	698.19
482.717	699.19
482.935	714.19
483.153	705.19
483.372	704.19
483.59	696.19
483.808	755.19
484.027	736.19
484.245	725.19
484.463	736.19
484.681	724.19
484.9	737.19
485.118	716.19
485.336	718.19
485.554	739.19
485.772	756.19
485.99	720.19
486.209	740.19
486.427	742.19
486.645	729.19
486.863	749.19
487.081	730.19
487.299	739.19
487.517	743.19
487.735	733.19
487.953	728.19
488.171	751.19
488.389	726.19
488.607	765.19
488.825	774.19
489.043	717.19
489.261	746.19
489.479	741.19
489.696	743.19
489.914	766.19
490.132	737.19
490.35	746.19
490.568	730.19
490.786	759.19
491.003	748.19
491.221	755.19
491.439	765.19
491.657	754.19
491.874	731.19
492.092	747.19
492.31	770.19
492.527	780.19
492.745	755.19
492.963	766.19
493.18	767.19
493.398	756.19
493.615	772.19
493.833	777.19
494.05	796.19
494.268	773.19
494.485	786.19
494.703	775.19
494.92	787.19
495.138	789.19
495.355	775.19
495.573	803.19
495.79	815.19
496.008	807.19
496.225	823.19
496.442	801.19
496.66	827.19
496.877	833.19
497.094	831.19
497.312	834.19
497.529	842.19
497.746	884.19
497.963	911.19
498.181	925.19
498.398	934.19
498.615	943.19
498.832	990.19
499.049	994.19
499.267	1037.19
499.484	1051.19
499.701	1099.19
499.918	1128.19
500.135	1170.19
500.352	1207.19
500.569	1216.19
500.786	1208.19
501.003	1208.19
501.22	1192.19
501.437	1110.19
501.654	1079.19
