Data from Fe(NO3)3@0.0125M.TitratingCurve.Agarose3%dH2O.NegLispCup.LampEnergy10.LIBS07252019_HRD10591_16-59-03-337.txt Node
Date: Thu Jul 25 16:59:03 EDT 2019
User: cochatt
Spectrometer: HR+D1059
Trigger mode: 1
Integration Time (sec): 1.000000E-1
Scans to average: 1
Electric dark correction enabled: true
Nonlinearity correction enabled: false
Boxcar width: 0
XAxis mode: Wavelengths
Number of Pixels in Spectrum: 2048
>>>>>Begin Spectral Data<<<<<
223.165	-20.06
223.4	-20.06
223.635	-20.06
223.869	-30.06
224.104	-24.06
224.338	-19.06
224.573	-14.06
224.808	-7.06
225.042	-20.06
225.277	-7.06
225.511	-10.06
225.746	7.94
225.98	8.94
226.215	21.94
226.449	8.94
226.683	34.94
226.918	39.94
227.152	28.94
227.387	46.94
227.621	34.94
227.856	54.94
228.09	51.94
228.324	52.94
228.559	57.94
228.793	76.94
229.027	87.94
229.262	100.94
229.496	100.94
229.73	95.94
229.964	113.94
230.199	116.94
230.433	111.94
230.667	126.94
230.901	130.94
231.136	121.94
231.37	119.94
231.604	118.94
231.838	110.94
232.072	130.94
232.306	134.94
232.541	133.94
232.775	130.94
233.009	127.94
233.243	144.94
233.477	132.94
233.711	123.94
233.945	131.94
234.179	149.94
234.413	139.94
234.647	134.94
234.881	159.94
235.115	139.94
235.349	141.94
235.583	134.94
235.817	128.94
236.051	125.94
236.285	149.94
236.519	140.94
236.753	140.94
236.987	132.94
237.221	144.94
237.455	139.94
237.689	152.94
237.922	146.94
238.156	153.94
238.39	167.94
238.624	160.94
238.858	158.94
239.091	150.94
239.325	158.94
239.559	153.94
239.793	149.94
240.027	161.94
240.26	163.94
240.494	167.94
240.728	169.94
240.961	167.94
241.195	151.94
241.429	181.94
241.662	163.94
241.896	161.94
242.13	163.94
242.363	171.94
242.597	172.94
242.83	183.94
243.064	175.94
243.298	175.94
243.531	170.94
243.765	166.94
243.998	189.94
244.232	165.94
244.465	167.94
244.699	194.94
244.932	198.94
245.166	208.94
245.399	189.94
245.633	191.94
245.866	184.94
246.099	186.94
246.333	190.94
246.566	204.94
246.8	206.94
247.033	192.94
247.266	192.94
247.5	193.94
247.733	191.94
247.966	190.94
248.2	197.94
248.433	197.94
248.666	199.94
248.899	196.94
249.133	203.94
249.366	210.94
249.599	212.94
249.832	212.94
250.066	206.94
250.299	198.94
250.532	216.94
250.765	231.94
250.998	227.94
251.231	231.94
251.465	223.94
251.698	220.94
251.931	213.94
252.164	227.94
252.397	230.94
252.63	240.94
252.863	238.94
253.096	238.94
253.329	249.94
253.562	252.94
253.795	236.94
254.028	227.94
254.261	271.94
254.494	246.94
254.727	243.94
254.96	254.94
255.193	235.94
255.426	262.94
255.659	239.94
255.892	246.94
256.124	242.94
256.357	252.94
256.59	261.94
256.823	273.94
257.056	250.94
257.289	266.94
257.521	268.94
257.754	260.94
257.987	252.94
258.22	264.94
258.452	275.94
258.685	281.94
258.918	283.94
259.151	275.94
259.383	273.94
259.616	274.94
259.849	282.94
260.081	297.94
260.314	303.94
260.547	298.94
260.779	278.94
261.012	295.94
261.244	312.94
261.477	320.94
261.71	311.94
261.942	296.94
262.175	288.94
262.407	266.94
262.64	287.94
262.872	286.94
263.105	288.94
263.337	311.94
263.57	295.94
263.802	305.94
264.035	290.94
264.267	289.94
264.499	271.94
264.732	294.94
264.964	312.94
265.197	299.94
265.429	309.94
265.661	304.94
265.894	326.94
266.126	318.94
266.358	300.94
266.591	315.94
266.823	316.94
267.055	309.94
267.287	336.94
267.52	314.94
267.752	325.94
267.984	304.94
268.216	320.94
268.448	313.94
268.681	332.94
268.913	326.94
269.145	329.94
269.377	329.94
269.609	311.94
269.841	331.94
270.073	337.94
270.306	331.94
270.538	340.94
270.77	344.94
271.002	343.94
271.234	318.94
271.466	358.94
271.698	362.94
271.93	318.94
272.162	356.94
272.394	378.94
272.626	363.94
272.858	370.94
273.09	348.94
273.322	378.94
273.553	371.94
273.785	375.94
274.017	364.94
274.249	385.94
274.481	404.94
274.713	390.94
274.945	414.94
275.176	396.94
275.408	396.94
275.64	383.94
275.872	391.94
276.104	378.94
276.335	395.94
276.567	389.94
276.799	396.94
277.031	390.94
277.262	390.94
277.494	403.94
277.726	375.94
277.957	402.94
278.189	376.94
278.421	397.94
278.652	416.94
278.884	391.94
279.115	402.94
279.347	419.94
279.579	432.94
279.81	415.94
280.042	411.94
280.273	396.94
280.505	420.94
280.736	403.94
280.968	423.94
281.199	419.94
281.431	411.94
281.662	428.94
281.894	432.94
282.125	432.94
282.356	417.94
282.588	418.94
282.819	424.94
283.051	432.94
283.282	418.94
283.513	414.94
283.745	437.94
283.976	456.94
284.207	424.94
284.439	440.94
284.67	452.94
284.901	435.94
285.132	475.94
285.364	464.94
285.595	429.94
285.826	446.94
286.057	453.94
286.288	471.94
286.52	452.94
286.751	461.94
286.982	461.94
287.213	436.94
287.444	469.94
287.675	458.94
287.906	466.94
288.138	468.94
288.369	454.94
288.6	460.94
288.831	454.94
289.062	460.94
289.293	456.94
289.524	458.94
289.755	467.94
289.986	474.94
290.217	475.94
290.448	480.94
290.679	482.94
290.91	483.94
291.141	473.94
291.371	465.94
291.602	487.94
291.833	489.94
292.064	479.94
292.295	490.94
292.526	483.94
292.757	494.94
292.987	473.94
293.218	491.94
293.449	480.94
293.68	496.94
293.91	487.94
294.141	503.94
294.372	496.94
294.603	487.94
294.833	474.94
295.064	484.94
295.295	488.94
295.525	467.94
295.756	477.94
295.987	492.94
296.217	494.94
296.448	489.94
296.679	512.94
296.909	501.94
297.14	496.94
297.37	500.94
297.601	524.94
297.831	505.94
298.062	490.94
298.292	520.94
298.523	534.94
298.753	526.94
298.984	520.94
299.214	519.94
299.445	538.94
299.675	517.94
299.905	536.94
300.136	539.94
300.366	549.94
300.597	539.94
300.827	543.94
301.057	517.94
301.288	528.94
301.518	527.94
301.748	520.94
301.979	564.94
302.209	522.94
302.439	543.94
302.669	558.94
302.9	586.94
303.13	550.94
303.36	554.94
303.59	564.94
303.82	557.94
304.051	578.94
304.281	574.94
304.511	545.94
304.741	538.94
304.971	571.94
305.201	554.94
305.431	590.94
305.661	576.94
305.891	563.94
306.121	580.94
306.352	602.94
306.582	574.94
306.812	572.94
307.042	574.94
307.272	574.94
307.502	574.94
307.731	587.94
307.961	581.94
308.191	562.94
308.421	581.94
308.651	576.94
308.881	603.94
309.111	592.94
309.341	597.94
309.571	587.94
309.8	622.94
310.03	576.94
310.26	563.94
310.49	579.94
310.72	608.94
310.949	591.94
311.179	584.94
311.409	588.94
311.639	597.94
311.868	607.94
312.098	624.94
312.328	628.94
312.557	626.94
312.787	615.94
313.017	609.94
313.246	625.94
313.476	600.94
313.706	612.94
313.935	632.94
314.165	604.94
314.394	615.94
314.624	638.94
314.853	634.94
315.083	639.94
315.312	629.94
315.542	628.94
315.771	636.94
316.001	616.94
316.23	626.94
316.46	648.94
316.689	630.94
316.919	664.94
317.148	659.94
317.377	651.94
317.607	655.94
317.836	673.94
318.065	657.94
318.295	654.94
318.524	647.94
318.753	646.94
318.983	630.94
319.212	656.94
319.441	658.94
319.67	641.94
319.9	657.94
320.129	667.94
320.358	652.94
320.587	654.94
320.816	655.94
321.046	666.94
321.275	682.94
321.504	666.94
321.733	660.94
321.962	680.94
322.191	684.94
322.42	688.94
322.649	694.94
322.878	661.94
323.108	677.94
323.337	701.94
323.566	670.94
323.795	698.94
324.024	712.94
324.253	698.94
324.482	691.94
324.71	674.94
324.939	691.94
325.168	689.94
325.397	672.94
325.626	712.94
325.855	710.94
326.084	721.94
326.313	711.94
326.542	690.94
326.77	734.94
326.999	709.94
327.228	703.94
327.457	719.94
327.686	712.94
327.914	704.94
328.143	736.94
328.372	703.94
328.6	721.94
328.829	738.94
329.058	731.94
329.287	736.94
329.515	724.94
329.744	731.94
329.972	727.94
330.201	745.94
330.43	768.94
330.658	747.94
330.887	736.94
331.115	739.94
331.344	752.94
331.572	715.94
331.801	732.94
332.03	752.94
332.258	745.94
332.486	766.94
332.715	757.94
332.943	751.94
333.172	746.94
333.4	739.94
333.629	779.94
333.857	792.94
334.085	793.94
334.314	775.94
334.542	778.94
334.771	755.94
334.999	796.94
335.227	803.94
335.455	792.94
335.684	786.94
335.912	793.94
336.14	788.94
336.369	780.94
336.597	776.94
336.825	800.94
337.053	802.94
337.281	784.94
337.51	775.94
337.738	778.94
337.966	780.94
338.194	766.94
338.422	760.94
338.65	763.94
338.878	774.94
339.106	776.94
339.334	807.94
339.562	767.94
339.79	745.94
340.018	768.94
340.246	776.94
340.474	779.94
340.702	784.94
340.93	804.94
341.158	788.94
341.386	760.94
341.614	786.94
341.842	753.94
342.07	763.94
342.298	766.94
342.526	776.94
342.754	732.94
342.981	766.94
343.209	768.94
343.437	787.94
343.665	786.94
343.893	751.94
344.12	804.94
344.348	791.94
344.576	778.94
344.804	806.94
345.031	794.94
345.259	779.94
345.487	771.94
345.714	771.94
345.942	755.94
346.17	781.94
346.397	742.94
346.625	766.94
346.853	785.94
347.08	760.94
347.308	754.94
347.535	747.94
347.763	786.94
347.99	747.94
348.218	766.94
348.445	764.94
348.673	739.94
348.9	737.94
349.128	752.94
349.355	748.94
349.583	748.94
349.81	745.94
350.037	759.94
350.265	732.94
350.492	743.94
350.72	761.94
350.947	756.94
351.174	743.94
351.402	724.94
351.629	746.94
351.856	754.94
352.083	743.94
352.311	746.94
352.538	732.94
352.765	759.94
352.992	760.94
353.22	756.94
353.447	714.94
353.674	723.94
353.901	756.94
354.128	733.94
354.355	765.94
354.583	761.94
354.81	748.94
355.037	733.94
355.264	743.94
355.491	742.94
355.718	752.94
355.945	746.94
356.172	756.94
356.399	751.94
356.626	730.94
356.853	741.94
357.08	725.94
357.307	728.94
357.534	740.94
357.761	728.94
357.988	743.94
358.215	754.94
358.441	763.94
358.668	742.94
358.895	757.94
359.122	754.94
359.349	747.94
359.576	768.94
359.802	743.94
360.029	742.94
360.256	750.94
360.483	752.94
360.709	771.94
360.936	737.94
361.163	739.94
361.39	768.94
361.616	764.94
361.843	752.94
362.07	756.94
362.296	775.94
362.523	741.94
362.749	738.94
362.976	758.94
363.203	760.94
363.429	771.94
363.656	771.94
363.882	760.94
364.109	762.94
364.335	746.94
364.562	774.94
364.788	794.94
365.015	787.94
365.241	798.94
365.468	802.94
365.694	795.94
365.92	751.94
366.147	773.94
366.373	768.94
366.599	766.94
366.826	784.94
367.052	781.94
367.278	781.94
367.505	767.94
367.731	768.94
367.957	795.94
368.184	785.94
368.41	773.94
368.636	799.94
368.862	767.94
369.089	793.94
369.315	790.94
369.541	832.94
369.767	828.94
369.993	775.94
370.219	796.94
370.445	789.94
370.672	831.94
370.898	794.94
371.124	810.94
371.35	820.94
371.576	823.94
371.802	791.94
372.028	825.94
372.254	810.94
372.48	786.94
372.706	821.94
372.932	809.94
373.158	805.94
373.384	820.94
373.61	817.94
373.835	822.94
374.061	815.94
374.287	827.94
374.513	818.94
374.739	852.94
374.965	832.94
375.191	828.94
375.416	837.94
375.642	806.94
375.868	819.94
376.094	826.94
376.319	839.94
376.545	820.94
376.771	820.94
376.997	804.94
377.222	810.94
377.448	795.94
377.674	818.94
377.899	777.94
378.125	809.94
378.35	772.94
378.576	812.94
378.802	794.94
379.027	809.94
379.253	826.94
379.478	803.94
379.704	824.94
379.929	814.94
380.155	832.94
380.38	793.94
380.606	816.94
380.831	826.94
381.057	819.94
381.282	833.94
381.507	824.94
381.733	811.94
381.958	842.94
382.184	816.94
382.409	822.94
382.634	828.94
382.86	822.94
383.085	863.94
383.31	840.94
383.535	849.94
383.761	822.94
383.986	857.94
384.211	839.94
384.436	830.94
384.662	863.94
384.887	862.94
385.112	856.94
385.337	876.94
385.562	875.94
385.787	852.94
386.013	880.94
386.238	878.94
386.463	864.94
386.688	889.94
386.913	880.94
387.138	870.94
387.363	878.94
387.588	871.94
387.813	878.94
388.038	884.94
388.263	859.94
388.488	882.94
388.713	890.94
388.938	900.94
389.163	859.94
389.387	890.94
389.612	863.94
389.837	893.94
390.062	907.94
390.287	900.94
390.512	909.94
390.736	880.94
390.961	884.94
391.186	884.94
391.411	921.94
391.636	923.94
391.86	908.94
392.085	920.94
392.31	896.94
392.534	888.94
392.759	891.94
392.984	906.94
393.208	902.94
393.433	927.94
393.658	904.94
393.882	882.94
394.107	896.94
394.331	891.94
394.556	894.94
394.78	896.94
395.005	910.94
395.229	884.94
395.454	906.94
395.678	899.94
395.903	920.94
396.127	918.94
396.352	902.94
396.576	911.94
396.801	936.94
397.025	950.94
397.249	918.94
397.474	955.94
397.698	954.94
397.922	939.94
398.147	929.94
398.371	946.94
398.595	956.94
398.82	963.94
399.044	985.94
399.268	975.94
399.492	994.94
399.717	1016.94
399.941	1014.94
400.165	1015.94
400.389	1033.94
400.613	999.94
400.837	1007.94
401.062	992.94
401.286	961.94
401.51	968.94
401.734	949.94
401.958	974.94
402.182	1006.94
402.406	959.94
402.63	975.94
402.854	975.94
403.078	980.94
403.302	1012.94
403.526	965.94
403.75	974.94
403.974	973.94
404.198	976.94
404.422	985.94
404.645	944.94
404.869	997.94
405.093	1012.94
405.317	1013.94
405.541	981.94
405.765	989.94
405.988	994.94
406.212	1014.94
406.436	1010.94
406.66	1027.94
406.883	1011.94
407.107	1048.94
407.331	1022.94
407.555	1048.94
407.778	1046.94
408.002	1026.94
408.226	1040.94
408.449	1063.94
408.673	1042.94
408.896	1046.94
409.12	1032.94
409.344	1020.94
409.567	1020.94
409.791	1026.94
410.014	1024.94
410.238	1008.94
410.461	1002.94
410.685	1029.94
410.908	980.94
411.132	991.94
411.355	988.94
411.578	980.94
411.802	969.94
412.025	974.94
412.249	1023.94
412.472	1003.94
412.695	980.94
412.919	998.94
413.142	1019.94
413.365	971.94
413.589	968.94
413.812	963.94
414.035	982.94
414.258	965.94
414.482	977.94
414.705	951.94
414.928	971.94
415.151	969.94
415.374	944.94
415.597	979.94
415.821	944.94
416.044	966.94
416.267	970.94
416.49	955.94
416.713	957.94
416.936	927.94
417.159	922.94
417.382	911.94
417.605	884.94
417.828	923.94
418.051	884.94
418.274	957.94
418.497	909.94
418.72	920.94
418.943	909.94
419.166	954.94
419.389	1010.94
419.611	963.94
419.834	967.94
420.057	919.94
420.28	939.94
420.503	890.94
420.726	917.94
420.948	912.94
421.171	930.94
421.394	908.94
421.617	870.94
421.839	900.94
422.062	903.94
422.285	892.94
422.507	899.94
422.73	903.94
422.953	915.94
423.175	907.94
423.398	915.94
423.621	887.94
423.843	902.94
424.066	915.94
424.288	911.94
424.511	899.94
424.733	910.94
424.956	883.94
425.178	933.94
425.401	910.94
425.623	911.94
425.846	889.94
426.068	913.94
426.291	914.94
426.513	948.94
426.735	920.94
426.958	929.94
427.18	914.94
427.402	878.94
427.625	890.94
427.847	911.94
428.069	869.94
428.292	905.94
428.514	900.94
428.736	922.94
428.958	904.94
429.181	885.94
429.403	889.94
429.625	864.94
429.847	866.94
430.069	917.94
430.292	887.94
430.514	894.94
430.736	889.94
430.958	897.94
431.18	896.94
431.402	897.94
431.624	894.94
431.846	888.94
432.068	887.94
432.29	901.94
432.512	897.94
432.734	910.94
432.956	911.94
433.178	891.94
433.4	894.94
433.622	918.94
433.844	902.94
434.066	903.94
434.287	923.94
434.509	915.94
434.731	898.94
434.953	919.94
435.175	890.94
435.397	903.94
435.618	915.94
435.84	886.94
436.062	857.94
436.284	874.94
436.505	878.94
436.727	896.94
436.949	886.94
437.17	880.94
437.392	890.94
437.614	888.94
437.835	879.94
438.057	865.94
438.278	871.94
438.5	884.94
438.721	880.94
438.943	871.94
439.165	851.94
439.386	880.94
439.608	876.94
439.829	904.94
440.05	898.94
440.272	892.94
440.493	885.94
440.715	891.94
440.936	866.94
441.158	868.94
441.379	874.94
441.6	871.94
441.822	888.94
442.043	906.94
442.264	884.94
442.486	886.94
442.707	899.94
442.928	904.94
443.149	905.94
443.371	897.94
443.592	874.94
443.813	886.94
444.034	873.94
444.255	895.94
444.476	884.94
444.698	874.94
444.919	869.94
445.14	1011.94
445.361	923.94
445.582	897.94
445.803	904.94
446.024	892.94
446.245	883.94
446.466	881.94
446.687	878.94
446.908	839.94
447.129	871.94
447.35	839.94
447.571	868.94
447.792	826.94
448.013	848.94
448.234	850.94
448.455	834.94
448.675	827.94
448.896	832.94
449.117	826.94
449.338	851.94
449.559	836.94
449.779	804.94
450	826.94
450.221	833.94
450.442	827.94
450.662	819.94
450.883	795.94
451.104	818.94
451.324	810.94
451.545	833.94
451.766	801.94
451.986	814.94
452.207	792.94
452.428	826.94
452.648	823.94
452.869	819.94
453.089	786.94
453.31	822.94
453.53	822.94
453.751	809.94
453.971	792.94
454.192	798.94
454.412	794.94
454.633	798.94
454.853	789.94
455.073	808.94
455.294	811.94
455.514	813.94
455.734	816.94
455.955	803.94
456.175	783.94
456.395	798.94
456.616	786.94
456.836	797.94
457.056	815.94
457.276	796.94
457.497	810.94
457.717	784.94
457.937	799.94
458.157	829.94
458.377	824.94
458.598	831.94
458.818	819.94
459.038	854.94
459.258	844.94
459.478	830.94
459.698	838.94
459.918	847.94
460.138	860.94
460.358	844.94
460.578	845.94
460.798	879.94
461.018	874.94
461.238	900.94
461.458	888.94
461.678	884.94
461.898	879.94
462.118	868.94
462.338	901.94
462.558	892.94
462.777	912.94
462.997	945.94
463.217	939.94
463.437	937.94
463.657	948.94
463.876	907.94
464.096	918.94
464.316	912.94
464.536	926.94
464.755	916.94
464.975	895.94
465.195	902.94
465.414	891.94
465.634	893.94
465.854	892.94
466.073	877.94
466.293	884.94
466.512	861.94
466.732	871.94
466.951	841.94
467.171	853.94
467.391	875.94
467.61	843.94
467.829	857.94
468.049	836.94
468.268	860.94
468.488	847.94
468.707	862.94
468.927	899.94
469.146	852.94
469.365	864.94
469.585	832.94
469.804	852.94
470.023	900.94
470.243	854.94
470.462	878.94
470.681	857.94
470.901	873.94
471.12	873.94
471.339	896.94
471.558	882.94
471.777	883.94
471.997	869.94
472.216	899.94
472.435	875.94
472.654	886.94
472.873	884.94
473.092	927.94
473.311	915.94
473.53	921.94
473.749	880.94
473.968	927.94
474.187	898.94
474.406	899.94
474.625	915.94
474.844	900.94
475.063	918.94
475.282	914.94
475.501	897.94
475.72	906.94
475.939	938.94
476.158	919.94
476.377	912.94
476.596	899.94
476.814	956.94
477.033	955.94
477.252	957.94
477.471	963.94
477.69	979.94
477.908	978.94
478.127	1010.94
478.346	977.94
478.564	995.94
478.783	1011.94
479.002	987.94
479.22	1033.94
479.439	1041.94
479.658	1047.94
479.876	1024.94
480.095	1036.94
480.313	1062.94
480.532	1042.94
480.751	1042.94
480.969	1037.94
481.188	1062.94
481.406	1072.94
481.624	1121.94
481.843	1064.94
482.061	1093.94
482.28	1077.94
482.498	1064.94
482.717	1087.94
482.935	1073.94
483.153	1058.94
483.372	1099.94
483.59	1070.94
483.808	1074.94
484.027	1066.94
484.245	1081.94
484.463	1077.94
484.681	1052.94
484.9	1102.94
485.118	1079.94
485.336	1076.94
485.554	1104.94
485.772	1091.94
485.99	1080.94
486.209	1086.94
486.427	1121.94
486.645	1110.94
486.863	1114.94
487.081	1104.94
487.299	1105.94
487.517	1114.94
487.735	1101.94
487.953	1124.94
488.171	1135.94
488.389	1130.94
488.607	1127.94
488.825	1113.94
489.043	1133.94
489.261	1112.94
489.479	1088.94
489.696	1122.94
489.914	1097.94
490.132	1113.94
490.35	1130.94
490.568	1108.94
490.786	1131.94
491.003	1128.94
491.221	1151.94
491.439	1124.94
491.657	1146.94
491.874	1175.94
492.092	1134.94
492.31	1141.94
492.527	1149.94
492.745	1126.94
492.963	1136.94
493.18	1153.94
493.398	1144.94
493.615	1120.94
493.833	1123.94
494.05	1164.94
494.268	1126.94
494.485	1146.94
494.703	1127.94
494.92	1148.94
495.138	1147.94
495.355	1160.94
495.573	1150.94
495.79	1154.94
496.008	1167.94
496.225	1182.94
496.442	1189.94
496.66	1193.94
496.877	1150.94
497.094	1200.94
497.312	1236.94
497.529	1204.94
497.746	1201.94
497.963	1194.94
498.181	1270.94
498.398	1253.94
498.615	1278.94
498.832	1256.94
499.049	1327.94
499.267	1323.94
499.484	1362.94
499.701	1356.94
