Data from Fe(NO3)3@0.025M.TitratingCurve.Agarose3%dH2O.NegLispCup.LampEnergy10.LIBS07252019_HRD10591_16-56-27-338.txt Node
Date: Thu Jul 25 16:56:27 EDT 2019
User: cochatt
Spectrometer: HR+D1059
Trigger mode: 1
Integration Time (sec): 1.000000E-1
Scans to average: 1
Electric dark correction enabled: true
Nonlinearity correction enabled: false
Boxcar width: 0
XAxis mode: Wavelengths
Number of Pixels in Spectrum: 2048
>>>>>Begin Spectral Data<<<<<
223.165	-25.88
223.4	-25.88
223.635	-25.88
223.869	-17.88
224.104	-27.88
224.338	-27.88
224.573	-8.88
224.808	-15.88
225.042	-20.88
225.277	-5.88
225.511	1.12
225.746	20.12
225.98	6.12
226.215	22.12
226.449	20.12
226.683	18.12
226.918	27.12
227.152	36.12
227.387	33.12
227.621	28.12
227.856	51.12
228.09	44.12
228.324	62.12
228.559	52.12
228.793	64.12
229.027	73.12
229.262	83.12
229.496	65.12
229.73	84.12
229.964	78.12
230.199	86.12
230.433	75.12
230.667	81.12
230.901	94.12
231.136	93.12
231.37	96.12
231.604	69.12
231.838	80.12
232.072	104.12
232.306	98.12
232.541	101.12
232.775	103.12
233.009	94.12
233.243	93.12
233.477	100.12
233.711	83.12
233.945	82.12
234.179	89.12
234.413	95.12
234.647	99.12
234.881	101.12
235.115	93.12
235.349	99.12
235.583	94.12
235.817	85.12
236.051	84.12
236.285	84.12
236.519	89.12
236.753	103.12
236.987	99.12
237.221	117.12
237.455	99.12
237.689	105.12
237.922	105.12
238.156	83.12
238.39	102.12
238.624	106.12
238.858	104.12
239.091	96.12
239.325	93.12
239.559	93.12
239.793	95.12
240.027	95.12
240.26	85.12
240.494	92.12
240.728	88.12
240.961	96.12
241.195	105.12
241.429	102.12
241.662	90.12
241.896	98.12
242.13	104.12
242.363	87.12
242.597	116.12
242.83	89.12
243.064	89.12
243.298	105.12
243.531	96.12
243.765	98.12
243.998	91.12
244.232	101.12
244.465	111.12
244.699	110.12
244.932	112.12
245.166	99.12
245.399	100.12
245.633	106.12
245.866	101.12
246.099	105.12
246.333	99.12
246.566	114.12
246.8	119.12
247.033	103.12
247.266	99.12
247.5	100.12
247.733	108.12
247.966	101.12
248.2	128.12
248.433	112.12
248.666	121.12
248.899	119.12
249.133	118.12
249.366	122.12
249.599	102.12
249.832	116.12
250.066	114.12
250.299	121.12
250.532	104.12
250.765	105.12
250.998	113.12
251.231	116.12
251.465	120.12
251.698	124.12
251.931	108.12
252.164	100.12
252.397	118.12
252.63	122.12
252.863	126.12
253.096	122.12
253.329	122.12
253.562	114.12
253.795	129.12
254.028	104.12
254.261	123.12
254.494	118.12
254.727	108.12
254.96	130.12
255.193	121.12
255.426	121.12
255.659	118.12
255.892	122.12
256.124	122.12
256.357	124.12
256.59	134.12
256.823	122.12
257.056	121.12
257.289	129.12
257.521	137.12
257.754	126.12
257.987	128.12
258.22	123.12
258.452	134.12
258.685	124.12
258.918	104.12
259.151	124.12
259.383	114.12
259.616	134.12
259.849	121.12
260.081	120.12
260.314	145.12
260.547	132.12
260.779	125.12
261.012	130.12
261.244	141.12
261.477	130.12
261.71	128.12
261.942	120.12
262.175	120.12
262.407	140.12
262.64	125.12
262.872	133.12
263.105	116.12
263.337	133.12
263.57	124.12
263.802	122.12
264.035	123.12
264.267	141.12
264.499	146.12
264.732	133.12
264.964	144.12
265.197	146.12
265.429	145.12
265.661	140.12
265.894	138.12
266.126	139.12
266.358	140.12
266.591	139.12
266.823	132.12
267.055	135.12
267.287	128.12
267.52	154.12
267.752	138.12
267.984	156.12
268.216	146.12
268.448	148.12
268.681	152.12
268.913	137.12
269.145	147.12
269.377	148.12
269.609	151.12
269.841	143.12
270.073	143.12
270.306	135.12
270.538	128.12
270.77	119.12
271.002	152.12
271.234	152.12
271.466	132.12
271.698	146.12
271.93	140.12
272.162	141.12
272.394	154.12
272.626	140.12
272.858	151.12
273.09	152.12
273.322	150.12
273.553	144.12
273.785	155.12
274.017	155.12
274.249	157.12
274.481	146.12
274.713	129.12
274.945	148.12
275.176	151.12
275.408	159.12
275.64	163.12
275.872	142.12
276.104	148.12
276.335	164.12
276.567	146.12
276.799	162.12
277.031	165.12
277.262	141.12
277.494	163.12
277.726	147.12
277.957	148.12
278.189	151.12
278.421	177.12
278.652	158.12
278.884	179.12
279.115	160.12
279.347	163.12
279.579	162.12
279.81	164.12
280.042	166.12
280.273	159.12
280.505	159.12
280.736	166.12
280.968	162.12
281.199	189.12
281.431	164.12
281.662	174.12
281.894	172.12
282.125	149.12
282.356	160.12
282.588	171.12
282.819	162.12
283.051	158.12
283.282	149.12
283.513	168.12
283.745	173.12
283.976	181.12
284.207	172.12
284.439	182.12
284.67	176.12
284.901	173.12
285.132	161.12
285.364	181.12
285.595	175.12
285.826	179.12
286.057	170.12
286.288	161.12
286.52	169.12
286.751	169.12
286.982	164.12
287.213	186.12
287.444	174.12
287.675	165.12
287.906	181.12
288.138	168.12
288.369	182.12
288.6	182.12
288.831	179.12
289.062	187.12
289.293	176.12
289.524	166.12
289.755	180.12
289.986	164.12
290.217	167.12
290.448	182.12
290.679	187.12
290.91	181.12
291.141	170.12
291.371	170.12
291.602	174.12
291.833	178.12
292.064	176.12
292.295	196.12
292.526	197.12
292.757	182.12
292.987	188.12
293.218	157.12
293.449	178.12
293.68	194.12
293.91	184.12
294.141	194.12
294.372	190.12
294.603	199.12
294.833	186.12
295.064	192.12
295.295	184.12
295.525	187.12
295.756	193.12
295.987	195.12
296.217	174.12
296.448	198.12
296.679	186.12
296.909	193.12
297.14	193.12
297.37	189.12
297.601	181.12
297.831	209.12
298.062	200.12
298.292	201.12
298.523	208.12
298.753	187.12
298.984	180.12
299.214	183.12
299.445	193.12
299.675	196.12
299.905	196.12
300.136	202.12
300.366	194.12
300.597	199.12
300.827	229.12
301.057	207.12
301.288	210.12
301.518	201.12
301.748	211.12
301.979	211.12
302.209	212.12
302.439	209.12
302.669	198.12
302.9	193.12
303.13	193.12
303.36	213.12
303.59	196.12
303.82	193.12
304.051	205.12
304.281	216.12
304.511	207.12
304.741	199.12
304.971	214.12
305.201	218.12
305.431	199.12
305.661	200.12
305.891	192.12
306.121	203.12
306.352	218.12
306.582	204.12
306.812	222.12
307.042	207.12
307.272	215.12
307.502	186.12
307.731	211.12
307.961	202.12
308.191	210.12
308.421	202.12
308.651	213.12
308.881	219.12
309.111	200.12
309.341	196.12
309.571	202.12
309.8	206.12
310.03	203.12
310.26	204.12
310.49	220.12
310.72	213.12
310.949	217.12
311.179	212.12
311.409	227.12
311.639	198.12
311.868	220.12
312.098	219.12
312.328	209.12
312.557	211.12
312.787	198.12
313.017	211.12
313.246	231.12
313.476	221.12
313.706	205.12
313.935	216.12
314.165	234.12
314.394	230.12
314.624	208.12
314.853	222.12
315.083	212.12
315.312	212.12
315.542	222.12
315.771	225.12
316.001	228.12
316.23	212.12
316.46	228.12
316.689	228.12
316.919	218.12
317.148	222.12
317.377	221.12
317.607	206.12
317.836	229.12
318.065	211.12
318.295	226.12
318.524	228.12
318.753	227.12
318.983	217.12
319.212	228.12
319.441	212.12
319.67	224.12
319.9	225.12
320.129	224.12
320.358	247.12
320.587	220.12
320.816	231.12
321.046	218.12
321.275	227.12
321.504	235.12
321.733	240.12
321.962	230.12
322.191	237.12
322.42	219.12
322.649	218.12
322.878	226.12
323.108	235.12
323.337	238.12
323.566	229.12
323.795	227.12
324.024	249.12
324.253	242.12
324.482	228.12
324.71	234.12
324.939	227.12
325.168	237.12
325.397	244.12
325.626	237.12
325.855	245.12
326.084	232.12
326.313	242.12
326.542	255.12
326.77	231.12
326.999	232.12
327.228	243.12
327.457	244.12
327.686	248.12
327.914	237.12
328.143	247.12
328.372	242.12
328.6	232.12
328.829	240.12
329.058	244.12
329.287	255.12
329.515	245.12
329.744	250.12
329.972	241.12
330.201	243.12
330.43	253.12
330.658	258.12
330.887	238.12
331.115	234.12
331.344	257.12
331.572	241.12
331.801	248.12
332.03	258.12
332.258	257.12
332.486	275.12
332.715	263.12
332.943	279.12
333.172	276.12
333.4	274.12
333.629	275.12
333.857	297.12
334.085	296.12
334.314	297.12
334.542	281.12
334.771	307.12
334.999	300.12
335.227	288.12
335.455	295.12
335.684	281.12
335.912	269.12
336.14	284.12
336.369	270.12
336.597	270.12
336.825	264.12
337.053	284.12
337.281	290.12
337.51	286.12
337.738	276.12
337.966	260.12
338.194	267.12
338.422	260.12
338.65	249.12
338.878	253.12
339.106	252.12
339.334	273.12
339.562	259.12
339.79	262.12
340.018	264.12
340.246	261.12
340.474	269.12
340.702	272.12
340.93	245.12
341.158	263.12
341.386	266.12
341.614	250.12
341.842	257.12
342.07	264.12
342.298	237.12
342.526	251.12
342.754	253.12
342.981	265.12
343.209	270.12
343.437	249.12
343.665	263.12
343.893	265.12
344.12	282.12
344.348	290.12
344.576	291.12
344.804	266.12
345.031	248.12
345.259	268.12
345.487	260.12
345.714	242.12
345.942	256.12
346.17	256.12
346.397	249.12
346.625	242.12
346.853	241.12
347.08	245.12
347.308	260.12
347.535	252.12
347.763	245.12
347.99	247.12
348.218	252.12
348.445	248.12
348.673	242.12
348.9	270.12
349.128	256.12
349.355	242.12
349.583	237.12
349.81	254.12
350.037	249.12
350.265	261.12
350.492	229.12
350.72	232.12
350.947	246.12
351.174	247.12
351.402	229.12
351.629	253.12
351.856	232.12
352.083	240.12
352.311	241.12
352.538	254.12
352.765	247.12
352.992	247.12
353.22	248.12
353.447	256.12
353.674	246.12
353.901	249.12
354.128	256.12
354.355	250.12
354.583	243.12
354.81	251.12
355.037	244.12
355.264	256.12
355.491	235.12
355.718	245.12
355.945	254.12
356.172	246.12
356.399	241.12
356.626	264.12
356.853	260.12
357.08	258.12
357.307	246.12
357.534	250.12
357.761	233.12
357.988	266.12
358.215	268.12
358.441	257.12
358.668	241.12
358.895	264.12
359.122	256.12
359.349	278.12
359.576	258.12
359.802	257.12
360.029	252.12
360.256	263.12
360.483	251.12
360.709	253.12
360.936	274.12
361.163	237.12
361.39	242.12
361.616	249.12
361.843	255.12
362.07	239.12
362.296	247.12
362.523	265.12
362.749	248.12
362.976	244.12
363.203	255.12
363.429	248.12
363.656	242.12
363.882	245.12
364.109	264.12
364.335	244.12
364.562	252.12
364.788	270.12
365.015	251.12
365.241	257.12
365.468	262.12
365.694	251.12
365.92	251.12
366.147	227.12
366.373	268.12
366.599	265.12
366.826	264.12
367.052	261.12
367.278	275.12
367.505	250.12
367.731	248.12
367.957	270.12
368.184	250.12
368.41	250.12
368.636	252.12
368.862	260.12
369.089	262.12
369.315	251.12
369.541	280.12
369.767	265.12
369.993	254.12
370.219	256.12
370.445	247.12
370.672	253.12
370.898	239.12
371.124	261.12
371.35	266.12
371.576	264.12
371.802	262.12
372.028	270.12
372.254	263.12
372.48	257.12
372.706	267.12
372.932	290.12
373.158	288.12
373.384	268.12
373.61	282.12
373.835	280.12
374.061	274.12
374.287	272.12
374.513	270.12
374.739	285.12
374.965	294.12
375.191	281.12
375.416	276.12
375.642	268.12
375.868	286.12
376.094	288.12
376.319	272.12
376.545	277.12
376.771	248.12
376.997	276.12
377.222	264.12
377.448	259.12
377.674	265.12
377.899	266.12
378.125	263.12
378.35	262.12
378.576	270.12
378.802	273.12
379.027	270.12
379.253	275.12
379.478	259.12
379.704	283.12
379.929	260.12
380.155	265.12
380.38	273.12
380.606	264.12
380.831	297.12
381.057	279.12
381.282	291.12
381.507	276.12
381.733	273.12
381.958	273.12
382.184	281.12
382.409	290.12
382.634	281.12
382.86	263.12
383.085	284.12
383.31	282.12
383.535	284.12
383.761	292.12
383.986	281.12
384.211	284.12
384.436	291.12
384.662	306.12
384.887	307.12
385.112	299.12
385.337	310.12
385.562	298.12
385.787	316.12
386.013	289.12
386.238	320.12
386.463	298.12
386.688	310.12
386.913	317.12
387.138	317.12
387.363	291.12
387.588	317.12
387.813	313.12
388.038	292.12
388.263	304.12
388.488	308.12
388.713	316.12
388.938	312.12
389.163	300.12
389.387	300.12
389.612	306.12
389.837	316.12
390.062	314.12
390.287	320.12
390.512	322.12
390.736	289.12
390.961	334.12
391.186	298.12
391.411	309.12
391.636	353.12
391.86	326.12
392.085	333.12
392.31	328.12
392.534	314.12
392.759	344.12
392.984	311.12
393.208	340.12
393.433	324.12
393.658	334.12
393.882	332.12
394.107	309.12
394.331	310.12
394.556	332.12
394.78	320.12
395.005	334.12
395.229	316.12
395.454	327.12
395.678	323.12
395.903	348.12
396.127	327.12
396.352	317.12
396.576	325.12
396.801	344.12
397.025	335.12
397.249	367.12
397.474	354.12
397.698	353.12
397.922	357.12
398.147	347.12
398.371	354.12
398.595	357.12
398.82	378.12
399.044	378.12
399.268	392.12
399.492	437.12
399.717	462.12
399.941	440.12
400.165	434.12
400.389	393.12
400.613	405.12
400.837	394.12
401.062	378.12
401.286	355.12
401.51	388.12
401.734	394.12
401.958	382.12
402.182	362.12
402.406	376.12
402.63	388.12
402.854	365.12
403.078	378.12
403.302	362.12
403.526	380.12
403.75	375.12
403.974	377.12
404.198	381.12
404.422	374.12
404.645	382.12
404.869	389.12
405.093	389.12
405.317	393.12
405.541	374.12
405.765	384.12
405.988	369.12
406.212	389.12
406.436	382.12
406.66	407.12
406.883	413.12
407.107	414.12
407.331	429.12
407.555	426.12
407.778	415.12
408.002	417.12
408.226	414.12
408.449	408.12
408.673	394.12
408.896	388.12
409.12	398.12
409.344	383.12
409.567	386.12
409.791	380.12
410.014	395.12
410.238	392.12
410.461	371.12
410.685	373.12
410.908	377.12
411.132	364.12
411.355	361.12
411.578	369.12
411.802	364.12
412.025	368.12
412.249	376.12
412.472	376.12
412.695	386.12
412.919	363.12
413.142	375.12
413.365	382.12
413.589	369.12
413.812	346.12
414.035	352.12
414.258	390.12
414.482	365.12
414.705	376.12
414.928	368.12
415.151	373.12
415.374	358.12
415.597	373.12
415.821	368.12
416.044	370.12
416.267	363.12
416.49	368.12
416.713	375.12
416.936	357.12
417.159	350.12
417.382	352.12
417.605	353.12
417.828	351.12
418.051	355.12
418.274	365.12
418.497	358.12
418.72	352.12
418.943	365.12
419.166	365.12
419.389	382.12
419.611	369.12
419.834	366.12
420.057	354.12
420.28	358.12
420.503	343.12
420.726	342.12
420.948	340.12
421.171	360.12
421.394	361.12
421.617	355.12
421.839	358.12
422.062	368.12
422.285	351.12
422.507	344.12
422.73	350.12
422.953	369.12
423.175	352.12
423.398	386.12
423.621	360.12
423.843	359.12
424.066	340.12
424.288	367.12
424.511	326.12
424.733	365.12
424.956	331.12
425.178	348.12
425.401	331.12
425.623	362.12
425.846	347.12
426.068	347.12
426.291	360.12
426.513	343.12
426.735	320.12
426.958	338.12
427.18	340.12
427.402	339.12
427.625	334.12
427.847	323.12
428.069	304.12
428.292	334.12
428.514	316.12
428.736	329.12
428.958	341.12
429.181	312.12
429.403	321.12
429.625	332.12
429.847	305.12
430.069	327.12
430.292	325.12
430.514	314.12
430.736	318.12
430.958	318.12
431.18	314.12
431.402	322.12
431.624	336.12
431.846	319.12
432.068	326.12
432.29	335.12
432.512	322.12
432.734	324.12
432.956	313.12
433.178	336.12
433.4	314.12
433.622	341.12
433.844	316.12
434.066	306.12
434.287	333.12
434.509	335.12
434.731	334.12
434.953	347.12
435.175	360.12
435.397	355.12
435.618	341.12
435.84	343.12
436.062	325.12
436.284	322.12
436.505	299.12
436.727	314.12
436.949	320.12
437.17	322.12
437.392	307.12
437.614	339.12
437.835	316.12
438.057	315.12
438.278	321.12
438.5	315.12
438.721	310.12
438.943	333.12
439.165	301.12
439.386	349.12
439.608	311.12
439.829	326.12
440.05	315.12
440.272	316.12
440.493	314.12
440.715	340.12
440.936	330.12
441.158	312.12
441.379	340.12
441.6	346.12
441.822	331.12
442.043	327.12
442.264	333.12
442.486	333.12
442.707	344.12
442.928	352.12
443.149	312.12
443.371	338.12
443.592	349.12
443.813	340.12
444.034	348.12
444.255	346.12
444.476	361.12
444.698	373.12
444.919	354.12
445.14	436.12
445.361	391.12
445.582	357.12
445.803	342.12
446.024	345.12
446.245	341.12
446.466	328.12
446.687	315.12
446.908	295.12
447.129	313.12
447.35	317.12
447.571	317.12
447.792	310.12
448.013	311.12
448.234	312.12
448.455	311.12
448.675	312.12
448.896	296.12
449.117	287.12
449.338	285.12
449.559	309.12
449.779	302.12
450	299.12
450.221	313.12
450.442	293.12
450.662	281.12
450.883	310.12
451.104	298.12
451.324	282.12
451.545	306.12
451.766	270.12
451.986	297.12
452.207	300.12
452.428	299.12
452.648	289.12
452.869	284.12
453.089	308.12
453.31	291.12
453.53	278.12
453.751	293.12
453.971	289.12
454.192	298.12
454.412	289.12
454.633	283.12
454.853	282.12
455.073	297.12
455.294	279.12
455.514	285.12
455.734	284.12
455.955	281.12
456.175	279.12
456.395	301.12
456.616	280.12
456.836	279.12
457.056	284.12
457.276	298.12
457.497	288.12
457.717	290.12
457.937	278.12
458.157	301.12
458.377	282.12
458.598	289.12
458.818	299.12
459.038	318.12
459.258	304.12
459.478	338.12
459.698	333.12
459.918	334.12
460.138	334.12
460.358	369.12
460.578	343.12
460.798	360.12
461.018	362.12
461.238	348.12
461.458	345.12
461.678	362.12
461.898	366.12
462.118	380.12
462.338	390.12
462.558	392.12
462.777	396.12
462.997	396.12
463.217	403.12
463.437	411.12
463.657	392.12
463.876	404.12
464.096	379.12
464.316	384.12
464.536	387.12
464.755	386.12
464.975	378.12
465.195	370.12
465.414	351.12
465.634	340.12
465.854	326.12
466.073	336.12
466.293	331.12
466.512	312.12
466.732	309.12
466.951	307.12
467.171	304.12
467.391	309.12
467.61	318.12
467.829	305.12
468.049	275.12
468.268	314.12
468.488	318.12
468.707	293.12
468.927	312.12
469.146	298.12
469.365	308.12
469.585	304.12
469.804	312.12
470.023	308.12
470.243	322.12
470.462	318.12
470.681	321.12
470.901	317.12
471.12	312.12
471.339	321.12
471.558	306.12
471.777	312.12
471.997	293.12
472.216	304.12
472.435	324.12
472.654	306.12
472.873	307.12
473.092	300.12
473.311	299.12
473.53	296.12
473.749	296.12
473.968	307.12
474.187	301.12
474.406	296.12
474.625	322.12
474.844	317.12
475.063	317.12
475.282	322.12
475.501	319.12
475.72	304.12
475.939	321.12
476.158	317.12
476.377	334.12
476.596	325.12
476.814	330.12
477.033	337.12
477.252	342.12
477.471	310.12
477.69	337.12
477.908	353.12
478.127	346.12
478.346	346.12
478.564	360.12
478.783	380.12
479.002	347.12
479.22	361.12
479.439	364.12
479.658	375.12
479.876	374.12
480.095	352.12
480.313	362.12
480.532	359.12
480.751	376.12
480.969	373.12
481.188	361.12
481.406	372.12
481.624	331.12
481.843	350.12
482.061	376.12
482.28	329.12
482.498	362.12
482.717	350.12
482.935	347.12
483.153	354.12
483.372	355.12
483.59	353.12
483.808	353.12
484.027	347.12
484.245	375.12
484.463	356.12
484.681	370.12
484.9	376.12
485.118	379.12
485.336	354.12
485.554	358.12
485.772	372.12
485.99	348.12
486.209	357.12
486.427	371.12
486.645	375.12
486.863	361.12
487.081	359.12
487.299	353.12
487.517	357.12
487.735	383.12
487.953	381.12
488.171	379.12
488.389	371.12
488.607	376.12
488.825	361.12
489.043	363.12
489.261	370.12
489.479	370.12
489.696	362.12
489.914	373.12
490.132	376.12
490.35	393.12
490.568	384.12
490.786	352.12
491.003	349.12
491.221	374.12
491.439	350.12
491.657	372.12
491.874	362.12
492.092	374.12
492.31	353.12
492.527	368.12
492.745	378.12
492.963	389.12
493.18	382.12
493.398	386.12
493.615	372.12
493.833	371.12
494.05	355.12
494.268	370.12
494.485	382.12
494.703	379.12
494.92	380.12
495.138	378.12
495.355	404.12
495.573	392.12
495.79	358.12
496.008	377.12
496.225	365.12
496.442	384.12
496.66	397.12
496.877	408.12
497.094	412.12
497.312	415.12
497.529	434.12
497.746	422.12
497.963	443.12
498.181	452.12
498.398	458.12
498.615	470.12
498.832	488.12
499.049	542.12
499.267	533.12
499.484	594.12
499.701	609.12
499.918	652.12
500.135	703.12
500.352	741.12
500.569	721.12
500.786	732.12
501.003	710.12
501.22	678.12
501.437	628.12
501.654	597.12
501.871	564.12
502.088	538.12
502.305	523.12
