Data from Fe(NO3)3@0.025M.TitratingCurve.Agarose3%dH2O.NegLispCup.LampEnergy10.LIBS07252019_HRD10591_16-54-41-335.txt Node
Date: Thu Jul 25 16:54:41 EDT 2019
User: cochatt
Spectrometer: HR+D1059
Trigger mode: 1
Integration Time (sec): 1.000000E-1
Scans to average: 1
Electric dark correction enabled: true
Nonlinearity correction enabled: false
Boxcar width: 0
XAxis mode: Wavelengths
Number of Pixels in Spectrum: 2048
>>>>>Begin Spectral Data<<<<<
223.165	-10.25
223.4	-10.25
223.635	-10.25
223.869	-14.25
224.104	-12.25
224.338	7.75
224.573	-11.25
224.808	-12.25
225.042	-2.25
225.277	-9.25
225.511	-16.25
225.746	7.75
225.98	-4.25
226.215	-8.25
226.449	11.75
226.683	24.75
226.918	21.75
227.152	26.75
227.387	25.75
227.621	37.75
227.856	48.75
228.09	49.75
228.324	50.75
228.559	57.75
228.793	58.75
229.027	89.75
229.262	91.75
229.496	94.75
229.73	85.75
229.964	102.75
230.199	97.75
230.433	92.75
230.667	113.75
230.901	97.75
231.136	87.75
231.37	119.75
231.604	114.75
231.838	99.75
232.072	102.75
232.306	121.75
232.541	105.75
232.775	122.75
233.009	119.75
233.243	123.75
233.477	115.75
233.711	126.75
233.945	115.75
234.179	125.75
234.413	127.75
234.647	132.75
234.881	128.75
235.115	129.75
235.349	125.75
235.583	117.75
235.817	129.75
236.051	119.75
236.285	103.75
236.519	121.75
236.753	117.75
236.987	139.75
237.221	129.75
237.455	122.75
237.689	123.75
237.922	125.75
238.156	125.75
238.39	136.75
238.624	144.75
238.858	147.75
239.091	121.75
239.325	139.75
239.559	140.75
239.793	135.75
240.027	151.75
240.26	146.75
240.494	133.75
240.728	137.75
240.961	150.75
241.195	143.75
241.429	133.75
241.662	141.75
241.896	134.75
242.13	129.75
242.363	127.75
242.597	158.75
242.83	138.75
243.064	136.75
243.298	147.75
243.531	139.75
243.765	160.75
243.998	154.75
244.232	144.75
244.465	159.75
244.699	138.75
244.932	172.75
245.166	155.75
245.399	145.75
245.633	158.75
245.866	145.75
246.099	170.75
246.333	162.75
246.566	153.75
246.8	145.75
247.033	154.75
247.266	163.75
247.5	157.75
247.733	163.75
247.966	172.75
248.2	179.75
248.433	166.75
248.666	155.75
248.899	167.75
249.133	168.75
249.366	170.75
249.599	159.75
249.832	164.75
250.066	176.75
250.299	167.75
250.532	174.75
250.765	181.75
250.998	177.75
251.231	180.75
251.465	183.75
251.698	170.75
251.931	169.75
252.164	181.75
252.397	182.75
252.63	186.75
252.863	181.75
253.096	187.75
253.329	198.75
253.562	190.75
253.795	197.75
254.028	227.75
254.261	196.75
254.494	188.75
254.727	187.75
254.96	186.75
255.193	183.75
255.426	189.75
255.659	187.75
255.892	191.75
256.124	187.75
256.357	219.75
256.59	200.75
256.823	199.75
257.056	201.75
257.289	212.75
257.521	207.75
257.754	210.75
257.987	213.75
258.22	218.75
258.452	199.75
258.685	206.75
258.918	215.75
259.151	185.75
259.383	232.75
259.616	203.75
259.849	229.75
260.081	238.75
260.314	225.75
260.547	221.75
260.779	225.75
261.012	218.75
261.244	215.75
261.477	218.75
261.71	215.75
261.942	221.75
262.175	217.75
262.407	233.75
262.64	216.75
262.872	225.75
263.105	238.75
263.337	238.75
263.57	221.75
263.802	218.75
264.035	224.75
264.267	229.75
264.499	234.75
264.732	227.75
264.964	233.75
265.197	220.75
265.429	227.75
265.661	220.75
265.894	251.75
266.126	232.75
266.358	229.75
266.591	222.75
266.823	236.75
267.055	243.75
267.287	241.75
267.52	261.75
267.752	237.75
267.984	236.75
268.216	236.75
268.448	251.75
268.681	251.75
268.913	248.75
269.145	245.75
269.377	247.75
269.609	238.75
269.841	250.75
270.073	249.75
270.306	247.75
270.538	241.75
270.77	244.75
271.002	263.75
271.234	251.75
271.466	261.75
271.698	259.75
271.93	270.75
272.162	260.75
272.394	252.75
272.626	246.75
272.858	269.75
273.09	276.75
273.322	263.75
273.553	275.75
273.785	278.75
274.017	282.75
274.249	297.75
274.481	296.75
274.713	287.75
274.945	297.75
275.176	305.75
275.408	297.75
275.64	291.75
275.872	307.75
276.104	297.75
276.335	264.75
276.567	285.75
276.799	285.75
277.031	286.75
277.262	300.75
277.494	277.75
277.726	299.75
277.957	279.75
278.189	293.75
278.421	301.75
278.652	284.75
278.884	275.75
279.115	292.75
279.347	293.75
279.579	306.75
279.81	295.75
280.042	306.75
280.273	296.75
280.505	309.75
280.736	294.75
280.968	303.75
281.199	303.75
281.431	299.75
281.662	300.75
281.894	299.75
282.125	313.75
282.356	302.75
282.588	296.75
282.819	318.75
283.051	294.75
283.282	307.75
283.513	303.75
283.745	326.75
283.976	335.75
284.207	329.75
284.439	310.75
284.67	317.75
284.901	328.75
285.132	324.75
285.364	315.75
285.595	350.75
285.826	307.75
286.057	317.75
286.288	326.75
286.52	334.75
286.751	324.75
286.982	323.75
287.213	317.75
287.444	341.75
287.675	334.75
287.906	348.75
288.138	333.75
288.369	344.75
288.6	330.75
288.831	327.75
289.062	332.75
289.293	337.75
289.524	341.75
289.755	340.75
289.986	330.75
290.217	332.75
290.448	334.75
290.679	341.75
290.91	344.75
291.141	342.75
291.371	346.75
291.602	342.75
291.833	366.75
292.064	354.75
292.295	348.75
292.526	357.75
292.757	364.75
292.987	339.75
293.218	349.75
293.449	335.75
293.68	362.75
293.91	348.75
294.141	358.75
294.372	352.75
294.603	349.75
294.833	353.75
295.064	351.75
295.295	351.75
295.525	356.75
295.756	380.75
295.987	361.75
296.217	374.75
296.448	385.75
296.679	379.75
296.909	360.75
297.14	378.75
297.37	371.75
297.601	373.75
297.831	378.75
298.062	373.75
298.292	375.75
298.523	395.75
298.753	383.75
298.984	377.75
299.214	345.75
299.445	379.75
299.675	397.75
299.905	387.75
300.136	389.75
300.366	378.75
300.597	389.75
300.827	398.75
301.057	402.75
301.288	398.75
301.518	409.75
301.748	389.75
301.979	405.75
302.209	394.75
302.439	390.75
302.669	387.75
302.9	399.75
303.13	410.75
303.36	406.75
303.59	392.75
303.82	396.75
304.051	404.75
304.281	391.75
304.511	395.75
304.741	381.75
304.971	399.75
305.201	404.75
305.431	405.75
305.661	397.75
305.891	426.75
306.121	420.75
306.352	415.75
306.582	418.75
306.812	422.75
307.042	410.75
307.272	401.75
307.502	407.75
307.731	415.75
307.961	419.75
308.191	387.75
308.421	412.75
308.651	397.75
308.881	397.75
309.111	427.75
309.341	406.75
309.571	420.75
309.8	417.75
310.03	409.75
310.26	405.75
310.49	404.75
310.72	411.75
310.949	414.75
311.179	411.75
311.409	412.75
311.639	437.75
311.868	423.75
312.098	423.75
312.328	442.75
312.557	422.75
312.787	412.75
313.017	445.75
313.246	428.75
313.476	456.75
313.706	467.75
313.935	425.75
314.165	435.75
314.394	452.75
314.624	456.75
314.853	446.75
315.083	425.75
315.312	435.75
315.542	430.75
315.771	457.75
316.001	447.75
316.23	435.75
316.46	444.75
316.689	465.75
316.919	451.75
317.148	459.75
317.377	433.75
317.607	448.75
317.836	470.75
318.065	473.75
318.295	473.75
318.524	457.75
318.753	443.75
318.983	454.75
319.212	455.75
319.441	478.75
319.67	456.75
319.9	455.75
320.129	470.75
320.358	454.75
320.587	468.75
320.816	457.75
321.046	461.75
321.275	472.75
321.504	459.75
321.733	463.75
321.962	458.75
322.191	462.75
322.42	466.75
322.649	474.75
322.878	466.75
323.108	479.75
323.337	474.75
323.566	474.75
323.795	466.75
324.024	467.75
324.253	461.75
324.482	459.75
324.71	475.75
324.939	485.75
325.168	505.75
325.397	494.75
325.626	487.75
325.855	496.75
326.084	479.75
326.313	494.75
326.542	465.75
326.77	481.75
326.999	486.75
327.228	492.75
327.457	494.75
327.686	502.75
327.914	517.75
328.143	509.75
328.372	495.75
328.6	536.75
328.829	508.75
329.058	490.75
329.287	508.75
329.515	520.75
329.744	506.75
329.972	525.75
330.201	506.75
330.43	519.75
330.658	492.75
330.887	517.75
331.115	523.75
331.344	533.75
331.572	513.75
331.801	524.75
332.03	512.75
332.258	531.75
332.486	556.75
332.715	527.75
332.943	565.75
333.172	539.75
333.4	561.75
333.629	571.75
333.857	567.75
334.085	572.75
334.314	563.75
334.542	551.75
334.771	584.75
334.999	587.75
335.227	583.75
335.455	583.75
335.684	589.75
335.912	571.75
336.14	579.75
336.369	572.75
336.597	573.75
336.825	537.75
337.053	580.75
337.281	574.75
337.51	554.75
337.738	580.75
337.966	539.75
338.194	573.75
338.422	553.75
338.65	554.75
338.878	561.75
339.106	579.75
339.334	533.75
339.562	545.75
339.79	567.75
340.018	542.75
340.246	546.75
340.474	520.75
340.702	534.75
340.93	539.75
341.158	515.75
341.386	539.75
341.614	546.75
341.842	537.75
342.07	527.75
342.298	535.75
342.526	523.75
342.754	528.75
342.981	547.75
343.209	550.75
343.437	568.75
343.665	527.75
343.893	559.75
344.12	569.75
344.348	596.75
344.576	541.75
344.804	566.75
345.031	541.75
345.259	541.75
345.487	539.75
345.714	534.75
345.942	553.75
346.17	519.75
346.397	532.75
346.625	510.75
346.853	534.75
347.08	529.75
347.308	502.75
347.535	523.75
347.763	517.75
347.99	517.75
348.218	520.75
348.445	525.75
348.673	515.75
348.9	518.75
349.128	530.75
349.355	513.75
349.583	509.75
349.81	527.75
350.037	503.75
350.265	493.75
350.492	516.75
350.72	499.75
350.947	517.75
351.174	511.75
351.402	539.75
351.629	529.75
351.856	500.75
352.083	513.75
352.311	524.75
352.538	498.75
352.765	509.75
352.992	528.75
353.22	514.75
353.447	526.75
353.674	536.75
353.901	527.75
354.128	525.75
354.355	524.75
354.583	518.75
354.81	497.75
355.037	509.75
355.264	518.75
355.491	522.75
355.718	518.75
355.945	503.75
356.172	519.75
356.399	515.75
356.626	517.75
356.853	510.75
357.08	524.75
357.307	508.75
357.534	525.75
357.761	544.75
357.988	552.75
358.215	531.75
358.441	527.75
358.668	525.75
358.895	530.75
359.122	519.75
359.349	524.75
359.576	518.75
359.802	524.75
360.029	527.75
360.256	532.75
360.483	515.75
360.709	532.75
360.936	539.75
361.163	518.75
361.39	523.75
361.616	528.75
361.843	523.75
362.07	535.75
362.296	538.75
362.523	540.75
362.749	533.75
362.976	513.75
363.203	533.75
363.429	539.75
363.656	547.75
363.882	536.75
364.109	521.75
364.335	521.75
364.562	519.75
364.788	518.75
365.015	533.75
365.241	539.75
365.468	520.75
365.694	513.75
365.92	532.75
366.147	558.75
366.373	524.75
366.599	527.75
366.826	538.75
367.052	539.75
367.278	550.75
367.505	518.75
367.731	547.75
367.957	534.75
368.184	520.75
368.41	533.75
368.636	518.75
368.862	553.75
369.089	557.75
369.315	533.75
369.541	543.75
369.767	541.75
369.993	557.75
370.219	533.75
370.445	569.75
370.672	539.75
370.898	566.75
371.124	563.75
371.35	579.75
371.576	566.75
371.802	577.75
372.028	555.75
372.254	572.75
372.48	558.75
372.706	585.75
372.932	574.75
373.158	574.75
373.384	580.75
373.61	583.75
373.835	597.75
374.061	603.75
374.287	587.75
374.513	596.75
374.739	577.75
374.965	581.75
375.191	599.75
375.416	585.75
375.642	581.75
375.868	621.75
376.094	570.75
376.319	569.75
376.545	549.75
376.771	573.75
376.997	569.75
377.222	568.75
377.448	564.75
377.674	555.75
377.899	549.75
378.125	555.75
378.35	547.75
378.576	539.75
378.802	569.75
379.027	553.75
379.253	550.75
379.478	555.75
379.704	580.75
379.929	575.75
380.155	564.75
380.38	563.75
380.606	552.75
380.831	571.75
381.057	590.75
381.282	557.75
381.507	559.75
381.733	567.75
381.958	601.75
382.184	609.75
382.409	609.75
382.634	610.75
382.86	597.75
383.085	576.75
383.31	582.75
383.535	589.75
383.761	599.75
383.986	611.75
384.211	597.75
384.436	611.75
384.662	601.75
384.887	637.75
385.112	610.75
385.337	634.75
385.562	611.75
385.787	629.75
386.013	664.75
386.238	655.75
386.463	637.75
386.688	631.75
386.913	625.75
387.138	631.75
387.363	658.75
387.588	647.75
387.813	658.75
388.038	645.75
388.263	641.75
388.488	638.75
388.713	655.75
388.938	629.75
389.163	671.75
389.387	679.75
389.612	656.75
389.837	652.75
390.062	665.75
390.287	653.75
390.512	666.75
390.736	677.75
390.961	683.75
391.186	641.75
391.411	664.75
391.636	661.75
391.86	675.75
392.085	683.75
392.31	703.75
392.534	699.75
392.759	697.75
392.984	666.75
393.208	704.75
393.433	679.75
393.658	691.75
393.882	689.75
394.107	666.75
394.331	675.75
394.556	683.75
394.78	681.75
395.005	689.75
395.229	665.75
395.454	700.75
395.678	669.75
395.903	693.75
396.127	687.75
396.352	664.75
396.576	692.75
396.801	716.75
397.025	707.75
397.249	727.75
397.474	720.75
397.698	724.75
397.922	730.75
398.147	737.75
398.371	739.75
398.595	759.75
398.82	770.75
399.044	782.75
399.268	806.75
399.492	829.75
399.717	844.75
399.941	898.75
400.165	868.75
400.389	864.75
400.613	807.75
400.837	797.75
401.062	773.75
401.286	777.75
401.51	782.75
401.734	749.75
401.958	770.75
402.182	759.75
402.406	775.75
402.63	761.75
402.854	743.75
403.078	781.75
403.302	760.75
403.526	767.75
403.75	766.75
403.974	762.75
404.198	748.75
404.422	799.75
404.645	771.75
404.869	759.75
405.093	769.75
405.317	756.75
405.541	779.75
405.765	823.75
405.988	795.75
406.212	784.75
406.436	817.75
406.66	813.75
406.883	820.75
407.107	863.75
407.331	837.75
407.555	865.75
407.778	865.75
408.002	878.75
408.226	841.75
408.449	859.75
408.673	843.75
408.896	823.75
409.12	843.75
409.344	818.75
409.567	812.75
409.791	803.75
410.014	807.75
410.238	805.75
410.461	786.75
410.685	830.75
410.908	779.75
411.132	773.75
411.355	804.75
411.578	787.75
411.802	770.75
412.025	767.75
412.249	798.75
412.472	808.75
412.695	785.75
412.919	789.75
413.142	760.75
413.365	740.75
413.589	785.75
413.812	767.75
414.035	747.75
414.258	809.75
414.482	767.75
414.705	735.75
414.928	749.75
415.151	740.75
415.374	754.75
415.597	751.75
415.821	734.75
416.044	743.75
416.267	739.75
416.49	742.75
416.713	731.75
416.936	730.75
417.159	742.75
417.382	729.75
417.605	701.75
417.828	710.75
418.051	735.75
418.274	735.75
418.497	713.75
418.72	710.75
418.943	707.75
419.166	729.75
419.389	767.75
419.611	783.75
419.834	776.75
420.057	743.75
420.28	709.75
420.503	711.75
420.726	713.75
420.948	704.75
421.171	724.75
421.394	694.75
421.617	715.75
421.839	734.75
422.062	737.75
422.285	726.75
422.507	723.75
422.73	718.75
422.953	731.75
423.175	718.75
423.398	715.75
423.621	724.75
423.843	743.75
424.066	715.75
424.288	715.75
424.511	712.75
424.733	694.75
424.956	697.75
425.178	693.75
425.401	706.75
425.623	727.75
425.846	700.75
426.068	718.75
426.291	695.75
426.513	709.75
426.735	678.75
426.958	692.75
427.18	702.75
427.402	686.75
427.625	702.75
427.847	691.75
428.069	680.75
428.292	684.75
428.514	696.75
428.736	699.75
428.958	709.75
429.181	676.75
429.403	687.75
429.625	669.75
429.847	653.75
430.069	695.75
430.292	693.75
430.514	667.75
430.736	665.75
430.958	694.75
431.18	667.75
431.402	706.75
431.624	688.75
431.846	662.75
432.068	689.75
432.29	708.75
432.512	665.75
432.734	681.75
432.956	677.75
433.178	677.75
433.4	673.75
433.622	706.75
433.844	713.75
434.066	703.75
434.287	691.75
434.509	698.75
434.731	683.75
434.953	731.75
435.175	699.75
435.397	717.75
435.618	705.75
435.84	674.75
436.062	676.75
436.284	689.75
436.505	676.75
436.727	669.75
436.949	652.75
437.17	689.75
437.392	674.75
437.614	673.75
437.835	666.75
438.057	647.75
438.278	636.75
438.5	665.75
438.721	645.75
438.943	665.75
439.165	642.75
439.386	661.75
439.608	668.75
439.829	657.75
440.05	657.75
440.272	670.75
440.493	643.75
440.715	673.75
440.936	663.75
441.158	680.75
441.379	693.75
441.6	693.75
441.822	679.75
442.043	706.75
442.264	705.75
442.486	698.75
442.707	711.75
442.928	673.75
443.149	705.75
443.371	681.75
443.592	673.75
443.813	650.75
444.034	682.75
444.255	701.75
444.476	729.75
444.698	719.75
444.919	731.75
445.14	812.75
445.361	747.75
445.582	707.75
445.803	683.75
446.024	689.75
446.245	690.75
446.466	664.75
446.687	667.75
446.908	654.75
447.129	642.75
447.35	648.75
447.571	664.75
447.792	615.75
448.013	641.75
448.234	636.75
448.455	633.75
448.675	633.75
448.896	628.75
449.117	617.75
449.338	633.75
449.559	612.75
449.779	625.75
450	593.75
450.221	618.75
450.442	598.75
450.662	613.75
450.883	616.75
451.104	624.75
451.324	606.75
451.545	620.75
451.766	601.75
451.986	604.75
452.207	599.75
452.428	603.75
452.648	596.75
452.869	604.75
453.089	602.75
453.31	606.75
453.53	577.75
453.751	615.75
453.971	599.75
454.192	608.75
454.412	609.75
454.633	601.75
454.853	578.75
455.073	593.75
455.294	598.75
455.514	580.75
455.734	588.75
455.955	570.75
456.175	580.75
456.395	594.75
456.616	605.75
456.836	601.75
457.056	598.75
457.276	593.75
457.497	600.75
457.717	599.75
457.937	629.75
458.157	629.75
458.377	594.75
458.598	625.75
458.818	623.75
459.038	655.75
459.258	659.75
459.478	670.75
459.698	665.75
459.918	687.75
460.138	670.75
460.358	697.75
460.578	694.75
460.798	701.75
461.018	709.75
461.238	732.75
461.458	719.75
461.678	691.75
461.898	741.75
462.118	743.75
462.338	746.75
462.558	754.75
462.777	797.75
462.997	768.75
463.217	794.75
463.437	789.75
463.657	795.75
463.876	771.75
464.096	794.75
464.316	775.75
464.536	777.75
464.755	757.75
464.975	755.75
465.195	759.75
465.414	721.75
465.634	702.75
465.854	705.75
466.073	691.75
466.293	675.75
466.512	677.75
466.732	667.75
466.951	650.75
467.171	649.75
467.391	652.75
467.61	653.75
467.829	676.75
468.049	661.75
468.268	638.75
468.488	653.75
468.707	629.75
468.927	661.75
469.146	640.75
469.365	650.75
469.585	652.75
469.804	650.75
470.023	673.75
470.243	641.75
470.462	668.75
470.681	650.75
470.901	659.75
471.12	623.75
471.339	653.75
471.558	665.75
471.777	670.75
471.997	651.75
472.216	645.75
472.435	665.75
472.654	637.75
472.873	639.75
473.092	643.75
473.311	651.75
473.53	625.75
473.749	632.75
473.968	625.75
474.187	646.75
474.406	649.75
474.625	649.75
474.844	652.75
475.063	638.75
475.282	661.75
475.501	675.75
475.72	667.75
475.939	648.75
476.158	679.75
476.377	704.75
476.596	687.75
476.814	683.75
477.033	672.75
477.252	703.75
477.471	675.75
477.69	725.75
477.908	722.75
478.127	737.75
478.346	716.75
478.564	769.75
478.783	755.75
479.002	777.75
479.22	776.75
479.439	748.75
479.658	795.75
479.876	782.75
480.095	799.75
480.313	795.75
480.532	772.75
480.751	781.75
480.969	757.75
481.188	779.75
481.406	785.75
481.624	748.75
481.843	773.75
482.061	777.75
482.28	774.75
482.498	781.75
482.717	794.75
482.935	740.75
483.153	731.75
483.372	777.75
483.59	762.75
483.808	763.75
484.027	763.75
484.245	765.75
484.463	769.75
484.681	780.75
484.9	767.75
485.118	777.75
485.336	760.75
485.554	794.75
485.772	776.75
485.99	770.75
486.209	758.75
486.427	741.75
486.645	791.75
486.863	781.75
487.081	747.75
487.299	781.75
487.517	782.75
487.735	803.75
487.953	781.75
488.171	797.75
488.389	805.75
488.607	774.75
488.825	770.75
489.043	749.75
489.261	769.75
489.479	794.75
489.696	774.75
489.914	793.75
490.132	787.75
490.35	762.75
490.568	771.75
490.786	789.75
491.003	817.75
491.221	806.75
491.439	806.75
491.657	777.75
491.874	784.75
492.092	805.75
492.31	791.75
492.527	815.75
492.745	793.75
492.963	824.75
493.18	804.75
493.398	820.75
493.615	787.75
493.833	820.75
494.05	819.75
494.268	805.75
494.485	819.75
494.703	846.75
494.92	821.75
495.138	851.75
495.355	859.75
495.573	835.75
495.79	834.75
496.008	847.75
496.225	851.75
496.442	885.75
496.66	886.75
496.877	893.75
497.094	885.75
497.312	908.75
497.529	915.75
497.746	957.75
497.963	938.75
498.181	981.75
498.398	1007.75
498.615	1013.75
498.832	1057.75
499.049	1089.75
499.267	1116.75
499.484	1195.75
499.701	1194.75
499.918	1230.75
500.135	1289.75
500.352	1321.75
500.569	1355.75
500.786	1358.75
501.003	1308.75
501.22	1301.75
501.437	1252.75
