Data from Fe(NO3)3@0.0125M.TitratingCurve.Agarose3%dH2O.NegLispCup.LampEnergy10.LIBS07252019_HRD10591_16-59-22-348.txt Node
Date: Thu Jul 25 16:59:22 EDT 2019
User: cochatt
Spectrometer: HR+D1059
Trigger mode: 1
Integration Time (sec): 1.000000E-1
Scans to average: 1
Electric dark correction enabled: true
Nonlinearity correction enabled: false
Boxcar width: 0
XAxis mode: Wavelengths
Number of Pixels in Spectrum: 2048
>>>>>Begin Spectral Data<<<<<
223.165	-3.44
223.4	-3.44
223.635	-3.44
223.869	-5.44
224.104	-2.44
224.338	-25.44
224.573	-10.44
224.808	-13.44
225.042	-3.44
225.277	-5.44
225.511	-2.44
225.746	-0.44
225.98	-3.44
226.215	13.56
226.449	16.56
226.683	7.56
226.918	17.56
227.152	20.56
227.387	46.56
227.621	37.56
227.856	44.56
228.09	38.56
228.324	63.56
228.559	44.56
228.793	64.56
229.027	73.56
229.262	77.56
229.496	62.56
229.73	78.56
229.964	82.56
230.199	83.56
230.433	86.56
230.667	97.56
230.901	100.56
231.136	88.56
231.37	93.56
231.604	97.56
231.838	92.56
232.072	105.56
232.306	109.56
232.541	93.56
232.775	101.56
233.009	97.56
233.243	93.56
233.477	100.56
233.711	108.56
233.945	104.56
234.179	99.56
234.413	100.56
234.647	94.56
234.881	103.56
235.115	91.56
235.349	92.56
235.583	107.56
235.817	98.56
236.051	101.56
236.285	99.56
236.519	100.56
236.753	89.56
236.987	93.56
237.221	117.56
237.455	108.56
237.689	93.56
237.922	104.56
238.156	105.56
238.39	104.56
238.624	93.56
238.858	105.56
239.091	105.56
239.325	108.56
239.559	92.56
239.793	105.56
240.027	110.56
240.26	112.56
240.494	88.56
240.728	99.56
240.961	111.56
241.195	123.56
241.429	109.56
241.662	100.56
241.896	116.56
242.13	102.56
242.363	103.56
242.597	110.56
242.83	120.56
243.064	115.56
243.298	117.56
243.531	122.56
243.765	111.56
243.998	117.56
244.232	120.56
244.465	121.56
244.699	117.56
244.932	112.56
245.166	112.56
245.399	114.56
245.633	122.56
245.866	120.56
246.099	114.56
246.333	126.56
246.566	111.56
246.8	116.56
247.033	124.56
247.266	112.56
247.5	118.56
247.733	128.56
247.966	126.56
248.2	113.56
248.433	136.56
248.666	126.56
248.899	121.56
249.133	134.56
249.366	142.56
249.599	135.56
249.832	148.56
250.066	137.56
250.299	119.56
250.532	134.56
250.765	134.56
250.998	132.56
251.231	141.56
251.465	116.56
251.698	132.56
251.931	144.56
252.164	136.56
252.397	126.56
252.63	158.56
252.863	135.56
253.096	142.56
253.329	133.56
253.562	130.56
253.795	139.56
254.028	145.56
254.261	141.56
254.494	135.56
254.727	156.56
254.96	148.56
255.193	139.56
255.426	128.56
255.659	146.56
255.892	151.56
256.124	135.56
256.357	136.56
256.59	144.56
256.823	143.56
257.056	141.56
257.289	136.56
257.521	147.56
257.754	156.56
257.987	149.56
258.22	163.56
258.452	166.56
258.685	152.56
258.918	154.56
259.151	164.56
259.383	163.56
259.616	160.56
259.849	149.56
260.081	160.56
260.314	161.56
260.547	145.56
260.779	151.56
261.012	146.56
261.244	168.56
261.477	172.56
261.71	165.56
261.942	170.56
262.175	158.56
262.407	169.56
262.64	160.56
262.872	158.56
263.105	172.56
263.337	169.56
263.57	175.56
263.802	154.56
264.035	174.56
264.267	174.56
264.499	163.56
264.732	158.56
264.964	167.56
265.197	180.56
265.429	174.56
265.661	161.56
265.894	174.56
266.126	181.56
266.358	160.56
266.591	172.56
266.823	180.56
267.055	171.56
267.287	177.56
267.52	181.56
267.752	181.56
267.984	173.56
268.216	180.56
268.448	174.56
268.681	174.56
268.913	177.56
269.145	189.56
269.377	179.56
269.609	196.56
269.841	191.56
270.073	190.56
270.306	194.56
270.538	186.56
270.77	197.56
271.002	200.56
271.234	197.56
271.466	197.56
271.698	192.56
271.93	206.56
272.162	206.56
272.394	194.56
272.626	210.56
272.858	192.56
273.09	194.56
273.322	196.56
273.553	201.56
273.785	195.56
274.017	221.56
274.249	207.56
274.481	223.56
274.713	208.56
274.945	208.56
275.176	212.56
275.408	219.56
275.64	195.56
275.872	214.56
276.104	209.56
276.335	210.56
276.567	213.56
276.799	209.56
277.031	206.56
277.262	207.56
277.494	207.56
277.726	220.56
277.957	211.56
278.189	236.56
278.421	219.56
278.652	239.56
278.884	223.56
279.115	206.56
279.347	223.56
279.579	228.56
279.81	233.56
280.042	205.56
280.273	240.56
280.505	225.56
280.736	224.56
280.968	256.56
281.199	230.56
281.431	241.56
281.662	222.56
281.894	226.56
282.125	231.56
282.356	240.56
282.588	238.56
282.819	238.56
283.051	237.56
283.282	241.56
283.513	246.56
283.745	251.56
283.976	242.56
284.207	241.56
284.439	252.56
284.67	256.56
284.901	254.56
285.132	257.56
285.364	242.56
285.595	256.56
285.826	253.56
286.057	249.56
286.288	258.56
286.52	264.56
286.751	255.56
286.982	251.56
287.213	258.56
287.444	243.56
287.675	250.56
287.906	250.56
288.138	257.56
288.369	253.56
288.6	244.56
288.831	248.56
289.062	263.56
289.293	265.56
289.524	285.56
289.755	267.56
289.986	267.56
290.217	271.56
290.448	273.56
290.679	274.56
290.91	271.56
291.141	271.56
291.371	267.56
291.602	265.56
291.833	280.56
292.064	291.56
292.295	271.56
292.526	278.56
292.757	275.56
292.987	284.56
293.218	275.56
293.449	273.56
293.68	282.56
293.91	285.56
294.141	272.56
294.372	273.56
294.603	272.56
294.833	284.56
295.064	285.56
295.295	286.56
295.525	292.56
295.756	284.56
295.987	281.56
296.217	284.56
296.448	288.56
296.679	285.56
296.909	296.56
297.14	292.56
297.37	292.56
297.601	292.56
297.831	295.56
298.062	288.56
298.292	289.56
298.523	314.56
298.753	298.56
298.984	316.56
299.214	286.56
299.445	307.56
299.675	303.56
299.905	294.56
300.136	289.56
300.366	304.56
300.597	293.56
300.827	320.56
301.057	316.56
301.288	310.56
301.518	306.56
301.748	305.56
301.979	303.56
302.209	298.56
302.439	330.56
302.669	328.56
302.9	297.56
303.13	329.56
303.36	309.56
303.59	333.56
303.82	316.56
304.051	319.56
304.281	336.56
304.511	336.56
304.741	304.56
304.971	330.56
305.201	322.56
305.431	319.56
305.661	323.56
305.891	329.56
306.121	328.56
306.352	336.56
306.582	306.56
306.812	338.56
307.042	332.56
307.272	332.56
307.502	348.56
307.731	329.56
307.961	345.56
308.191	351.56
308.421	342.56
308.651	336.56
308.881	329.56
309.111	329.56
309.341	315.56
309.571	359.56
309.8	317.56
310.03	331.56
310.26	343.56
310.49	347.56
310.72	351.56
310.949	354.56
311.179	335.56
311.409	350.56
311.639	348.56
311.868	369.56
312.098	360.56
312.328	362.56
312.557	362.56
312.787	374.56
313.017	353.56
313.246	366.56
313.476	373.56
313.706	369.56
313.935	364.56
314.165	366.56
314.394	364.56
314.624	358.56
314.853	394.56
315.083	365.56
315.312	361.56
315.542	372.56
315.771	384.56
316.001	367.56
316.23	350.56
316.46	370.56
316.689	376.56
316.919	376.56
317.148	374.56
317.377	385.56
317.607	376.56
317.836	373.56
318.065	375.56
318.295	403.56
318.524	386.56
318.753	392.56
318.983	385.56
319.212	391.56
319.441	386.56
319.67	390.56
319.9	387.56
320.129	381.56
320.358	383.56
320.587	382.56
320.816	391.56
321.046	408.56
321.275	396.56
321.504	404.56
321.733	401.56
321.962	399.56
322.191	392.56
322.42	405.56
322.649	406.56
322.878	399.56
323.108	388.56
323.337	407.56
323.566	390.56
323.795	402.56
324.024	416.56
324.253	404.56
324.482	417.56
324.71	394.56
324.939	398.56
325.168	415.56
325.397	428.56
325.626	402.56
325.855	398.56
326.084	417.56
326.313	398.56
326.542	431.56
326.77	414.56
326.999	435.56
327.228	421.56
327.457	409.56
327.686	425.56
327.914	416.56
328.143	438.56
328.372	432.56
328.6	418.56
328.829	436.56
329.058	422.56
329.287	429.56
329.515	436.56
329.744	430.56
329.972	434.56
330.201	414.56
330.43	433.56
330.658	433.56
330.887	439.56
331.115	414.56
331.344	424.56
331.572	438.56
331.801	436.56
332.03	414.56
332.258	426.56
332.486	421.56
332.715	435.56
332.943	451.56
333.172	445.56
333.4	453.56
333.629	485.56
333.857	465.56
334.085	449.56
334.314	453.56
334.542	446.56
334.771	465.56
334.999	462.56
335.227	432.56
335.455	458.56
335.684	465.56
335.912	448.56
336.14	439.56
336.369	451.56
336.597	460.56
336.825	459.56
337.053	469.56
337.281	447.56
337.51	438.56
337.738	457.56
337.966	456.56
338.194	463.56
338.422	451.56
338.65	466.56
338.878	449.56
339.106	449.56
339.334	460.56
339.562	454.56
339.79	438.56
340.018	459.56
340.246	442.56
340.474	440.56
340.702	461.56
340.93	445.56
341.158	471.56
341.386	464.56
341.614	451.56
341.842	461.56
342.07	447.56
342.298	454.56
342.526	438.56
342.754	464.56
342.981	446.56
343.209	453.56
343.437	474.56
343.665	470.56
343.893	469.56
344.12	454.56
344.348	458.56
344.576	464.56
344.804	458.56
345.031	445.56
345.259	462.56
345.487	458.56
345.714	439.56
345.942	448.56
346.17	477.56
346.397	457.56
346.625	473.56
346.853	477.56
347.08	453.56
347.308	446.56
347.535	431.56
347.763	454.56
347.99	439.56
348.218	485.56
348.445	460.56
348.673	443.56
348.9	467.56
349.128	444.56
349.355	470.56
349.583	457.56
349.81	447.56
350.037	438.56
350.265	434.56
350.492	456.56
350.72	449.56
350.947	470.56
351.174	465.56
351.402	454.56
351.629	457.56
351.856	458.56
352.083	458.56
352.311	449.56
352.538	465.56
352.765	457.56
352.992	472.56
353.22	443.56
353.447	471.56
353.674	475.56
353.901	451.56
354.128	455.56
354.355	452.56
354.583	445.56
354.81	463.56
355.037	458.56
355.264	470.56
355.491	460.56
355.718	448.56
355.945	468.56
356.172	456.56
356.399	453.56
356.626	450.56
356.853	493.56
357.08	469.56
357.307	460.56
357.534	462.56
357.761	450.56
357.988	466.56
358.215	444.56
358.441	471.56
358.668	457.56
358.895	450.56
359.122	448.56
359.349	446.56
359.576	479.56
359.802	467.56
360.029	475.56
360.256	441.56
360.483	458.56
360.709	457.56
360.936	473.56
361.163	459.56
361.39	473.56
361.616	458.56
361.843	464.56
362.07	469.56
362.296	472.56
362.523	475.56
362.749	478.56
362.976	458.56
363.203	454.56
363.429	470.56
363.656	453.56
363.882	468.56
364.109	471.56
364.335	457.56
364.562	462.56
364.788	478.56
365.015	461.56
365.241	478.56
365.468	489.56
365.694	473.56
365.92	492.56
366.147	470.56
366.373	455.56
366.599	487.56
366.826	464.56
367.052	474.56
367.278	479.56
367.505	465.56
367.731	483.56
367.957	481.56
368.184	481.56
368.41	486.56
368.636	482.56
368.862	501.56
369.089	473.56
369.315	490.56
369.541	481.56
369.767	474.56
369.993	494.56
370.219	495.56
370.445	483.56
370.672	502.56
370.898	463.56
371.124	476.56
371.35	484.56
371.576	491.56
371.802	479.56
372.028	527.56
372.254	495.56
372.48	483.56
372.706	515.56
372.932	497.56
373.158	508.56
373.384	521.56
373.61	530.56
373.835	512.56
374.061	496.56
374.287	493.56
374.513	486.56
374.739	510.56
374.965	503.56
375.191	497.56
375.416	504.56
375.642	509.56
375.868	499.56
376.094	500.56
376.319	510.56
376.545	489.56
376.771	483.56
376.997	502.56
377.222	500.56
377.448	497.56
377.674	516.56
377.899	506.56
378.125	499.56
378.35	508.56
378.576	501.56
378.802	493.56
379.027	501.56
379.253	485.56
379.478	502.56
379.704	523.56
379.929	494.56
380.155	483.56
380.38	482.56
380.606	510.56
380.831	496.56
381.057	494.56
381.282	514.56
381.507	511.56
381.733	499.56
381.958	508.56
382.184	501.56
382.409	521.56
382.634	518.56
382.86	523.56
383.085	534.56
383.31	521.56
383.535	522.56
383.761	520.56
383.986	512.56
384.211	513.56
384.436	514.56
384.662	506.56
384.887	520.56
385.112	513.56
385.337	521.56
385.562	547.56
385.787	546.56
386.013	537.56
386.238	525.56
386.463	518.56
386.688	538.56
386.913	530.56
387.138	513.56
387.363	546.56
387.588	532.56
387.813	538.56
388.038	539.56
388.263	530.56
388.488	531.56
388.713	530.56
388.938	530.56
389.163	529.56
389.387	537.56
389.612	534.56
389.837	532.56
390.062	527.56
390.287	558.56
390.512	549.56
390.736	509.56
390.961	536.56
391.186	531.56
391.411	544.56
391.636	532.56
391.86	538.56
392.085	550.56
392.31	546.56
392.534	542.56
392.759	563.56
392.984	559.56
393.208	568.56
393.433	559.56
393.658	564.56
393.882	559.56
394.107	541.56
394.331	562.56
394.556	560.56
394.78	542.56
395.005	540.56
395.229	550.56
395.454	539.56
395.678	547.56
395.903	576.56
396.127	549.56
396.352	552.56
396.576	566.56
396.801	548.56
397.025	566.56
397.249	557.56
397.474	552.56
397.698	552.56
397.922	578.56
398.147	569.56
398.371	546.56
398.595	574.56
398.82	569.56
399.044	566.56
399.268	576.56
399.492	587.56
399.717	596.56
399.941	597.56
400.165	601.56
400.389	562.56
400.613	583.56
400.837	577.56
401.062	564.56
401.286	582.56
401.51	583.56
401.734	564.56
401.958	571.56
402.182	585.56
402.406	581.56
402.63	564.56
402.854	586.56
403.078	609.56
403.302	589.56
403.526	598.56
403.75	586.56
403.974	591.56
404.198	582.56
404.422	576.56
404.645	566.56
404.869	587.56
405.093	623.56
405.317	598.56
405.541	584.56
405.765	581.56
405.988	585.56
406.212	611.56
406.436	607.56
406.66	594.56
406.883	607.56
407.107	615.56
407.331	605.56
407.555	601.56
407.778	584.56
408.002	617.56
408.226	618.56
408.449	609.56
408.673	618.56
408.896	612.56
409.12	631.56
409.344	612.56
409.567	592.56
409.791	618.56
410.014	619.56
410.238	608.56
410.461	601.56
410.685	594.56
410.908	611.56
411.132	583.56
411.355	596.56
411.578	591.56
411.802	583.56
412.025	592.56
412.249	599.56
412.472	592.56
412.695	593.56
412.919	597.56
413.142	606.56
413.365	581.56
413.589	604.56
413.812	582.56
414.035	589.56
414.258	596.56
414.482	581.56
414.705	604.56
414.928	579.56
415.151	580.56
415.374	573.56
415.597	575.56
415.821	557.56
416.044	568.56
416.267	570.56
416.49	576.56
416.713	575.56
416.936	576.56
417.159	560.56
417.382	588.56
417.605	566.56
417.828	577.56
418.051	566.56
418.274	574.56
418.497	575.56
418.72	570.56
418.943	560.56
419.166	573.56
419.389	610.56
419.611	573.56
419.834	542.56
420.057	556.56
420.28	565.56
420.503	550.56
420.726	562.56
420.948	575.56
421.171	563.56
421.394	548.56
421.617	544.56
421.839	557.56
422.062	581.56
422.285	533.56
422.507	572.56
422.73	566.56
422.953	568.56
423.175	560.56
423.398	587.56
423.621	551.56
423.843	537.56
424.066	564.56
424.288	550.56
424.511	561.56
424.733	584.56
424.956	558.56
425.178	571.56
425.401	560.56
425.623	556.56
425.846	564.56
426.068	574.56
426.291	547.56
426.513	556.56
426.735	578.56
426.958	565.56
427.18	574.56
427.402	568.56
427.625	576.56
427.847	563.56
428.069	549.56
428.292	569.56
428.514	544.56
428.736	548.56
428.958	551.56
429.181	556.56
429.403	540.56
429.625	548.56
429.847	540.56
430.069	556.56
430.292	561.56
430.514	554.56
430.736	552.56
430.958	560.56
431.18	560.56
431.402	536.56
431.624	536.56
431.846	553.56
432.068	535.56
432.29	560.56
432.512	524.56
432.734	567.56
432.956	560.56
433.178	543.56
433.4	551.56
433.622	577.56
433.844	576.56
434.066	556.56
434.287	558.56
434.509	541.56
434.731	554.56
434.953	546.56
435.175	581.56
435.397	562.56
435.618	548.56
435.84	540.56
436.062	547.56
436.284	547.56
436.505	559.56
436.727	575.56
436.949	566.56
437.17	547.56
437.392	540.56
437.614	519.56
437.835	532.56
438.057	540.56
438.278	530.56
438.5	533.56
438.721	545.56
438.943	544.56
439.165	542.56
439.386	547.56
439.608	553.56
439.829	522.56
440.05	547.56
440.272	542.56
440.493	546.56
440.715	560.56
440.936	558.56
441.158	551.56
441.379	556.56
441.6	552.56
441.822	562.56
442.043	556.56
442.264	566.56
442.486	562.56
442.707	558.56
442.928	574.56
443.149	562.56
443.371	566.56
443.592	557.56
443.813	552.56
444.034	558.56
444.255	547.56
444.476	560.56
444.698	537.56
444.919	540.56
445.14	646.56
445.361	586.56
445.582	566.56
445.803	534.56
446.024	546.56
446.245	550.56
446.466	553.56
446.687	535.56
446.908	565.56
447.129	544.56
447.35	543.56
447.571	528.56
447.792	510.56
448.013	526.56
448.234	528.56
448.455	520.56
448.675	540.56
448.896	535.56
449.117	517.56
449.338	522.56
449.559	505.56
449.779	542.56
450	514.56
450.221	498.56
450.442	533.56
450.662	511.56
450.883	514.56
451.104	528.56
451.324	535.56
451.545	513.56
451.766	519.56
451.986	522.56
452.207	530.56
452.428	505.56
452.648	512.56
452.869	510.56
453.089	481.56
453.31	510.56
453.53	525.56
453.751	518.56
453.971	489.56
454.192	513.56
454.412	532.56
454.633	524.56
454.853	507.56
455.073	496.56
455.294	521.56
455.514	498.56
455.734	516.56
455.955	489.56
456.175	497.56
456.395	500.56
456.616	486.56
456.836	522.56
457.056	500.56
457.276	492.56
457.497	516.56
457.717	505.56
457.937	510.56
458.157	520.56
458.377	518.56
458.598	511.56
458.818	535.56
459.038	522.56
459.258	515.56
459.478	556.56
459.698	533.56
459.918	518.56
460.138	540.56
460.358	531.56
460.578	527.56
460.798	556.56
461.018	557.56
461.238	544.56
461.458	543.56
461.678	538.56
461.898	549.56
462.118	545.56
462.338	556.56
462.558	559.56
462.777	560.56
462.997	584.56
463.217	565.56
463.437	558.56
463.657	553.56
463.876	550.56
464.096	587.56
464.316	576.56
464.536	578.56
464.755	569.56
464.975	569.56
465.195	581.56
465.414	546.56
465.634	540.56
465.854	535.56
466.073	555.56
466.293	556.56
466.512	538.56
466.732	545.56
466.951	556.56
467.171	542.56
467.391	570.56
467.61	552.56
467.829	531.56
468.049	533.56
468.268	536.56
468.488	524.56
468.707	533.56
468.927	528.56
469.146	536.56
469.365	557.56
469.585	557.56
469.804	556.56
470.023	567.56
470.243	543.56
470.462	551.56
470.681	564.56
470.901	568.56
471.12	588.56
471.339	568.56
471.558	552.56
471.777	567.56
471.997	554.56
472.216	556.56
472.435	549.56
472.654	546.56
472.873	569.56
473.092	570.56
473.311	567.56
473.53	589.56
473.749	590.56
473.968	574.56
474.187	554.56
474.406	527.56
474.625	593.56
474.844	569.56
475.063	583.56
475.282	584.56
475.501	601.56
475.72	586.56
475.939	580.56
476.158	599.56
476.377	591.56
476.596	597.56
476.814	595.56
477.033	601.56
477.252	614.56
477.471	617.56
477.69	622.56
477.908	624.56
478.127	631.56
478.346	624.56
478.564	615.56
478.783	632.56
479.002	656.56
479.22	650.56
479.439	647.56
479.658	648.56
479.876	631.56
480.095	646.56
480.313	659.56
480.532	626.56
480.751	629.56
480.969	645.56
481.188	658.56
481.406	669.56
481.624	658.56
481.843	645.56
482.061	668.56
482.28	654.56
482.498	685.56
482.717	662.56
482.935	654.56
483.153	671.56
483.372	698.56
483.59	672.56
483.808	650.56
484.027	664.56
484.245	686.56
484.463	686.56
484.681	704.56
484.9	691.56
485.118	700.56
485.336	688.56
485.554	675.56
485.772	676.56
485.99	686.56
486.209	694.56
486.427	676.56
486.645	674.56
486.863	697.56
487.081	695.56
487.299	718.56
487.517	705.56
487.735	677.56
487.953	705.56
488.171	709.56
488.389	706.56
488.607	712.56
488.825	716.56
489.043	703.56
489.261	705.56
489.479	690.56
489.696	688.56
489.914	724.56
490.132	722.56
490.35	684.56
490.568	712.56
490.786	724.56
491.003	719.56
491.221	729.56
491.439	702.56
491.657	716.56
491.874	721.56
492.092	730.56
492.31	723.56
492.527	727.56
492.745	734.56
492.963	720.56
493.18	709.56
493.398	713.56
493.615	716.56
493.833	708.56
494.05	725.56
494.268	719.56
494.485	724.56
494.703	727.56
494.92	758.56
495.138	724.56
495.355	762.56
495.573	744.56
495.79	749.56
496.008	747.56
496.225	768.56
496.442	776.56
496.66	744.56
496.877	734.56
497.094	754.56
497.312	757.56
497.529	751.56
497.746	776.56
497.963	738.56
498.181	777.56
498.398	766.56
498.615	798.56
498.832	824.56
499.049	782.56
499.267	795.56
499.484	809.56
499.701	811.56
499.918	805.56
500.135	843.56
500.352	850.56
500.569	839.56
500.786	830.56
501.003	820.56
501.22	838.56
501.437	822.56
501.654	819.56
501.871	798.56
