Data from Fe(NO3)3@0.05M.TitratingCurve.Agarose3%dH2O.NegLispCup.LampEnergy10.LIBS07252019_HRD10591_16-47-21-335.txt Node
Date: Thu Jul 25 16:47:21 EDT 2019
User: cochatt
Spectrometer: HR+D1059
Trigger mode: 1
Integration Time (sec): 1.000000E-1
Scans to average: 1
Electric dark correction enabled: true
Nonlinearity correction enabled: false
Boxcar width: 0
XAxis mode: Wavelengths
Number of Pixels in Spectrum: 2048
>>>>>Begin Spectral Data<<<<<
223.165	-12.5
223.4	-12.5
223.635	-12.5
223.869	-24.5
224.104	-19.5
224.338	-4.5
224.573	-14.5
224.808	-8.5
225.042	-7.5
225.277	0.5
225.511	-7.5
225.746	-19.5
225.98	1.5
226.215	16.5
226.449	4.5
226.683	16.5
226.918	32.5
227.152	46.5
227.387	34.5
227.621	19.5
227.856	31.5
228.09	29.5
228.324	48.5
228.559	48.5
228.793	61.5
229.027	72.5
229.262	73.5
229.496	76.5
229.73	91.5
229.964	81.5
230.199	102.5
230.433	94.5
230.667	103.5
230.901	112.5
231.136	103.5
231.37	97.5
231.604	95.5
231.838	101.5
232.072	110.5
232.306	97.5
232.541	109.5
232.775	104.5
233.009	99.5
233.243	104.5
233.477	103.5
233.711	108.5
233.945	103.5
234.179	104.5
234.413	117.5
234.647	107.5
234.881	96.5
235.115	105.5
235.349	105.5
235.583	112.5
235.817	105.5
236.051	111.5
236.285	108.5
236.519	116.5
236.753	113.5
236.987	121.5
237.221	111.5
237.455	118.5
237.689	121.5
237.922	113.5
238.156	124.5
238.39	133.5
238.624	116.5
238.858	127.5
239.091	111.5
239.325	113.5
239.559	117.5
239.793	125.5
240.027	112.5
240.26	130.5
240.494	119.5
240.728	122.5
240.961	133.5
241.195	119.5
241.429	127.5
241.662	125.5
241.896	118.5
242.13	139.5
242.363	114.5
242.597	123.5
242.83	127.5
243.064	136.5
243.298	119.5
243.531	136.5
243.765	131.5
243.998	136.5
244.232	132.5
244.465	129.5
244.699	119.5
244.932	135.5
245.166	136.5
245.399	121.5
245.633	127.5
245.866	134.5
246.099	135.5
246.333	148.5
246.566	137.5
246.8	147.5
247.033	143.5
247.266	140.5
247.5	150.5
247.733	143.5
247.966	150.5
248.2	134.5
248.433	144.5
248.666	138.5
248.899	152.5
249.133	148.5
249.366	137.5
249.599	161.5
249.832	146.5
250.066	145.5
250.299	143.5
250.532	151.5
250.765	157.5
250.998	145.5
251.231	158.5
251.465	144.5
251.698	151.5
251.931	151.5
252.164	174.5
252.397	168.5
252.63	184.5
252.863	169.5
253.096	160.5
253.329	167.5
253.562	160.5
253.795	152.5
254.028	187.5
254.261	153.5
254.494	153.5
254.727	165.5
254.96	159.5
255.193	162.5
255.426	155.5
255.659	164.5
255.892	184.5
256.124	173.5
256.357	160.5
256.59	173.5
256.823	171.5
257.056	173.5
257.289	171.5
257.521	166.5
257.754	165.5
257.987	183.5
258.22	178.5
258.452	179.5
258.685	169.5
258.918	171.5
259.151	186.5
259.383	178.5
259.616	168.5
259.849	191.5
260.081	200.5
260.314	177.5
260.547	182.5
260.779	187.5
261.012	197.5
261.244	192.5
261.477	199.5
261.71	203.5
261.942	199.5
262.175	187.5
262.407	196.5
262.64	186.5
262.872	187.5
263.105	190.5
263.337	198.5
263.57	198.5
263.802	182.5
264.035	198.5
264.267	203.5
264.499	187.5
264.732	201.5
264.964	199.5
265.197	200.5
265.429	185.5
265.661	192.5
265.894	192.5
266.126	197.5
266.358	194.5
266.591	204.5
266.823	182.5
267.055	194.5
267.287	197.5
267.52	211.5
267.752	199.5
267.984	201.5
268.216	205.5
268.448	200.5
268.681	213.5
268.913	216.5
269.145	206.5
269.377	221.5
269.609	209.5
269.841	221.5
270.073	209.5
270.306	222.5
270.538	220.5
270.77	228.5
271.002	210.5
271.234	205.5
271.466	208.5
271.698	205.5
271.93	226.5
272.162	210.5
272.394	243.5
272.626	218.5
272.858	224.5
273.09	223.5
273.322	230.5
273.553	229.5
273.785	231.5
274.017	222.5
274.249	243.5
274.481	230.5
274.713	235.5
274.945	254.5
275.176	258.5
275.408	261.5
275.64	245.5
275.872	245.5
276.104	242.5
276.335	232.5
276.567	236.5
276.799	212.5
277.031	225.5
277.262	245.5
277.494	244.5
277.726	231.5
277.957	227.5
278.189	242.5
278.421	249.5
278.652	249.5
278.884	258.5
279.115	236.5
279.347	228.5
279.579	238.5
279.81	240.5
280.042	264.5
280.273	256.5
280.505	249.5
280.736	260.5
280.968	243.5
281.199	244.5
281.431	259.5
281.662	251.5
281.894	245.5
282.125	246.5
282.356	272.5
282.588	254.5
282.819	260.5
283.051	260.5
283.282	257.5
283.513	257.5
283.745	274.5
283.976	260.5
284.207	239.5
284.439	254.5
284.67	274.5
284.901	271.5
285.132	250.5
285.364	275.5
285.595	271.5
285.826	265.5
286.057	271.5
286.288	279.5
286.52	271.5
286.751	269.5
286.982	266.5
287.213	269.5
287.444	263.5
287.675	257.5
287.906	263.5
288.138	260.5
288.369	292.5
288.6	292.5
288.831	274.5
289.062	273.5
289.293	261.5
289.524	275.5
289.755	265.5
289.986	268.5
290.217	273.5
290.448	277.5
290.679	295.5
290.91	275.5
291.141	277.5
291.371	287.5
291.602	258.5
291.833	271.5
292.064	263.5
292.295	265.5
292.526	270.5
292.757	284.5
292.987	289.5
293.218	272.5
293.449	270.5
293.68	278.5
293.91	271.5
294.141	281.5
294.372	268.5
294.603	267.5
294.833	278.5
295.064	284.5
295.295	285.5
295.525	287.5
295.756	290.5
295.987	294.5
296.217	284.5
296.448	288.5
296.679	268.5
296.909	310.5
297.14	286.5
297.37	291.5
297.601	308.5
297.831	297.5
298.062	277.5
298.292	298.5
298.523	299.5
298.753	292.5
298.984	291.5
299.214	275.5
299.445	311.5
299.675	295.5
299.905	318.5
300.136	295.5
300.366	319.5
300.597	307.5
300.827	308.5
301.057	309.5
301.288	305.5
301.518	316.5
301.748	321.5
301.979	327.5
302.209	320.5
302.439	312.5
302.669	326.5
302.9	311.5
303.13	295.5
303.36	327.5
303.59	297.5
303.82	335.5
304.051	331.5
304.281	309.5
304.511	316.5
304.741	317.5
304.971	313.5
305.201	319.5
305.431	309.5
305.661	322.5
305.891	321.5
306.121	294.5
306.352	322.5
306.582	297.5
306.812	308.5
307.042	305.5
307.272	301.5
307.502	321.5
307.731	312.5
307.961	333.5
308.191	335.5
308.421	319.5
308.651	313.5
308.881	313.5
309.111	302.5
309.341	327.5
309.571	309.5
309.8	309.5
310.03	318.5
310.26	335.5
310.49	312.5
310.72	316.5
310.949	322.5
311.179	312.5
311.409	333.5
311.639	342.5
311.868	329.5
312.098	316.5
312.328	333.5
312.557	324.5
312.787	324.5
313.017	321.5
313.246	345.5
313.476	334.5
313.706	344.5
313.935	357.5
314.165	349.5
314.394	298.5
314.624	335.5
314.853	345.5
315.083	327.5
315.312	361.5
315.542	347.5
315.771	348.5
316.001	344.5
316.23	325.5
316.46	331.5
316.689	329.5
316.919	326.5
317.148	330.5
317.377	316.5
317.607	340.5
317.836	337.5
318.065	328.5
318.295	333.5
318.524	340.5
318.753	315.5
318.983	314.5
319.212	325.5
319.441	310.5
319.67	339.5
319.9	328.5
320.129	337.5
320.358	322.5
320.587	352.5
320.816	327.5
321.046	358.5
321.275	349.5
321.504	351.5
321.733	340.5
321.962	353.5
322.191	331.5
322.42	329.5
322.649	338.5
322.878	339.5
323.108	356.5
323.337	354.5
323.566	375.5
323.795	349.5
324.024	345.5
324.253	350.5
324.482	353.5
324.71	326.5
324.939	325.5
325.168	350.5
325.397	368.5
325.626	355.5
325.855	371.5
326.084	353.5
326.313	361.5
326.542	375.5
326.77	356.5
326.999	347.5
327.228	356.5
327.457	357.5
327.686	360.5
327.914	353.5
328.143	382.5
328.372	381.5
328.6	349.5
328.829	375.5
329.058	360.5
329.287	353.5
329.515	369.5
329.744	373.5
329.972	370.5
330.201	358.5
330.43	365.5
330.658	394.5
330.887	379.5
331.115	376.5
331.344	377.5
331.572	395.5
331.801	374.5
332.03	399.5
332.258	399.5
332.486	404.5
332.715	431.5
332.943	441.5
333.172	436.5
333.4	434.5
333.629	456.5
333.857	445.5
334.085	452.5
334.314	470.5
334.542	452.5
334.771	451.5
334.999	434.5
335.227	439.5
335.455	436.5
335.684	427.5
335.912	431.5
336.14	427.5
336.369	428.5
336.597	409.5
336.825	423.5
337.053	443.5
337.281	411.5
337.51	406.5
337.738	410.5
337.966	412.5
338.194	386.5
338.422	414.5
338.65	384.5
338.878	398.5
339.106	401.5
339.334	395.5
339.562	410.5
339.79	385.5
340.018	375.5
340.246	390.5
340.474	359.5
340.702	383.5
340.93	375.5
341.158	397.5
341.386	381.5
341.614	403.5
341.842	377.5
342.07	391.5
342.298	367.5
342.526	393.5
342.754	383.5
342.981	372.5
343.209	391.5
343.437	428.5
343.665	403.5
343.893	444.5
344.12	452.5
344.348	433.5
344.576	424.5
344.804	416.5
345.031	401.5
345.259	391.5
345.487	376.5
345.714	367.5
345.942	383.5
346.17	382.5
346.397	385.5
346.625	373.5
346.853	361.5
347.08	372.5
347.308	365.5
347.535	358.5
347.763	373.5
347.99	365.5
348.218	382.5
348.445	375.5
348.673	365.5
348.9	375.5
349.128	355.5
349.355	344.5
349.583	345.5
349.81	360.5
350.037	364.5
350.265	375.5
350.492	357.5
350.72	371.5
350.947	368.5
351.174	363.5
351.402	378.5
351.629	349.5
351.856	360.5
352.083	371.5
352.311	365.5
352.538	355.5
352.765	364.5
352.992	351.5
353.22	369.5
353.447	344.5
353.674	358.5
353.901	388.5
354.128	365.5
354.355	363.5
354.583	358.5
354.81	369.5
355.037	377.5
355.264	376.5
355.491	352.5
355.718	377.5
355.945	379.5
356.172	367.5
356.399	364.5
356.626	367.5
356.853	371.5
357.08	380.5
357.307	369.5
357.534	372.5
357.761	367.5
357.988	380.5
358.215	367.5
358.441	360.5
358.668	351.5
358.895	352.5
359.122	357.5
359.349	357.5
359.576	354.5
359.802	359.5
360.029	375.5
360.256	371.5
360.483	353.5
360.709	373.5
360.936	384.5
361.163	395.5
361.39	361.5
361.616	358.5
361.843	358.5
362.07	354.5
362.296	358.5
362.523	371.5
362.749	382.5
362.976	385.5
363.203	370.5
363.429	359.5
363.656	355.5
363.882	371.5
364.109	370.5
364.335	384.5
364.562	380.5
364.788	371.5
365.015	358.5
365.241	359.5
365.468	374.5
365.694	371.5
365.92	375.5
366.147	375.5
366.373	363.5
366.599	367.5
366.826	389.5
367.052	358.5
367.278	373.5
367.505	357.5
367.731	375.5
367.957	387.5
368.184	391.5
368.41	379.5
368.636	378.5
368.862	392.5
369.089	379.5
369.315	380.5
369.541	379.5
369.767	386.5
369.993	388.5
370.219	365.5
370.445	392.5
370.672	378.5
370.898	411.5
371.124	399.5
371.35	398.5
371.576	397.5
371.802	384.5
372.028	389.5
372.254	397.5
372.48	414.5
372.706	412.5
372.932	423.5
373.158	407.5
373.384	411.5
373.61	407.5
373.835	406.5
374.061	389.5
374.287	419.5
374.513	427.5
374.739	418.5
374.965	437.5
375.191	451.5
375.416	437.5
375.642	431.5
375.868	436.5
376.094	415.5
376.319	391.5
376.545	384.5
376.771	411.5
376.997	414.5
377.222	397.5
377.448	396.5
377.674	395.5
377.899	379.5
378.125	414.5
378.35	404.5
378.576	408.5
378.802	390.5
379.027	399.5
379.253	413.5
379.478	393.5
379.704	399.5
379.929	399.5
380.155	398.5
380.38	402.5
380.606	406.5
380.831	409.5
381.057	433.5
381.282	413.5
381.507	396.5
381.733	412.5
381.958	418.5
382.184	421.5
382.409	451.5
382.634	421.5
382.86	441.5
383.085	452.5
383.31	437.5
383.535	441.5
383.761	439.5
383.986	436.5
384.211	443.5
384.436	465.5
384.662	464.5
384.887	467.5
385.112	460.5
385.337	456.5
385.562	472.5
385.787	485.5
386.013	481.5
386.238	467.5
386.463	491.5
386.688	517.5
386.913	482.5
387.138	469.5
387.363	475.5
387.588	465.5
387.813	494.5
388.038	484.5
388.263	478.5
388.488	494.5
388.713	500.5
388.938	460.5
389.163	467.5
389.387	483.5
389.612	467.5
389.837	494.5
390.062	487.5
390.287	473.5
390.512	474.5
390.736	480.5
390.961	487.5
391.186	493.5
391.411	508.5
391.636	519.5
391.86	531.5
392.085	531.5
392.31	538.5
392.534	503.5
392.759	525.5
392.984	496.5
393.208	486.5
393.433	507.5
393.658	531.5
393.882	507.5
394.107	492.5
394.331	493.5
394.556	512.5
394.78	522.5
395.005	508.5
395.229	524.5
395.454	535.5
395.678	527.5
395.903	543.5
396.127	564.5
396.352	532.5
396.576	531.5
396.801	511.5
397.025	525.5
397.249	531.5
397.474	533.5
397.698	547.5
397.922	539.5
398.147	548.5
398.371	552.5
398.595	573.5
398.82	616.5
399.044	631.5
399.268	691.5
399.492	737.5
399.717	802.5
399.941	829.5
400.165	742.5
400.389	704.5
400.613	681.5
400.837	638.5
401.062	629.5
401.286	604.5
401.51	591.5
401.734	587.5
401.958	605.5
402.182	610.5
402.406	600.5
402.63	622.5
402.854	619.5
403.078	609.5
403.302	609.5
403.526	623.5
403.75	645.5
403.974	668.5
404.198	666.5
404.422	659.5
404.645	657.5
404.869	655.5
405.093	641.5
405.317	645.5
405.541	641.5
405.765	641.5
405.988	656.5
406.212	641.5
406.436	639.5
406.66	677.5
406.883	671.5
407.107	693.5
407.331	695.5
407.555	702.5
407.778	725.5
408.002	700.5
408.226	701.5
408.449	684.5
408.673	676.5
408.896	678.5
409.12	671.5
409.344	681.5
409.567	659.5
409.791	664.5
410.014	679.5
410.238	633.5
410.461	653.5
410.685	638.5
410.908	643.5
411.132	613.5
411.355	632.5
411.578	618.5
411.802	627.5
412.025	621.5
412.249	634.5
412.472	632.5
412.695	604.5
412.919	608.5
413.142	603.5
413.365	616.5
413.589	606.5
413.812	619.5
414.035	604.5
414.258	591.5
414.482	603.5
414.705	620.5
414.928	595.5
415.151	619.5
415.374	596.5
415.597	599.5
415.821	606.5
416.044	576.5
416.267	602.5
416.49	593.5
416.713	580.5
416.936	579.5
417.159	574.5
417.382	607.5
417.605	584.5
417.828	599.5
418.051	599.5
418.274	595.5
418.497	590.5
418.72	606.5
418.943	627.5
419.166	635.5
419.389	664.5
419.611	667.5
419.834	643.5
420.057	603.5
420.28	595.5
420.503	587.5
420.726	578.5
420.948	565.5
421.171	595.5
421.394	572.5
421.617	601.5
421.839	584.5
422.062	606.5
422.285	581.5
422.507	581.5
422.73	582.5
422.953	586.5
423.175	589.5
423.398	619.5
423.621	597.5
423.843	615.5
424.066	641.5
424.288	610.5
424.511	596.5
424.733	598.5
424.956	601.5
425.178	607.5
425.401	598.5
425.623	599.5
425.846	567.5
426.068	585.5
426.291	578.5
426.513	537.5
426.735	558.5
426.958	576.5
427.18	565.5
427.402	574.5
427.625	566.5
427.847	547.5
428.069	571.5
428.292	556.5
428.514	545.5
428.736	555.5
428.958	553.5
429.181	538.5
429.403	534.5
429.625	513.5
429.847	530.5
430.069	532.5
430.292	539.5
430.514	530.5
430.736	525.5
430.958	534.5
431.18	552.5
431.402	535.5
431.624	543.5
431.846	559.5
432.068	566.5
432.29	566.5
432.512	540.5
432.734	558.5
432.956	557.5
433.178	574.5
433.4	549.5
433.622	569.5
433.844	564.5
434.066	535.5
434.287	572.5
434.509	560.5
434.731	595.5
434.953	604.5
435.175	620.5
435.397	596.5
435.618	573.5
435.84	577.5
436.062	534.5
436.284	574.5
436.505	566.5
436.727	536.5
436.949	525.5
437.17	548.5
437.392	538.5
437.614	538.5
437.835	523.5
438.057	534.5
438.278	528.5
438.5	543.5
438.721	521.5
438.943	571.5
439.165	534.5
439.386	523.5
439.608	547.5
439.829	571.5
440.05	554.5
440.272	542.5
440.493	547.5
440.715	557.5
440.936	577.5
441.158	582.5
441.379	575.5
441.6	615.5
441.822	629.5
442.043	588.5
442.264	603.5
442.486	592.5
442.707	608.5
442.928	561.5
443.149	600.5
443.371	593.5
443.592	593.5
443.813	582.5
444.034	596.5
444.255	610.5
444.476	623.5
444.698	681.5
444.919	667.5
445.14	745.5
445.361	665.5
445.582	622.5
445.803	592.5
446.024	596.5
446.245	567.5
446.466	560.5
446.687	576.5
446.908	560.5
447.129	548.5
447.35	545.5
447.571	561.5
447.792	521.5
448.013	547.5
448.234	520.5
448.455	534.5
448.675	528.5
448.896	527.5
449.117	526.5
449.338	523.5
449.559	501.5
449.779	497.5
450	493.5
450.221	507.5
450.442	530.5
450.662	519.5
450.883	520.5
451.104	497.5
451.324	511.5
451.545	498.5
451.766	512.5
451.986	494.5
452.207	500.5
452.428	503.5
452.648	509.5
452.869	500.5
453.089	518.5
453.31	512.5
453.53	480.5
453.751	484.5
453.971	484.5
454.192	494.5
454.412	488.5
454.633	471.5
454.853	488.5
455.073	481.5
455.294	476.5
455.514	479.5
455.734	497.5
455.955	478.5
456.175	486.5
456.395	485.5
456.616	484.5
456.836	486.5
457.056	476.5
457.276	476.5
457.497	498.5
457.717	481.5
457.937	487.5
458.157	503.5
458.377	497.5
458.598	479.5
458.818	503.5
459.038	531.5
459.258	517.5
459.478	548.5
459.698	547.5
459.918	555.5
460.138	601.5
460.358	615.5
460.578	633.5
460.798	626.5
461.018	646.5
461.238	608.5
461.458	606.5
461.678	621.5
461.898	637.5
462.118	647.5
462.338	672.5
462.558	674.5
462.777	688.5
462.997	727.5
463.217	793.5
463.437	766.5
463.657	712.5
463.876	716.5
464.096	707.5
464.316	707.5
464.536	686.5
464.755	694.5
464.975	673.5
465.195	653.5
465.414	623.5
465.634	590.5
465.854	550.5
466.073	583.5
466.293	545.5
466.512	550.5
466.732	543.5
466.951	541.5
467.171	523.5
467.391	532.5
467.61	547.5
467.829	527.5
468.049	532.5
468.268	534.5
468.488	517.5
468.707	507.5
468.927	517.5
469.146	515.5
469.365	529.5
469.585	499.5
469.804	527.5
470.023	543.5
470.243	548.5
470.462	558.5
470.681	558.5
470.901	563.5
471.12	552.5
471.339	555.5
471.558	528.5
471.777	517.5
471.997	513.5
472.216	528.5
472.435	509.5
472.654	511.5
472.873	522.5
473.092	512.5
473.311	513.5
473.53	516.5
473.749	531.5
473.968	502.5
474.187	512.5
474.406	517.5
474.625	503.5
474.844	516.5
475.063	513.5
475.282	511.5
475.501	504.5
475.72	519.5
475.939	519.5
476.158	526.5
476.377	532.5
476.596	545.5
476.814	541.5
477.033	547.5
477.252	540.5
477.471	556.5
477.69	577.5
477.908	587.5
478.127	612.5
478.346	594.5
478.564	609.5
478.783	612.5
479.002	624.5
479.22	601.5
479.439	608.5
479.658	599.5
479.876	617.5
480.095	625.5
480.313	637.5
480.532	654.5
480.751	671.5
480.969	616.5
481.188	630.5
481.406	612.5
481.624	572.5
481.843	559.5
482.061	593.5
482.28	600.5
482.498	600.5
482.717	562.5
482.935	597.5
483.153	591.5
483.372	585.5
483.59	590.5
483.808	608.5
484.027	574.5
484.245	575.5
484.463	582.5
484.681	586.5
484.9	610.5
485.118	592.5
485.336	574.5
485.554	587.5
485.772	599.5
485.99	601.5
486.209	594.5
486.427	601.5
486.645	592.5
486.863	590.5
487.081	594.5
487.299	607.5
487.517	614.5
487.735	612.5
487.953	595.5
488.171	626.5
488.389	639.5
488.607	601.5
488.825	583.5
489.043	584.5
489.261	604.5
489.479	599.5
489.696	588.5
489.914	610.5
490.132	604.5
490.35	607.5
490.568	606.5
490.786	618.5
491.003	615.5
491.221	611.5
491.439	614.5
491.657	627.5
491.874	626.5
492.092	652.5
492.31	634.5
492.527	638.5
492.745	636.5
492.963	632.5
493.18	607.5
493.398	623.5
493.615	643.5
493.833	619.5
494.05	640.5
494.268	622.5
494.485	636.5
494.703	643.5
494.92	629.5
495.138	634.5
495.355	632.5
495.573	640.5
495.79	653.5
496.008	674.5
496.225	672.5
496.442	678.5
496.66	670.5
496.877	669.5
497.094	648.5
497.312	697.5
497.529	677.5
497.746	707.5
497.963	728.5
498.181	761.5
498.398	800.5
498.615	833.5
498.832	859.5
499.049	898.5
499.267	975.5
499.484	1011.5
499.701	1116.5
499.918	1202.5
500.135	1335.5
500.352	1455.5
500.569	1525.5
500.786	1497.5
501.003	1428.5
501.22	1295.5
501.437	1181.5
501.654	1058.5
501.871	1021.5
502.088	947.5
502.305	887.5
502.522	844.5
502.739	825.5
502.956	811.5
503.172	774.5
503.389	750.5
503.606	724.5
503.823	715.5
504.04	721.5
504.256	726.5
504.473	709.5
504.69	720.5
504.907	701.5
505.123	675.5
505.34	655.5
505.557	632.5
505.773	639.5
505.99	605.5
506.207	615.5
506.423	583.5
506.64	610.5
506.856	596.5
507.073	565.5
507.289	580.5
507.506	579.5
507.722	568.5
507.939	561.5
508.155	562.5
508.372	551.5
508.588	541.5
508.805	552.5
509.021	510.5
509.238	523.5
509.454	512.5
509.67	536.5
509.887	508.5
510.103	501.5
510.319	519.5
510.536	514.5
510.752	496.5
510.968	513.5
511.184	512.5
511.401	532.5
511.617	521.5
511.833	514.5
512.049	520.5
512.265	506.5
512.481	509.5
512.698	493.5
512.914	507.5
513.13	520.5
513.346	499.5
513.562	507.5
513.778	508.5
513.994	509.5
514.21	503.5
514.426	499.5
514.642	532.5
514.858	513.5
515.074	527.5
515.29	527.5
515.506	530.5
515.721	515.5
515.937	528.5
516.153	540.5
516.369	573.5
516.585	575.5
516.801	588.5
517.016	604.5
517.232	596.5
517.448	636.5
517.664	667.5
517.879	670.5
518.095	629.5
518.311	615.5
518.527	619.5
518.742	610.5
518.958	609.5
519.173	583.5
519.389	561.5
