Data from Fe(NO3)3@0.0125M.TitratingCurve.Agarose3%dH2O.NegLispCup.LampEnergy10.LIBS07252019_HRD10591_16-58-37-336.txt Node
Date: Thu Jul 25 16:58:37 EDT 2019
User: cochatt
Spectrometer: HR+D1059
Trigger mode: 1
Integration Time (sec): 1.000000E-1
Scans to average: 1
Electric dark correction enabled: true
Nonlinearity correction enabled: false
Boxcar width: 0
XAxis mode: Wavelengths
Number of Pixels in Spectrum: 2048
>>>>>Begin Spectral Data<<<<<
223.165	-22
223.4	-22
223.635	-22
223.869	-12
224.104	-11
224.338	-18
224.573	-7
224.808	-24
225.042	-14
225.277	2
225.511	-5
225.746	13
225.98	7
226.215	2
226.449	2
226.683	21
226.918	33
227.152	33
227.387	43
227.621	53
227.856	40
228.09	40
228.324	43
228.559	43
228.793	70
229.027	88
229.262	96
229.496	106
229.73	99
229.964	105
230.199	107
230.433	112
230.667	108
230.901	109
231.136	125
231.37	125
231.604	119
231.838	125
232.072	116
232.306	124
232.541	113
232.775	118
233.009	137
233.243	116
233.477	125
233.711	123
233.945	127
234.179	115
234.413	125
234.647	125
234.881	128
235.115	123
235.349	138
235.583	135
235.817	125
236.051	122
236.285	143
236.519	126
236.753	123
236.987	139
237.221	132
237.455	134
237.689	148
237.922	141
238.156	132
238.39	129
238.624	128
238.858	149
239.091	138
239.325	141
239.559	163
239.793	151
240.027	156
240.26	140
240.494	154
240.728	143
240.961	149
241.195	140
241.429	161
241.662	156
241.896	156
242.13	156
242.363	164
242.597	146
242.83	150
243.064	156
243.298	154
243.531	158
243.765	163
243.998	157
244.232	174
244.465	163
244.699	162
244.932	156
245.166	158
245.399	158
245.633	156
245.866	181
246.099	169
246.333	168
246.566	164
246.8	171
247.033	180
247.266	181
247.5	169
247.733	185
247.966	180
248.2	188
248.433	165
248.666	192
248.899	183
249.133	174
249.366	186
249.599	184
249.832	172
250.066	204
250.299	183
250.532	201
250.765	199
250.998	195
251.231	182
251.465	183
251.698	205
251.931	196
252.164	205
252.397	196
252.63	215
252.863	200
253.096	219
253.329	192
253.562	204
253.795	214
254.028	209
254.261	217
254.494	219
254.727	212
254.96	202
255.193	205
255.426	230
255.659	206
255.892	200
256.124	216
256.357	231
256.59	217
256.823	206
257.056	222
257.289	237
257.521	214
257.754	225
257.987	218
258.22	216
258.452	229
258.685	213
258.918	232
259.151	233
259.383	225
259.616	236
259.849	243
260.081	245
260.314	242
260.547	240
260.779	246
261.012	244
261.244	235
261.477	245
261.71	255
261.942	240
262.175	257
262.407	246
262.64	241
262.872	243
263.105	242
263.337	266
263.57	258
263.802	259
264.035	257
264.267	263
264.499	250
264.732	257
264.964	254
265.197	248
265.429	270
265.661	273
265.894	289
266.126	266
266.358	276
266.591	260
266.823	264
267.055	259
267.287	276
267.52	261
267.752	283
267.984	277
268.216	275
268.448	274
268.681	281
268.913	284
269.145	286
269.377	292
269.609	272
269.841	281
270.073	293
270.306	273
270.538	285
270.77	277
271.002	283
271.234	270
271.466	295
271.698	282
271.93	290
272.162	306
272.394	288
272.626	304
272.858	300
273.09	323
273.322	306
273.553	283
273.785	310
274.017	290
274.249	323
274.481	320
274.713	322
274.945	329
275.176	327
275.408	314
275.64	322
275.872	321
276.104	344
276.335	314
276.567	329
276.799	343
277.031	322
277.262	341
277.494	336
277.726	355
277.957	325
278.189	323
278.421	333
278.652	348
278.884	334
279.115	333
279.347	349
279.579	345
279.81	345
280.042	332
280.273	321
280.505	343
280.736	348
280.968	333
281.199	364
281.431	357
281.662	369
281.894	342
282.125	354
282.356	358
282.588	341
282.819	373
283.051	346
283.282	350
283.513	373
283.745	367
283.976	375
284.207	370
284.439	361
284.67	365
284.901	375
285.132	384
285.364	380
285.595	394
285.826	365
286.057	386
286.288	378
286.52	398
286.751	401
286.982	398
287.213	398
287.444	409
287.675	388
287.906	388
288.138	396
288.369	389
288.6	396
288.831	389
289.062	405
289.293	399
289.524	398
289.755	405
289.986	412
290.217	398
290.448	392
290.679	405
290.91	384
291.141	403
291.371	416
291.602	406
291.833	437
292.064	417
292.295	390
292.526	403
292.757	398
292.987	398
293.218	398
293.449	421
293.68	398
293.91	396
294.141	415
294.372	392
294.603	427
294.833	419
295.064	442
295.295	414
295.525	428
295.756	403
295.987	417
296.217	420
296.448	410
296.679	420
296.909	426
297.14	434
297.37	447
297.601	440
297.831	438
298.062	425
298.292	452
298.523	450
298.753	440
298.984	443
299.214	444
299.445	451
299.675	454
299.905	434
300.136	439
300.366	456
300.597	457
300.827	451
301.057	453
301.288	478
301.518	473
301.748	461
301.979	486
302.209	466
302.439	490
302.669	470
302.9	457
303.13	461
303.36	470
303.59	457
303.82	487
304.051	478
304.281	465
304.511	466
304.741	492
304.971	466
305.201	486
305.431	483
305.661	480
305.891	465
306.121	500
306.352	477
306.582	472
306.812	479
307.042	480
307.272	493
307.502	478
307.731	492
307.961	484
308.191	486
308.421	483
308.651	483
308.881	491
309.111	481
309.341	477
309.571	507
309.8	498
310.03	500
310.26	496
310.49	490
310.72	516
310.949	486
311.179	502
311.409	511
311.639	498
311.868	531
312.098	524
312.328	504
312.557	520
312.787	492
313.017	510
313.246	521
313.476	508
313.706	506
313.935	532
314.165	514
314.394	523
314.624	528
314.853	520
315.083	523
315.312	556
315.542	531
315.771	538
316.001	533
316.23	532
316.46	532
316.689	555
316.919	558
317.148	548
317.377	547
317.607	556
317.836	547
318.065	539
318.295	547
318.524	550
318.753	568
318.983	544
319.212	528
319.441	554
319.67	567
319.9	544
320.129	548
320.358	534
320.587	560
320.816	568
321.046	567
321.275	566
321.504	569
321.733	562
321.962	577
322.191	587
322.42	580
322.649	568
322.878	585
323.108	553
323.337	588
323.566	564
323.795	582
324.024	592
324.253	564
324.482	574
324.71	583
324.939	588
325.168	605
325.397	577
325.626	593
325.855	587
326.084	583
326.313	573
326.542	587
326.77	588
326.999	577
327.228	612
327.457	624
327.686	601
327.914	585
328.143	613
328.372	606
328.6	595
328.829	585
329.058	591
329.287	588
329.515	612
329.744	587
329.972	599
330.201	600
330.43	609
330.658	611
330.887	589
331.115	609
331.344	633
331.572	598
331.801	630
332.03	624
332.258	614
332.486	613
332.715	627
332.943	632
333.172	636
333.4	642
333.629	629
333.857	642
334.085	664
334.314	682
334.542	652
334.771	656
334.999	672
335.227	625
335.455	677
335.684	664
335.912	645
336.14	660
336.369	654
336.597	653
336.825	654
337.053	663
337.281	658
337.51	650
337.738	654
337.966	654
338.194	633
338.422	655
338.65	656
338.878	673
339.106	627
339.334	638
339.562	667
339.79	659
340.018	643
340.246	638
340.474	622
340.702	617
340.93	650
341.158	645
341.386	662
341.614	649
341.842	643
342.07	642
342.298	640
342.526	637
342.754	646
342.981	636
343.209	635
343.437	636
343.665	636
343.893	651
344.12	642
344.348	679
344.576	647
344.804	662
345.031	647
345.259	666
345.487	651
345.714	633
345.942	630
346.17	639
346.397	634
346.625	613
346.853	632
347.08	616
347.308	618
347.535	628
347.763	632
347.99	602
348.218	644
348.445	621
348.673	601
348.9	606
349.128	604
349.355	616
349.583	624
349.81	626
350.037	637
350.265	608
350.492	601
350.72	609
350.947	597
351.174	609
351.402	629
351.629	616
351.856	598
352.083	611
352.311	633
352.538	615
352.765	609
352.992	608
353.22	601
353.447	600
353.674	628
353.901	605
354.128	614
354.355	628
354.583	605
354.81	608
355.037	608
355.264	625
355.491	630
355.718	624
355.945	620
356.172	603
356.399	605
356.626	591
356.853	629
357.08	630
357.307	614
357.534	570
357.761	618
357.988	644
358.215	644
358.441	628
358.668	633
358.895	613
359.122	583
359.349	628
359.576	627
359.802	610
360.029	631
360.256	608
360.483	616
360.709	617
360.936	629
361.163	619
361.39	634
361.616	619
361.843	632
362.07	632
362.296	635
362.523	597
362.749	606
362.976	641
363.203	629
363.429	611
363.656	631
363.882	626
364.109	622
364.335	629
364.562	622
364.788	613
365.015	640
365.241	632
365.468	638
365.694	617
365.92	634
366.147	640
366.373	636
366.599	658
366.826	613
367.052	634
367.278	640
367.505	645
367.731	647
367.957	641
368.184	624
368.41	624
368.636	638
368.862	642
369.089	660
369.315	653
369.541	638
369.767	661
369.993	643
370.219	664
370.445	646
370.672	680
370.898	668
371.124	661
371.35	672
371.576	681
371.802	662
372.028	649
372.254	652
372.48	625
372.706	684
372.932	660
373.158	662
373.384	674
373.61	675
373.835	680
374.061	680
374.287	680
374.513	671
374.739	658
374.965	664
375.191	678
375.416	672
375.642	662
375.868	708
376.094	681
376.319	667
376.545	642
376.771	658
376.997	655
377.222	676
377.448	641
377.674	658
377.899	663
378.125	688
378.35	679
378.576	654
378.802	655
379.027	653
379.253	681
379.478	672
379.704	651
379.929	675
380.155	638
380.38	640
380.606	667
380.831	672
381.057	679
381.282	675
381.507	672
381.733	653
381.958	663
382.184	677
382.409	690
382.634	694
382.86	684
383.085	664
383.31	682
383.535	695
383.761	689
383.986	686
384.211	701
384.436	712
384.662	688
384.887	732
385.112	712
385.337	719
385.562	712
385.787	722
386.013	731
386.238	709
386.463	699
386.688	717
386.913	694
387.138	706
387.363	720
387.588	707
387.813	715
388.038	706
388.263	717
388.488	749
388.713	743
388.938	726
389.163	735
389.387	724
389.612	723
389.837	723
390.062	750
390.287	750
390.512	727
390.736	747
390.961	746
391.186	743
391.411	733
391.636	729
391.86	772
392.085	746
392.31	783
392.534	769
392.759	756
392.984	747
393.208	752
393.433	772
393.658	745
393.882	724
394.107	757
394.331	732
394.556	745
394.78	761
395.005	754
395.229	759
395.454	749
395.678	774
395.903	756
396.127	774
396.352	740
396.576	756
396.801	775
397.025	782
397.249	800
397.474	794
397.698	803
397.922	778
398.147	757
398.371	801
398.595	822
398.82	812
399.044	827
399.268	842
399.492	850
399.717	893
399.941	871
400.165	871
400.389	877
400.613	865
400.837	845
401.062	861
401.286	824
401.51	808
401.734	827
401.958	822
402.182	809
402.406	844
402.63	813
402.854	816
403.078	830
403.302	812
403.526	826
403.75	830
403.974	820
404.198	802
404.422	830
404.645	830
404.869	828
405.093	826
405.317	842
405.541	853
405.765	838
405.988	831
406.212	848
406.436	849
406.66	865
406.883	871
407.107	884
407.331	847
407.555	901
407.778	868
408.002	907
408.226	894
408.449	870
408.673	883
408.896	859
409.12	855
409.344	897
409.567	865
409.791	868
410.014	849
410.238	859
410.461	844
410.685	851
410.908	817
411.132	833
411.355	835
411.578	851
411.802	833
412.025	841
412.249	848
412.472	850
412.695	809
412.919	826
413.142	867
413.365	846
413.589	845
413.812	810
414.035	830
414.258	810
414.482	824
414.705	833
414.928	825
415.151	825
415.374	811
415.597	794
415.821	777
416.044	789
416.267	787
416.49	803
416.713	790
416.936	813
417.159	777
417.382	786
417.605	790
417.828	806
418.051	766
418.274	763
418.497	764
418.72	783
418.943	766
419.166	765
419.389	837
419.611	839
419.834	839
420.057	800
420.28	792
420.503	760
420.726	747
420.948	760
421.171	753
421.394	782
421.617	770
421.839	780
422.062	780
422.285	768
422.507	771
422.73	735
422.953	792
423.175	773
423.398	765
423.621	756
423.843	748
424.066	784
424.288	750
424.511	754
424.733	766
424.956	764
425.178	774
425.401	772
425.623	769
425.846	772
426.068	762
426.291	779
426.513	745
426.735	768
426.958	770
427.18	738
427.402	769
427.625	784
427.847	749
428.069	761
428.292	760
428.514	732
428.736	752
428.958	778
429.181	733
429.403	731
429.625	740
429.847	725
430.069	749
430.292	757
430.514	731
430.736	764
430.958	767
431.18	743
431.402	727
431.624	732
431.846	726
432.068	745
432.29	770
432.512	714
432.734	757
432.956	748
433.178	737
433.4	740
433.622	743
433.844	744
434.066	761
434.287	775
434.509	757
434.731	737
434.953	736
435.175	742
435.397	765
435.618	774
435.84	741
436.062	724
436.284	709
436.505	745
436.727	740
436.949	738
437.17	738
437.392	710
437.614	706
437.835	698
438.057	719
438.278	707
438.5	721
438.721	709
438.943	714
439.165	692
439.386	708
439.608	711
439.829	717
440.05	725
440.272	713
440.493	751
440.715	753
440.936	714
441.158	740
441.379	728
441.6	745
441.822	728
442.043	734
442.264	722
442.486	707
442.707	745
442.928	745
443.149	742
443.371	735
443.592	746
443.813	749
444.034	737
444.255	758
444.476	745
444.698	761
444.919	754
445.14	844
445.361	797
445.582	765
445.803	736
446.024	732
446.245	729
446.466	723
446.687	725
446.908	711
447.129	736
447.35	716
447.571	704
447.792	695
448.013	706
448.234	713
448.455	681
448.675	675
448.896	675
449.117	660
449.338	673
449.559	681
449.779	664
450	680
450.221	688
450.442	675
450.662	685
450.883	670
451.104	675
451.324	657
451.545	700
451.766	683
451.986	683
452.207	678
452.428	670
452.648	667
452.869	660
453.089	655
453.31	664
453.53	673
453.751	648
453.971	655
454.192	642
454.412	648
454.633	647
454.853	643
455.073	652
455.294	667
455.514	651
455.734	667
455.955	653
456.175	659
456.395	666
456.616	666
456.836	659
457.056	658
457.276	627
457.497	659
457.717	669
457.937	646
458.157	673
458.377	657
458.598	686
458.818	669
459.038	698
459.258	701
459.478	660
459.698	686
459.918	728
460.138	730
460.358	728
460.578	724
460.798	756
461.018	763
461.238	730
461.458	770
461.678	742
461.898	760
462.118	734
462.338	758
462.558	756
462.777	778
462.997	790
463.217	795
463.437	803
463.657	817
463.876	778
464.096	795
464.316	790
464.536	799
464.755	800
464.975	786
465.195	783
465.414	744
465.634	736
465.854	750
466.073	736
466.293	726
466.512	720
466.732	700
466.951	706
467.171	721
467.391	715
467.61	683
467.829	697
468.049	726
468.268	691
468.488	693
468.707	712
468.927	706
469.146	694
469.365	694
469.585	722
469.804	688
470.023	684
470.243	686
470.462	715
470.681	722
470.901	718
471.12	714
471.339	730
471.558	713
471.777	715
471.997	711
472.216	712
472.435	729
472.654	698
472.873	714
473.092	737
473.311	728
473.53	727
473.749	735
473.968	729
474.187	748
474.406	719
474.625	734
474.844	742
475.063	737
475.282	738
475.501	724
475.72	770
475.939	736
476.158	757
476.377	764
476.596	744
476.814	775
477.033	761
477.252	771
477.471	777
477.69	828
477.908	828
478.127	796
478.346	770
478.564	791
478.783	809
479.002	825
479.22	828
479.439	865
479.658	796
479.876	820
480.095	812
480.313	847
480.532	853
480.751	832
480.969	822
481.188	841
481.406	845
481.624	835
481.843	847
482.061	832
482.28	823
482.498	827
482.717	811
482.935	843
483.153	872
483.372	845
483.59	865
483.808	861
484.027	847
484.245	853
484.463	853
484.681	861
484.9	844
485.118	852
485.336	846
485.554	859
485.772	875
485.99	881
486.209	875
486.427	878
486.645	861
486.863	845
487.081	896
487.299	858
487.517	871
487.735	876
487.953	892
488.171	913
488.389	880
488.607	853
488.825	876
489.043	886
489.261	910
489.479	872
489.696	878
489.914	865
490.132	867
490.35	867
490.568	896
490.786	900
491.003	875
491.221	889
491.439	861
491.657	887
491.874	920
492.092	904
492.31	877
492.527	878
492.745	913
492.963	904
493.18	892
493.398	895
493.615	860
493.833	914
494.05	891
494.268	918
494.485	909
494.703	906
494.92	895
495.138	913
495.355	925
495.573	939
495.79	944
496.008	932
496.225	918
496.442	940
496.66	937
496.877	939
497.094	955
497.312	985
497.529	1016
497.746	999
497.963	968
498.181	988
498.398	1053
498.615	1027
498.832	1059
499.049	1099
499.267	1139
499.484	1140
499.701	1212
499.918	1183
500.135	1238
500.352	1240
500.569	1261
500.786	1234
501.003	1258
501.22	1232
501.437	1197
501.654	1180
501.871	1140
502.088	1108
502.305	1083
502.522	1108
502.739	1058
502.956	1022
503.172	1044
503.389	1030
503.606	992
503.823	976
504.04	951
504.256	910
504.473	928
504.69	942
504.907	953
505.123	924
505.34	884
505.557	910
505.773	850
505.99	872
506.207	860
506.423	853
506.64	845
506.856	824
507.073	844
507.289	797
507.506	828
507.722	803
507.939	827
508.155	813
508.372	801
508.588	779
508.805	814
509.021	794
509.238	754
509.454	798
509.67	767
509.887	747
510.103	770
510.319	754
510.536	773
510.752	745
510.968	754
511.184	743
511.401	770
511.617	775
511.833	771
512.049	775
512.265	767
512.481	747
512.698	746
512.914	745
513.13	775
513.346	750
513.562	753
513.778	739
513.994	760
514.21	754
514.426	752
514.642	765
514.858	757
515.074	774
515.29	750
515.506	791
515.721	746
515.937	774
516.153	758
516.369	775
516.585	790
516.801	788
517.016	785
517.232	781
517.448	788
517.664	802
517.879	794
518.095	789
518.311	810
518.527	775
518.742	776
518.958	750
519.173	771
519.389	779
519.605	718
519.82	772
520.036	750
520.251	737
520.467	768
520.682	746
520.898	730
521.113	716
521.329	754
521.544	699
521.76	725
521.975	714
522.19	724
522.406	714
522.621	700
522.836	707
523.052	715
523.267	704
523.482	683
523.698	689
523.913	701
524.128	697
524.343	708
524.559	694
524.774	698
524.989	713
525.204	685
525.419	690
525.634	696
525.849	699
526.064	690
526.28	680
526.495	672
526.71	682
526.925	701
527.14	669
527.355	666
527.57	691
527.785	674
527.999	675
528.214	676
528.429	667
528.644	681
528.859	681
529.074	685
529.289	688
529.503	700
529.718	676
529.933	661
530.148	675
530.363	664
530.577	663
530.792	646
531.007	659
531.221	638
531.436	672
531.651	666
531.865	655
532.08	657
532.295	660
532.509	635
532.724	652
532.938	674
533.153	664
533.367	644
533.582	659
533.796	642
534.011	649
534.225	658
534.44	634
534.654	652
534.868	625
535.083	634
535.297	642
535.511	641
535.726	655
535.94	652
536.154	651
536.369	639
536.583	630
536.797	613
537.011	638
537.225	638
537.44	618
537.654	632
537.868	606
538.082	627
538.296	630
538.51	626
538.724	622
538.938	627
539.153	628
539.367	618
539.581	615
539.795	605
540.009	622
540.222	610
540.436	599
540.65	596
540.864	597
541.078	615
541.292	606
541.506	617
541.72	606
541.934	589
542.147	613
542.361	615
542.575	589
542.789	594
543.002	600
543.216	580
543.43	599
543.644	606
543.857	585
544.071	596
544.285	604
544.498	622
544.712	600
544.925	591
545.139	601
545.352	586
545.566	566
545.779	609
545.993	620
546.206	611
546.42	587
546.633	598
546.847	595
547.06	586
547.274	602
547.487	593
547.7	579
547.914	588
548.127	596
548.34	579
548.554	596
548.767	581
548.98	594
549.193	615
549.407	607
549.62	573
549.833	585
550.046	576
550.259	587
550.473	597
550.686	573
550.899	584
551.112	555
551.325	570
551.538	532
551.751	550
551.964	584
552.177	573
552.39	568
552.603	588
552.816	589
553.029	585
553.242	586
553.455	569
553.667	582
553.88	571
554.093	587
554.306	578
554.519	563
554.732	556
554.944	556
555.157	555
555.37	558
555.583	547
555.795	557
556.008	539
556.221	529
556.433	542
556.646	531
556.859	522
557.071	521
557.284	507
557.496	535
557.709	522
557.921	505
558.134	493
558.346	550
558.559	513
558.771	535
558.984	529
559.196	524
559.409	523
559.621	500
559.833	528
560.046	515
560.258	525
560.47	521
560.683	501
560.895	496
561.107	507
561.32	497
561.532	506
561.744	512
561.956	519
562.168	497
562.381	516
562.593	506
562.805	515
