Data from Fe(NO3)3@0.0125M.TitratingCurve.Agarose3%dH2O.NegLispCup.LampEnergy10.LIBS07252019_HRD10591_17-00-42-337.txt Node
Date: Thu Jul 25 17:00:42 EDT 2019
User: cochatt
Spectrometer: HR+D1059
Trigger mode: 1
Integration Time (sec): 1.000000E-1
Scans to average: 1
Electric dark correction enabled: true
Nonlinearity correction enabled: false
Boxcar width: 0
XAxis mode: Wavelengths
Number of Pixels in Spectrum: 2048
>>>>>Begin Spectral Data<<<<<
223.165	-16.19
223.4	-16.19
223.635	-16.19
223.869	-16.19
224.104	-13.19
224.338	-4.19
224.573	-18.19
224.808	-17.19
225.042	-8.19
225.277	-12.19
225.511	-4.19
225.746	-2.19
225.98	7.81
226.215	13.81
226.449	20.81
226.683	24.81
226.918	26.81
227.152	17.81
227.387	38.81
227.621	47.81
227.856	60.81
228.09	45.81
228.324	49.81
228.559	42.81
228.793	66.81
229.027	87.81
229.262	90.81
229.496	68.81
229.73	76.81
229.964	88.81
230.199	102.81
230.433	88.81
230.667	90.81
230.901	84.81
231.136	91.81
231.37	102.81
231.604	91.81
231.838	112.81
232.072	107.81
232.306	95.81
232.541	89.81
232.775	105.81
233.009	93.81
233.243	105.81
233.477	111.81
233.711	117.81
233.945	122.81
234.179	103.81
234.413	93.81
234.647	105.81
234.881	105.81
235.115	98.81
235.349	121.81
235.583	99.81
235.817	101.81
236.051	113.81
236.285	102.81
236.519	94.81
236.753	109.81
236.987	100.81
237.221	104.81
237.455	103.81
237.689	100.81
237.922	110.81
238.156	113.81
238.39	101.81
238.624	106.81
238.858	122.81
239.091	114.81
239.325	111.81
239.559	107.81
239.793	119.81
240.027	113.81
240.26	117.81
240.494	118.81
240.728	122.81
240.961	119.81
241.195	89.81
241.429	117.81
241.662	124.81
241.896	107.81
242.13	103.81
242.363	129.81
242.597	123.81
242.83	120.81
243.064	125.81
243.298	118.81
243.531	117.81
243.765	116.81
243.998	121.81
244.232	111.81
244.465	140.81
244.699	108.81
244.932	126.81
245.166	110.81
245.399	119.81
245.633	118.81
245.866	128.81
246.099	121.81
246.333	120.81
246.566	126.81
246.8	124.81
247.033	117.81
247.266	117.81
247.5	120.81
247.733	127.81
247.966	113.81
248.2	119.81
248.433	131.81
248.666	129.81
248.899	121.81
249.133	118.81
249.366	143.81
249.599	141.81
249.832	143.81
250.066	127.81
250.299	121.81
250.532	133.81
250.765	118.81
250.998	125.81
251.231	126.81
251.465	144.81
251.698	149.81
251.931	143.81
252.164	133.81
252.397	135.81
252.63	133.81
252.863	145.81
253.096	165.81
253.329	130.81
253.562	139.81
253.795	144.81
254.028	152.81
254.261	141.81
254.494	127.81
254.727	142.81
254.96	149.81
255.193	156.81
255.426	133.81
255.659	146.81
255.892	152.81
256.124	164.81
256.357	155.81
256.59	161.81
256.823	157.81
257.056	159.81
257.289	148.81
257.521	151.81
257.754	142.81
257.987	147.81
258.22	150.81
258.452	153.81
258.685	158.81
258.918	156.81
259.151	149.81
259.383	147.81
259.616	172.81
259.849	139.81
260.081	177.81
260.314	179.81
260.547	154.81
260.779	156.81
261.012	158.81
261.244	148.81
261.477	164.81
261.71	166.81
261.942	166.81
262.175	161.81
262.407	133.81
262.64	150.81
262.872	172.81
263.105	166.81
263.337	185.81
263.57	151.81
263.802	156.81
264.035	147.81
264.267	177.81
264.499	155.81
264.732	170.81
264.964	154.81
265.197	162.81
265.429	172.81
265.661	159.81
265.894	156.81
266.126	190.81
266.358	157.81
266.591	158.81
266.823	173.81
267.055	157.81
267.287	187.81
267.52	170.81
267.752	161.81
267.984	171.81
268.216	159.81
268.448	186.81
268.681	174.81
268.913	177.81
269.145	167.81
269.377	159.81
269.609	181.81
269.841	177.81
270.073	186.81
270.306	179.81
270.538	178.81
270.77	192.81
271.002	188.81
271.234	181.81
271.466	172.81
271.698	177.81
271.93	199.81
272.162	190.81
272.394	182.81
272.626	183.81
272.858	198.81
273.09	191.81
273.322	189.81
273.553	163.81
273.785	196.81
274.017	193.81
274.249	201.81
274.481	196.81
274.713	200.81
274.945	218.81
275.176	203.81
275.408	192.81
275.64	196.81
275.872	201.81
276.104	191.81
276.335	173.81
276.567	206.81
276.799	199.81
277.031	193.81
277.262	193.81
277.494	193.81
277.726	188.81
277.957	182.81
278.189	188.81
278.421	194.81
278.652	187.81
278.884	208.81
279.115	212.81
279.347	196.81
279.579	186.81
279.81	191.81
280.042	196.81
280.273	193.81
280.505	189.81
280.736	207.81
280.968	195.81
281.199	187.81
281.431	199.81
281.662	197.81
281.894	205.81
282.125	201.81
282.356	218.81
282.588	214.81
282.819	220.81
283.051	207.81
283.282	191.81
283.513	213.81
283.745	209.81
283.976	211.81
284.207	224.81
284.439	185.81
284.67	215.81
284.901	199.81
285.132	217.81
285.364	215.81
285.595	221.81
285.826	217.81
286.057	226.81
286.288	227.81
286.52	227.81
286.751	227.81
286.982	236.81
287.213	231.81
287.444	236.81
287.675	224.81
287.906	201.81
288.138	217.81
288.369	215.81
288.6	232.81
288.831	221.81
289.062	215.81
289.293	217.81
289.524	206.81
289.755	223.81
289.986	213.81
290.217	235.81
290.448	230.81
290.679	225.81
290.91	225.81
291.141	218.81
291.371	230.81
291.602	221.81
291.833	230.81
292.064	242.81
292.295	219.81
292.526	222.81
292.757	231.81
292.987	216.81
293.218	225.81
293.449	226.81
293.68	232.81
293.91	239.81
294.141	229.81
294.372	222.81
294.603	234.81
294.833	232.81
295.064	239.81
295.295	239.81
295.525	245.81
295.756	245.81
295.987	241.81
296.217	231.81
296.448	232.81
296.679	231.81
296.909	243.81
297.14	237.81
297.37	241.81
297.601	247.81
297.831	246.81
298.062	241.81
298.292	225.81
298.523	234.81
298.753	267.81
298.984	221.81
299.214	249.81
299.445	253.81
299.675	236.81
299.905	236.81
300.136	235.81
300.366	250.81
300.597	253.81
300.827	262.81
301.057	256.81
301.288	259.81
301.518	239.81
301.748	257.81
301.979	248.81
302.209	271.81
302.439	267.81
302.669	254.81
302.9	243.81
303.13	254.81
303.36	247.81
303.59	243.81
303.82	272.81
304.051	254.81
304.281	267.81
304.511	256.81
304.741	239.81
304.971	270.81
305.201	253.81
305.431	270.81
305.661	259.81
305.891	256.81
306.121	268.81
306.352	257.81
306.582	261.81
306.812	250.81
307.042	264.81
307.272	274.81
307.502	282.81
307.731	268.81
307.961	243.81
308.191	249.81
308.421	259.81
308.651	261.81
308.881	266.81
309.111	258.81
309.341	271.81
309.571	261.81
309.8	268.81
310.03	254.81
310.26	267.81
310.49	263.81
310.72	288.81
310.949	261.81
311.179	275.81
311.409	261.81
311.639	242.81
311.868	246.81
312.098	274.81
312.328	265.81
312.557	282.81
312.787	262.81
313.017	274.81
313.246	261.81
313.476	262.81
313.706	290.81
313.935	273.81
314.165	298.81
314.394	282.81
314.624	278.81
314.853	273.81
315.083	295.81
315.312	269.81
315.542	284.81
315.771	276.81
316.001	283.81
316.23	283.81
316.46	281.81
316.689	271.81
316.919	284.81
317.148	279.81
317.377	283.81
317.607	296.81
317.836	279.81
318.065	272.81
318.295	281.81
318.524	283.81
318.753	290.81
318.983	284.81
319.212	284.81
319.441	295.81
319.67	278.81
319.9	283.81
320.129	293.81
320.358	309.81
320.587	299.81
320.816	306.81
321.046	290.81
321.275	293.81
321.504	294.81
321.733	299.81
321.962	307.81
322.191	291.81
322.42	313.81
322.649	301.81
322.878	296.81
323.108	291.81
323.337	294.81
323.566	278.81
323.795	288.81
324.024	302.81
324.253	303.81
324.482	308.81
324.71	313.81
324.939	305.81
325.168	314.81
325.397	309.81
325.626	301.81
325.855	299.81
326.084	298.81
326.313	295.81
326.542	289.81
326.77	316.81
326.999	311.81
327.228	308.81
327.457	318.81
327.686	329.81
327.914	311.81
328.143	321.81
328.372	294.81
328.6	313.81
328.829	305.81
329.058	308.81
329.287	315.81
329.515	314.81
329.744	316.81
329.972	317.81
330.201	312.81
330.43	289.81
330.658	321.81
330.887	330.81
331.115	317.81
331.344	300.81
331.572	313.81
331.801	331.81
332.03	331.81
332.258	323.81
332.486	333.81
332.715	328.81
332.943	330.81
333.172	351.81
333.4	350.81
333.629	344.81
333.857	329.81
334.085	335.81
334.314	333.81
334.542	335.81
334.771	353.81
334.999	362.81
335.227	349.81
335.455	331.81
335.684	344.81
335.912	337.81
336.14	329.81
336.369	333.81
336.597	339.81
336.825	335.81
337.053	333.81
337.281	343.81
337.51	362.81
337.738	351.81
337.966	342.81
338.194	335.81
338.422	339.81
338.65	335.81
338.878	327.81
339.106	341.81
339.334	348.81
339.562	350.81
339.79	353.81
340.018	351.81
340.246	342.81
340.474	329.81
340.702	313.81
340.93	343.81
341.158	342.81
341.386	323.81
341.614	328.81
341.842	312.81
342.07	340.81
342.298	337.81
342.526	321.81
342.754	317.81
342.981	322.81
343.209	327.81
343.437	340.81
343.665	353.81
343.893	335.81
344.12	361.81
344.348	349.81
344.576	348.81
344.804	338.81
345.031	337.81
345.259	359.81
345.487	342.81
345.714	318.81
345.942	338.81
346.17	344.81
346.397	337.81
346.625	321.81
346.853	320.81
347.08	340.81
347.308	333.81
347.535	319.81
347.763	332.81
347.99	314.81
348.218	334.81
348.445	350.81
348.673	330.81
348.9	331.81
349.128	340.81
349.355	325.81
349.583	331.81
349.81	321.81
350.037	319.81
350.265	334.81
350.492	301.81
350.72	325.81
350.947	322.81
351.174	318.81
351.402	328.81
351.629	301.81
351.856	330.81
352.083	336.81
352.311	299.81
352.538	323.81
352.765	331.81
352.992	327.81
353.22	312.81
353.447	313.81
353.674	321.81
353.901	311.81
354.128	308.81
354.355	314.81
354.583	310.81
354.81	324.81
355.037	324.81
355.264	330.81
355.491	316.81
355.718	335.81
355.945	344.81
356.172	322.81
356.399	327.81
356.626	327.81
356.853	340.81
357.08	323.81
357.307	338.81
357.534	341.81
357.761	327.81
357.988	329.81
358.215	340.81
358.441	326.81
358.668	334.81
358.895	327.81
359.122	314.81
359.349	329.81
359.576	329.81
359.802	340.81
360.029	311.81
360.256	338.81
360.483	334.81
360.709	323.81
360.936	348.81
361.163	340.81
361.39	315.81
361.616	318.81
361.843	342.81
362.07	347.81
362.296	322.81
362.523	335.81
362.749	332.81
362.976	344.81
363.203	321.81
363.429	325.81
363.656	347.81
363.882	351.81
364.109	338.81
364.335	330.81
364.562	334.81
364.788	348.81
365.015	344.81
365.241	359.81
365.468	339.81
365.694	313.81
365.92	334.81
366.147	333.81
366.373	354.81
366.599	347.81
366.826	336.81
367.052	317.81
367.278	331.81
367.505	341.81
367.731	348.81
367.957	317.81
368.184	346.81
368.41	344.81
368.636	325.81
368.862	347.81
369.089	344.81
369.315	338.81
369.541	332.81
369.767	341.81
369.993	351.81
370.219	351.81
370.445	331.81
370.672	327.81
370.898	348.81
371.124	361.81
371.35	367.81
371.576	348.81
371.802	367.81
372.028	347.81
372.254	356.81
372.48	349.81
372.706	367.81
372.932	346.81
373.158	357.81
373.384	366.81
373.61	373.81
373.835	374.81
374.061	348.81
374.287	375.81
374.513	381.81
374.739	353.81
374.965	379.81
375.191	346.81
375.416	373.81
375.642	385.81
375.868	370.81
376.094	367.81
376.319	364.81
376.545	360.81
376.771	363.81
376.997	377.81
377.222	345.81
377.448	367.81
377.674	367.81
377.899	363.81
378.125	357.81
378.35	355.81
378.576	365.81
378.802	347.81
379.027	351.81
379.253	371.81
379.478	357.81
379.704	360.81
379.929	367.81
380.155	360.81
380.38	376.81
380.606	359.81
380.831	359.81
381.057	379.81
381.282	379.81
381.507	362.81
381.733	374.81
381.958	347.81
382.184	379.81
382.409	387.81
382.634	377.81
382.86	377.81
383.085	362.81
383.31	381.81
383.535	371.81
383.761	387.81
383.986	371.81
384.211	377.81
384.436	377.81
384.662	371.81
384.887	389.81
385.112	403.81
385.337	383.81
385.562	410.81
385.787	386.81
386.013	398.81
386.238	375.81
386.463	403.81
386.688	389.81
386.913	387.81
387.138	420.81
387.363	403.81
387.588	406.81
387.813	418.81
388.038	416.81
388.263	407.81
388.488	403.81
388.713	403.81
388.938	388.81
389.163	411.81
389.387	401.81
389.612	397.81
389.837	387.81
390.062	403.81
390.287	392.81
390.512	422.81
390.736	415.81
390.961	421.81
391.186	432.81
391.411	420.81
391.636	426.81
391.86	409.81
392.085	402.81
392.31	428.81
392.534	420.81
392.759	433.81
392.984	454.81
393.208	436.81
393.433	445.81
393.658	452.81
393.882	421.81
394.107	411.81
394.331	425.81
394.556	424.81
394.78	426.81
395.005	412.81
395.229	428.81
395.454	427.81
395.678	438.81
395.903	434.81
396.127	414.81
396.352	431.81
396.576	419.81
396.801	417.81
397.025	434.81
397.249	444.81
397.474	427.81
397.698	425.81
397.922	436.81
398.147	453.81
398.371	426.81
398.595	461.81
398.82	446.81
399.044	481.81
399.268	489.81
399.492	516.81
399.717	526.81
399.941	517.81
400.165	514.81
400.389	503.81
400.613	513.81
400.837	478.81
401.062	467.81
401.286	481.81
401.51	465.81
401.734	463.81
401.958	470.81
402.182	485.81
402.406	451.81
402.63	470.81
402.854	486.81
403.078	453.81
403.302	472.81
403.526	472.81
403.75	473.81
403.974	478.81
404.198	479.81
404.422	487.81
404.645	494.81
404.869	481.81
405.093	469.81
405.317	457.81
405.541	479.81
405.765	484.81
405.988	490.81
406.212	469.81
406.436	485.81
406.66	501.81
406.883	491.81
407.107	516.81
407.331	551.81
407.555	558.81
407.778	540.81
408.002	542.81
408.226	516.81
408.449	525.81
408.673	507.81
408.896	523.81
409.12	499.81
409.344	504.81
409.567	499.81
409.791	498.81
410.014	491.81
410.238	502.81
410.461	494.81
410.685	501.81
410.908	475.81
411.132	515.81
411.355	477.81
411.578	481.81
411.802	489.81
412.025	493.81
412.249	469.81
412.472	472.81
412.695	491.81
412.919	504.81
413.142	479.81
413.365	459.81
413.589	483.81
413.812	481.81
414.035	483.81
414.258	485.81
414.482	464.81
414.705	475.81
414.928	472.81
415.151	502.81
415.374	460.81
415.597	459.81
415.821	477.81
416.044	473.81
416.267	473.81
416.49	465.81
416.713	451.81
416.936	446.81
417.159	450.81
417.382	452.81
417.605	455.81
417.828	449.81
418.051	462.81
418.274	457.81
418.497	440.81
418.72	440.81
418.943	442.81
419.166	488.81
419.389	502.81
419.611	472.81
419.834	472.81
420.057	467.81
420.28	463.81
420.503	451.81
420.726	440.81
420.948	451.81
421.171	465.81
421.394	425.81
421.617	457.81
421.839	452.81
422.062	451.81
422.285	459.81
422.507	463.81
422.73	454.81
422.953	460.81
423.175	445.81
423.398	465.81
423.621	464.81
423.843	458.81
424.066	439.81
424.288	440.81
424.511	460.81
424.733	445.81
424.956	428.81
425.178	446.81
425.401	439.81
425.623	444.81
425.846	443.81
426.068	444.81
426.291	455.81
426.513	453.81
426.735	460.81
426.958	476.81
427.18	463.81
427.402	469.81
427.625	422.81
427.847	438.81
428.069	443.81
428.292	441.81
428.514	436.81
428.736	446.81
428.958	433.81
429.181	421.81
429.403	437.81
429.625	439.81
429.847	434.81
430.069	423.81
430.292	453.81
430.514	450.81
430.736	449.81
430.958	413.81
431.18	444.81
431.402	431.81
431.624	420.81
431.846	430.81
432.068	425.81
432.29	458.81
432.512	434.81
432.734	439.81
432.956	429.81
433.178	446.81
433.4	446.81
433.622	450.81
433.844	451.81
434.066	459.81
434.287	461.81
434.509	443.81
434.731	469.81
434.953	449.81
435.175	457.81
435.397	452.81
435.618	443.81
435.84	452.81
436.062	453.81
436.284	424.81
436.505	436.81
436.727	430.81
436.949	427.81
437.17	436.81
437.392	417.81
437.614	430.81
437.835	423.81
438.057	426.81
438.278	417.81
438.5	423.81
438.721	417.81
438.943	409.81
439.165	433.81
439.386	420.81
439.608	438.81
439.829	433.81
440.05	439.81
440.272	452.81
440.493	427.81
440.715	460.81
440.936	449.81
441.158	447.81
441.379	438.81
441.6	450.81
441.822	465.81
442.043	464.81
442.264	463.81
442.486	453.81
442.707	449.81
442.928	459.81
443.149	461.81
443.371	473.81
443.592	441.81
443.813	450.81
444.034	451.81
444.255	465.81
444.476	457.81
444.698	462.81
444.919	456.81
445.14	561.81
445.361	499.81
445.582	451.81
445.803	435.81
446.024	438.81
446.245	470.81
446.466	418.81
446.687	435.81
446.908	451.81
447.129	445.81
447.35	418.81
447.571	435.81
447.792	408.81
448.013	429.81
448.234	431.81
448.455	415.81
448.675	423.81
448.896	428.81
449.117	411.81
449.338	415.81
449.559	414.81
449.779	408.81
450	406.81
450.221	414.81
450.442	422.81
450.662	391.81
450.883	398.81
451.104	425.81
451.324	426.81
451.545	407.81
451.766	419.81
451.986	413.81
452.207	387.81
452.428	409.81
452.648	430.81
452.869	393.81
453.089	389.81
453.31	393.81
453.53	419.81
453.751	404.81
453.971	403.81
454.192	413.81
454.412	392.81
454.633	401.81
454.853	410.81
455.073	427.81
455.294	397.81
455.514	389.81
455.734	398.81
455.955	407.81
456.175	409.81
456.395	393.81
456.616	398.81
456.836	416.81
457.056	400.81
457.276	392.81
457.497	397.81
457.717	423.81
457.937	409.81
458.157	417.81
458.377	410.81
458.598	401.81
458.818	430.81
459.038	417.81
459.258	437.81
459.478	449.81
459.698	454.81
459.918	474.81
460.138	441.81
460.358	470.81
460.578	456.81
460.798	480.81
461.018	466.81
461.238	470.81
461.458	486.81
461.678	473.81
461.898	488.81
462.118	481.81
462.338	479.81
462.558	510.81
462.777	489.81
462.997	519.81
463.217	526.81
463.437	541.81
463.657	514.81
463.876	486.81
464.096	513.81
464.316	513.81
464.536	489.81
464.755	525.81
464.975	499.81
465.195	466.81
465.414	458.81
465.634	463.81
465.854	490.81
466.073	460.81
466.293	467.81
466.512	456.81
466.732	455.81
466.951	449.81
467.171	422.81
467.391	454.81
467.61	431.81
467.829	428.81
468.049	445.81
468.268	427.81
468.488	430.81
468.707	439.81
468.927	446.81
469.146	444.81
469.365	446.81
469.585	440.81
469.804	456.81
470.023	425.81
470.243	441.81
470.462	447.81
470.681	434.81
470.901	470.81
471.12	452.81
471.339	447.81
471.558	443.81
471.777	443.81
471.997	462.81
472.216	451.81
472.435	443.81
472.654	447.81
472.873	440.81
473.092	434.81
473.311	460.81
473.53	470.81
473.749	447.81
473.968	450.81
474.187	460.81
474.406	446.81
474.625	452.81
474.844	443.81
475.063	439.81
475.282	444.81
475.501	450.81
475.72	475.81
475.939	455.81
476.158	487.81
476.377	474.81
476.596	492.81
476.814	479.81
477.033	483.81
477.252	486.81
477.471	489.81
477.69	491.81
477.908	489.81
478.127	510.81
478.346	483.81
478.564	513.81
478.783	477.81
479.002	517.81
479.22	508.81
479.439	511.81
479.658	509.81
479.876	525.81
480.095	523.81
480.313	540.81
480.532	542.81
480.751	543.81
480.969	527.81
481.188	564.81
481.406	545.81
481.624	531.81
481.843	501.81
482.061	520.81
482.28	531.81
482.498	513.81
482.717	542.81
482.935	527.81
483.153	525.81
483.372	544.81
483.59	529.81
483.808	534.81
484.027	521.81
484.245	540.81
484.463	546.81
484.681	551.81
484.9	547.81
485.118	555.81
485.336	528.81
485.554	543.81
485.772	529.81
485.99	549.81
486.209	527.81
486.427	536.81
486.645	536.81
486.863	545.81
487.081	545.81
487.299	568.81
487.517	546.81
487.735	541.81
487.953	545.81
488.171	547.81
488.389	547.81
488.607	546.81
488.825	568.81
489.043	565.81
489.261	554.81
489.479	559.81
489.696	543.81
489.914	572.81
490.132	573.81
490.35	554.81
490.568	558.81
490.786	566.81
491.003	541.81
491.221	558.81
491.439	558.81
491.657	532.81
491.874	587.81
492.092	568.81
492.31	572.81
492.527	559.81
492.745	565.81
492.963	568.81
493.18	579.81
493.398	587.81
493.615	580.81
493.833	597.81
494.05	591.81
494.268	574.81
494.485	565.81
494.703	598.81
494.92	579.81
495.138	579.81
495.355	600.81
495.573	586.81
495.79	598.81
496.008	617.81
496.225	577.81
496.442	622.81
496.66	622.81
496.877	625.81
497.094	616.81
497.312	621.81
497.529	628.81
497.746	629.81
497.963	661.81
498.181	673.81
498.398	646.81
498.615	703.81
498.832	714.81
499.049	709.81
499.267	738.81
499.484	739.81
499.701	787.81
499.918	810.81
500.135	850.81
500.352	877.81
500.569	872.81
500.786	866.81
501.003	864.81
501.22	829.81
501.437	779.81
501.654	748.81
501.871	754.81
