Data from Fe(NO3)3@0.1M.TitratingCurve.Agarose3%dH2O.NegLispCup.LampEnergy10.LIBS07252019_HRD10591_16-41-05-396.txt Node
Date: Thu Jul 25 16:41:05 EDT 2019
User: cochatt
Spectrometer: HR+D1059
Trigger mode: 1
Integration Time (sec): 1.000000E-1
Scans to average: 1
Electric dark correction enabled: true
Nonlinearity correction enabled: false
Boxcar width: 0
XAxis mode: Wavelengths
Number of Pixels in Spectrum: 2048
>>>>>Begin Spectral Data<<<<<
223.165	-6.94
223.4	-6.94
223.635	-6.94
223.869	7.06
224.104	-7.94
224.338	-18.94
224.573	-10.94
224.808	-6.94
225.042	-17.94
225.277	-4.94
225.511	-1.94
225.746	-4.94
225.98	5.06
226.215	4.06
226.449	6.06
226.683	16.06
226.918	14.06
227.152	29.06
227.387	35.06
227.621	37.06
227.856	44.06
228.09	44.06
228.324	51.06
228.559	55.06
228.793	61.06
229.027	82.06
229.262	92.06
229.496	94.06
229.73	96.06
229.964	93.06
230.199	96.06
230.433	93.06
230.667	96.06
230.901	111.06
231.136	96.06
231.37	97.06
231.604	102.06
231.838	95.06
232.072	102.06
232.306	104.06
232.541	89.06
232.775	101.06
233.009	110.06
233.243	100.06
233.477	98.06
233.711	99.06
233.945	102.06
234.179	102.06
234.413	103.06
234.647	113.06
234.881	100.06
235.115	99.06
235.349	107.06
235.583	110.06
235.817	113.06
236.051	97.06
236.285	103.06
236.519	92.06
236.753	115.06
236.987	117.06
237.221	98.06
237.455	115.06
237.689	110.06
237.922	123.06
238.156	106.06
238.39	107.06
238.624	118.06
238.858	100.06
239.091	105.06
239.325	96.06
239.559	110.06
239.793	117.06
240.027	119.06
240.26	114.06
240.494	115.06
240.728	114.06
240.961	111.06
241.195	111.06
241.429	117.06
241.662	126.06
241.896	104.06
242.13	103.06
242.363	123.06
242.597	117.06
242.83	130.06
243.064	129.06
243.298	119.06
243.531	119.06
243.765	133.06
243.998	123.06
244.232	118.06
244.465	129.06
244.699	122.06
244.932	123.06
245.166	122.06
245.399	127.06
245.633	129.06
245.866	134.06
246.099	129.06
246.333	125.06
246.566	126.06
246.8	128.06
247.033	134.06
247.266	129.06
247.5	122.06
247.733	125.06
247.966	139.06
248.2	122.06
248.433	125.06
248.666	127.06
248.899	130.06
249.133	131.06
249.366	140.06
249.599	131.06
249.832	158.06
250.066	155.06
250.299	141.06
250.532	147.06
250.765	131.06
250.998	141.06
251.231	143.06
251.465	138.06
251.698	134.06
251.931	146.06
252.164	157.06
252.397	141.06
252.63	144.06
252.863	146.06
253.096	137.06
253.329	139.06
253.562	142.06
253.795	150.06
254.028	149.06
254.261	150.06
254.494	142.06
254.727	141.06
254.96	164.06
255.193	148.06
255.426	154.06
255.659	141.06
255.892	158.06
256.124	150.06
256.357	154.06
256.59	150.06
256.823	140.06
257.056	153.06
257.289	149.06
257.521	161.06
257.754	164.06
257.987	154.06
258.22	151.06
258.452	165.06
258.685	174.06
258.918	174.06
259.151	156.06
259.383	157.06
259.616	152.06
259.849	162.06
260.081	169.06
260.314	182.06
260.547	177.06
260.779	158.06
261.012	170.06
261.244	154.06
261.477	172.06
261.71	159.06
261.942	180.06
262.175	166.06
262.407	170.06
262.64	167.06
262.872	167.06
263.105	179.06
263.337	177.06
263.57	178.06
263.802	153.06
264.035	179.06
264.267	186.06
264.499	182.06
264.732	183.06
264.964	168.06
265.197	174.06
265.429	172.06
265.661	184.06
265.894	182.06
266.126	175.06
266.358	166.06
266.591	165.06
266.823	198.06
267.055	177.06
267.287	186.06
267.52	174.06
267.752	191.06
267.984	190.06
268.216	198.06
268.448	177.06
268.681	184.06
268.913	190.06
269.145	190.06
269.377	178.06
269.609	187.06
269.841	203.06
270.073	186.06
270.306	175.06
270.538	181.06
270.77	211.06
271.002	197.06
271.234	193.06
271.466	191.06
271.698	184.06
271.93	195.06
272.162	179.06
272.394	196.06
272.626	177.06
272.858	196.06
273.09	195.06
273.322	193.06
273.553	182.06
273.785	197.06
274.017	203.06
274.249	204.06
274.481	196.06
274.713	202.06
274.945	201.06
275.176	199.06
275.408	203.06
275.64	207.06
275.872	208.06
276.104	197.06
276.335	212.06
276.567	212.06
276.799	202.06
277.031	204.06
277.262	210.06
277.494	200.06
277.726	211.06
277.957	214.06
278.189	222.06
278.421	219.06
278.652	200.06
278.884	214.06
279.115	213.06
279.347	219.06
279.579	207.06
279.81	219.06
280.042	219.06
280.273	210.06
280.505	215.06
280.736	215.06
280.968	214.06
281.199	228.06
281.431	205.06
281.662	213.06
281.894	217.06
282.125	221.06
282.356	238.06
282.588	218.06
282.819	220.06
283.051	212.06
283.282	233.06
283.513	239.06
283.745	227.06
283.976	224.06
284.207	243.06
284.439	224.06
284.67	213.06
284.901	229.06
285.132	229.06
285.364	225.06
285.595	232.06
285.826	237.06
286.057	228.06
286.288	231.06
286.52	239.06
286.751	248.06
286.982	231.06
287.213	249.06
287.444	233.06
287.675	230.06
287.906	238.06
288.138	242.06
288.369	241.06
288.6	252.06
288.831	231.06
289.062	243.06
289.293	244.06
289.524	229.06
289.755	228.06
289.986	233.06
290.217	223.06
290.448	235.06
290.679	234.06
290.91	222.06
291.141	233.06
291.371	231.06
291.602	253.06
291.833	227.06
292.064	261.06
292.295	241.06
292.526	232.06
292.757	249.06
292.987	234.06
293.218	231.06
293.449	238.06
293.68	240.06
293.91	243.06
294.141	234.06
294.372	234.06
294.603	258.06
294.833	265.06
295.064	230.06
295.295	252.06
295.525	267.06
295.756	256.06
295.987	251.06
296.217	265.06
296.448	264.06
296.679	259.06
296.909	250.06
297.14	246.06
297.37	281.06
297.601	263.06
297.831	271.06
298.062	257.06
298.292	257.06
298.523	259.06
298.753	275.06
298.984	258.06
299.214	243.06
299.445	264.06
299.675	243.06
299.905	267.06
300.136	267.06
300.366	270.06
300.597	259.06
300.827	268.06
301.057	279.06
301.288	283.06
301.518	286.06
301.748	266.06
301.979	261.06
302.209	277.06
302.439	283.06
302.669	285.06
302.9	282.06
303.13	250.06
303.36	275.06
303.59	283.06
303.82	286.06
304.051	278.06
304.281	267.06
304.511	278.06
304.741	272.06
304.971	262.06
305.201	282.06
305.431	275.06
305.661	298.06
305.891	255.06
306.121	267.06
306.352	283.06
306.582	280.06
306.812	272.06
307.042	278.06
307.272	268.06
307.502	271.06
307.731	278.06
307.961	260.06
308.191	252.06
308.421	289.06
308.651	275.06
308.881	272.06
309.111	250.06
309.341	288.06
309.571	270.06
309.8	291.06
310.03	276.06
310.26	261.06
310.49	266.06
310.72	277.06
310.949	285.06
311.179	279.06
311.409	268.06
311.639	296.06
311.868	291.06
312.098	271.06
312.328	277.06
312.557	266.06
312.787	295.06
313.017	281.06
313.246	277.06
313.476	279.06
313.706	285.06
313.935	297.06
314.165	286.06
314.394	273.06
314.624	281.06
314.853	290.06
315.083	301.06
315.312	307.06
315.542	278.06
315.771	289.06
316.001	287.06
316.23	280.06
316.46	293.06
316.689	286.06
316.919	292.06
317.148	287.06
317.377	289.06
317.607	276.06
317.836	278.06
318.065	287.06
318.295	292.06
318.524	313.06
318.753	273.06
318.983	270.06
319.212	284.06
319.441	285.06
319.67	289.06
319.9	279.06
320.129	295.06
320.358	291.06
320.587	278.06
320.816	288.06
321.046	299.06
321.275	283.06
321.504	297.06
321.733	285.06
321.962	303.06
322.191	286.06
322.42	303.06
322.649	294.06
322.878	303.06
323.108	295.06
323.337	284.06
323.566	300.06
323.795	296.06
324.024	301.06
324.253	305.06
324.482	295.06
324.71	321.06
324.939	309.06
325.168	296.06
325.397	315.06
325.626	303.06
325.855	301.06
326.084	305.06
326.313	323.06
326.542	311.06
326.77	334.06
326.999	309.06
327.228	325.06
327.457	314.06
327.686	301.06
327.914	313.06
328.143	331.06
328.372	335.06
328.6	318.06
328.829	310.06
329.058	328.06
329.287	318.06
329.515	319.06
329.744	325.06
329.972	325.06
330.201	313.06
330.43	297.06
330.658	308.06
330.887	336.06
331.115	319.06
331.344	338.06
331.572	329.06
331.801	337.06
332.03	347.06
332.258	357.06
332.486	377.06
332.715	353.06
332.943	369.06
333.172	365.06
333.4	393.06
333.629	427.06
333.857	415.06
334.085	395.06
334.314	385.06
334.542	375.06
334.771	397.06
334.999	386.06
335.227	380.06
335.455	383.06
335.684	368.06
335.912	357.06
336.14	389.06
336.369	376.06
336.597	370.06
336.825	354.06
337.053	368.06
337.281	373.06
337.51	367.06
337.738	363.06
337.966	374.06
338.194	341.06
338.422	336.06
338.65	332.06
338.878	341.06
339.106	337.06
339.334	343.06
339.562	353.06
339.79	324.06
340.018	340.06
340.246	322.06
340.474	335.06
340.702	335.06
340.93	335.06
341.158	318.06
341.386	341.06
341.614	345.06
341.842	333.06
342.07	302.06
342.298	328.06
342.526	334.06
342.754	327.06
342.981	326.06
343.209	335.06
343.437	348.06
343.665	374.06
343.893	355.06
344.12	378.06
344.348	368.06
344.576	337.06
344.804	356.06
345.031	349.06
345.259	319.06
345.487	341.06
345.714	349.06
345.942	344.06
346.17	328.06
346.397	322.06
346.625	317.06
346.853	311.06
347.08	315.06
347.308	332.06
347.535	325.06
347.763	316.06
347.99	322.06
348.218	325.06
348.445	319.06
348.673	318.06
348.9	323.06
349.128	316.06
349.355	330.06
349.583	318.06
349.81	313.06
350.037	317.06
350.265	327.06
350.492	315.06
350.72	311.06
350.947	319.06
351.174	315.06
351.402	321.06
351.629	306.06
351.856	318.06
352.083	307.06
352.311	310.06
352.538	327.06
352.765	323.06
352.992	323.06
353.22	308.06
353.447	305.06
353.674	324.06
353.901	310.06
354.128	313.06
354.355	301.06
354.583	314.06
354.81	330.06
355.037	302.06
355.264	320.06
355.491	331.06
355.718	317.06
355.945	327.06
356.172	311.06
356.399	309.06
356.626	307.06
356.853	310.06
357.08	318.06
357.307	337.06
357.534	301.06
357.761	324.06
357.988	312.06
358.215	314.06
358.441	307.06
358.668	314.06
358.895	296.06
359.122	311.06
359.349	297.06
359.576	315.06
359.802	314.06
360.029	315.06
360.256	318.06
360.483	311.06
360.709	321.06
360.936	324.06
361.163	322.06
361.39	303.06
361.616	310.06
361.843	311.06
362.07	333.06
362.296	332.06
362.523	318.06
362.749	315.06
362.976	309.06
363.203	310.06
363.429	296.06
363.656	305.06
363.882	309.06
364.109	329.06
364.335	298.06
364.562	318.06
364.788	305.06
365.015	318.06
365.241	316.06
365.468	323.06
365.694	334.06
365.92	314.06
366.147	305.06
366.373	319.06
366.599	341.06
366.826	314.06
367.052	327.06
367.278	319.06
367.505	332.06
367.731	322.06
367.957	311.06
368.184	333.06
368.41	310.06
368.636	319.06
368.862	321.06
369.089	311.06
369.315	324.06
369.541	323.06
369.767	329.06
369.993	335.06
370.219	334.06
370.445	325.06
370.672	337.06
370.898	354.06
371.124	339.06
371.35	347.06
371.576	350.06
371.802	342.06
372.028	355.06
372.254	349.06
372.48	349.06
372.706	332.06
372.932	353.06
373.158	345.06
373.384	356.06
373.61	346.06
373.835	358.06
374.061	331.06
374.287	356.06
374.513	347.06
374.739	347.06
374.965	372.06
375.191	371.06
375.416	364.06
375.642	365.06
375.868	371.06
376.094	345.06
376.319	334.06
376.545	354.06
376.771	358.06
376.997	337.06
377.222	364.06
377.448	336.06
377.674	353.06
377.899	343.06
378.125	340.06
378.35	341.06
378.576	338.06
378.802	345.06
379.027	327.06
379.253	332.06
379.478	340.06
379.704	327.06
379.929	345.06
380.155	318.06
380.38	333.06
380.606	339.06
380.831	342.06
381.057	369.06
381.282	341.06
381.507	341.06
381.733	361.06
381.958	351.06
382.184	355.06
382.409	338.06
382.634	355.06
382.86	355.06
383.085	365.06
383.31	373.06
383.535	366.06
383.761	373.06
383.986	364.06
384.211	403.06
384.436	379.06
384.662	388.06
384.887	402.06
385.112	370.06
385.337	394.06
385.562	405.06
385.787	409.06
386.013	402.06
386.238	398.06
386.463	403.06
386.688	412.06
386.913	403.06
387.138	391.06
387.363	385.06
387.588	391.06
387.813	414.06
388.038	403.06
388.263	404.06
388.488	412.06
388.713	422.06
388.938	407.06
389.163	411.06
389.387	422.06
389.612	405.06
389.837	414.06
390.062	415.06
390.287	392.06
390.512	403.06
390.736	398.06
390.961	450.06
391.186	413.06
391.411	417.06
391.636	426.06
391.86	431.06
392.085	445.06
392.31	464.06
392.534	428.06
392.759	437.06
392.984	436.06
393.208	455.06
393.433	419.06
393.658	434.06
393.882	412.06
394.107	420.06
394.331	442.06
394.556	433.06
394.78	454.06
395.005	420.06
395.229	434.06
395.454	439.06
395.678	448.06
395.903	461.06
396.127	451.06
396.352	422.06
396.576	435.06
396.801	420.06
397.025	444.06
397.249	458.06
397.474	462.06
397.698	462.06
397.922	445.06
398.147	441.06
398.371	488.06
398.595	486.06
398.82	492.06
399.044	524.06
399.268	555.06
399.492	652.06
399.717	699.06
399.941	663.06
400.165	644.06
400.389	586.06
400.613	544.06
400.837	538.06
401.062	533.06
401.286	524.06
401.51	524.06
401.734	494.06
401.958	494.06
402.182	473.06
402.406	491.06
402.63	527.06
402.854	516.06
403.078	518.06
403.302	538.06
403.526	533.06
403.75	560.06
403.974	549.06
404.198	533.06
404.422	548.06
404.645	545.06
404.869	541.06
405.093	549.06
405.317	545.06
405.541	549.06
405.765	546.06
405.988	535.06
406.212	526.06
406.436	529.06
406.66	547.06
406.883	548.06
407.107	586.06
407.331	580.06
407.555	619.06
407.778	612.06
408.002	597.06
408.226	579.06
408.449	576.06
408.673	581.06
408.896	559.06
409.12	558.06
409.344	588.06
409.567	557.06
409.791	564.06
410.014	557.06
410.238	572.06
410.461	558.06
410.685	523.06
410.908	535.06
411.132	548.06
411.355	510.06
411.578	530.06
411.802	525.06
412.025	543.06
412.249	528.06
412.472	524.06
412.695	517.06
412.919	485.06
413.142	517.06
413.365	505.06
413.589	512.06
413.812	516.06
414.035	470.06
414.258	491.06
414.482	518.06
414.705	535.06
414.928	502.06
415.151	533.06
415.374	513.06
415.597	519.06
415.821	500.06
416.044	491.06
416.267	487.06
416.49	492.06
416.713	489.06
416.936	486.06
417.159	491.06
417.382	494.06
417.605	507.06
417.828	505.06
418.051	507.06
418.274	500.06
418.497	505.06
418.72	507.06
418.943	504.06
419.166	552.06
419.389	536.06
419.611	535.06
419.834	529.06
420.057	523.06
420.28	498.06
420.503	502.06
420.726	485.06
420.948	501.06
421.171	494.06
421.394	509.06
421.617	486.06
421.839	504.06
422.062	511.06
422.285	481.06
422.507	493.06
422.73	517.06
422.953	500.06
423.175	522.06
423.398	482.06
423.621	524.06
423.843	519.06
424.066	521.06
424.288	505.06
424.511	500.06
424.733	535.06
424.956	499.06
425.178	518.06
425.401	502.06
425.623	513.06
425.846	483.06
426.068	500.06
426.291	484.06
426.513	460.06
426.735	476.06
426.958	484.06
427.18	452.06
427.402	469.06
427.625	476.06
427.847	453.06
428.069	475.06
428.292	463.06
428.514	451.06
428.736	454.06
428.958	467.06
429.181	430.06
429.403	458.06
429.625	469.06
429.847	439.06
430.069	455.06
430.292	454.06
430.514	451.06
430.736	462.06
430.958	477.06
431.18	449.06
431.402	456.06
431.624	460.06
431.846	439.06
432.068	466.06
432.29	467.06
432.512	459.06
432.734	461.06
432.956	470.06
433.178	462.06
433.4	465.06
433.622	475.06
433.844	459.06
434.066	461.06
434.287	474.06
434.509	477.06
434.731	490.06
434.953	483.06
435.175	505.06
435.397	489.06
435.618	499.06
435.84	500.06
436.062	468.06
436.284	462.06
436.505	443.06
436.727	477.06
436.949	464.06
437.17	467.06
437.392	446.06
437.614	469.06
437.835	448.06
438.057	459.06
438.278	432.06
438.5	430.06
438.721	461.06
438.943	482.06
439.165	455.06
439.386	448.06
439.608	466.06
439.829	465.06
440.05	484.06
440.272	456.06
440.493	478.06
440.715	483.06
440.936	478.06
441.158	497.06
441.379	495.06
441.6	529.06
441.822	527.06
442.043	517.06
442.264	493.06
442.486	481.06
442.707	526.06
442.928	500.06
443.149	505.06
443.371	490.06
443.592	497.06
443.813	525.06
444.034	521.06
444.255	528.06
444.476	575.06
444.698	563.06
444.919	620.06
445.14	685.06
445.361	577.06
445.582	547.06
445.803	505.06
446.024	498.06
446.245	489.06
446.466	471.06
446.687	493.06
446.908	482.06
447.129	471.06
447.35	456.06
447.571	457.06
447.792	466.06
448.013	471.06
448.234	435.06
448.455	461.06
448.675	445.06
448.896	447.06
449.117	443.06
449.338	436.06
449.559	445.06
449.779	430.06
450	447.06
450.221	439.06
450.442	422.06
450.662	441.06
450.883	425.06
451.104	461.06
451.324	436.06
451.545	434.06
451.766	434.06
451.986	417.06
452.207	437.06
452.428	427.06
452.648	413.06
452.869	430.06
453.089	414.06
453.31	429.06
453.53	435.06
453.751	416.06
453.971	414.06
454.192	407.06
454.412	395.06
454.633	415.06
454.853	411.06
455.073	410.06
455.294	403.06
455.514	424.06
455.734	406.06
455.955	390.06
456.175	411.06
456.395	421.06
456.616	393.06
456.836	412.06
457.056	404.06
457.276	396.06
457.497	429.06
457.717	394.06
457.937	420.06
458.157	405.06
458.377	395.06
458.598	421.06
458.818	428.06
459.038	423.06
459.258	453.06
459.478	455.06
459.698	477.06
459.918	490.06
460.138	502.06
460.358	530.06
460.578	537.06
460.798	508.06
461.018	526.06
461.238	512.06
461.458	517.06
461.678	548.06
461.898	540.06
462.118	535.06
462.338	565.06
462.558	560.06
462.777	587.06
462.997	632.06
463.217	660.06
463.437	655.06
463.657	615.06
463.876	609.06
464.096	619.06
464.316	608.06
464.536	591.06
464.755	553.06
464.975	563.06
465.195	544.06
465.414	515.06
465.634	501.06
465.854	479.06
466.073	489.06
466.293	465.06
466.512	457.06
466.732	451.06
466.951	446.06
467.171	447.06
467.391	448.06
467.61	428.06
467.829	447.06
468.049	446.06
468.268	427.06
468.488	440.06
468.707	437.06
468.927	439.06
469.146	416.06
469.365	433.06
469.585	447.06
469.804	458.06
470.023	437.06
470.243	479.06
470.462	445.06
470.681	461.06
470.901	447.06
471.12	449.06
471.339	439.06
471.558	469.06
471.777	449.06
471.997	417.06
472.216	414.06
472.435	424.06
472.654	410.06
472.873	417.06
473.092	418.06
473.311	417.06
473.53	414.06
473.749	421.06
473.968	409.06
474.187	431.06
474.406	418.06
474.625	422.06
474.844	426.06
475.063	429.06
475.282	419.06
475.501	414.06
475.72	422.06
475.939	439.06
476.158	450.06
476.377	454.06
476.596	445.06
476.814	442.06
477.033	428.06
477.252	444.06
477.471	459.06
477.69	469.06
477.908	487.06
478.127	478.06
478.346	502.06
478.564	483.06
478.783	521.06
479.002	500.06
479.22	517.06
479.439	485.06
479.658	517.06
479.876	486.06
480.095	511.06
480.313	507.06
480.532	526.06
480.751	505.06
480.969	501.06
481.188	489.06
481.406	492.06
481.624	472.06
481.843	479.06
482.061	466.06
482.28	465.06
482.498	471.06
482.717	472.06
482.935	477.06
483.153	464.06
483.372	499.06
483.59	473.06
483.808	468.06
484.027	476.06
484.245	482.06
484.463	487.06
484.681	488.06
484.9	485.06
485.118	471.06
485.336	477.06
485.554	478.06
485.772	498.06
485.99	474.06
486.209	484.06
486.427	470.06
486.645	481.06
486.863	506.06
487.081	492.06
487.299	469.06
487.517	490.06
487.735	489.06
487.953	488.06
488.171	484.06
488.389	497.06
488.607	486.06
488.825	481.06
489.043	476.06
489.261	497.06
489.479	477.06
489.696	475.06
489.914	508.06
490.132	497.06
490.35	469.06
490.568	499.06
490.786	486.06
491.003	512.06
491.221	521.06
491.439	502.06
491.657	494.06
491.874	507.06
492.092	498.06
492.31	524.06
492.527	499.06
492.745	513.06
492.963	505.06
493.18	504.06
493.398	514.06
493.615	506.06
493.833	524.06
494.05	520.06
494.268	515.06
494.485	513.06
494.703	541.06
494.92	508.06
495.138	504.06
495.355	523.06
495.573	523.06
495.79	527.06
496.008	558.06
496.225	546.06
496.442	540.06
496.66	548.06
496.877	550.06
497.094	569.06
497.312	580.06
497.529	577.06
497.746	573.06
497.963	601.06
498.181	638.06
498.398	639.06
498.615	662.06
498.832	706.06
499.049	748.06
499.267	809.06
499.484	850.06
499.701	931.06
499.918	1002.06
500.135	1147.06
500.352	1231.06
500.569	1228.06
500.786	1245.06
501.003	1180.06
501.22	1091.06
501.437	980.06
501.654	873.06
501.871	821.06
