Data from Fe(NO3)3@0.025M.TitratingCurve.Agarose3%dH2O.NegLispCup.LampEnergy10.LIBS07252019_HRD10591_16-56-40-335.txt Node
Date: Thu Jul 25 16:56:40 EDT 2019
User: cochatt
Spectrometer: HR+D1059
Trigger mode: 1
Integration Time (sec): 1.000000E-1
Scans to average: 1
Electric dark correction enabled: true
Nonlinearity correction enabled: false
Boxcar width: 0
XAxis mode: Wavelengths
Number of Pixels in Spectrum: 2048
>>>>>Begin Spectral Data<<<<<
223.165	-7.62
223.4	-7.62
223.635	-7.62
223.869	-22.62
224.104	-23.62
224.338	-7.62
224.573	-31.62
224.808	-6.62
225.042	8.38
225.277	2.38
225.511	-5.62
225.746	12.38
225.98	3.38
226.215	25.38
226.449	11.38
226.683	8.38
226.918	13.38
227.152	20.38
227.387	48.38
227.621	49.38
227.856	58.38
228.09	48.38
228.324	63.38
228.559	53.38
228.793	61.38
229.027	74.38
229.262	80.38
229.496	76.38
229.73	79.38
229.964	91.38
230.199	85.38
230.433	95.38
230.667	95.38
230.901	97.38
231.136	96.38
231.37	95.38
231.604	95.38
231.838	108.38
232.072	99.38
232.306	99.38
232.541	102.38
232.775	95.38
233.009	88.38
233.243	98.38
233.477	94.38
233.711	110.38
233.945	90.38
234.179	105.38
234.413	88.38
234.647	93.38
234.881	109.38
235.115	89.38
235.349	101.38
235.583	87.38
235.817	110.38
236.051	94.38
236.285	103.38
236.519	89.38
236.753	73.38
236.987	93.38
237.221	94.38
237.455	105.38
237.689	100.38
237.922	99.38
238.156	89.38
238.39	95.38
238.624	108.38
238.858	102.38
239.091	98.38
239.325	95.38
239.559	89.38
239.793	97.38
240.027	105.38
240.26	95.38
240.494	94.38
240.728	88.38
240.961	79.38
241.195	91.38
241.429	97.38
241.662	89.38
241.896	101.38
242.13	97.38
242.363	94.38
242.597	106.38
242.83	103.38
243.064	105.38
243.298	99.38
243.531	77.38
243.765	99.38
243.998	99.38
244.232	89.38
244.465	97.38
244.699	99.38
244.932	103.38
245.166	106.38
245.399	101.38
245.633	112.38
245.866	102.38
246.099	93.38
246.333	112.38
246.566	100.38
246.8	91.38
247.033	100.38
247.266	112.38
247.5	96.38
247.733	105.38
247.966	104.38
248.2	97.38
248.433	101.38
248.666	112.38
248.899	98.38
249.133	109.38
249.366	104.38
249.599	90.38
249.832	98.38
250.066	106.38
250.299	104.38
250.532	108.38
250.765	107.38
250.998	111.38
251.231	106.38
251.465	105.38
251.698	111.38
251.931	119.38
252.164	105.38
252.397	112.38
252.63	114.38
252.863	124.38
253.096	100.38
253.329	109.38
253.562	108.38
253.795	118.38
254.028	109.38
254.261	127.38
254.494	107.38
254.727	113.38
254.96	109.38
255.193	105.38
255.426	104.38
255.659	106.38
255.892	103.38
256.124	110.38
256.357	105.38
256.59	119.38
256.823	108.38
257.056	133.38
257.289	121.38
257.521	117.38
257.754	99.38
257.987	103.38
258.22	109.38
258.452	120.38
258.685	122.38
258.918	107.38
259.151	106.38
259.383	134.38
259.616	103.38
259.849	109.38
260.081	119.38
260.314	110.38
260.547	109.38
260.779	126.38
261.012	109.38
261.244	128.38
261.477	114.38
261.71	116.38
261.942	128.38
262.175	116.38
262.407	129.38
262.64	124.38
262.872	129.38
263.105	117.38
263.337	110.38
263.57	103.38
263.802	108.38
264.035	112.38
264.267	110.38
264.499	125.38
264.732	122.38
264.964	124.38
265.197	123.38
265.429	122.38
265.661	132.38
265.894	118.38
266.126	122.38
266.358	126.38
266.591	110.38
266.823	145.38
267.055	121.38
267.287	111.38
267.52	132.38
267.752	100.38
267.984	122.38
268.216	112.38
268.448	125.38
268.681	131.38
268.913	132.38
269.145	133.38
269.377	126.38
269.609	113.38
269.841	126.38
270.073	125.38
270.306	130.38
270.538	116.38
270.77	130.38
271.002	129.38
271.234	125.38
271.466	125.38
271.698	137.38
271.93	123.38
272.162	136.38
272.394	127.38
272.626	128.38
272.858	129.38
273.09	127.38
273.322	123.38
273.553	127.38
273.785	139.38
274.017	119.38
274.249	135.38
274.481	137.38
274.713	133.38
274.945	144.38
275.176	137.38
275.408	131.38
275.64	127.38
275.872	132.38
276.104	125.38
276.335	128.38
276.567	125.38
276.799	127.38
277.031	129.38
277.262	115.38
277.494	131.38
277.726	134.38
277.957	136.38
278.189	129.38
278.421	130.38
278.652	127.38
278.884	126.38
279.115	130.38
279.347	139.38
279.579	145.38
279.81	135.38
280.042	143.38
280.273	139.38
280.505	127.38
280.736	124.38
280.968	136.38
281.199	141.38
281.431	140.38
281.662	128.38
281.894	134.38
282.125	148.38
282.356	149.38
282.588	142.38
282.819	135.38
283.051	133.38
283.282	139.38
283.513	145.38
283.745	136.38
283.976	159.38
284.207	159.38
284.439	134.38
284.67	145.38
284.901	163.38
285.132	146.38
285.364	155.38
285.595	140.38
285.826	138.38
286.057	146.38
286.288	158.38
286.52	145.38
286.751	134.38
286.982	145.38
287.213	153.38
287.444	142.38
287.675	153.38
287.906	146.38
288.138	145.38
288.369	132.38
288.6	157.38
288.831	149.38
289.062	140.38
289.293	146.38
289.524	145.38
289.755	130.38
289.986	119.38
290.217	141.38
290.448	146.38
290.679	137.38
290.91	156.38
291.141	141.38
291.371	155.38
291.602	157.38
291.833	148.38
292.064	153.38
292.295	148.38
292.526	148.38
292.757	150.38
292.987	155.38
293.218	148.38
293.449	143.38
293.68	141.38
293.91	149.38
294.141	155.38
294.372	131.38
294.603	135.38
294.833	155.38
295.064	161.38
295.295	155.38
295.525	157.38
295.756	157.38
295.987	158.38
296.217	157.38
296.448	142.38
296.679	141.38
296.909	153.38
297.14	136.38
297.37	171.38
297.601	166.38
297.831	163.38
298.062	160.38
298.292	150.38
298.523	143.38
298.753	158.38
298.984	159.38
299.214	160.38
299.445	166.38
299.675	163.38
299.905	152.38
300.136	169.38
300.366	159.38
300.597	158.38
300.827	170.38
301.057	161.38
301.288	155.38
301.518	153.38
301.748	164.38
301.979	145.38
302.209	172.38
302.439	173.38
302.669	155.38
302.9	158.38
303.13	141.38
303.36	159.38
303.59	156.38
303.82	159.38
304.051	175.38
304.281	158.38
304.511	188.38
304.741	167.38
304.971	174.38
305.201	166.38
305.431	160.38
305.661	169.38
305.891	169.38
306.121	173.38
306.352	170.38
306.582	156.38
306.812	163.38
307.042	171.38
307.272	161.38
307.502	161.38
307.731	159.38
307.961	156.38
308.191	157.38
308.421	176.38
308.651	173.38
308.881	153.38
309.111	157.38
309.341	167.38
309.571	154.38
309.8	155.38
310.03	171.38
310.26	157.38
310.49	153.38
310.72	156.38
310.949	156.38
311.179	168.38
311.409	158.38
311.639	165.38
311.868	167.38
312.098	169.38
312.328	169.38
312.557	176.38
312.787	168.38
313.017	168.38
313.246	171.38
313.476	171.38
313.706	163.38
313.935	181.38
314.165	169.38
314.394	157.38
314.624	159.38
314.853	185.38
315.083	177.38
315.312	168.38
315.542	178.38
315.771	160.38
316.001	156.38
316.23	158.38
316.46	169.38
316.689	161.38
316.919	173.38
317.148	172.38
317.377	158.38
317.607	167.38
317.836	164.38
318.065	160.38
318.295	173.38
318.524	169.38
318.753	159.38
318.983	161.38
319.212	192.38
319.441	172.38
319.67	160.38
319.9	167.38
320.129	175.38
320.358	168.38
320.587	151.38
320.816	188.38
321.046	167.38
321.275	178.38
321.504	179.38
321.733	178.38
321.962	173.38
322.191	173.38
322.42	173.38
322.649	159.38
322.878	159.38
323.108	170.38
323.337	175.38
323.566	165.38
323.795	172.38
324.024	164.38
324.253	172.38
324.482	167.38
324.71	165.38
324.939	180.38
325.168	180.38
325.397	189.38
325.626	199.38
325.855	183.38
326.084	170.38
326.313	183.38
326.542	188.38
326.77	183.38
326.999	177.38
327.228	199.38
327.457	186.38
327.686	199.38
327.914	192.38
328.143	195.38
328.372	184.38
328.6	177.38
328.829	185.38
329.058	183.38
329.287	164.38
329.515	189.38
329.744	187.38
329.972	200.38
330.201	194.38
330.43	191.38
330.658	180.38
330.887	191.38
331.115	178.38
331.344	183.38
331.572	187.38
331.801	178.38
332.03	184.38
332.258	187.38
332.486	195.38
332.715	189.38
332.943	204.38
333.172	198.38
333.4	209.38
333.629	212.38
333.857	204.38
334.085	213.38
334.314	205.38
334.542	194.38
334.771	210.38
334.999	204.38
335.227	220.38
335.455	197.38
335.684	223.38
335.912	207.38
336.14	192.38
336.369	224.38
336.597	207.38
336.825	206.38
337.053	203.38
337.281	199.38
337.51	207.38
337.738	203.38
337.966	195.38
338.194	191.38
338.422	193.38
338.65	201.38
338.878	184.38
339.106	189.38
339.334	190.38
339.562	199.38
339.79	201.38
340.018	198.38
340.246	184.38
340.474	194.38
340.702	163.38
340.93	178.38
341.158	207.38
341.386	201.38
341.614	172.38
341.842	202.38
342.07	186.38
342.298	183.38
342.526	193.38
342.754	205.38
342.981	185.38
343.209	194.38
343.437	205.38
343.665	196.38
343.893	215.38
344.12	217.38
344.348	204.38
344.576	203.38
344.804	195.38
345.031	189.38
345.259	214.38
345.487	202.38
345.714	186.38
345.942	191.38
346.17	198.38
346.397	205.38
346.625	183.38
346.853	177.38
347.08	183.38
347.308	187.38
347.535	188.38
347.763	202.38
347.99	204.38
348.218	183.38
348.445	169.38
348.673	178.38
348.9	195.38
349.128	173.38
349.355	197.38
349.583	195.38
349.81	193.38
350.037	176.38
350.265	187.38
350.492	172.38
350.72	176.38
350.947	202.38
351.174	181.38
351.402	175.38
351.629	176.38
351.856	180.38
352.083	174.38
352.311	188.38
352.538	185.38
352.765	184.38
352.992	187.38
353.22	185.38
353.447	189.38
353.674	187.38
353.901	191.38
354.128	183.38
354.355	193.38
354.583	184.38
354.81	168.38
355.037	197.38
355.264	189.38
355.491	179.38
355.718	194.38
355.945	181.38
356.172	173.38
356.399	187.38
356.626	174.38
356.853	196.38
357.08	201.38
357.307	193.38
357.534	174.38
357.761	191.38
357.988	186.38
358.215	163.38
358.441	190.38
358.668	187.38
358.895	166.38
359.122	175.38
359.349	190.38
359.576	176.38
359.802	185.38
360.029	188.38
360.256	186.38
360.483	188.38
360.709	184.38
360.936	196.38
361.163	191.38
361.39	196.38
361.616	188.38
361.843	175.38
362.07	176.38
362.296	179.38
362.523	176.38
362.749	174.38
362.976	179.38
363.203	188.38
363.429	183.38
363.656	187.38
363.882	173.38
364.109	193.38
364.335	193.38
364.562	176.38
364.788	202.38
365.015	176.38
365.241	190.38
365.468	184.38
365.694	183.38
365.92	193.38
366.147	187.38
366.373	206.38
366.599	186.38
366.826	175.38
367.052	185.38
367.278	200.38
367.505	179.38
367.731	190.38
367.957	189.38
368.184	187.38
368.41	178.38
368.636	199.38
368.862	182.38
369.089	187.38
369.315	194.38
369.541	186.38
369.767	189.38
369.993	180.38
370.219	204.38
370.445	189.38
370.672	193.38
370.898	172.38
371.124	175.38
371.35	205.38
371.576	207.38
371.802	212.38
372.028	195.38
372.254	200.38
372.48	201.38
372.706	186.38
372.932	212.38
373.158	203.38
373.384	210.38
373.61	200.38
373.835	196.38
374.061	210.38
374.287	198.38
374.513	193.38
374.739	201.38
374.965	192.38
375.191	213.38
375.416	212.38
375.642	195.38
375.868	203.38
376.094	201.38
376.319	191.38
376.545	196.38
376.771	210.38
376.997	199.38
377.222	184.38
377.448	180.38
377.674	185.38
377.899	206.38
378.125	192.38
378.35	195.38
378.576	194.38
378.802	200.38
379.027	204.38
379.253	189.38
379.478	194.38
379.704	193.38
379.929	194.38
380.155	201.38
380.38	192.38
380.606	192.38
380.831	192.38
381.057	197.38
381.282	177.38
381.507	206.38
381.733	202.38
381.958	200.38
382.184	191.38
382.409	203.38
382.634	202.38
382.86	193.38
383.085	196.38
383.31	209.38
383.535	203.38
383.761	216.38
383.986	223.38
384.211	200.38
384.436	220.38
384.662	208.38
384.887	225.38
385.112	211.38
385.337	217.38
385.562	217.38
385.787	252.38
386.013	225.38
386.238	210.38
386.463	224.38
386.688	208.38
386.913	223.38
387.138	223.38
387.363	221.38
387.588	226.38
387.813	219.38
388.038	227.38
388.263	222.38
388.488	204.38
388.713	219.38
388.938	209.38
389.163	210.38
389.387	229.38
389.612	205.38
389.837	222.38
390.062	212.38
390.287	231.38
390.512	241.38
390.736	221.38
390.961	225.38
391.186	217.38
391.411	224.38
391.636	239.38
391.86	234.38
392.085	237.38
392.31	251.38
392.534	234.38
392.759	237.38
392.984	211.38
393.208	231.38
393.433	226.38
393.658	228.38
393.882	240.38
394.107	233.38
394.331	226.38
394.556	213.38
394.78	209.38
395.005	236.38
395.229	233.38
395.454	243.38
395.678	241.38
395.903	241.38
396.127	245.38
396.352	215.38
396.576	223.38
396.801	227.38
397.025	232.38
397.249	252.38
397.474	256.38
397.698	234.38
397.922	235.38
398.147	252.38
398.371	276.38
398.595	260.38
398.82	257.38
399.044	265.38
399.268	289.38
399.492	312.38
399.717	337.38
399.941	322.38
400.165	291.38
400.389	262.38
400.613	256.38
400.837	275.38
401.062	265.38
401.286	266.38
401.51	243.38
401.734	253.38
401.958	254.38
402.182	258.38
402.406	253.38
402.63	282.38
402.854	257.38
403.078	258.38
403.302	270.38
403.526	257.38
403.75	263.38
403.974	257.38
404.198	277.38
404.422	275.38
404.645	268.38
404.869	272.38
405.093	299.38
405.317	273.38
405.541	277.38
405.765	291.38
405.988	267.38
406.212	288.38
406.436	291.38
406.66	287.38
406.883	279.38
407.107	283.38
407.331	282.38
407.555	291.38
407.778	295.38
408.002	304.38
408.226	289.38
408.449	284.38
408.673	285.38
408.896	284.38
409.12	276.38
409.344	297.38
409.567	256.38
409.791	282.38
410.014	272.38
410.238	285.38
410.461	274.38
410.685	277.38
410.908	277.38
411.132	284.38
411.355	257.38
411.578	276.38
411.802	272.38
412.025	287.38
412.249	284.38
412.472	272.38
412.695	275.38
412.919	251.38
413.142	260.38
413.365	255.38
413.589	254.38
413.812	259.38
414.035	280.38
414.258	243.38
414.482	267.38
414.705	267.38
414.928	267.38
415.151	277.38
415.374	264.38
415.597	260.38
415.821	253.38
416.044	266.38
416.267	244.38
416.49	251.38
416.713	242.38
416.936	268.38
417.159	267.38
417.382	239.38
417.605	258.38
417.828	255.38
418.051	250.38
418.274	243.38
418.497	255.38
418.72	269.38
418.943	251.38
419.166	255.38
419.389	274.38
419.611	271.38
419.834	269.38
420.057	264.38
420.28	253.38
420.503	232.38
420.726	252.38
420.948	265.38
421.171	247.38
421.394	271.38
421.617	261.38
421.839	256.38
422.062	262.38
422.285	245.38
422.507	249.38
422.73	234.38
422.953	237.38
423.175	242.38
423.398	258.38
423.621	254.38
423.843	260.38
424.066	264.38
424.288	265.38
424.511	243.38
424.733	267.38
424.956	241.38
425.178	253.38
425.401	241.38
425.623	249.38
425.846	261.38
426.068	237.38
426.291	246.38
426.513	240.38
426.735	252.38
426.958	238.38
427.18	231.38
427.402	245.38
427.625	223.38
427.847	233.38
428.069	234.38
428.292	234.38
428.514	239.38
428.736	230.38
428.958	228.38
429.181	248.38
429.403	244.38
429.625	230.38
429.847	231.38
430.069	219.38
430.292	222.38
430.514	238.38
430.736	230.38
430.958	238.38
431.18	222.38
431.402	228.38
431.624	234.38
431.846	225.38
432.068	251.38
432.29	214.38
432.512	234.38
432.734	243.38
432.956	231.38
433.178	216.38
433.4	226.38
433.622	222.38
433.844	218.38
434.066	222.38
434.287	228.38
434.509	230.38
434.731	251.38
434.953	228.38
435.175	242.38
435.397	241.38
435.618	234.38
435.84	215.38
436.062	219.38
436.284	229.38
436.505	222.38
436.727	228.38
436.949	242.38
437.17	227.38
437.392	235.38
437.614	236.38
437.835	224.38
438.057	238.38
438.278	226.38
438.5	231.38
438.721	232.38
438.943	244.38
439.165	219.38
439.386	248.38
439.608	228.38
439.829	242.38
440.05	218.38
440.272	225.38
440.493	231.38
440.715	241.38
440.936	247.38
441.158	241.38
441.379	245.38
441.6	251.38
441.822	242.38
442.043	253.38
442.264	247.38
442.486	233.38
442.707	242.38
442.928	259.38
443.149	254.38
443.371	232.38
443.592	227.38
443.813	238.38
444.034	260.38
444.255	255.38
444.476	254.38
444.698	267.38
444.919	255.38
445.14	348.38
445.361	285.38
445.582	247.38
445.803	242.38
446.024	239.38
446.245	237.38
446.466	235.38
446.687	233.38
446.908	237.38
447.129	229.38
447.35	223.38
447.571	229.38
447.792	245.38
448.013	237.38
448.234	209.38
448.455	227.38
448.675	212.38
448.896	216.38
449.117	217.38
449.338	219.38
449.559	220.38
449.779	241.38
450	233.38
450.221	228.38
450.442	216.38
450.662	217.38
450.883	224.38
451.104	231.38
451.324	213.38
451.545	220.38
451.766	243.38
451.986	218.38
452.207	202.38
452.428	195.38
452.648	213.38
452.869	200.38
453.089	212.38
453.31	221.38
453.53	216.38
453.751	209.38
453.971	224.38
454.192	205.38
454.412	207.38
454.633	211.38
454.853	217.38
455.073	205.38
455.294	204.38
455.514	208.38
455.734	201.38
455.955	223.38
456.175	220.38
456.395	206.38
456.616	212.38
456.836	212.38
457.056	199.38
457.276	215.38
457.497	214.38
457.717	205.38
457.937	219.38
458.157	227.38
458.377	203.38
458.598	212.38
458.818	228.38
459.038	227.38
459.258	232.38
459.478	249.38
459.698	230.38
459.918	235.38
460.138	244.38
460.358	245.38
460.578	256.38
460.798	259.38
461.018	263.38
461.238	253.38
461.458	245.38
461.678	268.38
461.898	263.38
462.118	228.38
462.338	273.38
462.558	278.38
462.777	279.38
462.997	281.38
463.217	298.38
463.437	305.38
463.657	294.38
463.876	288.38
464.096	276.38
464.316	281.38
464.536	284.38
464.755	271.38
464.975	273.38
465.195	272.38
465.414	238.38
465.634	226.38
465.854	223.38
466.073	233.38
466.293	230.38
466.512	222.38
466.732	236.38
466.951	242.38
467.171	229.38
467.391	211.38
467.61	217.38
467.829	211.38
468.049	226.38
468.268	234.38
468.488	220.38
468.707	207.38
468.927	224.38
469.146	210.38
469.365	218.38
469.585	200.38
469.804	249.38
470.023	236.38
470.243	237.38
470.462	220.38
470.681	243.38
470.901	226.38
471.12	223.38
471.339	233.38
471.558	211.38
471.777	218.38
471.997	226.38
472.216	226.38
472.435	225.38
472.654	209.38
472.873	227.38
473.092	221.38
473.311	205.38
473.53	211.38
473.749	229.38
473.968	212.38
474.187	213.38
474.406	205.38
474.625	218.38
474.844	224.38
475.063	212.38
475.282	228.38
475.501	241.38
475.72	213.38
475.939	223.38
476.158	227.38
476.377	219.38
476.596	221.38
476.814	226.38
477.033	233.38
477.252	228.38
477.471	227.38
477.69	234.38
477.908	244.38
478.127	244.38
478.346	242.38
478.564	247.38
478.783	249.38
479.002	248.38
479.22	242.38
479.439	241.38
479.658	248.38
479.876	229.38
480.095	252.38
480.313	264.38
480.532	270.38
480.751	247.38
480.969	249.38
481.188	237.38
481.406	236.38
481.624	249.38
481.843	244.38
482.061	258.38
482.28	233.38
482.498	248.38
482.717	253.38
482.935	242.38
483.153	227.38
483.372	243.38
483.59	262.38
483.808	246.38
484.027	230.38
484.245	247.38
484.463	251.38
484.681	258.38
484.9	242.38
485.118	242.38
485.336	243.38
485.554	239.38
485.772	241.38
485.99	259.38
486.209	253.38
486.427	237.38
486.645	247.38
486.863	245.38
487.081	232.38
487.299	240.38
487.517	244.38
487.735	252.38
487.953	257.38
488.171	238.38
488.389	249.38
488.607	242.38
488.825	250.38
489.043	240.38
489.261	232.38
489.479	253.38
489.696	262.38
489.914	247.38
490.132	242.38
490.35	236.38
490.568	268.38
490.786	228.38
491.003	245.38
491.221	267.38
491.439	237.38
491.657	263.38
491.874	267.38
492.092	263.38
492.31	265.38
492.527	247.38
492.745	262.38
492.963	266.38
493.18	262.38
493.398	272.38
493.615	256.38
493.833	257.38
494.05	272.38
494.268	257.38
494.485	262.38
494.703	265.38
494.92	274.38
495.138	265.38
495.355	274.38
495.573	260.38
495.79	247.38
496.008	274.38
496.225	278.38
496.442	257.38
496.66	281.38
496.877	270.38
497.094	284.38
497.312	277.38
497.529	305.38
497.746	285.38
497.963	289.38
498.181	295.38
498.398	311.38
498.615	327.38
498.832	339.38
499.049	363.38
499.267	377.38
499.484	400.38
499.701	432.38
499.918	445.38
500.135	509.38
500.352	520.38
500.569	531.38
500.786	545.38
501.003	497.38
501.22	464.38
501.437	417.38
501.654	407.38
501.871	372.38
502.088	370.38
502.305	349.38
502.522	338.38
