Data from Fe(NO3)3@0.1M.TitratingCurve.Agarose3%dH2O.NegLispCup.LampEnergy10.LIBS07252019_HRD10591_16-39-09-332.txt Node
Date: Thu Jul 25 16:39:09 EDT 2019
User: cochatt
Spectrometer: HR+D1059
Trigger mode: 1
Integration Time (sec): 1.000000E-1
Scans to average: 1
Electric dark correction enabled: true
Nonlinearity correction enabled: false
Boxcar width: 0
XAxis mode: Wavelengths
Number of Pixels in Spectrum: 2048
>>>>>Begin Spectral Data<<<<<
223.165	-21.5
223.4	-21.5
223.635	-21.5
223.869	-11.5
224.104	-17.5
224.338	-20.5
224.573	-17.5
224.808	-21.5
225.042	-0.5
225.277	6.5
225.511	12.5
225.746	2.5
225.98	-1.5
226.215	9.5
226.449	9.5
226.683	30.5
226.918	11.5
227.152	29.5
227.387	29.5
227.621	42.5
227.856	39.5
228.09	51.5
228.324	47.5
228.559	60.5
228.793	77.5
229.027	90.5
229.262	83.5
229.496	76.5
229.73	98.5
229.964	93.5
230.199	82.5
230.433	102.5
230.667	95.5
230.901	96.5
231.136	100.5
231.37	104.5
231.604	115.5
231.838	115.5
232.072	119.5
232.306	97.5
232.541	106.5
232.775	106.5
233.009	118.5
233.243	101.5
233.477	106.5
233.711	119.5
233.945	121.5
234.179	108.5
234.413	115.5
234.647	105.5
234.881	95.5
235.115	117.5
235.349	114.5
235.583	105.5
235.817	113.5
236.051	100.5
236.285	107.5
236.519	104.5
236.753	120.5
236.987	115.5
237.221	107.5
237.455	113.5
237.689	108.5
237.922	100.5
238.156	110.5
238.39	118.5
238.624	135.5
238.858	121.5
239.091	114.5
239.325	115.5
239.559	105.5
239.793	128.5
240.027	104.5
240.26	114.5
240.494	119.5
240.728	127.5
240.961	122.5
241.195	118.5
241.429	120.5
241.662	125.5
241.896	124.5
242.13	130.5
242.363	96.5
242.597	125.5
242.83	110.5
243.064	122.5
243.298	122.5
243.531	126.5
243.765	114.5
243.998	133.5
244.232	139.5
244.465	135.5
244.699	127.5
244.932	129.5
245.166	124.5
245.399	140.5
245.633	134.5
245.866	129.5
246.099	132.5
246.333	140.5
246.566	117.5
246.8	139.5
247.033	141.5
247.266	144.5
247.5	149.5
247.733	144.5
247.966	144.5
248.2	126.5
248.433	142.5
248.666	140.5
248.899	144.5
249.133	129.5
249.366	148.5
249.599	149.5
249.832	142.5
250.066	123.5
250.299	131.5
250.532	144.5
250.765	147.5
250.998	153.5
251.231	138.5
251.465	127.5
251.698	139.5
251.931	150.5
252.164	145.5
252.397	133.5
252.63	138.5
252.863	162.5
253.096	157.5
253.329	150.5
253.562	161.5
253.795	156.5
254.028	155.5
254.261	157.5
254.494	146.5
254.727	162.5
254.96	166.5
255.193	158.5
255.426	147.5
255.659	156.5
255.892	165.5
256.124	162.5
256.357	161.5
256.59	168.5
256.823	167.5
257.056	153.5
257.289	167.5
257.521	162.5
257.754	159.5
257.987	151.5
258.22	172.5
258.452	173.5
258.685	164.5
258.918	157.5
259.151	159.5
259.383	169.5
259.616	169.5
259.849	166.5
260.081	171.5
260.314	173.5
260.547	174.5
260.779	154.5
261.012	168.5
261.244	154.5
261.477	179.5
261.71	175.5
261.942	182.5
262.175	167.5
262.407	175.5
262.64	180.5
262.872	195.5
263.105	178.5
263.337	168.5
263.57	171.5
263.802	175.5
264.035	172.5
264.267	178.5
264.499	164.5
264.732	181.5
264.964	165.5
265.197	183.5
265.429	186.5
265.661	181.5
265.894	180.5
266.126	185.5
266.358	196.5
266.591	204.5
266.823	184.5
267.055	189.5
267.287	183.5
267.52	176.5
267.752	194.5
267.984	181.5
268.216	191.5
268.448	186.5
268.681	193.5
268.913	184.5
269.145	172.5
269.377	175.5
269.609	195.5
269.841	200.5
270.073	195.5
270.306	194.5
270.538	186.5
270.77	188.5
271.002	199.5
271.234	206.5
271.466	191.5
271.698	206.5
271.93	182.5
272.162	195.5
272.394	219.5
272.626	206.5
272.858	197.5
273.09	206.5
273.322	206.5
273.553	214.5
273.785	195.5
274.017	203.5
274.249	201.5
274.481	228.5
274.713	206.5
274.945	206.5
275.176	201.5
275.408	218.5
275.64	231.5
275.872	207.5
276.104	207.5
276.335	203.5
276.567	211.5
276.799	213.5
277.031	212.5
277.262	205.5
277.494	204.5
277.726	229.5
277.957	216.5
278.189	222.5
278.421	223.5
278.652	236.5
278.884	217.5
279.115	213.5
279.347	204.5
279.579	199.5
279.81	235.5
280.042	226.5
280.273	233.5
280.505	225.5
280.736	223.5
280.968	243.5
281.199	229.5
281.431	224.5
281.662	242.5
281.894	225.5
282.125	211.5
282.356	234.5
282.588	221.5
282.819	226.5
283.051	241.5
283.282	241.5
283.513	244.5
283.745	237.5
283.976	245.5
284.207	230.5
284.439	234.5
284.67	260.5
284.901	228.5
285.132	242.5
285.364	241.5
285.595	233.5
285.826	236.5
286.057	242.5
286.288	257.5
286.52	247.5
286.751	249.5
286.982	242.5
287.213	234.5
287.444	246.5
287.675	249.5
287.906	243.5
288.138	231.5
288.369	247.5
288.6	247.5
288.831	246.5
289.062	245.5
289.293	248.5
289.524	252.5
289.755	245.5
289.986	238.5
290.217	245.5
290.448	265.5
290.679	269.5
290.91	249.5
291.141	242.5
291.371	258.5
291.602	252.5
291.833	273.5
292.064	241.5
292.295	273.5
292.526	247.5
292.757	247.5
292.987	255.5
293.218	246.5
293.449	261.5
293.68	249.5
293.91	237.5
294.141	255.5
294.372	268.5
294.603	270.5
294.833	241.5
295.064	257.5
295.295	259.5
295.525	266.5
295.756	258.5
295.987	254.5
296.217	257.5
296.448	267.5
296.679	282.5
296.909	261.5
297.14	263.5
297.37	262.5
297.601	273.5
297.831	265.5
298.062	275.5
298.292	265.5
298.523	280.5
298.753	278.5
298.984	292.5
299.214	278.5
299.445	286.5
299.675	282.5
299.905	298.5
300.136	298.5
300.366	274.5
300.597	282.5
300.827	294.5
301.057	289.5
301.288	290.5
301.518	271.5
301.748	294.5
301.979	282.5
302.209	304.5
302.439	289.5
302.669	300.5
302.9	267.5
303.13	286.5
303.36	283.5
303.59	294.5
303.82	281.5
304.051	281.5
304.281	291.5
304.511	300.5
304.741	296.5
304.971	296.5
305.201	297.5
305.431	299.5
305.661	291.5
305.891	300.5
306.121	288.5
306.352	290.5
306.582	278.5
306.812	283.5
307.042	283.5
307.272	281.5
307.502	297.5
307.731	288.5
307.961	278.5
308.191	289.5
308.421	274.5
308.651	286.5
308.881	270.5
309.111	291.5
309.341	294.5
309.571	290.5
309.8	304.5
310.03	292.5
310.26	293.5
310.49	277.5
310.72	284.5
310.949	307.5
311.179	312.5
311.409	298.5
311.639	270.5
311.868	291.5
312.098	297.5
312.328	285.5
312.557	305.5
312.787	297.5
313.017	306.5
313.246	293.5
313.476	283.5
313.706	316.5
313.935	301.5
314.165	306.5
314.394	313.5
314.624	307.5
314.853	306.5
315.083	302.5
315.312	309.5
315.542	297.5
315.771	303.5
316.001	322.5
316.23	298.5
316.46	310.5
316.689	305.5
316.919	298.5
317.148	330.5
317.377	290.5
317.607	307.5
317.836	298.5
318.065	294.5
318.295	313.5
318.524	321.5
318.753	295.5
318.983	305.5
319.212	297.5
319.441	303.5
319.67	322.5
319.9	300.5
320.129	295.5
320.358	316.5
320.587	307.5
320.816	313.5
321.046	302.5
321.275	299.5
321.504	305.5
321.733	311.5
321.962	306.5
322.191	318.5
322.42	326.5
322.649	302.5
322.878	315.5
323.108	307.5
323.337	310.5
323.566	316.5
323.795	303.5
324.024	305.5
324.253	326.5
324.482	322.5
324.71	331.5
324.939	323.5
325.168	318.5
325.397	315.5
325.626	302.5
325.855	327.5
326.084	338.5
326.313	321.5
326.542	340.5
326.77	311.5
326.999	322.5
327.228	300.5
327.457	337.5
327.686	348.5
327.914	336.5
328.143	344.5
328.372	322.5
328.6	312.5
328.829	333.5
329.058	333.5
329.287	354.5
329.515	331.5
329.744	322.5
329.972	333.5
330.201	315.5
330.43	350.5
330.658	350.5
330.887	365.5
331.115	363.5
331.344	362.5
331.572	354.5
331.801	373.5
332.03	347.5
332.258	370.5
332.486	382.5
332.715	399.5
332.943	403.5
333.172	415.5
333.4	429.5
333.629	427.5
333.857	420.5
334.085	419.5
334.314	437.5
334.542	406.5
334.771	399.5
334.999	420.5
335.227	427.5
335.455	416.5
335.684	400.5
335.912	408.5
336.14	399.5
336.369	398.5
336.597	392.5
336.825	376.5
337.053	398.5
337.281	378.5
337.51	386.5
337.738	378.5
337.966	382.5
338.194	371.5
338.422	364.5
338.65	345.5
338.878	361.5
339.106	349.5
339.334	369.5
339.562	376.5
339.79	362.5
340.018	349.5
340.246	342.5
340.474	354.5
340.702	336.5
340.93	343.5
341.158	368.5
341.386	349.5
341.614	347.5
341.842	353.5
342.07	348.5
342.298	339.5
342.526	347.5
342.754	338.5
342.981	372.5
343.209	348.5
343.437	370.5
343.665	405.5
343.893	415.5
344.12	417.5
344.348	391.5
344.576	357.5
344.804	377.5
345.031	357.5
345.259	364.5
345.487	351.5
345.714	381.5
345.942	349.5
346.17	340.5
346.397	358.5
346.625	342.5
346.853	349.5
347.08	335.5
347.308	335.5
347.535	344.5
347.763	344.5
347.99	364.5
348.218	341.5
348.445	347.5
348.673	345.5
348.9	337.5
349.128	328.5
349.355	328.5
349.583	349.5
349.81	333.5
350.037	327.5
350.265	335.5
350.492	339.5
350.72	324.5
350.947	327.5
351.174	342.5
351.402	338.5
351.629	337.5
351.856	325.5
352.083	326.5
352.311	338.5
352.538	323.5
352.765	356.5
352.992	346.5
353.22	322.5
353.447	313.5
353.674	350.5
353.901	342.5
354.128	332.5
354.355	342.5
354.583	322.5
354.81	337.5
355.037	325.5
355.264	354.5
355.491	344.5
355.718	356.5
355.945	344.5
356.172	317.5
356.399	354.5
356.626	333.5
356.853	346.5
357.08	335.5
357.307	335.5
357.534	346.5
357.761	332.5
357.988	337.5
358.215	343.5
358.441	334.5
358.668	329.5
358.895	319.5
359.122	364.5
359.349	327.5
359.576	349.5
359.802	350.5
360.029	364.5
360.256	358.5
360.483	334.5
360.709	328.5
360.936	335.5
361.163	353.5
361.39	342.5
361.616	335.5
361.843	348.5
362.07	335.5
362.296	349.5
362.523	339.5
362.749	356.5
362.976	343.5
363.203	354.5
363.429	346.5
363.656	334.5
363.882	350.5
364.109	344.5
364.335	321.5
364.562	331.5
364.788	331.5
365.015	350.5
365.241	338.5
365.468	347.5
365.694	347.5
365.92	323.5
366.147	328.5
366.373	326.5
366.599	332.5
366.826	345.5
367.052	321.5
367.278	349.5
367.505	359.5
367.731	354.5
367.957	328.5
368.184	350.5
368.41	366.5
368.636	354.5
368.862	335.5
369.089	347.5
369.315	370.5
369.541	349.5
369.767	348.5
369.993	349.5
370.219	358.5
370.445	362.5
370.672	350.5
370.898	356.5
371.124	371.5
371.35	376.5
371.576	377.5
371.802	387.5
372.028	367.5
372.254	365.5
372.48	378.5
372.706	379.5
372.932	380.5
373.158	371.5
373.384	381.5
373.61	370.5
373.835	369.5
374.061	362.5
374.287	372.5
374.513	395.5
374.739	388.5
374.965	387.5
375.191	410.5
375.416	395.5
375.642	396.5
375.868	394.5
376.094	377.5
376.319	408.5
376.545	390.5
376.771	383.5
376.997	363.5
377.222	389.5
377.448	361.5
377.674	372.5
377.899	375.5
378.125	374.5
378.35	399.5
378.576	380.5
378.802	374.5
379.027	356.5
379.253	371.5
379.478	375.5
379.704	379.5
379.929	370.5
380.155	356.5
380.38	379.5
380.606	387.5
380.831	373.5
381.057	390.5
381.282	361.5
381.507	391.5
381.733	385.5
381.958	374.5
382.184	385.5
382.409	387.5
382.634	394.5
382.86	391.5
383.085	398.5
383.31	406.5
383.535	397.5
383.761	398.5
383.986	410.5
384.211	425.5
384.436	427.5
384.662	426.5
384.887	425.5
385.112	444.5
385.337	444.5
385.562	434.5
385.787	432.5
386.013	445.5
386.238	436.5
386.463	439.5
386.688	441.5
386.913	435.5
387.138	441.5
387.363	436.5
387.588	428.5
387.813	450.5
388.038	437.5
388.263	422.5
388.488	426.5
388.713	444.5
388.938	414.5
389.163	430.5
389.387	431.5
389.612	410.5
389.837	415.5
390.062	429.5
390.287	421.5
390.512	444.5
390.736	435.5
390.961	443.5
391.186	449.5
391.411	458.5
391.636	484.5
391.86	477.5
392.085	493.5
392.31	504.5
392.534	469.5
392.759	474.5
392.984	464.5
393.208	462.5
393.433	458.5
393.658	446.5
393.882	468.5
394.107	481.5
394.331	466.5
394.556	459.5
394.78	475.5
395.005	485.5
395.229	469.5
395.454	499.5
395.678	492.5
395.903	499.5
396.127	471.5
396.352	460.5
396.576	467.5
396.801	484.5
397.025	484.5
397.249	477.5
397.474	497.5
397.698	486.5
397.922	482.5
398.147	490.5
398.371	516.5
398.595	523.5
398.82	570.5
399.044	578.5
399.268	633.5
399.492	739.5
399.717	790.5
399.941	739.5
400.165	705.5
400.389	618.5
400.613	615.5
400.837	586.5
401.062	558.5
401.286	587.5
401.51	554.5
401.734	539.5
401.958	551.5
402.182	569.5
402.406	561.5
402.63	590.5
402.854	590.5
403.078	590.5
403.302	592.5
403.526	615.5
403.75	609.5
403.974	590.5
404.198	615.5
404.422	643.5
404.645	603.5
404.869	589.5
405.093	598.5
405.317	616.5
405.541	587.5
405.765	591.5
405.988	583.5
406.212	587.5
406.436	576.5
406.66	627.5
406.883	630.5
407.107	677.5
407.331	682.5
407.555	687.5
407.778	659.5
408.002	656.5
408.226	655.5
408.449	652.5
408.673	627.5
408.896	605.5
409.12	614.5
409.344	620.5
409.567	590.5
409.791	602.5
410.014	618.5
410.238	590.5
410.461	595.5
410.685	578.5
410.908	580.5
411.132	587.5
411.355	586.5
411.578	584.5
411.802	583.5
412.025	563.5
412.249	595.5
412.472	591.5
412.695	558.5
412.919	572.5
413.142	558.5
413.365	558.5
413.589	556.5
413.812	546.5
414.035	581.5
414.258	554.5
414.482	556.5
414.705	568.5
414.928	567.5
415.151	567.5
415.374	585.5
415.597	565.5
415.821	528.5
416.044	545.5
416.267	558.5
416.49	556.5
416.713	546.5
416.936	574.5
417.159	534.5
417.382	551.5
417.605	533.5
417.828	551.5
418.051	572.5
418.274	579.5
418.497	557.5
418.72	573.5
418.943	547.5
419.166	589.5
419.389	595.5
419.611	595.5
419.834	604.5
420.057	570.5
420.28	591.5
420.503	561.5
420.726	559.5
420.948	538.5
421.171	531.5
421.394	565.5
421.617	542.5
421.839	552.5
422.062	564.5
422.285	559.5
422.507	570.5
422.73	567.5
422.953	573.5
423.175	570.5
423.398	581.5
423.621	595.5
423.843	583.5
424.066	582.5
424.288	574.5
424.511	558.5
424.733	584.5
424.956	567.5
425.178	534.5
425.401	566.5
425.623	532.5
425.846	532.5
426.068	537.5
426.291	519.5
426.513	527.5
426.735	523.5
426.958	525.5
427.18	501.5
427.402	504.5
427.625	491.5
427.847	475.5
428.069	506.5
428.292	501.5
428.514	500.5
428.736	512.5
428.958	498.5
429.181	483.5
429.403	482.5
429.625	486.5
429.847	502.5
430.069	490.5
430.292	491.5
430.514	490.5
430.736	519.5
430.958	491.5
431.18	484.5
431.402	484.5
431.624	475.5
431.846	501.5
432.068	516.5
432.29	515.5
432.512	485.5
432.734	513.5
432.956	490.5
433.178	507.5
433.4	519.5
433.622	499.5
433.844	518.5
434.066	525.5
434.287	509.5
434.509	502.5
434.731	524.5
434.953	546.5
435.175	539.5
435.397	531.5
435.618	525.5
435.84	503.5
436.062	516.5
436.284	495.5
436.505	497.5
436.727	513.5
436.949	506.5
437.17	502.5
437.392	493.5
437.614	501.5
437.835	491.5
438.057	485.5
438.278	494.5
438.5	487.5
438.721	487.5
438.943	498.5
439.165	501.5
439.386	476.5
439.608	511.5
439.829	483.5
440.05	513.5
440.272	534.5
440.493	533.5
440.715	512.5
440.936	524.5
441.158	531.5
441.379	540.5
441.6	551.5
441.822	565.5
442.043	545.5
442.264	547.5
442.486	564.5
442.707	558.5
442.928	565.5
443.149	559.5
443.371	570.5
443.592	567.5
443.813	572.5
444.034	579.5
444.255	598.5
444.476	618.5
444.698	629.5
444.919	657.5
445.14	739.5
445.361	655.5
445.582	590.5
445.803	561.5
446.024	540.5
446.245	557.5
446.466	523.5
446.687	522.5
446.908	527.5
447.129	511.5
447.35	503.5
447.571	509.5
447.792	493.5
448.013	505.5
448.234	488.5
448.455	470.5
448.675	478.5
448.896	501.5
449.117	471.5
449.338	474.5
449.559	478.5
449.779	469.5
450	469.5
450.221	497.5
450.442	509.5
450.662	471.5
450.883	473.5
451.104	471.5
451.324	481.5
451.545	494.5
451.766	486.5
451.986	477.5
452.207	470.5
452.428	470.5
452.648	442.5
452.869	478.5
453.089	475.5
453.31	467.5
453.53	462.5
453.751	453.5
453.971	461.5
454.192	459.5
454.412	459.5
454.633	459.5
454.853	447.5
455.073	448.5
455.294	443.5
455.514	436.5
455.734	425.5
455.955	441.5
456.175	439.5
456.395	423.5
456.616	435.5
456.836	453.5
457.056	450.5
457.276	443.5
457.497	457.5
457.717	438.5
457.937	451.5
458.157	452.5
458.377	428.5
458.598	458.5
458.818	462.5
459.038	477.5
459.258	485.5
459.478	489.5
459.698	519.5
459.918	523.5
460.138	538.5
460.358	586.5
460.578	580.5
460.798	591.5
461.018	583.5
461.238	571.5
461.458	580.5
461.678	573.5
461.898	587.5
462.118	587.5
462.338	607.5
462.558	645.5
462.777	633.5
462.997	704.5
463.217	743.5
463.437	743.5
463.657	686.5
463.876	659.5
464.096	659.5
464.316	636.5
464.536	677.5
464.755	646.5
464.975	627.5
465.195	596.5
465.414	579.5
465.634	548.5
465.854	538.5
466.073	508.5
466.293	488.5
466.512	494.5
466.732	511.5
466.951	493.5
467.171	493.5
467.391	519.5
467.61	492.5
467.829	481.5
468.049	490.5
468.268	495.5
468.488	481.5
468.707	465.5
468.927	481.5
469.146	463.5
469.365	484.5
469.585	489.5
469.804	501.5
470.023	510.5
470.243	494.5
470.462	509.5
470.681	535.5
470.901	503.5
471.12	486.5
471.339	501.5
471.558	466.5
471.777	482.5
471.997	479.5
472.216	464.5
472.435	468.5
472.654	460.5
472.873	447.5
473.092	456.5
473.311	444.5
473.53	453.5
473.749	466.5
473.968	456.5
474.187	490.5
474.406	441.5
474.625	455.5
474.844	461.5
475.063	447.5
475.282	442.5
475.501	449.5
475.72	456.5
475.939	452.5
476.158	479.5
476.377	468.5
476.596	483.5
476.814	490.5
477.033	458.5
477.252	486.5
477.471	472.5
477.69	505.5
477.908	503.5
478.127	515.5
478.346	535.5
478.564	553.5
478.783	564.5
479.002	573.5
479.22	513.5
479.439	536.5
479.658	547.5
479.876	579.5
480.095	559.5
480.313	568.5
480.532	576.5
480.751	589.5
480.969	557.5
481.188	557.5
481.406	510.5
481.624	517.5
481.843	498.5
482.061	517.5
482.28	513.5
482.498	505.5
482.717	488.5
482.935	510.5
483.153	490.5
483.372	500.5
483.59	516.5
483.808	510.5
484.027	502.5
484.245	498.5
484.463	506.5
484.681	515.5
484.9	525.5
485.118	524.5
485.336	549.5
485.554	518.5
485.772	534.5
485.99	539.5
486.209	521.5
486.427	527.5
486.645	521.5
486.863	524.5
487.081	517.5
487.299	497.5
487.517	537.5
487.735	524.5
487.953	533.5
488.171	555.5
488.389	510.5
488.607	517.5
488.825	499.5
489.043	519.5
489.261	533.5
489.479	491.5
489.696	525.5
489.914	526.5
490.132	515.5
490.35	514.5
490.568	540.5
490.786	519.5
491.003	534.5
491.221	503.5
491.439	541.5
491.657	551.5
491.874	539.5
492.092	541.5
492.31	557.5
492.527	555.5
492.745	570.5
492.963	558.5
493.18	562.5
493.398	541.5
493.615	549.5
493.833	547.5
494.05	587.5
494.268	543.5
494.485	557.5
494.703	545.5
494.92	551.5
495.138	576.5
495.355	537.5
495.573	575.5
495.79	564.5
496.008	574.5
496.225	586.5
496.442	566.5
496.66	587.5
496.877	612.5
497.094	585.5
497.312	619.5
497.529	596.5
497.746	650.5
497.963	661.5
498.181	679.5
498.398	712.5
498.615	729.5
498.832	794.5
499.049	837.5
499.267	905.5
499.484	979.5
499.701	1051.5
499.918	1165.5
500.135	1313.5
500.352	1440.5
500.569	1493.5
500.786	1433.5
501.003	1334.5
501.22	1225.5
501.437	1091.5
501.654	971.5
501.871	877.5
502.088	839.5
502.305	782.5
502.522	783.5
502.739	717.5
502.956	698.5
503.172	685.5
503.389	646.5
503.606	630.5
503.823	639.5
504.04	645.5
504.256	633.5
504.473	651.5
504.69	649.5
504.907	624.5
505.123	615.5
505.34	574.5
505.557	534.5
505.773	509.5
505.99	524.5
506.207	521.5
506.423	511.5
506.64	518.5
506.856	490.5
507.073	518.5
507.289	482.5
507.506	495.5
507.722	506.5
507.939	497.5
508.155	476.5
508.372	483.5
508.588	455.5
508.805	458.5
509.021	467.5
509.238	476.5
509.454	451.5
509.67	443.5
509.887	462.5
510.103	454.5
510.319	455.5
510.536	444.5
510.752	431.5
510.968	457.5
511.184	465.5
511.401	459.5
511.617	415.5
511.833	440.5
512.049	437.5
512.265	437.5
512.481	450.5
512.698	437.5
512.914	466.5
513.13	453.5
513.346	445.5
513.562	435.5
513.778	457.5
513.994	476.5
514.21	478.5
514.426	458.5
514.642	447.5
514.858	466.5
515.074	478.5
515.29	475.5
515.506	467.5
515.721	467.5
515.937	490.5
516.153	487.5
516.369	516.5
516.585	510.5
516.801	525.5
517.016	544.5
517.232	567.5
517.448	593.5
517.664	586.5
517.879	607.5
518.095	600.5
518.311	568.5
518.527	568.5
518.742	546.5
518.958	543.5
519.173	505.5
519.389	502.5
519.605	498.5
