Data from Fe(NO3)3@0.1M.TitratingCurve.Agarose3%dH2O.NegLispCup.LampEnergy10.LIBS07252019_HRD10591_16-39-26-333.txt Node
Date: Thu Jul 25 16:39:26 EDT 2019
User: cochatt
Spectrometer: HR+D1059
Trigger mode: 1
Integration Time (sec): 1.000000E-1
Scans to average: 1
Electric dark correction enabled: true
Nonlinearity correction enabled: false
Boxcar width: 0
XAxis mode: Wavelengths
Number of Pixels in Spectrum: 2048
>>>>>Begin Spectral Data<<<<<
223.165	-16.62
223.4	-16.62
223.635	-16.62
223.869	-18.62
224.104	-19.62
224.338	-25.62
224.573	-5.62
224.808	-17.62
225.042	-6.62
225.277	-10.62
225.511	-0.62
225.746	-7.62
225.98	7.38
226.215	8.38
226.449	30.38
226.683	22.38
226.918	32.38
227.152	28.38
227.387	43.38
227.621	35.38
227.856	63.38
228.09	46.38
228.324	51.38
228.559	59.38
228.793	57.38
229.027	83.38
229.262	76.38
229.496	80.38
229.73	88.38
229.964	88.38
230.199	92.38
230.433	104.38
230.667	94.38
230.901	94.38
231.136	92.38
231.37	85.38
231.604	86.38
231.838	94.38
232.072	91.38
232.306	88.38
232.541	95.38
232.775	96.38
233.009	107.38
233.243	91.38
233.477	98.38
233.711	107.38
233.945	86.38
234.179	102.38
234.413	104.38
234.647	110.38
234.881	94.38
235.115	96.38
235.349	111.38
235.583	115.38
235.817	105.38
236.051	103.38
236.285	109.38
236.519	102.38
236.753	105.38
236.987	93.38
237.221	101.38
237.455	93.38
237.689	91.38
237.922	111.38
238.156	95.38
238.39	116.38
238.624	104.38
238.858	115.38
239.091	97.38
239.325	96.38
239.559	107.38
239.793	101.38
240.027	97.38
240.26	96.38
240.494	97.38
240.728	104.38
240.961	107.38
241.195	99.38
241.429	102.38
241.662	104.38
241.896	107.38
242.13	105.38
242.363	101.38
242.597	102.38
242.83	105.38
243.064	101.38
243.298	113.38
243.531	127.38
243.765	114.38
243.998	129.38
244.232	113.38
244.465	112.38
244.699	104.38
244.932	113.38
245.166	111.38
245.399	109.38
245.633	115.38
245.866	127.38
246.099	123.38
246.333	126.38
246.566	109.38
246.8	125.38
247.033	115.38
247.266	129.38
247.5	112.38
247.733	111.38
247.966	104.38
248.2	112.38
248.433	128.38
248.666	129.38
248.899	129.38
249.133	128.38
249.366	140.38
249.599	127.38
249.832	115.38
250.066	131.38
250.299	121.38
250.532	125.38
250.765	139.38
250.998	124.38
251.231	133.38
251.465	132.38
251.698	119.38
251.931	123.38
252.164	115.38
252.397	120.38
252.63	123.38
252.863	125.38
253.096	133.38
253.329	125.38
253.562	140.38
253.795	139.38
254.028	140.38
254.261	137.38
254.494	113.38
254.727	135.38
254.96	123.38
255.193	123.38
255.426	131.38
255.659	151.38
255.892	135.38
256.124	144.38
256.357	131.38
256.59	122.38
256.823	132.38
257.056	142.38
257.289	157.38
257.521	142.38
257.754	135.38
257.987	143.38
258.22	139.38
258.452	137.38
258.685	129.38
258.918	138.38
259.151	155.38
259.383	131.38
259.616	140.38
259.849	135.38
260.081	155.38
260.314	135.38
260.547	138.38
260.779	149.38
261.012	144.38
261.244	145.38
261.477	151.38
261.71	146.38
261.942	144.38
262.175	125.38
262.407	139.38
262.64	151.38
262.872	151.38
263.105	143.38
263.337	148.38
263.57	151.38
263.802	139.38
264.035	151.38
264.267	147.38
264.499	138.38
264.732	151.38
264.964	141.38
265.197	134.38
265.429	155.38
265.661	161.38
265.894	160.38
266.126	172.38
266.358	158.38
266.591	149.38
266.823	156.38
267.055	145.38
267.287	141.38
267.52	153.38
267.752	154.38
267.984	151.38
268.216	144.38
268.448	146.38
268.681	164.38
268.913	159.38
269.145	164.38
269.377	150.38
269.609	161.38
269.841	150.38
270.073	152.38
270.306	168.38
270.538	152.38
270.77	156.38
271.002	151.38
271.234	152.38
271.466	167.38
271.698	165.38
271.93	153.38
272.162	151.38
272.394	183.38
272.626	155.38
272.858	181.38
273.09	159.38
273.322	173.38
273.553	160.38
273.785	149.38
274.017	153.38
274.249	163.38
274.481	181.38
274.713	163.38
274.945	157.38
275.176	171.38
275.408	159.38
275.64	155.38
275.872	166.38
276.104	170.38
276.335	165.38
276.567	175.38
276.799	176.38
277.031	171.38
277.262	167.38
277.494	162.38
277.726	164.38
277.957	175.38
278.189	191.38
278.421	175.38
278.652	176.38
278.884	164.38
279.115	177.38
279.347	173.38
279.579	170.38
279.81	168.38
280.042	176.38
280.273	171.38
280.505	169.38
280.736	183.38
280.968	199.38
281.199	182.38
281.431	192.38
281.662	198.38
281.894	183.38
282.125	196.38
282.356	180.38
282.588	183.38
282.819	193.38
283.051	179.38
283.282	175.38
283.513	174.38
283.745	180.38
283.976	187.38
284.207	165.38
284.439	194.38
284.67	203.38
284.901	188.38
285.132	191.38
285.364	191.38
285.595	180.38
285.826	187.38
286.057	196.38
286.288	175.38
286.52	188.38
286.751	196.38
286.982	200.38
287.213	190.38
287.444	209.38
287.675	192.38
287.906	192.38
288.138	188.38
288.369	207.38
288.6	193.38
288.831	203.38
289.062	193.38
289.293	190.38
289.524	190.38
289.755	211.38
289.986	206.38
290.217	197.38
290.448	211.38
290.679	199.38
290.91	208.38
291.141	206.38
291.371	204.38
291.602	209.38
291.833	212.38
292.064	211.38
292.295	196.38
292.526	211.38
292.757	206.38
292.987	204.38
293.218	188.38
293.449	201.38
293.68	204.38
293.91	206.38
294.141	174.38
294.372	222.38
294.603	209.38
294.833	217.38
295.064	205.38
295.295	208.38
295.525	209.38
295.756	208.38
295.987	203.38
296.217	208.38
296.448	200.38
296.679	190.38
296.909	212.38
297.14	196.38
297.37	212.38
297.601	224.38
297.831	214.38
298.062	210.38
298.292	232.38
298.523	217.38
298.753	207.38
298.984	224.38
299.214	227.38
299.445	219.38
299.675	217.38
299.905	219.38
300.136	214.38
300.366	222.38
300.597	221.38
300.827	233.38
301.057	210.38
301.288	219.38
301.518	211.38
301.748	218.38
301.979	239.38
302.209	234.38
302.439	230.38
302.669	233.38
302.9	220.38
303.13	223.38
303.36	237.38
303.59	232.38
303.82	230.38
304.051	228.38
304.281	239.38
304.511	227.38
304.741	218.38
304.971	222.38
305.201	221.38
305.431	223.38
305.661	225.38
305.891	198.38
306.121	219.38
306.352	236.38
306.582	227.38
306.812	229.38
307.042	222.38
307.272	218.38
307.502	230.38
307.731	238.38
307.961	215.38
308.191	218.38
308.421	215.38
308.651	235.38
308.881	207.38
309.111	217.38
309.341	224.38
309.571	226.38
309.8	210.38
310.03	215.38
310.26	214.38
310.49	232.38
310.72	216.38
310.949	220.38
311.179	231.38
311.409	241.38
311.639	235.38
311.868	232.38
312.098	229.38
312.328	251.38
312.557	225.38
312.787	243.38
313.017	220.38
313.246	245.38
313.476	236.38
313.706	233.38
313.935	240.38
314.165	232.38
314.394	235.38
314.624	238.38
314.853	235.38
315.083	226.38
315.312	253.38
315.542	236.38
315.771	229.38
316.001	229.38
316.23	231.38
316.46	228.38
316.689	253.38
316.919	246.38
317.148	229.38
317.377	240.38
317.607	232.38
317.836	235.38
318.065	235.38
318.295	233.38
318.524	244.38
318.753	244.38
318.983	250.38
319.212	234.38
319.441	245.38
319.67	239.38
319.9	219.38
320.129	248.38
320.358	237.38
320.587	232.38
320.816	235.38
321.046	219.38
321.275	216.38
321.504	231.38
321.733	247.38
321.962	231.38
322.191	225.38
322.42	246.38
322.649	223.38
322.878	218.38
323.108	235.38
323.337	245.38
323.566	245.38
323.795	234.38
324.024	238.38
324.253	257.38
324.482	243.38
324.71	255.38
324.939	256.38
325.168	260.38
325.397	245.38
325.626	270.38
325.855	267.38
326.084	248.38
326.313	259.38
326.542	245.38
326.77	253.38
326.999	256.38
327.228	259.38
327.457	247.38
327.686	232.38
327.914	263.38
328.143	261.38
328.372	249.38
328.6	252.38
328.829	251.38
329.058	256.38
329.287	241.38
329.515	257.38
329.744	266.38
329.972	258.38
330.201	263.38
330.43	268.38
330.658	262.38
330.887	268.38
331.115	268.38
331.344	280.38
331.572	263.38
331.801	291.38
332.03	292.38
332.258	259.38
332.486	290.38
332.715	304.38
332.943	291.38
333.172	303.38
333.4	321.38
333.629	311.38
333.857	331.38
334.085	314.38
334.314	323.38
334.542	335.38
334.771	305.38
334.999	311.38
335.227	300.38
335.455	318.38
335.684	295.38
335.912	315.38
336.14	297.38
336.369	310.38
336.597	287.38
336.825	295.38
337.053	307.38
337.281	303.38
337.51	299.38
337.738	297.38
337.966	276.38
338.194	281.38
338.422	260.38
338.65	279.38
338.878	277.38
339.106	289.38
339.334	286.38
339.562	265.38
339.79	279.38
340.018	280.38
340.246	284.38
340.474	269.38
340.702	272.38
340.93	280.38
341.158	295.38
341.386	273.38
341.614	271.38
341.842	264.38
342.07	283.38
342.298	277.38
342.526	280.38
342.754	262.38
342.981	288.38
343.209	273.38
343.437	279.38
343.665	317.38
343.893	305.38
344.12	320.38
344.348	319.38
344.576	274.38
344.804	274.38
345.031	287.38
345.259	290.38
345.487	299.38
345.714	265.38
345.942	272.38
346.17	271.38
346.397	264.38
346.625	273.38
346.853	275.38
347.08	265.38
347.308	273.38
347.535	261.38
347.763	271.38
347.99	268.38
348.218	270.38
348.445	263.38
348.673	269.38
348.9	259.38
349.128	263.38
349.355	268.38
349.583	257.38
349.81	252.38
350.037	252.38
350.265	232.38
350.492	269.38
350.72	250.38
350.947	257.38
351.174	245.38
351.402	263.38
351.629	244.38
351.856	270.38
352.083	257.38
352.311	271.38
352.538	265.38
352.765	260.38
352.992	251.38
353.22	252.38
353.447	235.38
353.674	256.38
353.901	267.38
354.128	249.38
354.355	247.38
354.583	263.38
354.81	248.38
355.037	266.38
355.264	268.38
355.491	286.38
355.718	267.38
355.945	248.38
356.172	263.38
356.399	249.38
356.626	253.38
356.853	238.38
357.08	266.38
357.307	270.38
357.534	268.38
357.761	261.38
357.988	263.38
358.215	248.38
358.441	251.38
358.668	244.38
358.895	266.38
359.122	241.38
359.349	257.38
359.576	244.38
359.802	254.38
360.029	265.38
360.256	260.38
360.483	263.38
360.709	261.38
360.936	282.38
361.163	257.38
361.39	258.38
361.616	259.38
361.843	263.38
362.07	276.38
362.296	244.38
362.523	248.38
362.749	279.38
362.976	257.38
363.203	263.38
363.429	246.38
363.656	265.38
363.882	263.38
364.109	255.38
364.335	252.38
364.562	253.38
364.788	273.38
365.015	263.38
365.241	266.38
365.468	261.38
365.694	273.38
365.92	275.38
366.147	249.38
366.373	251.38
366.599	253.38
366.826	259.38
367.052	283.38
367.278	267.38
367.505	258.38
367.731	280.38
367.957	251.38
368.184	253.38
368.41	260.38
368.636	277.38
368.862	290.38
369.089	288.38
369.315	282.38
369.541	291.38
369.767	261.38
369.993	276.38
370.219	283.38
370.445	268.38
370.672	273.38
370.898	285.38
371.124	289.38
371.35	268.38
371.576	292.38
371.802	277.38
372.028	296.38
372.254	273.38
372.48	295.38
372.706	289.38
372.932	299.38
373.158	309.38
373.384	289.38
373.61	300.38
373.835	292.38
374.061	284.38
374.287	292.38
374.513	287.38
374.739	307.38
374.965	315.38
375.191	318.38
375.416	317.38
375.642	309.38
375.868	305.38
376.094	309.38
376.319	287.38
376.545	289.38
376.771	293.38
376.997	282.38
377.222	277.38
377.448	299.38
377.674	282.38
377.899	288.38
378.125	296.38
378.35	311.38
378.576	287.38
378.802	273.38
379.027	302.38
379.253	291.38
379.478	285.38
379.704	292.38
379.929	267.38
380.155	298.38
380.38	279.38
380.606	297.38
380.831	299.38
381.057	296.38
381.282	269.38
381.507	298.38
381.733	307.38
381.958	295.38
382.184	291.38
382.409	290.38
382.634	304.38
382.86	307.38
383.085	296.38
383.31	298.38
383.535	323.38
383.761	307.38
383.986	317.38
384.211	319.38
384.436	332.38
384.662	325.38
384.887	344.38
385.112	331.38
385.337	354.38
385.562	333.38
385.787	342.38
386.013	347.38
386.238	353.38
386.463	334.38
386.688	335.38
386.913	322.38
387.138	335.38
387.363	335.38
387.588	334.38
387.813	321.38
388.038	325.38
388.263	336.38
388.488	334.38
388.713	318.38
388.938	325.38
389.163	336.38
389.387	343.38
389.612	325.38
389.837	338.38
390.062	348.38
390.287	358.38
390.512	340.38
390.736	342.38
390.961	358.38
391.186	343.38
391.411	364.38
391.636	381.38
391.86	361.38
392.085	371.38
392.31	373.38
392.534	368.38
392.759	377.38
392.984	363.38
393.208	365.38
393.433	351.38
393.658	363.38
393.882	347.38
394.107	357.38
394.331	359.38
394.556	366.38
394.78	361.38
395.005	380.38
395.229	369.38
395.454	377.38
395.678	375.38
395.903	368.38
396.127	374.38
396.352	367.38
396.576	366.38
396.801	359.38
397.025	355.38
397.249	366.38
397.474	401.38
397.698	383.38
397.922	400.38
398.147	385.38
398.371	382.38
398.595	411.38
398.82	417.38
399.044	450.38
399.268	493.38
399.492	547.38
399.717	571.38
399.941	571.38
400.165	506.38
400.389	491.38
400.613	475.38
400.837	446.38
401.062	420.38
401.286	441.38
401.51	420.38
401.734	416.38
401.958	420.38
402.182	416.38
402.406	427.38
402.63	419.38
402.854	468.38
403.078	430.38
403.302	466.38
403.526	464.38
403.75	469.38
403.974	456.38
404.198	455.38
404.422	476.38
404.645	472.38
404.869	460.38
405.093	465.38
405.317	444.38
405.541	474.38
405.765	442.38
405.988	454.38
406.212	444.38
406.436	446.38
406.66	471.38
406.883	484.38
407.107	522.38
407.331	519.38
407.555	551.38
407.778	505.38
408.002	520.38
408.226	514.38
408.449	504.38
408.673	487.38
408.896	485.38
409.12	475.38
409.344	469.38
409.567	460.38
409.791	467.38
410.014	466.38
410.238	475.38
410.461	472.38
410.685	463.38
410.908	451.38
411.132	464.38
411.355	444.38
411.578	430.38
411.802	434.38
412.025	431.38
412.249	458.38
412.472	459.38
412.695	433.38
412.919	443.38
413.142	423.38
413.365	405.38
413.589	433.38
413.812	441.38
414.035	439.38
414.258	436.38
414.482	432.38
414.705	451.38
414.928	443.38
415.151	451.38
415.374	447.38
415.597	425.38
415.821	445.38
416.044	422.38
416.267	413.38
416.49	423.38
416.713	398.38
416.936	418.38
417.159	403.38
417.382	426.38
417.605	415.38
417.828	423.38
418.051	441.38
418.274	451.38
418.497	442.38
418.72	435.38
418.943	440.38
419.166	455.38
419.389	464.38
419.611	461.38
419.834	436.38
420.057	430.38
420.28	423.38
420.503	459.38
420.726	417.38
420.948	427.38
421.171	444.38
421.394	428.38
421.617	427.38
421.839	421.38
422.062	434.38
422.285	415.38
422.507	433.38
422.73	435.38
422.953	453.38
423.175	439.38
423.398	449.38
423.621	455.38
423.843	443.38
424.066	439.38
424.288	430.38
424.511	433.38
424.733	441.38
424.956	424.38
425.178	422.38
425.401	423.38
425.623	412.38
425.846	405.38
426.068	423.38
426.291	414.38
426.513	389.38
426.735	397.38
426.958	395.38
427.18	402.38
427.402	402.38
427.625	415.38
427.847	406.38
428.069	413.38
428.292	381.38
428.514	381.38
428.736	383.38
428.958	405.38
429.181	385.38
429.403	389.38
429.625	378.38
429.847	387.38
430.069	395.38
430.292	410.38
430.514	393.38
430.736	391.38
430.958	374.38
431.18	396.38
431.402	387.38
431.624	385.38
431.846	392.38
432.068	378.38
432.29	412.38
432.512	391.38
432.734	399.38
432.956	385.38
433.178	409.38
433.4	389.38
433.622	414.38
433.844	413.38
434.066	401.38
434.287	392.38
434.509	411.38
434.731	411.38
434.953	432.38
435.175	437.38
435.397	453.38
435.618	401.38
435.84	408.38
436.062	385.38
436.284	389.38
436.505	420.38
436.727	395.38
436.949	391.38
437.17	396.38
437.392	385.38
437.614	382.38
437.835	380.38
438.057	413.38
438.278	371.38
438.5	403.38
438.721	408.38
438.943	393.38
439.165	382.38
439.386	409.38
439.608	401.38
439.829	411.38
440.05	393.38
440.272	404.38
440.493	405.38
440.715	401.38
440.936	415.38
441.158	432.38
441.379	416.38
441.6	444.38
441.822	468.38
442.043	439.38
442.264	435.38
442.486	451.38
442.707	422.38
442.928	418.38
443.149	431.38
443.371	426.38
443.592	441.38
443.813	442.38
444.034	462.38
444.255	458.38
444.476	464.38
444.698	501.38
444.919	518.38
445.14	633.38
445.361	528.38
445.582	445.38
445.803	429.38
446.024	427.38
446.245	424.38
446.466	427.38
446.687	407.38
446.908	425.38
447.129	421.38
447.35	400.38
447.571	400.38
447.792	381.38
448.013	412.38
448.234	396.38
448.455	373.38
448.675	379.38
448.896	382.38
449.117	361.38
449.338	405.38
449.559	372.38
449.779	359.38
450	366.38
450.221	379.38
450.442	375.38
450.662	400.38
450.883	380.38
451.104	379.38
451.324	385.38
451.545	372.38
451.766	387.38
451.986	383.38
452.207	368.38
452.428	371.38
452.648	351.38
452.869	356.38
453.089	359.38
453.31	377.38
453.53	371.38
453.751	337.38
453.971	361.38
454.192	353.38
454.412	348.38
454.633	340.38
454.853	340.38
455.073	357.38
455.294	346.38
455.514	355.38
455.734	367.38
455.955	358.38
456.175	356.38
456.395	341.38
456.616	350.38
456.836	336.38
457.056	355.38
457.276	330.38
457.497	349.38
457.717	336.38
457.937	360.38
458.157	347.38
458.377	360.38
458.598	378.38
458.818	390.38
459.038	379.38
459.258	380.38
459.478	398.38
459.698	412.38
459.918	410.38
460.138	440.38
460.358	469.38
460.578	461.38
460.798	443.38
461.018	465.38
461.238	447.38
461.458	457.38
461.678	469.38
461.898	459.38
462.118	453.38
462.338	482.38
462.558	501.38
462.777	517.38
462.997	538.38
463.217	579.38
463.437	570.38
463.657	547.38
463.876	536.38
464.096	488.38
464.316	498.38
464.536	507.38
464.755	500.38
464.975	472.38
465.195	466.38
465.414	446.38
465.634	436.38
465.854	401.38
466.073	403.38
466.293	401.38
466.512	379.38
466.732	383.38
466.951	387.38
467.171	376.38
467.391	393.38
467.61	389.38
467.829	396.38
468.049	380.38
468.268	379.38
468.488	381.38
468.707	383.38
468.927	386.38
469.146	381.38
469.365	379.38
469.585	392.38
469.804	385.38
470.023	387.38
470.243	390.38
470.462	414.38
470.681	401.38
470.901	383.38
471.12	392.38
471.339	376.38
471.558	365.38
471.777	371.38
471.997	364.38
472.216	381.38
472.435	351.38
472.654	341.38
472.873	364.38
473.092	371.38
473.311	343.38
473.53	367.38
473.749	348.38
473.968	356.38
474.187	346.38
474.406	365.38
474.625	355.38
474.844	343.38
475.063	365.38
475.282	373.38
475.501	371.38
475.72	365.38
475.939	399.38
476.158	385.38
476.377	359.38
476.596	382.38
476.814	385.38
477.033	379.38
477.252	395.38
477.471	398.38
477.69	393.38
477.908	419.38
478.127	420.38
478.346	406.38
478.564	419.38
478.783	422.38
479.002	433.38
479.22	430.38
479.439	448.38
479.658	447.38
479.876	440.38
480.095	425.38
480.313	468.38
480.532	458.38
480.751	445.38
480.969	443.38
481.188	412.38
481.406	409.38
481.624	393.38
481.843	395.38
482.061	396.38
482.28	410.38
482.498	404.38
482.717	402.38
482.935	393.38
483.153	393.38
483.372	415.38
483.59	393.38
483.808	427.38
484.027	393.38
484.245	408.38
484.463	411.38
484.681	401.38
484.9	407.38
485.118	395.38
485.336	407.38
485.554	397.38
485.772	385.38
485.99	402.38
486.209	398.38
486.427	407.38
486.645	407.38
486.863	402.38
487.081	420.38
487.299	415.38
487.517	411.38
487.735	403.38
487.953	408.38
488.171	411.38
488.389	409.38
488.607	399.38
488.825	400.38
489.043	413.38
489.261	424.38
489.479	406.38
489.696	410.38
489.914	410.38
490.132	409.38
490.35	421.38
490.568	394.38
490.786	424.38
491.003	397.38
491.221	398.38
491.439	439.38
491.657	407.38
491.874	424.38
492.092	436.38
492.31	397.38
492.527	439.38
492.745	432.38
492.963	437.38
493.18	422.38
493.398	416.38
493.615	446.38
493.833	439.38
494.05	452.38
494.268	447.38
494.485	439.38
494.703	455.38
494.92	448.38
495.138	438.38
495.355	437.38
495.573	447.38
495.79	427.38
496.008	459.38
496.225	444.38
496.442	468.38
496.66	464.38
496.877	457.38
497.094	471.38
497.312	463.38
497.529	496.38
497.746	509.38
497.963	500.38
498.181	544.38
498.398	556.38
498.615	568.38
498.832	578.38
499.049	657.38
499.267	666.38
499.484	721.38
499.701	807.38
499.918	881.38
500.135	951.38
500.352	1059.38
500.569	1097.38
500.786	1097.38
501.003	1015.38
501.22	944.38
501.437	868.38
501.654	775.38
501.871	711.38
