Data from Fe(NO3)3@0.0125M.TitratingCurve.Agarose3%dH2O.NegLispCup.LampEnergy10.LIBS07252019_HRD10591_17-00-13-336.txt Node
Date: Thu Jul 25 17:00:13 EDT 2019
User: cochatt
Spectrometer: HR+D1059
Trigger mode: 1
Integration Time (sec): 1.000000E-1
Scans to average: 1
Electric dark correction enabled: true
Nonlinearity correction enabled: false
Boxcar width: 0
XAxis mode: Wavelengths
Number of Pixels in Spectrum: 2048
>>>>>Begin Spectral Data<<<<<
223.165	-14.81
223.4	-14.81
223.635	-14.81
223.869	-16.81
224.104	-13.81
224.338	-23.81
224.573	-8.81
224.808	-12.81
225.042	2.19
225.277	-14.81
225.511	-9.81
225.746	2.19
225.98	22.19
226.215	28.19
226.449	5.19
226.683	15.19
226.918	13.19
227.152	27.19
227.387	20.19
227.621	33.19
227.856	52.19
228.09	49.19
228.324	54.19
228.559	47.19
228.793	47.19
229.027	78.19
229.262	73.19
229.496	89.19
229.73	68.19
229.964	79.19
230.199	87.19
230.433	94.19
230.667	95.19
230.901	100.19
231.136	98.19
231.37	102.19
231.604	101.19
231.838	119.19
232.072	94.19
232.306	111.19
232.541	104.19
232.775	95.19
233.009	99.19
233.243	100.19
233.477	92.19
233.711	105.19
233.945	97.19
234.179	99.19
234.413	111.19
234.647	98.19
234.881	106.19
235.115	106.19
235.349	119.19
235.583	113.19
235.817	108.19
236.051	95.19
236.285	104.19
236.519	104.19
236.753	99.19
236.987	106.19
237.221	108.19
237.455	113.19
237.689	106.19
237.922	103.19
238.156	96.19
238.39	102.19
238.624	109.19
238.858	122.19
239.091	100.19
239.325	119.19
239.559	107.19
239.793	113.19
240.027	115.19
240.26	113.19
240.494	117.19
240.728	123.19
240.961	106.19
241.195	126.19
241.429	104.19
241.662	128.19
241.896	98.19
242.13	129.19
242.363	123.19
242.597	117.19
242.83	111.19
243.064	96.19
243.298	110.19
243.531	125.19
243.765	110.19
243.998	131.19
244.232	129.19
244.465	113.19
244.699	101.19
244.932	125.19
245.166	106.19
245.399	115.19
245.633	95.19
245.866	114.19
246.099	130.19
246.333	121.19
246.566	123.19
246.8	122.19
247.033	132.19
247.266	124.19
247.5	126.19
247.733	119.19
247.966	127.19
248.2	138.19
248.433	141.19
248.666	138.19
248.899	125.19
249.133	139.19
249.366	126.19
249.599	123.19
249.832	136.19
250.066	143.19
250.299	126.19
250.532	134.19
250.765	126.19
250.998	146.19
251.231	126.19
251.465	121.19
251.698	126.19
251.931	145.19
252.164	131.19
252.397	147.19
252.63	154.19
252.863	153.19
253.096	119.19
253.329	142.19
253.562	147.19
253.795	135.19
254.028	140.19
254.261	137.19
254.494	150.19
254.727	155.19
254.96	139.19
255.193	132.19
255.426	147.19
255.659	143.19
255.892	139.19
256.124	154.19
256.357	144.19
256.59	151.19
256.823	135.19
257.056	157.19
257.289	149.19
257.521	159.19
257.754	155.19
257.987	144.19
258.22	158.19
258.452	161.19
258.685	153.19
258.918	151.19
259.151	158.19
259.383	149.19
259.616	145.19
259.849	160.19
260.081	172.19
260.314	185.19
260.547	156.19
260.779	150.19
261.012	172.19
261.244	153.19
261.477	168.19
261.71	175.19
261.942	168.19
262.175	164.19
262.407	166.19
262.64	161.19
262.872	150.19
263.105	166.19
263.337	171.19
263.57	177.19
263.802	158.19
264.035	154.19
264.267	160.19
264.499	169.19
264.732	153.19
264.964	151.19
265.197	161.19
265.429	156.19
265.661	156.19
265.894	161.19
266.126	158.19
266.358	151.19
266.591	174.19
266.823	174.19
267.055	170.19
267.287	167.19
267.52	172.19
267.752	165.19
267.984	162.19
268.216	163.19
268.448	164.19
268.681	161.19
268.913	172.19
269.145	165.19
269.377	145.19
269.609	157.19
269.841	168.19
270.073	162.19
270.306	182.19
270.538	177.19
270.77	166.19
271.002	175.19
271.234	178.19
271.466	185.19
271.698	188.19
271.93	183.19
272.162	189.19
272.394	179.19
272.626	178.19
272.858	177.19
273.09	189.19
273.322	189.19
273.553	175.19
273.785	192.19
274.017	197.19
274.249	212.19
274.481	215.19
274.713	228.19
274.945	233.19
275.176	227.19
275.408	214.19
275.64	206.19
275.872	205.19
276.104	195.19
276.335	185.19
276.567	189.19
276.799	201.19
277.031	183.19
277.262	189.19
277.494	187.19
277.726	203.19
277.957	200.19
278.189	198.19
278.421	192.19
278.652	195.19
278.884	203.19
279.115	206.19
279.347	213.19
279.579	195.19
279.81	204.19
280.042	212.19
280.273	206.19
280.505	202.19
280.736	185.19
280.968	204.19
281.199	191.19
281.431	194.19
281.662	204.19
281.894	213.19
282.125	204.19
282.356	187.19
282.588	197.19
282.819	196.19
283.051	216.19
283.282	219.19
283.513	212.19
283.745	219.19
283.976	199.19
284.207	212.19
284.439	206.19
284.67	215.19
284.901	220.19
285.132	218.19
285.364	213.19
285.595	224.19
285.826	228.19
286.057	207.19
286.288	214.19
286.52	199.19
286.751	223.19
286.982	206.19
287.213	219.19
287.444	221.19
287.675	221.19
287.906	230.19
288.138	219.19
288.369	223.19
288.6	218.19
288.831	223.19
289.062	225.19
289.293	218.19
289.524	218.19
289.755	221.19
289.986	220.19
290.217	233.19
290.448	227.19
290.679	229.19
290.91	244.19
291.141	218.19
291.371	235.19
291.602	219.19
291.833	230.19
292.064	220.19
292.295	246.19
292.526	244.19
292.757	238.19
292.987	233.19
293.218	249.19
293.449	241.19
293.68	223.19
293.91	237.19
294.141	255.19
294.372	219.19
294.603	244.19
294.833	249.19
295.064	213.19
295.295	221.19
295.525	262.19
295.756	249.19
295.987	222.19
296.217	245.19
296.448	239.19
296.679	232.19
296.909	251.19
297.14	247.19
297.37	249.19
297.601	257.19
297.831	242.19
298.062	240.19
298.292	246.19
298.523	252.19
298.753	249.19
298.984	238.19
299.214	253.19
299.445	255.19
299.675	264.19
299.905	236.19
300.136	241.19
300.366	277.19
300.597	261.19
300.827	255.19
301.057	259.19
301.288	255.19
301.518	261.19
301.748	265.19
301.979	263.19
302.209	247.19
302.439	257.19
302.669	265.19
302.9	265.19
303.13	262.19
303.36	280.19
303.59	274.19
303.82	277.19
304.051	259.19
304.281	280.19
304.511	268.19
304.741	255.19
304.971	250.19
305.201	277.19
305.431	264.19
305.661	270.19
305.891	272.19
306.121	265.19
306.352	265.19
306.582	267.19
306.812	256.19
307.042	262.19
307.272	261.19
307.502	251.19
307.731	281.19
307.961	280.19
308.191	293.19
308.421	272.19
308.651	277.19
308.881	280.19
309.111	274.19
309.341	267.19
309.571	279.19
309.8	269.19
310.03	269.19
310.26	275.19
310.49	277.19
310.72	286.19
310.949	271.19
311.179	283.19
311.409	289.19
311.639	289.19
311.868	288.19
312.098	270.19
312.328	276.19
312.557	273.19
312.787	282.19
313.017	320.19
313.246	299.19
313.476	293.19
313.706	299.19
313.935	304.19
314.165	298.19
314.394	299.19
314.624	317.19
314.853	275.19
315.083	297.19
315.312	306.19
315.542	307.19
315.771	301.19
316.001	286.19
316.23	294.19
316.46	290.19
316.689	300.19
316.919	321.19
317.148	313.19
317.377	301.19
317.607	306.19
317.836	311.19
318.065	296.19
318.295	311.19
318.524	325.19
318.753	302.19
318.983	305.19
319.212	296.19
319.441	305.19
319.67	310.19
319.9	311.19
320.129	311.19
320.358	314.19
320.587	316.19
320.816	312.19
321.046	289.19
321.275	302.19
321.504	314.19
321.733	324.19
321.962	315.19
322.191	324.19
322.42	332.19
322.649	309.19
322.878	339.19
323.108	306.19
323.337	322.19
323.566	330.19
323.795	302.19
324.024	329.19
324.253	334.19
324.482	318.19
324.71	338.19
324.939	316.19
325.168	313.19
325.397	330.19
325.626	326.19
325.855	334.19
326.084	334.19
326.313	321.19
326.542	325.19
326.77	330.19
326.999	319.19
327.228	325.19
327.457	315.19
327.686	313.19
327.914	341.19
328.143	343.19
328.372	329.19
328.6	329.19
328.829	308.19
329.058	331.19
329.287	348.19
329.515	319.19
329.744	343.19
329.972	339.19
330.201	351.19
330.43	339.19
330.658	345.19
330.887	345.19
331.115	346.19
331.344	345.19
331.572	335.19
331.801	328.19
332.03	341.19
332.258	352.19
332.486	347.19
332.715	358.19
332.943	357.19
333.172	364.19
333.4	363.19
333.629	362.19
333.857	371.19
334.085	366.19
334.314	379.19
334.542	379.19
334.771	366.19
334.999	377.19
335.227	369.19
335.455	381.19
335.684	369.19
335.912	385.19
336.14	376.19
336.369	378.19
336.597	377.19
336.825	375.19
337.053	383.19
337.281	387.19
337.51	371.19
337.738	353.19
337.966	372.19
338.194	386.19
338.422	369.19
338.65	369.19
338.878	378.19
339.106	367.19
339.334	355.19
339.562	362.19
339.79	379.19
340.018	371.19
340.246	359.19
340.474	342.19
340.702	378.19
340.93	362.19
341.158	371.19
341.386	376.19
341.614	346.19
341.842	364.19
342.07	369.19
342.298	349.19
342.526	369.19
342.754	353.19
342.981	346.19
343.209	366.19
343.437	369.19
343.665	368.19
343.893	394.19
344.12	382.19
344.348	369.19
344.576	373.19
344.804	396.19
345.031	369.19
345.259	374.19
345.487	371.19
345.714	369.19
345.942	383.19
346.17	364.19
346.397	365.19
346.625	368.19
346.853	364.19
347.08	333.19
347.308	359.19
347.535	363.19
347.763	348.19
347.99	360.19
348.218	351.19
348.445	369.19
348.673	338.19
348.9	360.19
349.128	347.19
349.355	354.19
349.583	379.19
349.81	364.19
350.037	355.19
350.265	369.19
350.492	363.19
350.72	345.19
350.947	354.19
351.174	338.19
351.402	355.19
351.629	364.19
351.856	361.19
352.083	370.19
352.311	364.19
352.538	348.19
352.765	346.19
352.992	358.19
353.22	356.19
353.447	361.19
353.674	349.19
353.901	377.19
354.128	369.19
354.355	349.19
354.583	369.19
354.81	353.19
355.037	342.19
355.264	355.19
355.491	364.19
355.718	359.19
355.945	383.19
356.172	353.19
356.399	363.19
356.626	374.19
356.853	373.19
357.08	364.19
357.307	375.19
357.534	360.19
357.761	361.19
357.988	356.19
358.215	377.19
358.441	392.19
358.668	366.19
358.895	377.19
359.122	383.19
359.349	364.19
359.576	369.19
359.802	363.19
360.029	371.19
360.256	371.19
360.483	372.19
360.709	369.19
360.936	354.19
361.163	377.19
361.39	357.19
361.616	377.19
361.843	371.19
362.07	382.19
362.296	340.19
362.523	350.19
362.749	365.19
362.976	371.19
363.203	351.19
363.429	383.19
363.656	394.19
363.882	371.19
364.109	382.19
364.335	376.19
364.562	373.19
364.788	374.19
365.015	360.19
365.241	383.19
365.468	366.19
365.694	365.19
365.92	384.19
366.147	371.19
366.373	381.19
366.599	373.19
366.826	369.19
367.052	381.19
367.278	349.19
367.505	381.19
367.731	380.19
367.957	399.19
368.184	387.19
368.41	391.19
368.636	378.19
368.862	379.19
369.089	379.19
369.315	394.19
369.541	393.19
369.767	374.19
369.993	397.19
370.219	383.19
370.445	389.19
370.672	395.19
370.898	392.19
371.124	389.19
371.35	398.19
371.576	393.19
371.802	399.19
372.028	398.19
372.254	412.19
372.48	396.19
372.706	403.19
372.932	381.19
373.158	399.19
373.384	422.19
373.61	429.19
373.835	437.19
374.061	407.19
374.287	414.19
374.513	410.19
374.739	424.19
374.965	437.19
375.191	421.19
375.416	412.19
375.642	399.19
375.868	424.19
376.094	405.19
376.319	413.19
376.545	399.19
376.771	402.19
376.997	398.19
377.222	394.19
377.448	418.19
377.674	397.19
377.899	389.19
378.125	393.19
378.35	393.19
378.576	402.19
378.802	378.19
379.027	394.19
379.253	394.19
379.478	399.19
379.704	405.19
379.929	390.19
380.155	420.19
380.38	391.19
380.606	416.19
380.831	397.19
381.057	397.19
381.282	392.19
381.507	430.19
381.733	415.19
381.958	420.19
382.184	413.19
382.409	420.19
382.634	407.19
382.86	413.19
383.085	425.19
383.31	407.19
383.535	422.19
383.761	455.19
383.986	419.19
384.211	421.19
384.436	427.19
384.662	411.19
384.887	419.19
385.112	447.19
385.337	438.19
385.562	454.19
385.787	427.19
386.013	442.19
386.238	435.19
386.463	455.19
386.688	408.19
386.913	430.19
387.138	452.19
387.363	433.19
387.588	406.19
387.813	440.19
388.038	459.19
388.263	449.19
388.488	455.19
388.713	452.19
388.938	473.19
389.163	460.19
389.387	475.19
389.612	434.19
389.837	450.19
390.062	464.19
390.287	461.19
390.512	448.19
390.736	431.19
390.961	441.19
391.186	458.19
391.411	483.19
391.636	463.19
391.86	474.19
392.085	467.19
392.31	469.19
392.534	475.19
392.759	479.19
392.984	487.19
393.208	492.19
393.433	532.19
393.658	517.19
393.882	492.19
394.107	469.19
394.331	475.19
394.556	470.19
394.78	449.19
395.005	468.19
395.229	459.19
395.454	486.19
395.678	485.19
395.903	464.19
396.127	475.19
396.352	471.19
396.576	470.19
396.801	474.19
397.025	508.19
397.249	515.19
397.474	505.19
397.698	494.19
397.922	511.19
398.147	510.19
398.371	493.19
398.595	524.19
398.82	521.19
399.044	509.19
399.268	521.19
399.492	550.19
399.717	553.19
399.941	562.19
400.165	552.19
400.389	561.19
400.613	553.19
400.837	558.19
401.062	518.19
401.286	540.19
401.51	523.19
401.734	523.19
401.958	532.19
402.182	522.19
402.406	508.19
402.63	525.19
402.854	504.19
403.078	503.19
403.302	513.19
403.526	529.19
403.75	508.19
403.974	523.19
404.198	523.19
404.422	520.19
404.645	531.19
404.869	550.19
405.093	526.19
405.317	527.19
405.541	528.19
405.765	545.19
405.988	543.19
406.212	554.19
406.436	546.19
406.66	556.19
406.883	537.19
407.107	569.19
407.331	570.19
407.555	557.19
407.778	586.19
408.002	563.19
408.226	567.19
408.449	573.19
408.673	547.19
408.896	555.19
409.12	562.19
409.344	574.19
409.567	547.19
409.791	562.19
410.014	544.19
410.238	568.19
410.461	548.19
410.685	549.19
410.908	530.19
411.132	534.19
411.355	514.19
411.578	541.19
411.802	561.19
412.025	556.19
412.249	551.19
412.472	515.19
412.695	541.19
412.919	531.19
413.142	526.19
413.365	547.19
413.589	535.19
413.812	520.19
414.035	556.19
414.258	534.19
414.482	527.19
414.705	538.19
414.928	538.19
415.151	549.19
415.374	503.19
415.597	502.19
415.821	522.19
416.044	523.19
416.267	523.19
416.49	510.19
416.713	520.19
416.936	532.19
417.159	515.19
417.382	530.19
417.605	499.19
417.828	489.19
418.051	525.19
418.274	509.19
418.497	511.19
418.72	517.19
418.943	531.19
419.166	519.19
419.389	558.19
419.611	548.19
419.834	525.19
420.057	531.19
420.28	520.19
420.503	497.19
420.726	494.19
420.948	519.19
421.171	486.19
421.394	519.19
421.617	495.19
421.839	478.19
422.062	513.19
422.285	508.19
422.507	501.19
422.73	509.19
422.953	525.19
423.175	502.19
423.398	483.19
423.621	484.19
423.843	486.19
424.066	494.19
424.288	497.19
424.511	501.19
424.733	484.19
424.956	501.19
425.178	478.19
425.401	527.19
425.623	492.19
425.846	500.19
426.068	505.19
426.291	507.19
426.513	492.19
426.735	504.19
426.958	487.19
427.18	518.19
427.402	500.19
427.625	483.19
427.847	471.19
428.069	498.19
428.292	503.19
428.514	492.19
428.736	475.19
428.958	499.19
429.181	479.19
429.403	478.19
429.625	478.19
429.847	485.19
430.069	475.19
430.292	506.19
430.514	489.19
430.736	484.19
430.958	505.19
431.18	499.19
431.402	502.19
431.624	478.19
431.846	498.19
432.068	500.19
432.29	500.19
432.512	484.19
432.734	508.19
432.956	503.19
433.178	490.19
433.4	498.19
433.622	519.19
433.844	509.19
434.066	503.19
434.287	491.19
434.509	479.19
434.731	489.19
434.953	494.19
435.175	503.19
435.397	512.19
435.618	501.19
435.84	488.19
436.062	474.19
436.284	498.19
436.505	515.19
436.727	489.19
436.949	491.19
437.17	519.19
437.392	491.19
437.614	493.19
437.835	506.19
438.057	502.19
438.278	482.19
438.5	485.19
438.721	467.19
438.943	480.19
439.165	479.19
439.386	474.19
439.608	488.19
439.829	477.19
440.05	492.19
440.272	494.19
440.493	488.19
440.715	506.19
440.936	505.19
441.158	499.19
441.379	501.19
441.6	509.19
441.822	487.19
442.043	510.19
442.264	501.19
442.486	494.19
442.707	501.19
442.928	491.19
443.149	498.19
443.371	496.19
443.592	503.19
443.813	503.19
444.034	507.19
444.255	503.19
444.476	510.19
444.698	526.19
444.919	515.19
445.14	595.19
445.361	547.19
445.582	492.19
445.803	493.19
446.024	502.19
446.245	507.19
446.466	490.19
446.687	496.19
446.908	490.19
447.129	487.19
447.35	501.19
447.571	499.19
447.792	477.19
448.013	463.19
448.234	482.19
448.455	456.19
448.675	476.19
448.896	482.19
449.117	476.19
449.338	461.19
449.559	459.19
449.779	456.19
450	478.19
450.221	450.19
450.442	452.19
450.662	466.19
450.883	482.19
451.104	452.19
451.324	454.19
451.545	439.19
451.766	469.19
451.986	455.19
452.207	463.19
452.428	461.19
452.648	461.19
452.869	459.19
453.089	444.19
453.31	443.19
453.53	437.19
453.751	444.19
453.971	499.19
454.192	459.19
454.412	449.19
454.633	470.19
454.853	454.19
455.073	453.19
455.294	461.19
455.514	438.19
455.734	448.19
455.955	438.19
456.175	436.19
456.395	446.19
456.616	444.19
456.836	447.19
457.056	452.19
457.276	452.19
457.497	450.19
457.717	443.19
457.937	477.19
458.157	451.19
458.377	458.19
458.598	470.19
458.818	472.19
459.038	485.19
459.258	477.19
459.478	468.19
459.698	491.19
459.918	495.19
460.138	493.19
460.358	510.19
460.578	506.19
460.798	503.19
461.018	518.19
461.238	521.19
461.458	503.19
461.678	525.19
461.898	517.19
462.118	536.19
462.338	533.19
462.558	533.19
462.777	543.19
462.997	561.19
463.217	562.19
463.437	551.19
463.657	554.19
463.876	558.19
464.096	561.19
464.316	565.19
464.536	553.19
464.755	547.19
464.975	528.19
465.195	543.19
465.414	525.19
465.634	510.19
465.854	519.19
466.073	506.19
466.293	503.19
466.512	510.19
466.732	513.19
466.951	505.19
467.171	506.19
467.391	499.19
467.61	506.19
467.829	502.19
468.049	501.19
468.268	497.19
468.488	493.19
468.707	482.19
468.927	473.19
469.146	499.19
469.365	482.19
469.585	493.19
469.804	478.19
470.023	522.19
470.243	500.19
470.462	502.19
470.681	498.19
470.901	519.19
471.12	507.19
471.339	508.19
471.558	491.19
471.777	509.19
471.997	502.19
472.216	503.19
472.435	515.19
472.654	509.19
472.873	508.19
473.092	495.19
473.311	523.19
473.53	502.19
473.749	524.19
473.968	513.19
474.187	509.19
474.406	522.19
474.625	532.19
474.844	512.19
475.063	515.19
475.282	482.19
475.501	536.19
475.72	524.19
475.939	548.19
476.158	513.19
476.377	557.19
476.596	548.19
476.814	556.19
477.033	532.19
477.252	548.19
477.471	534.19
477.69	550.19
477.908	581.19
478.127	583.19
478.346	580.19
478.564	579.19
478.783	579.19
479.002	572.19
479.22	586.19
479.439	598.19
479.658	601.19
479.876	582.19
480.095	607.19
480.313	591.19
480.532	597.19
480.751	601.19
480.969	603.19
481.188	599.19
481.406	592.19
481.624	584.19
481.843	611.19
482.061	598.19
482.28	586.19
482.498	605.19
482.717	599.19
482.935	632.19
483.153	622.19
483.372	583.19
483.59	617.19
483.808	587.19
484.027	620.19
484.245	614.19
484.463	616.19
484.681	624.19
484.9	605.19
485.118	620.19
485.336	609.19
485.554	606.19
485.772	641.19
485.99	612.19
486.209	631.19
486.427	637.19
486.645	613.19
486.863	627.19
487.081	638.19
487.299	636.19
487.517	635.19
487.735	619.19
487.953	621.19
488.171	657.19
488.389	622.19
488.607	616.19
488.825	606.19
489.043	645.19
489.261	618.19
489.479	636.19
489.696	645.19
489.914	612.19
490.132	634.19
490.35	617.19
490.568	625.19
490.786	647.19
491.003	663.19
491.221	653.19
491.439	648.19
491.657	639.19
491.874	664.19
492.092	633.19
492.31	646.19
492.527	660.19
492.745	657.19
492.963	650.19
493.18	637.19
493.398	649.19
493.615	655.19
493.833	648.19
494.05	665.19
494.268	661.19
494.485	646.19
494.703	675.19
494.92	651.19
495.138	666.19
495.355	667.19
495.573	680.19
495.79	684.19
496.008	669.19
496.225	693.19
496.442	666.19
496.66	686.19
496.877	677.19
497.094	701.19
497.312	683.19
497.529	717.19
497.746	700.19
497.963	703.19
498.181	768.19
498.398	737.19
498.615	765.19
498.832	781.19
499.049	774.19
499.267	815.19
499.484	809.19
499.701	808.19
499.918	859.19
500.135	891.19
500.352	923.19
500.569	927.19
500.786	926.19
501.003	890.19
501.22	903.19
501.437	872.19
501.654	845.19
501.871	804.19
