Data from Fe(NO3)3@0.025M.TitratingCurve.Agarose3%dH2O.NegLispCup.LampEnergy10.LIBS07252019_HRD10591_16-56-50-335.txt Node
Date: Thu Jul 25 16:56:50 EDT 2019
User: cochatt
Spectrometer: HR+D1059
Trigger mode: 1
Integration Time (sec): 1.000000E-1
Scans to average: 1
Electric dark correction enabled: true
Nonlinearity correction enabled: false
Boxcar width: 0
XAxis mode: Wavelengths
Number of Pixels in Spectrum: 2048
>>>>>Begin Spectral Data<<<<<
223.165	-26.75
223.4	-26.75
223.635	-26.75
223.869	-13.75
224.104	-5.75
224.338	-6.75
224.573	-14.75
224.808	-12.75
225.042	-20.75
225.277	-10.75
225.511	-6.75
225.746	10.25
225.98	8.25
226.215	7.25
226.449	7.25
226.683	20.25
226.918	35.25
227.152	30.25
227.387	36.25
227.621	48.25
227.856	25.25
228.09	41.25
228.324	52.25
228.559	66.25
228.793	64.25
229.027	56.25
229.262	66.25
229.496	72.25
229.73	76.25
229.964	67.25
230.199	84.25
230.433	85.25
230.667	77.25
230.901	86.25
231.136	78.25
231.37	87.25
231.604	77.25
231.838	97.25
232.072	86.25
232.306	103.25
232.541	98.25
232.775	110.25
233.009	106.25
233.243	89.25
233.477	92.25
233.711	102.25
233.945	90.25
234.179	96.25
234.413	101.25
234.647	82.25
234.881	80.25
235.115	80.25
235.349	103.25
235.583	100.25
235.817	101.25
236.051	82.25
236.285	95.25
236.519	80.25
236.753	96.25
236.987	92.25
237.221	86.25
237.455	93.25
237.689	82.25
237.922	85.25
238.156	87.25
238.39	87.25
238.624	90.25
238.858	80.25
239.091	107.25
239.325	90.25
239.559	103.25
239.793	98.25
240.027	103.25
240.26	92.25
240.494	105.25
240.728	101.25
240.961	102.25
241.195	114.25
241.429	112.25
241.662	97.25
241.896	90.25
242.13	89.25
242.363	84.25
242.597	97.25
242.83	96.25
243.064	110.25
243.298	102.25
243.531	85.25
243.765	108.25
243.998	92.25
244.232	101.25
244.465	110.25
244.699	101.25
244.932	94.25
245.166	96.25
245.399	101.25
245.633	103.25
245.866	101.25
246.099	103.25
246.333	105.25
246.566	103.25
246.8	99.25
247.033	103.25
247.266	98.25
247.5	86.25
247.733	103.25
247.966	103.25
248.2	105.25
248.433	110.25
248.666	105.25
248.899	103.25
249.133	115.25
249.366	100.25
249.599	89.25
249.832	114.25
250.066	114.25
250.299	97.25
250.532	96.25
250.765	102.25
250.998	102.25
251.231	99.25
251.465	104.25
251.698	104.25
251.931	105.25
252.164	103.25
252.397	123.25
252.63	102.25
252.863	128.25
253.096	117.25
253.329	108.25
253.562	107.25
253.795	113.25
254.028	122.25
254.261	107.25
254.494	104.25
254.727	112.25
254.96	110.25
255.193	108.25
255.426	100.25
255.659	107.25
255.892	127.25
256.124	107.25
256.357	116.25
256.59	106.25
256.823	111.25
257.056	122.25
257.289	120.25
257.521	117.25
257.754	106.25
257.987	122.25
258.22	107.25
258.452	128.25
258.685	118.25
258.918	105.25
259.151	117.25
259.383	116.25
259.616	106.25
259.849	118.25
260.081	126.25
260.314	128.25
260.547	98.25
260.779	110.25
261.012	124.25
261.244	113.25
261.477	138.25
261.71	121.25
261.942	145.25
262.175	125.25
262.407	129.25
262.64	124.25
262.872	120.25
263.105	129.25
263.337	122.25
263.57	116.25
263.802	119.25
264.035	126.25
264.267	152.25
264.499	130.25
264.732	130.25
264.964	126.25
265.197	121.25
265.429	123.25
265.661	140.25
265.894	128.25
266.126	141.25
266.358	129.25
266.591	137.25
266.823	130.25
267.055	126.25
267.287	132.25
267.52	117.25
267.752	107.25
267.984	126.25
268.216	129.25
268.448	128.25
268.681	135.25
268.913	130.25
269.145	139.25
269.377	136.25
269.609	118.25
269.841	135.25
270.073	136.25
270.306	146.25
270.538	130.25
270.77	132.25
271.002	149.25
271.234	122.25
271.466	124.25
271.698	130.25
271.93	132.25
272.162	138.25
272.394	141.25
272.626	140.25
272.858	126.25
273.09	128.25
273.322	147.25
273.553	134.25
273.785	140.25
274.017	147.25
274.249	147.25
274.481	140.25
274.713	141.25
274.945	142.25
275.176	151.25
275.408	146.25
275.64	156.25
275.872	139.25
276.104	142.25
276.335	155.25
276.567	136.25
276.799	146.25
277.031	139.25
277.262	135.25
277.494	138.25
277.726	148.25
277.957	158.25
278.189	140.25
278.421	155.25
278.652	139.25
278.884	137.25
279.115	146.25
279.347	130.25
279.579	158.25
279.81	148.25
280.042	158.25
280.273	155.25
280.505	154.25
280.736	150.25
280.968	148.25
281.199	165.25
281.431	156.25
281.662	141.25
281.894	156.25
282.125	153.25
282.356	165.25
282.588	156.25
282.819	141.25
283.051	158.25
283.282	149.25
283.513	156.25
283.745	162.25
283.976	167.25
284.207	145.25
284.439	162.25
284.67	152.25
284.901	162.25
285.132	162.25
285.364	156.25
285.595	151.25
285.826	164.25
286.057	142.25
286.288	162.25
286.52	156.25
286.751	172.25
286.982	177.25
287.213	163.25
287.444	161.25
287.675	161.25
287.906	176.25
288.138	184.25
288.369	178.25
288.6	166.25
288.831	158.25
289.062	149.25
289.293	146.25
289.524	174.25
289.755	160.25
289.986	177.25
290.217	166.25
290.448	176.25
290.679	180.25
290.91	169.25
291.141	178.25
291.371	171.25
291.602	158.25
291.833	164.25
292.064	183.25
292.295	177.25
292.526	178.25
292.757	160.25
292.987	159.25
293.218	179.25
293.449	176.25
293.68	172.25
293.91	171.25
294.141	156.25
294.372	167.25
294.603	166.25
294.833	156.25
295.064	182.25
295.295	197.25
295.525	177.25
295.756	169.25
295.987	178.25
296.217	181.25
296.448	181.25
296.679	171.25
296.909	180.25
297.14	180.25
297.37	177.25
297.601	190.25
297.831	179.25
298.062	178.25
298.292	178.25
298.523	175.25
298.753	184.25
298.984	190.25
299.214	203.25
299.445	182.25
299.675	182.25
299.905	174.25
300.136	188.25
300.366	177.25
300.597	186.25
300.827	185.25
301.057	201.25
301.288	184.25
301.518	178.25
301.748	187.25
301.979	190.25
302.209	182.25
302.439	193.25
302.669	194.25
302.9	170.25
303.13	190.25
303.36	188.25
303.59	192.25
303.82	199.25
304.051	195.25
304.281	168.25
304.511	189.25
304.741	182.25
304.971	185.25
305.201	170.25
305.431	191.25
305.661	189.25
305.891	190.25
306.121	213.25
306.352	192.25
306.582	183.25
306.812	168.25
307.042	195.25
307.272	178.25
307.502	203.25
307.731	204.25
307.961	201.25
308.191	199.25
308.421	202.25
308.651	204.25
308.881	188.25
309.111	186.25
309.341	197.25
309.571	197.25
309.8	197.25
310.03	210.25
310.26	193.25
310.49	190.25
310.72	194.25
310.949	197.25
311.179	188.25
311.409	194.25
311.639	205.25
311.868	193.25
312.098	196.25
312.328	202.25
312.557	176.25
312.787	216.25
313.017	195.25
313.246	198.25
313.476	194.25
313.706	194.25
313.935	199.25
314.165	215.25
314.394	215.25
314.624	208.25
314.853	207.25
315.083	199.25
315.312	211.25
315.542	194.25
315.771	189.25
316.001	209.25
316.23	212.25
316.46	204.25
316.689	180.25
316.919	219.25
317.148	208.25
317.377	202.25
317.607	195.25
317.836	208.25
318.065	211.25
318.295	195.25
318.524	199.25
318.753	208.25
318.983	209.25
319.212	200.25
319.441	192.25
319.67	210.25
319.9	212.25
320.129	224.25
320.358	211.25
320.587	196.25
320.816	215.25
321.046	206.25
321.275	210.25
321.504	214.25
321.733	209.25
321.962	196.25
322.191	199.25
322.42	227.25
322.649	211.25
322.878	191.25
323.108	184.25
323.337	225.25
323.566	226.25
323.795	228.25
324.024	202.25
324.253	210.25
324.482	220.25
324.71	218.25
324.939	216.25
325.168	219.25
325.397	219.25
325.626	227.25
325.855	209.25
326.084	217.25
326.313	214.25
326.542	220.25
326.77	218.25
326.999	213.25
327.228	219.25
327.457	238.25
327.686	208.25
327.914	214.25
328.143	236.25
328.372	227.25
328.6	224.25
328.829	230.25
329.058	219.25
329.287	224.25
329.515	219.25
329.744	217.25
329.972	223.25
330.201	230.25
330.43	227.25
330.658	230.25
330.887	244.25
331.115	251.25
331.344	244.25
331.572	233.25
331.801	249.25
332.03	232.25
332.258	239.25
332.486	242.25
332.715	229.25
332.943	261.25
333.172	235.25
333.4	259.25
333.629	263.25
333.857	266.25
334.085	268.25
334.314	274.25
334.542	251.25
334.771	271.25
334.999	264.25
335.227	239.25
335.455	252.25
335.684	282.25
335.912	238.25
336.14	269.25
336.369	258.25
336.597	262.25
336.825	250.25
337.053	276.25
337.281	252.25
337.51	253.25
337.738	258.25
337.966	242.25
338.194	241.25
338.422	248.25
338.65	259.25
338.878	244.25
339.106	239.25
339.334	228.25
339.562	253.25
339.79	237.25
340.018	231.25
340.246	255.25
340.474	257.25
340.702	239.25
340.93	235.25
341.158	263.25
341.386	230.25
341.614	230.25
341.842	231.25
342.07	242.25
342.298	256.25
342.526	230.25
342.754	241.25
342.981	258.25
343.209	230.25
343.437	243.25
343.665	244.25
343.893	269.25
344.12	251.25
344.348	266.25
344.576	273.25
344.804	254.25
345.031	244.25
345.259	251.25
345.487	253.25
345.714	237.25
345.942	227.25
346.17	235.25
346.397	227.25
346.625	235.25
346.853	230.25
347.08	217.25
347.308	230.25
347.535	225.25
347.763	235.25
347.99	251.25
348.218	233.25
348.445	222.25
348.673	234.25
348.9	207.25
349.128	227.25
349.355	235.25
349.583	226.25
349.81	212.25
350.037	227.25
350.265	234.25
350.492	228.25
350.72	220.25
350.947	220.25
351.174	230.25
351.402	226.25
351.629	227.25
351.856	228.25
352.083	227.25
352.311	240.25
352.538	230.25
352.765	219.25
352.992	235.25
353.22	230.25
353.447	217.25
353.674	224.25
353.901	224.25
354.128	220.25
354.355	204.25
354.583	220.25
354.81	243.25
355.037	240.25
355.264	211.25
355.491	225.25
355.718	215.25
355.945	237.25
356.172	245.25
356.399	243.25
356.626	229.25
356.853	227.25
357.08	244.25
357.307	224.25
357.534	235.25
357.761	220.25
357.988	222.25
358.215	249.25
358.441	228.25
358.668	232.25
358.895	238.25
359.122	236.25
359.349	230.25
359.576	238.25
359.802	220.25
360.029	218.25
360.256	215.25
360.483	227.25
360.709	231.25
360.936	227.25
361.163	224.25
361.39	238.25
361.616	235.25
361.843	227.25
362.07	239.25
362.296	245.25
362.523	224.25
362.749	229.25
362.976	234.25
363.203	231.25
363.429	203.25
363.656	244.25
363.882	227.25
364.109	246.25
364.335	249.25
364.562	224.25
364.788	220.25
365.015	235.25
365.241	228.25
365.468	222.25
365.694	228.25
365.92	237.25
366.147	223.25
366.373	236.25
366.599	250.25
366.826	241.25
367.052	216.25
367.278	228.25
367.505	245.25
367.731	232.25
367.957	235.25
368.184	233.25
368.41	237.25
368.636	248.25
368.862	229.25
369.089	228.25
369.315	262.25
369.541	253.25
369.767	263.25
369.993	245.25
370.219	234.25
370.445	243.25
370.672	258.25
370.898	237.25
371.124	254.25
371.35	257.25
371.576	258.25
371.802	241.25
372.028	251.25
372.254	250.25
372.48	262.25
372.706	239.25
372.932	258.25
373.158	237.25
373.384	260.25
373.61	253.25
373.835	234.25
374.061	254.25
374.287	226.25
374.513	249.25
374.739	280.25
374.965	269.25
375.191	258.25
375.416	274.25
375.642	261.25
375.868	260.25
376.094	254.25
376.319	248.25
376.545	259.25
376.771	245.25
376.997	243.25
377.222	231.25
377.448	260.25
377.674	235.25
377.899	244.25
378.125	242.25
378.35	255.25
378.576	231.25
378.802	245.25
379.027	238.25
379.253	243.25
379.478	247.25
379.704	256.25
379.929	262.25
380.155	263.25
380.38	256.25
380.606	254.25
380.831	241.25
381.057	256.25
381.282	241.25
381.507	253.25
381.733	256.25
381.958	257.25
382.184	258.25
382.409	271.25
382.634	261.25
382.86	260.25
383.085	268.25
383.31	257.25
383.535	276.25
383.761	260.25
383.986	284.25
384.211	270.25
384.436	242.25
384.662	266.25
384.887	282.25
385.112	278.25
385.337	293.25
385.562	256.25
385.787	280.25
386.013	275.25
386.238	293.25
386.463	295.25
386.688	293.25
386.913	292.25
387.138	266.25
387.363	271.25
387.588	270.25
387.813	281.25
388.038	307.25
388.263	279.25
388.488	309.25
388.713	282.25
388.938	276.25
389.163	280.25
389.387	281.25
389.612	257.25
389.837	286.25
390.062	288.25
390.287	290.25
390.512	283.25
390.736	268.25
390.961	290.25
391.186	295.25
391.411	298.25
391.636	303.25
391.86	286.25
392.085	294.25
392.31	299.25
392.534	297.25
392.759	303.25
392.984	293.25
393.208	280.25
393.433	282.25
393.658	301.25
393.882	294.25
394.107	310.25
394.331	278.25
394.556	293.25
394.78	284.25
395.005	291.25
395.229	312.25
395.454	312.25
395.678	298.25
395.903	305.25
396.127	299.25
396.352	291.25
396.576	296.25
396.801	299.25
397.025	319.25
397.249	312.25
397.474	319.25
397.698	313.25
397.922	319.25
398.147	321.25
398.371	310.25
398.595	344.25
398.82	369.25
399.044	348.25
399.268	359.25
399.492	397.25
399.717	387.25
399.941	396.25
400.165	403.25
400.389	378.25
400.613	374.25
400.837	345.25
401.062	345.25
401.286	340.25
401.51	351.25
401.734	331.25
401.958	363.25
402.182	330.25
402.406	343.25
402.63	336.25
402.854	335.25
403.078	335.25
403.302	337.25
403.526	324.25
403.75	354.25
403.974	351.25
404.198	357.25
404.422	348.25
404.645	333.25
404.869	345.25
405.093	360.25
405.317	359.25
405.541	344.25
405.765	352.25
405.988	352.25
406.212	375.25
406.436	338.25
406.66	361.25
406.883	372.25
407.107	356.25
407.331	357.25
407.555	380.25
407.778	370.25
408.002	374.25
408.226	359.25
408.449	377.25
408.673	350.25
408.896	360.25
409.12	360.25
409.344	356.25
409.567	341.25
409.791	347.25
410.014	344.25
410.238	332.25
410.461	349.25
410.685	332.25
410.908	336.25
411.132	358.25
411.355	332.25
411.578	344.25
411.802	343.25
412.025	352.25
412.249	328.25
412.472	348.25
412.695	354.25
412.919	327.25
413.142	331.25
413.365	320.25
413.589	332.25
413.812	319.25
414.035	335.25
414.258	345.25
414.482	334.25
414.705	338.25
414.928	326.25
415.151	335.25
415.374	315.25
415.597	320.25
415.821	332.25
416.044	326.25
416.267	342.25
416.49	325.25
416.713	301.25
416.936	319.25
417.159	328.25
417.382	319.25
417.605	319.25
417.828	320.25
418.051	329.25
418.274	306.25
418.497	314.25
418.72	327.25
418.943	313.25
419.166	319.25
419.389	326.25
419.611	345.25
419.834	330.25
420.057	336.25
420.28	327.25
420.503	312.25
420.726	314.25
420.948	308.25
421.171	316.25
421.394	314.25
421.617	329.25
421.839	331.25
422.062	328.25
422.285	298.25
422.507	327.25
422.73	322.25
422.953	306.25
423.175	313.25
423.398	324.25
423.621	318.25
423.843	337.25
424.066	332.25
424.288	338.25
424.511	320.25
424.733	336.25
424.956	322.25
425.178	341.25
425.401	298.25
425.623	320.25
425.846	314.25
426.068	308.25
426.291	305.25
426.513	324.25
426.735	328.25
426.958	292.25
427.18	320.25
427.402	311.25
427.625	292.25
427.847	302.25
428.069	297.25
428.292	301.25
428.514	310.25
428.736	282.25
428.958	286.25
429.181	279.25
429.403	279.25
429.625	291.25
429.847	295.25
430.069	310.25
430.292	317.25
430.514	286.25
430.736	293.25
430.958	286.25
431.18	298.25
431.402	300.25
431.624	305.25
431.846	288.25
432.068	316.25
432.29	304.25
432.512	311.25
432.734	291.25
432.956	298.25
433.178	291.25
433.4	318.25
433.622	297.25
433.844	316.25
434.066	307.25
434.287	304.25
434.509	296.25
434.731	313.25
434.953	306.25
435.175	320.25
435.397	313.25
435.618	304.25
435.84	290.25
436.062	310.25
436.284	297.25
436.505	296.25
436.727	287.25
436.949	286.25
437.17	305.25
437.392	298.25
437.614	288.25
437.835	304.25
438.057	297.25
438.278	286.25
438.5	288.25
438.721	298.25
438.943	297.25
439.165	268.25
439.386	296.25
439.608	300.25
439.829	273.25
440.05	283.25
440.272	303.25
440.493	296.25
440.715	282.25
440.936	314.25
441.158	309.25
441.379	325.25
441.6	318.25
441.822	304.25
442.043	334.25
442.264	309.25
442.486	279.25
442.707	304.25
442.928	310.25
443.149	329.25
443.371	310.25
443.592	305.25
443.813	322.25
444.034	292.25
444.255	314.25
444.476	330.25
444.698	328.25
444.919	314.25
445.14	430.25
445.361	376.25
445.582	318.25
445.803	298.25
446.024	318.25
446.245	283.25
446.466	286.25
446.687	271.25
446.908	295.25
447.129	290.25
447.35	287.25
447.571	279.25
447.792	280.25
448.013	278.25
448.234	287.25
448.455	272.25
448.675	277.25
448.896	269.25
449.117	276.25
449.338	272.25
449.559	282.25
449.779	280.25
450	265.25
450.221	279.25
450.442	263.25
450.662	290.25
450.883	275.25
451.104	262.25
451.324	278.25
451.545	275.25
451.766	260.25
451.986	290.25
452.207	283.25
452.428	266.25
452.648	279.25
452.869	266.25
453.089	273.25
453.31	259.25
453.53	266.25
453.751	272.25
453.971	254.25
454.192	257.25
454.412	267.25
454.633	260.25
454.853	257.25
455.073	274.25
455.294	282.25
455.514	269.25
455.734	267.25
455.955	278.25
456.175	279.25
456.395	267.25
456.616	263.25
456.836	264.25
457.056	256.25
457.276	275.25
457.497	289.25
457.717	276.25
457.937	278.25
458.157	284.25
458.377	268.25
458.598	281.25
458.818	299.25
459.038	298.25
459.258	283.25
459.478	308.25
459.698	301.25
459.918	292.25
460.138	311.25
460.358	316.25
460.578	323.25
460.798	323.25
461.018	321.25
461.238	313.25
461.458	315.25
461.678	316.25
461.898	320.25
462.118	332.25
462.338	347.25
462.558	343.25
462.777	341.25
462.997	372.25
463.217	372.25
463.437	383.25
463.657	365.25
463.876	356.25
464.096	351.25
464.316	332.25
464.536	345.25
464.755	347.25
464.975	346.25
465.195	339.25
465.414	328.25
465.634	294.25
465.854	295.25
466.073	289.25
466.293	290.25
466.512	289.25
466.732	281.25
466.951	270.25
467.171	288.25
467.391	277.25
467.61	287.25
467.829	289.25
468.049	287.25
468.268	280.25
468.488	284.25
468.707	278.25
468.927	289.25
469.146	286.25
469.365	271.25
469.585	289.25
469.804	286.25
470.023	277.25
470.243	290.25
470.462	278.25
470.681	287.25
470.901	285.25
471.12	274.25
471.339	284.25
471.558	279.25
471.777	289.25
471.997	285.25
472.216	294.25
472.435	289.25
472.654	293.25
472.873	280.25
473.092	295.25
473.311	295.25
473.53	279.25
473.749	287.25
473.968	286.25
474.187	279.25
474.406	297.25
474.625	299.25
474.844	289.25
475.063	300.25
475.282	287.25
475.501	285.25
475.72	289.25
475.939	293.25
476.158	300.25
476.377	290.25
476.596	292.25
476.814	309.25
477.033	306.25
477.252	296.25
477.471	302.25
477.69	297.25
477.908	295.25
478.127	312.25
478.346	313.25
478.564	313.25
478.783	325.25
479.002	332.25
479.22	332.25
479.439	333.25
479.658	329.25
479.876	321.25
480.095	333.25
480.313	321.25
480.532	356.25
480.751	363.25
480.969	335.25
481.188	355.25
481.406	330.25
481.624	308.25
481.843	323.25
482.061	325.25
482.28	336.25
482.498	342.25
482.717	324.25
482.935	327.25
483.153	307.25
483.372	313.25
483.59	334.25
483.808	328.25
484.027	328.25
484.245	329.25
484.463	331.25
484.681	335.25
484.9	344.25
485.118	324.25
485.336	332.25
485.554	334.25
485.772	328.25
485.99	347.25
486.209	337.25
486.427	331.25
486.645	338.25
486.863	331.25
487.081	330.25
487.299	344.25
487.517	337.25
487.735	355.25
487.953	352.25
488.171	344.25
488.389	339.25
488.607	324.25
488.825	338.25
489.043	316.25
489.261	340.25
489.479	314.25
489.696	327.25
489.914	349.25
490.132	323.25
490.35	338.25
490.568	344.25
490.786	339.25
491.003	339.25
491.221	350.25
491.439	353.25
491.657	344.25
491.874	347.25
492.092	342.25
492.31	335.25
492.527	336.25
492.745	335.25
492.963	335.25
493.18	340.25
493.398	346.25
493.615	340.25
493.833	339.25
494.05	346.25
494.268	329.25
494.485	352.25
494.703	343.25
494.92	359.25
495.138	349.25
495.355	361.25
495.573	367.25
495.79	357.25
496.008	357.25
496.225	370.25
496.442	380.25
496.66	392.25
496.877	361.25
497.094	386.25
497.312	370.25
497.529	382.25
497.746	400.25
497.963	412.25
498.181	414.25
498.398	430.25
498.615	434.25
498.832	455.25
499.049	457.25
499.267	527.25
499.484	546.25
499.701	578.25
499.918	582.25
500.135	601.25
500.352	653.25
500.569	669.25
500.786	638.25
501.003	625.25
501.22	595.25
501.437	574.25
501.654	550.25
501.871	518.25
502.088	489.25
502.305	472.25
