Data from Fe(NO3)3@0.05M.TitratingCurve.Agarose3%dH2O.NegLispCup.LampEnergy10.LIBS07252019_HRD10591_16-47-31-335.txt Node
Date: Thu Jul 25 16:47:31 EDT 2019
User: cochatt
Spectrometer: HR+D1059
Trigger mode: 1
Integration Time (sec): 1.000000E-1
Scans to average: 1
Electric dark correction enabled: true
Nonlinearity correction enabled: false
Boxcar width: 0
XAxis mode: Wavelengths
Number of Pixels in Spectrum: 2048
>>>>>Begin Spectral Data<<<<<
223.165	-21.81
223.4	-21.81
223.635	-21.81
223.869	-7.81
224.104	-6.81
224.338	-15.81
224.573	-24.81
224.808	-21.81
225.042	-2.81
225.277	-7.81
225.511	-12.81
225.746	11.19
225.98	9.19
226.215	13.19
226.449	10.19
226.683	23.19
226.918	26.19
227.152	29.19
227.387	42.19
227.621	38.19
227.856	53.19
228.09	53.19
228.324	43.19
228.559	57.19
228.793	60.19
229.027	79.19
229.262	84.19
229.496	87.19
229.73	89.19
229.964	98.19
230.199	79.19
230.433	86.19
230.667	100.19
230.901	88.19
231.136	94.19
231.37	101.19
231.604	97.19
231.838	85.19
232.072	90.19
232.306	95.19
232.541	106.19
232.775	94.19
233.009	92.19
233.243	108.19
233.477	100.19
233.711	101.19
233.945	93.19
234.179	102.19
234.413	108.19
234.647	108.19
234.881	101.19
235.115	109.19
235.349	108.19
235.583	93.19
235.817	103.19
236.051	101.19
236.285	110.19
236.519	93.19
236.753	101.19
236.987	97.19
237.221	111.19
237.455	101.19
237.689	95.19
237.922	106.19
238.156	111.19
238.39	101.19
238.624	114.19
238.858	108.19
239.091	102.19
239.325	104.19
239.559	119.19
239.793	99.19
240.027	119.19
240.26	119.19
240.494	114.19
240.728	127.19
240.961	119.19
241.195	125.19
241.429	117.19
241.662	103.19
241.896	92.19
242.13	113.19
242.363	120.19
242.597	115.19
242.83	129.19
243.064	107.19
243.298	125.19
243.531	102.19
243.765	123.19
243.998	112.19
244.232	120.19
244.465	104.19
244.699	120.19
244.932	129.19
245.166	99.19
245.399	117.19
245.633	119.19
245.866	116.19
246.099	115.19
246.333	128.19
246.566	123.19
246.8	123.19
247.033	126.19
247.266	122.19
247.5	115.19
247.733	117.19
247.966	124.19
248.2	112.19
248.433	114.19
248.666	130.19
248.899	130.19
249.133	114.19
249.366	146.19
249.599	140.19
249.832	144.19
250.066	128.19
250.299	118.19
250.532	153.19
250.765	134.19
250.998	134.19
251.231	124.19
251.465	145.19
251.698	131.19
251.931	128.19
252.164	137.19
252.397	149.19
252.63	135.19
252.863	142.19
253.096	138.19
253.329	150.19
253.562	151.19
253.795	157.19
254.028	156.19
254.261	140.19
254.494	142.19
254.727	154.19
254.96	162.19
255.193	142.19
255.426	156.19
255.659	147.19
255.892	141.19
256.124	138.19
256.357	134.19
256.59	157.19
256.823	152.19
257.056	144.19
257.289	136.19
257.521	149.19
257.754	143.19
257.987	138.19
258.22	157.19
258.452	153.19
258.685	151.19
258.918	150.19
259.151	156.19
259.383	152.19
259.616	156.19
259.849	166.19
260.081	185.19
260.314	187.19
260.547	168.19
260.779	151.19
261.012	158.19
261.244	173.19
261.477	174.19
261.71	165.19
261.942	174.19
262.175	150.19
262.407	163.19
262.64	155.19
262.872	157.19
263.105	181.19
263.337	188.19
263.57	182.19
263.802	151.19
264.035	149.19
264.267	152.19
264.499	154.19
264.732	155.19
264.964	154.19
265.197	158.19
265.429	167.19
265.661	164.19
265.894	147.19
266.126	145.19
266.358	164.19
266.591	154.19
266.823	171.19
267.055	162.19
267.287	169.19
267.52	153.19
267.752	150.19
267.984	162.19
268.216	155.19
268.448	167.19
268.681	180.19
268.913	161.19
269.145	158.19
269.377	157.19
269.609	162.19
269.841	155.19
270.073	153.19
270.306	183.19
270.538	173.19
270.77	167.19
271.002	182.19
271.234	182.19
271.466	166.19
271.698	193.19
271.93	170.19
272.162	189.19
272.394	177.19
272.626	170.19
272.858	172.19
273.09	157.19
273.322	171.19
273.553	175.19
273.785	187.19
274.017	168.19
274.249	206.19
274.481	207.19
274.713	203.19
274.945	247.19
275.176	215.19
275.408	214.19
275.64	225.19
275.872	209.19
276.104	185.19
276.335	181.19
276.567	192.19
276.799	185.19
277.031	188.19
277.262	195.19
277.494	191.19
277.726	171.19
277.957	195.19
278.189	185.19
278.421	180.19
278.652	202.19
278.884	190.19
279.115	181.19
279.347	192.19
279.579	189.19
279.81	191.19
280.042	174.19
280.273	182.19
280.505	183.19
280.736	190.19
280.968	201.19
281.199	193.19
281.431	198.19
281.662	210.19
281.894	203.19
282.125	198.19
282.356	186.19
282.588	190.19
282.819	190.19
283.051	203.19
283.282	194.19
283.513	204.19
283.745	195.19
283.976	189.19
284.207	207.19
284.439	205.19
284.67	195.19
284.901	186.19
285.132	208.19
285.364	202.19
285.595	200.19
285.826	202.19
286.057	205.19
286.288	194.19
286.52	200.19
286.751	209.19
286.982	227.19
287.213	215.19
287.444	199.19
287.675	210.19
287.906	200.19
288.138	193.19
288.369	223.19
288.6	209.19
288.831	196.19
289.062	214.19
289.293	199.19
289.524	201.19
289.755	219.19
289.986	229.19
290.217	202.19
290.448	203.19
290.679	196.19
290.91	207.19
291.141	192.19
291.371	225.19
291.602	221.19
291.833	226.19
292.064	212.19
292.295	214.19
292.526	188.19
292.757	208.19
292.987	212.19
293.218	204.19
293.449	225.19
293.68	232.19
293.91	207.19
294.141	224.19
294.372	217.19
294.603	212.19
294.833	211.19
295.064	209.19
295.295	217.19
295.525	196.19
295.756	207.19
295.987	221.19
296.217	217.19
296.448	206.19
296.679	219.19
296.909	228.19
297.14	224.19
297.37	232.19
297.601	233.19
297.831	226.19
298.062	223.19
298.292	226.19
298.523	217.19
298.753	221.19
298.984	219.19
299.214	228.19
299.445	228.19
299.675	243.19
299.905	243.19
300.136	233.19
300.366	227.19
300.597	231.19
300.827	233.19
301.057	227.19
301.288	235.19
301.518	236.19
301.748	246.19
301.979	241.19
302.209	229.19
302.439	243.19
302.669	244.19
302.9	234.19
303.13	243.19
303.36	231.19
303.59	245.19
303.82	236.19
304.051	234.19
304.281	237.19
304.511	220.19
304.741	225.19
304.971	233.19
305.201	228.19
305.431	224.19
305.661	240.19
305.891	245.19
306.121	254.19
306.352	257.19
306.582	236.19
306.812	230.19
307.042	239.19
307.272	222.19
307.502	241.19
307.731	245.19
307.961	241.19
308.191	241.19
308.421	221.19
308.651	235.19
308.881	226.19
309.111	233.19
309.341	236.19
309.571	252.19
309.8	247.19
310.03	237.19
310.26	234.19
310.49	238.19
310.72	227.19
310.949	241.19
311.179	234.19
311.409	253.19
311.639	261.19
311.868	238.19
312.098	265.19
312.328	237.19
312.557	258.19
312.787	250.19
313.017	249.19
313.246	242.19
313.476	232.19
313.706	229.19
313.935	249.19
314.165	250.19
314.394	261.19
314.624	259.19
314.853	249.19
315.083	262.19
315.312	275.19
315.542	253.19
315.771	253.19
316.001	242.19
316.23	240.19
316.46	247.19
316.689	262.19
316.919	251.19
317.148	257.19
317.377	287.19
317.607	257.19
317.836	243.19
318.065	260.19
318.295	272.19
318.524	243.19
318.753	249.19
318.983	248.19
319.212	259.19
319.441	249.19
319.67	248.19
319.9	255.19
320.129	251.19
320.358	266.19
320.587	239.19
320.816	258.19
321.046	259.19
321.275	252.19
321.504	275.19
321.733	263.19
321.962	257.19
322.191	272.19
322.42	264.19
322.649	250.19
322.878	271.19
323.108	276.19
323.337	256.19
323.566	265.19
323.795	262.19
324.024	268.19
324.253	270.19
324.482	261.19
324.71	284.19
324.939	266.19
325.168	263.19
325.397	254.19
325.626	258.19
325.855	265.19
326.084	262.19
326.313	279.19
326.542	278.19
326.77	256.19
326.999	267.19
327.228	266.19
327.457	268.19
327.686	275.19
327.914	284.19
328.143	275.19
328.372	277.19
328.6	275.19
328.829	278.19
329.058	271.19
329.287	278.19
329.515	284.19
329.744	270.19
329.972	275.19
330.201	277.19
330.43	292.19
330.658	289.19
330.887	280.19
331.115	281.19
331.344	285.19
331.572	282.19
331.801	305.19
332.03	296.19
332.258	301.19
332.486	294.19
332.715	308.19
332.943	300.19
333.172	330.19
333.4	329.19
333.629	332.19
333.857	326.19
334.085	332.19
334.314	331.19
334.542	328.19
334.771	336.19
334.999	332.19
335.227	322.19
335.455	316.19
335.684	319.19
335.912	322.19
336.14	319.19
336.369	321.19
336.597	321.19
336.825	323.19
337.053	325.19
337.281	312.19
337.51	296.19
337.738	314.19
337.966	306.19
338.194	295.19
338.422	296.19
338.65	292.19
338.878	307.19
339.106	282.19
339.334	278.19
339.562	268.19
339.79	281.19
340.018	291.19
340.246	291.19
340.474	305.19
340.702	296.19
340.93	299.19
341.158	300.19
341.386	294.19
341.614	276.19
341.842	288.19
342.07	281.19
342.298	305.19
342.526	301.19
342.754	286.19
342.981	297.19
343.209	291.19
343.437	311.19
343.665	302.19
343.893	324.19
344.12	328.19
344.348	320.19
344.576	317.19
344.804	317.19
345.031	316.19
345.259	309.19
345.487	282.19
345.714	297.19
345.942	286.19
346.17	296.19
346.397	288.19
346.625	302.19
346.853	295.19
347.08	286.19
347.308	294.19
347.535	300.19
347.763	299.19
347.99	285.19
348.218	283.19
348.445	273.19
348.673	296.19
348.9	278.19
349.128	283.19
349.355	286.19
349.583	285.19
349.81	271.19
350.037	278.19
350.265	268.19
350.492	298.19
350.72	291.19
350.947	296.19
351.174	285.19
351.402	282.19
351.629	307.19
351.856	296.19
352.083	276.19
352.311	296.19
352.538	289.19
352.765	278.19
352.992	286.19
353.22	291.19
353.447	281.19
353.674	274.19
353.901	286.19
354.128	298.19
354.355	272.19
354.583	293.19
354.81	290.19
355.037	291.19
355.264	293.19
355.491	277.19
355.718	275.19
355.945	290.19
356.172	295.19
356.399	285.19
356.626	305.19
356.853	301.19
357.08	299.19
357.307	312.19
357.534	286.19
357.761	300.19
357.988	298.19
358.215	289.19
358.441	293.19
358.668	302.19
358.895	290.19
359.122	306.19
359.349	270.19
359.576	301.19
359.802	277.19
360.029	281.19
360.256	277.19
360.483	285.19
360.709	311.19
360.936	317.19
361.163	310.19
361.39	291.19
361.616	294.19
361.843	269.19
362.07	295.19
362.296	309.19
362.523	315.19
362.749	302.19
362.976	298.19
363.203	317.19
363.429	298.19
363.656	285.19
363.882	285.19
364.109	293.19
364.335	295.19
364.562	294.19
364.788	267.19
365.015	289.19
365.241	278.19
365.468	289.19
365.694	281.19
365.92	270.19
366.147	281.19
366.373	283.19
366.599	289.19
366.826	277.19
367.052	275.19
367.278	296.19
367.505	286.19
367.731	285.19
367.957	294.19
368.184	293.19
368.41	303.19
368.636	321.19
368.862	308.19
369.089	285.19
369.315	289.19
369.541	297.19
369.767	307.19
369.993	296.19
370.219	309.19
370.445	290.19
370.672	295.19
370.898	304.19
371.124	309.19
371.35	292.19
371.576	319.19
371.802	321.19
372.028	321.19
372.254	314.19
372.48	328.19
372.706	328.19
372.932	325.19
373.158	330.19
373.384	338.19
373.61	341.19
373.835	337.19
374.061	325.19
374.287	330.19
374.513	328.19
374.739	336.19
374.965	341.19
375.191	358.19
375.416	364.19
375.642	340.19
375.868	339.19
376.094	329.19
376.319	317.19
376.545	321.19
376.771	323.19
376.997	322.19
377.222	327.19
377.448	331.19
377.674	332.19
377.899	315.19
378.125	327.19
378.35	316.19
378.576	310.19
378.802	324.19
379.027	320.19
379.253	330.19
379.478	316.19
379.704	330.19
379.929	317.19
380.155	320.19
380.38	342.19
380.606	338.19
380.831	332.19
381.057	334.19
381.282	345.19
381.507	332.19
381.733	350.19
381.958	345.19
382.184	335.19
382.409	341.19
382.634	358.19
382.86	359.19
383.085	348.19
383.31	341.19
383.535	359.19
383.761	352.19
383.986	381.19
384.211	375.19
384.436	374.19
384.662	365.19
384.887	369.19
385.112	371.19
385.337	364.19
385.562	377.19
385.787	351.19
386.013	405.19
386.238	373.19
386.463	397.19
386.688	394.19
386.913	377.19
387.138	383.19
387.363	388.19
387.588	399.19
387.813	382.19
388.038	374.19
388.263	373.19
388.488	383.19
388.713	387.19
388.938	378.19
389.163	397.19
389.387	396.19
389.612	404.19
389.837	400.19
390.062	375.19
390.287	402.19
390.512	379.19
390.736	411.19
390.961	413.19
391.186	385.19
391.411	403.19
391.636	433.19
391.86	431.19
392.085	418.19
392.31	410.19
392.534	399.19
392.759	406.19
392.984	422.19
393.208	413.19
393.433	422.19
393.658	443.19
393.882	407.19
394.107	409.19
394.331	404.19
394.556	415.19
394.78	414.19
395.005	449.19
395.229	411.19
395.454	431.19
395.678	423.19
395.903	442.19
396.127	438.19
396.352	421.19
396.576	437.19
396.801	432.19
397.025	433.19
397.249	447.19
397.474	450.19
397.698	451.19
397.922	457.19
398.147	450.19
398.371	451.19
398.595	471.19
398.82	489.19
399.044	501.19
399.268	522.19
399.492	557.19
399.717	607.19
399.941	631.19
400.165	573.19
400.389	548.19
400.613	534.19
400.837	492.19
401.062	503.19
401.286	491.19
401.51	485.19
401.734	481.19
401.958	482.19
402.182	485.19
402.406	483.19
402.63	489.19
402.854	485.19
403.078	492.19
403.302	493.19
403.526	494.19
403.75	487.19
403.974	486.19
404.198	487.19
404.422	505.19
404.645	520.19
404.869	515.19
405.093	521.19
405.317	508.19
405.541	500.19
405.765	526.19
405.988	526.19
406.212	517.19
406.436	516.19
406.66	542.19
406.883	535.19
407.107	562.19
407.331	572.19
407.555	559.19
407.778	589.19
408.002	554.19
408.226	565.19
408.449	543.19
408.673	547.19
408.896	524.19
409.12	533.19
409.344	536.19
409.567	519.19
409.791	516.19
410.014	540.19
410.238	522.19
410.461	498.19
410.685	478.19
410.908	513.19
411.132	494.19
411.355	492.19
411.578	498.19
411.802	488.19
412.025	498.19
412.249	502.19
412.472	485.19
412.695	495.19
412.919	518.19
413.142	498.19
413.365	486.19
413.589	505.19
413.812	491.19
414.035	482.19
414.258	477.19
414.482	496.19
414.705	503.19
414.928	491.19
415.151	503.19
415.374	490.19
415.597	493.19
415.821	492.19
416.044	462.19
416.267	463.19
416.49	463.19
416.713	487.19
416.936	492.19
417.159	449.19
417.382	465.19
417.605	472.19
417.828	482.19
418.051	492.19
418.274	479.19
418.497	462.19
418.72	476.19
418.943	478.19
419.166	474.19
419.389	524.19
419.611	545.19
419.834	484.19
420.057	503.19
420.28	486.19
420.503	482.19
420.726	459.19
420.948	465.19
421.171	486.19
421.394	469.19
421.617	469.19
421.839	481.19
422.062	498.19
422.285	473.19
422.507	501.19
422.73	487.19
422.953	503.19
423.175	478.19
423.398	509.19
423.621	482.19
423.843	505.19
424.066	481.19
424.288	516.19
424.511	490.19
424.733	506.19
424.956	486.19
425.178	503.19
425.401	475.19
425.623	473.19
425.846	459.19
426.068	507.19
426.291	487.19
426.513	477.19
426.735	463.19
426.958	466.19
427.18	454.19
427.402	455.19
427.625	447.19
427.847	458.19
428.069	453.19
428.292	464.19
428.514	473.19
428.736	463.19
428.958	470.19
429.181	476.19
429.403	445.19
429.625	455.19
429.847	454.19
430.069	454.19
430.292	469.19
430.514	471.19
430.736	469.19
430.958	453.19
431.18	456.19
431.402	453.19
431.624	449.19
431.846	458.19
432.068	439.19
432.29	446.19
432.512	443.19
432.734	480.19
432.956	455.19
433.178	471.19
433.4	470.19
433.622	479.19
433.844	463.19
434.066	465.19
434.287	460.19
434.509	474.19
434.731	458.19
434.953	486.19
435.175	492.19
435.397	486.19
435.618	476.19
435.84	439.19
436.062	463.19
436.284	477.19
436.505	452.19
436.727	462.19
436.949	445.19
437.17	442.19
437.392	442.19
437.614	459.19
437.835	435.19
438.057	444.19
438.278	459.19
438.5	434.19
438.721	471.19
438.943	460.19
439.165	453.19
439.386	448.19
439.608	471.19
439.829	464.19
440.05	466.19
440.272	484.19
440.493	472.19
440.715	468.19
440.936	465.19
441.158	469.19
441.379	465.19
441.6	491.19
441.822	475.19
442.043	472.19
442.264	491.19
442.486	489.19
442.707	493.19
442.928	484.19
443.149	496.19
443.371	493.19
443.592	490.19
443.813	515.19
444.034	499.19
444.255	510.19
444.476	530.19
444.698	513.19
444.919	509.19
445.14	599.19
445.361	561.19
445.582	522.19
445.803	494.19
446.024	479.19
446.245	499.19
446.466	485.19
446.687	461.19
446.908	483.19
447.129	473.19
447.35	451.19
447.571	445.19
447.792	439.19
448.013	449.19
448.234	456.19
448.455	437.19
448.675	429.19
448.896	441.19
449.117	423.19
449.338	466.19
449.559	441.19
449.779	442.19
450	428.19
450.221	435.19
450.442	454.19
450.662	439.19
450.883	430.19
451.104	451.19
451.324	434.19
451.545	436.19
451.766	435.19
451.986	439.19
452.207	434.19
452.428	405.19
452.648	433.19
452.869	406.19
453.089	409.19
453.31	397.19
453.53	409.19
453.751	416.19
453.971	421.19
454.192	439.19
454.412	396.19
454.633	411.19
454.853	412.19
455.073	411.19
455.294	418.19
455.514	406.19
455.734	430.19
455.955	414.19
456.175	389.19
456.395	406.19
456.616	410.19
456.836	393.19
457.056	393.19
457.276	403.19
457.497	425.19
457.717	418.19
457.937	409.19
458.157	419.19
458.377	445.19
458.598	421.19
458.818	442.19
459.038	443.19
459.258	450.19
459.478	458.19
459.698	467.19
459.918	484.19
460.138	486.19
460.358	478.19
460.578	506.19
460.798	519.19
461.018	509.19
461.238	533.19
461.458	518.19
461.678	540.19
461.898	531.19
462.118	521.19
462.338	550.19
462.558	563.19
462.777	577.19
462.997	594.19
463.217	593.19
463.437	614.19
463.657	610.19
463.876	575.19
464.096	606.19
464.316	561.19
464.536	565.19
464.755	561.19
464.975	561.19
465.195	550.19
465.414	519.19
465.634	494.19
465.854	495.19
466.073	500.19
466.293	483.19
466.512	464.19
466.732	472.19
466.951	457.19
467.171	463.19
467.391	471.19
467.61	463.19
467.829	487.19
468.049	476.19
468.268	426.19
468.488	470.19
468.707	453.19
468.927	460.19
469.146	461.19
469.365	459.19
469.585	441.19
469.804	467.19
470.023	472.19
470.243	454.19
470.462	465.19
470.681	490.19
470.901	463.19
471.12	469.19
471.339	463.19
471.558	481.19
471.777	455.19
471.997	484.19
472.216	474.19
472.435	441.19
472.654	443.19
472.873	453.19
473.092	446.19
473.311	449.19
473.53	453.19
473.749	454.19
473.968	441.19
474.187	433.19
474.406	431.19
474.625	454.19
474.844	444.19
475.063	455.19
475.282	472.19
475.501	449.19
475.72	466.19
475.939	482.19
476.158	478.19
476.377	478.19
476.596	497.19
476.814	472.19
477.033	476.19
477.252	482.19
477.471	471.19
477.69	472.19
477.908	490.19
478.127	527.19
478.346	522.19
478.564	516.19
478.783	515.19
479.002	529.19
479.22	535.19
479.439	547.19
479.658	527.19
479.876	540.19
480.095	543.19
480.313	554.19
480.532	563.19
480.751	558.19
480.969	533.19
481.188	538.19
481.406	533.19
481.624	538.19
481.843	524.19
482.061	513.19
482.28	516.19
482.498	517.19
482.717	514.19
482.935	530.19
483.153	526.19
483.372	507.19
483.59	516.19
483.808	529.19
484.027	517.19
484.245	533.19
484.463	514.19
484.681	533.19
484.9	542.19
485.118	547.19
485.336	542.19
485.554	537.19
485.772	511.19
485.99	546.19
486.209	526.19
486.427	523.19
486.645	534.19
486.863	544.19
487.081	521.19
487.299	536.19
487.517	556.19
487.735	517.19
487.953	541.19
488.171	554.19
488.389	537.19
488.607	551.19
488.825	533.19
489.043	527.19
489.261	542.19
489.479	533.19
489.696	548.19
489.914	545.19
490.132	535.19
490.35	549.19
490.568	521.19
490.786	546.19
491.003	563.19
491.221	555.19
491.439	528.19
491.657	531.19
491.874	544.19
492.092	561.19
492.31	568.19
492.527	581.19
492.745	554.19
492.963	563.19
493.18	549.19
493.398	553.19
493.615	573.19
493.833	563.19
494.05	550.19
494.268	563.19
494.485	591.19
494.703	576.19
494.92	575.19
495.138	597.19
495.355	570.19
495.573	568.19
495.79	586.19
496.008	581.19
496.225	581.19
496.442	590.19
496.66	581.19
496.877	596.19
497.094	610.19
497.312	613.19
497.529	621.19
497.746	623.19
497.963	627.19
498.181	665.19
498.398	681.19
498.615	700.19
498.832	709.19
499.049	775.19
499.267	799.19
499.484	875.19
499.701	904.19
499.918	975.19
500.135	1017.19
500.352	1107.19
500.569	1131.19
500.786	1116.19
501.003	1075.19
501.22	1021.19
501.437	953.19
501.654	897.19
501.871	824.19
