Data from Fe(NO3)3@0.1M.TitratingCurve.Agarose3%dH2O.NegLispCup.LampEnergy10.LIBS07252019_HRD10591_16-41-02-333.txt Node
Date: Thu Jul 25 16:41:02 EDT 2019
User: cochatt
Spectrometer: HR+D1059
Trigger mode: 1
Integration Time (sec): 1.000000E-1
Scans to average: 1
Electric dark correction enabled: true
Nonlinearity correction enabled: false
Boxcar width: 0
XAxis mode: Wavelengths
Number of Pixels in Spectrum: 2048
>>>>>Begin Spectral Data<<<<<
223.165	-27.56
223.4	-27.56
223.635	-27.56
223.869	-14.56
224.104	-20.56
224.338	-18.56
224.573	-9.56
224.808	-2.56
225.042	-6.56
225.277	-7.56
225.511	-12.56
225.746	5.44
225.98	18.44
226.215	17.44
226.449	16.44
226.683	21.44
226.918	23.44
227.152	17.44
227.387	40.44
227.621	46.44
227.856	53.44
228.09	40.44
228.324	44.44
228.559	63.44
228.793	58.44
229.027	85.44
229.262	79.44
229.496	74.44
229.73	78.44
229.964	72.44
230.199	101.44
230.433	85.44
230.667	94.44
230.901	84.44
231.136	88.44
231.37	107.44
231.604	92.44
231.838	91.44
232.072	95.44
232.306	99.44
232.541	66.44
232.775	97.44
233.009	78.44
233.243	79.44
233.477	95.44
233.711	90.44
233.945	109.44
234.179	95.44
234.413	105.44
234.647	88.44
234.881	89.44
235.115	89.44
235.349	94.44
235.583	104.44
235.817	105.44
236.051	88.44
236.285	87.44
236.519	108.44
236.753	94.44
236.987	90.44
237.221	95.44
237.455	91.44
237.689	96.44
237.922	93.44
238.156	100.44
238.39	94.44
238.624	99.44
238.858	100.44
239.091	92.44
239.325	98.44
239.559	116.44
239.793	109.44
240.027	102.44
240.26	104.44
240.494	101.44
240.728	97.44
240.961	84.44
241.195	91.44
241.429	108.44
241.662	93.44
241.896	103.44
242.13	89.44
242.363	116.44
242.597	90.44
242.83	104.44
243.064	108.44
243.298	97.44
243.531	107.44
243.765	107.44
243.998	119.44
244.232	110.44
244.465	95.44
244.699	105.44
244.932	104.44
245.166	107.44
245.399	104.44
245.633	105.44
245.866	116.44
246.099	87.44
246.333	117.44
246.566	118.44
246.8	118.44
247.033	103.44
247.266	125.44
247.5	125.44
247.733	117.44
247.966	116.44
248.2	105.44
248.433	123.44
248.666	127.44
248.899	124.44
249.133	114.44
249.366	132.44
249.599	121.44
249.832	135.44
250.066	117.44
250.299	125.44
250.532	110.44
250.765	131.44
250.998	130.44
251.231	132.44
251.465	125.44
251.698	131.44
251.931	113.44
252.164	131.44
252.397	126.44
252.63	115.44
252.863	111.44
253.096	120.44
253.329	121.44
253.562	129.44
253.795	128.44
254.028	122.44
254.261	132.44
254.494	136.44
254.727	127.44
254.96	131.44
255.193	128.44
255.426	125.44
255.659	122.44
255.892	130.44
256.124	135.44
256.357	133.44
256.59	126.44
256.823	119.44
257.056	153.44
257.289	135.44
257.521	134.44
257.754	148.44
257.987	135.44
258.22	136.44
258.452	137.44
258.685	133.44
258.918	120.44
259.151	140.44
259.383	146.44
259.616	135.44
259.849	137.44
260.081	132.44
260.314	136.44
260.547	139.44
260.779	152.44
261.012	147.44
261.244	137.44
261.477	151.44
261.71	133.44
261.942	157.44
262.175	142.44
262.407	133.44
262.64	149.44
262.872	156.44
263.105	140.44
263.337	146.44
263.57	137.44
263.802	145.44
264.035	156.44
264.267	146.44
264.499	144.44
264.732	141.44
264.964	149.44
265.197	129.44
265.429	139.44
265.661	163.44
265.894	135.44
266.126	141.44
266.358	160.44
266.591	155.44
266.823	169.44
267.055	146.44
267.287	144.44
267.52	160.44
267.752	153.44
267.984	134.44
268.216	153.44
268.448	160.44
268.681	157.44
268.913	150.44
269.145	156.44
269.377	162.44
269.609	171.44
269.841	155.44
270.073	150.44
270.306	176.44
270.538	152.44
270.77	178.44
271.002	159.44
271.234	155.44
271.466	168.44
271.698	157.44
271.93	167.44
272.162	163.44
272.394	164.44
272.626	158.44
272.858	165.44
273.09	176.44
273.322	172.44
273.553	176.44
273.785	165.44
274.017	177.44
274.249	152.44
274.481	184.44
274.713	166.44
274.945	176.44
275.176	175.44
275.408	179.44
275.64	151.44
275.872	155.44
276.104	166.44
276.335	175.44
276.567	177.44
276.799	171.44
277.031	183.44
277.262	166.44
277.494	165.44
277.726	182.44
277.957	168.44
278.189	161.44
278.421	165.44
278.652	173.44
278.884	175.44
279.115	184.44
279.347	174.44
279.579	184.44
279.81	176.44
280.042	172.44
280.273	166.44
280.505	181.44
280.736	183.44
280.968	192.44
281.199	188.44
281.431	182.44
281.662	188.44
281.894	204.44
282.125	163.44
282.356	195.44
282.588	183.44
282.819	192.44
283.051	187.44
283.282	176.44
283.513	188.44
283.745	191.44
283.976	188.44
284.207	197.44
284.439	176.44
284.67	192.44
284.901	196.44
285.132	187.44
285.364	206.44
285.595	180.44
285.826	173.44
286.057	197.44
286.288	175.44
286.52	192.44
286.751	205.44
286.982	201.44
287.213	208.44
287.444	219.44
287.675	188.44
287.906	198.44
288.138	196.44
288.369	195.44
288.6	216.44
288.831	199.44
289.062	210.44
289.293	203.44
289.524	214.44
289.755	198.44
289.986	195.44
290.217	196.44
290.448	198.44
290.679	211.44
290.91	218.44
291.141	204.44
291.371	197.44
291.602	204.44
291.833	203.44
292.064	200.44
292.295	200.44
292.526	205.44
292.757	201.44
292.987	205.44
293.218	213.44
293.449	206.44
293.68	206.44
293.91	207.44
294.141	200.44
294.372	210.44
294.603	202.44
294.833	206.44
295.064	196.44
295.295	217.44
295.525	200.44
295.756	213.44
295.987	203.44
296.217	215.44
296.448	197.44
296.679	199.44
296.909	221.44
297.14	208.44
297.37	212.44
297.601	208.44
297.831	208.44
298.062	216.44
298.292	225.44
298.523	212.44
298.753	206.44
298.984	218.44
299.214	235.44
299.445	223.44
299.675	225.44
299.905	228.44
300.136	209.44
300.366	196.44
300.597	207.44
300.827	222.44
301.057	230.44
301.288	227.44
301.518	225.44
301.748	216.44
301.979	238.44
302.209	239.44
302.439	226.44
302.669	223.44
302.9	227.44
303.13	231.44
303.36	229.44
303.59	237.44
303.82	256.44
304.051	231.44
304.281	226.44
304.511	223.44
304.741	205.44
304.971	216.44
305.201	218.44
305.431	224.44
305.661	236.44
305.891	225.44
306.121	221.44
306.352	219.44
306.582	237.44
306.812	205.44
307.042	226.44
307.272	214.44
307.502	221.44
307.731	231.44
307.961	227.44
308.191	232.44
308.421	222.44
308.651	232.44
308.881	224.44
309.111	235.44
309.341	211.44
309.571	230.44
309.8	242.44
310.03	239.44
310.26	216.44
310.49	212.44
310.72	231.44
310.949	209.44
311.179	240.44
311.409	240.44
311.639	221.44
311.868	247.44
312.098	220.44
312.328	232.44
312.557	257.44
312.787	250.44
313.017	252.44
313.246	242.44
313.476	233.44
313.706	235.44
313.935	246.44
314.165	236.44
314.394	247.44
314.624	247.44
314.853	241.44
315.083	233.44
315.312	250.44
315.542	230.44
315.771	225.44
316.001	245.44
316.23	237.44
316.46	236.44
316.689	247.44
316.919	244.44
317.148	243.44
317.377	243.44
317.607	230.44
317.836	233.44
318.065	256.44
318.295	239.44
318.524	229.44
318.753	242.44
318.983	235.44
319.212	250.44
319.441	228.44
319.67	258.44
319.9	241.44
320.129	239.44
320.358	238.44
320.587	239.44
320.816	239.44
321.046	248.44
321.275	255.44
321.504	256.44
321.733	254.44
321.962	245.44
322.191	259.44
322.42	230.44
322.649	220.44
322.878	264.44
323.108	248.44
323.337	252.44
323.566	237.44
323.795	240.44
324.024	243.44
324.253	266.44
324.482	245.44
324.71	228.44
324.939	261.44
325.168	267.44
325.397	236.44
325.626	249.44
325.855	252.44
326.084	270.44
326.313	257.44
326.542	267.44
326.77	259.44
326.999	256.44
327.228	246.44
327.457	241.44
327.686	245.44
327.914	259.44
328.143	260.44
328.372	256.44
328.6	277.44
328.829	270.44
329.058	255.44
329.287	244.44
329.515	258.44
329.744	274.44
329.972	264.44
330.201	266.44
330.43	266.44
330.658	270.44
330.887	279.44
331.115	278.44
331.344	269.44
331.572	260.44
331.801	281.44
332.03	285.44
332.258	288.44
332.486	297.44
332.715	300.44
332.943	304.44
333.172	315.44
333.4	336.44
333.629	331.44
333.857	340.44
334.085	335.44
334.314	351.44
334.542	334.44
334.771	326.44
334.999	310.44
335.227	318.44
335.455	303.44
335.684	318.44
335.912	315.44
336.14	304.44
336.369	301.44
336.597	291.44
336.825	314.44
337.053	292.44
337.281	304.44
337.51	295.44
337.738	300.44
337.966	306.44
338.194	299.44
338.422	273.44
338.65	289.44
338.878	300.44
339.106	281.44
339.334	277.44
339.562	288.44
339.79	280.44
340.018	285.44
340.246	282.44
340.474	273.44
340.702	256.44
340.93	271.44
341.158	269.44
341.386	269.44
341.614	265.44
341.842	303.44
342.07	262.44
342.298	260.44
342.526	292.44
342.754	266.44
342.981	287.44
343.209	283.44
343.437	307.44
343.665	308.44
343.893	310.44
344.12	330.44
344.348	327.44
344.576	286.44
344.804	287.44
345.031	271.44
345.259	270.44
345.487	281.44
345.714	274.44
345.942	274.44
346.17	265.44
346.397	261.44
346.625	269.44
346.853	268.44
347.08	265.44
347.308	273.44
347.535	268.44
347.763	270.44
347.99	266.44
348.218	279.44
348.445	266.44
348.673	272.44
348.9	275.44
349.128	267.44
349.355	268.44
349.583	256.44
349.81	275.44
350.037	265.44
350.265	264.44
350.492	265.44
350.72	264.44
350.947	272.44
351.174	273.44
351.402	256.44
351.629	237.44
351.856	276.44
352.083	271.44
352.311	253.44
352.538	277.44
352.765	253.44
352.992	256.44
353.22	248.44
353.447	261.44
353.674	274.44
353.901	268.44
354.128	278.44
354.355	252.44
354.583	261.44
354.81	247.44
355.037	269.44
355.264	266.44
355.491	254.44
355.718	256.44
355.945	268.44
356.172	269.44
356.399	276.44
356.626	279.44
356.853	262.44
357.08	242.44
357.307	257.44
357.534	265.44
357.761	279.44
357.988	275.44
358.215	283.44
358.441	258.44
358.668	257.44
358.895	282.44
359.122	271.44
359.349	258.44
359.576	271.44
359.802	256.44
360.029	280.44
360.256	289.44
360.483	243.44
360.709	261.44
360.936	262.44
361.163	264.44
361.39	261.44
361.616	280.44
361.843	266.44
362.07	270.44
362.296	277.44
362.523	259.44
362.749	247.44
362.976	275.44
363.203	277.44
363.429	266.44
363.656	278.44
363.882	263.44
364.109	260.44
364.335	275.44
364.562	265.44
364.788	263.44
365.015	259.44
365.241	260.44
365.468	254.44
365.694	261.44
365.92	264.44
366.147	265.44
366.373	257.44
366.599	255.44
366.826	283.44
367.052	264.44
367.278	260.44
367.505	254.44
367.731	262.44
367.957	271.44
368.184	265.44
368.41	294.44
368.636	278.44
368.862	263.44
369.089	271.44
369.315	273.44
369.541	261.44
369.767	296.44
369.993	263.44
370.219	275.44
370.445	280.44
370.672	299.44
370.898	289.44
371.124	287.44
371.35	294.44
371.576	296.44
371.802	314.44
372.028	306.44
372.254	303.44
372.48	283.44
372.706	326.44
372.932	293.44
373.158	316.44
373.384	296.44
373.61	288.44
373.835	290.44
374.061	296.44
374.287	291.44
374.513	301.44
374.739	307.44
374.965	316.44
375.191	316.44
375.416	316.44
375.642	311.44
375.868	313.44
376.094	309.44
376.319	305.44
376.545	289.44
376.771	285.44
376.997	273.44
377.222	286.44
377.448	293.44
377.674	300.44
377.899	285.44
378.125	276.44
378.35	292.44
378.576	288.44
378.802	286.44
379.027	277.44
379.253	290.44
379.478	301.44
379.704	299.44
379.929	288.44
380.155	282.44
380.38	286.44
380.606	290.44
380.831	297.44
381.057	278.44
381.282	295.44
381.507	292.44
381.733	288.44
381.958	296.44
382.184	302.44
382.409	301.44
382.634	280.44
382.86	317.44
383.085	305.44
383.31	297.44
383.535	299.44
383.761	309.44
383.986	328.44
384.211	320.44
384.436	332.44
384.662	335.44
384.887	333.44
385.112	342.44
385.337	354.44
385.562	344.44
385.787	329.44
386.013	333.44
386.238	354.44
386.463	331.44
386.688	338.44
386.913	327.44
387.138	338.44
387.363	335.44
387.588	340.44
387.813	333.44
388.038	351.44
388.263	342.44
388.488	348.44
388.713	329.44
388.938	346.44
389.163	315.44
389.387	357.44
389.612	329.44
389.837	320.44
390.062	332.44
390.287	331.44
390.512	336.44
390.736	332.44
390.961	365.44
391.186	371.44
391.411	357.44
391.636	399.44
391.86	384.44
392.085	370.44
392.31	369.44
392.534	363.44
392.759	347.44
392.984	372.44
393.208	355.44
393.433	353.44
393.658	360.44
393.882	377.44
394.107	358.44
394.331	356.44
394.556	367.44
394.78	379.44
395.005	356.44
395.229	379.44
395.454	401.44
395.678	373.44
395.903	381.44
396.127	379.44
396.352	359.44
396.576	375.44
396.801	348.44
397.025	372.44
397.249	369.44
397.474	388.44
397.698	371.44
397.922	369.44
398.147	380.44
398.371	397.44
398.595	409.44
398.82	415.44
399.044	459.44
399.268	487.44
399.492	542.44
399.717	582.44
399.941	576.44
400.165	537.44
400.389	467.44
400.613	432.44
400.837	431.44
401.062	431.44
401.286	425.44
401.51	409.44
401.734	406.44
401.958	434.44
402.182	425.44
402.406	402.44
402.63	421.44
402.854	435.44
403.078	429.44
403.302	457.44
403.526	479.44
403.75	467.44
403.974	490.44
404.198	460.44
404.422	491.44
404.645	484.44
404.869	451.44
405.093	469.44
405.317	431.44
405.541	453.44
405.765	450.44
405.988	422.44
406.212	443.44
406.436	431.44
406.66	466.44
406.883	464.44
407.107	520.44
407.331	498.44
407.555	528.44
407.778	528.44
408.002	528.44
408.226	494.44
408.449	493.44
408.673	483.44
408.896	482.44
409.12	489.44
409.344	484.44
409.567	472.44
409.791	462.44
410.014	471.44
410.238	471.44
410.461	461.44
410.685	442.44
410.908	448.44
411.132	440.44
411.355	485.44
411.578	446.44
411.802	429.44
412.025	455.44
412.249	456.44
412.472	452.44
412.695	417.44
412.919	433.44
413.142	449.44
413.365	417.44
413.589	435.44
413.812	437.44
414.035	410.44
414.258	435.44
414.482	437.44
414.705	438.44
414.928	454.44
415.151	421.44
415.374	432.44
415.597	419.44
415.821	408.44
416.044	408.44
416.267	424.44
416.49	435.44
416.713	435.44
416.936	434.44
417.159	408.44
417.382	399.44
417.605	421.44
417.828	429.44
418.051	431.44
418.274	438.44
418.497	435.44
418.72	436.44
418.943	443.44
419.166	460.44
419.389	493.44
419.611	458.44
419.834	456.44
420.057	433.44
420.28	424.44
420.503	434.44
420.726	418.44
420.948	413.44
421.171	411.44
421.394	436.44
421.617	419.44
421.839	450.44
422.062	415.44
422.285	429.44
422.507	438.44
422.73	448.44
422.953	418.44
423.175	443.44
423.398	461.44
423.621	438.44
423.843	434.44
424.066	452.44
424.288	447.44
424.511	446.44
424.733	456.44
424.956	445.44
425.178	439.44
425.401	426.44
425.623	438.44
425.846	412.44
426.068	405.44
426.291	405.44
426.513	399.44
426.735	405.44
426.958	399.44
427.18	396.44
427.402	390.44
427.625	399.44
427.847	399.44
428.069	398.44
428.292	386.44
428.514	389.44
428.736	384.44
428.958	377.44
429.181	382.44
429.403	387.44
429.625	383.44
429.847	371.44
430.069	356.44
430.292	379.44
430.514	372.44
430.736	373.44
430.958	356.44
431.18	397.44
431.402	407.44
431.624	381.44
431.846	381.44
432.068	392.44
432.29	386.44
432.512	371.44
432.734	380.44
432.956	369.44
433.178	383.44
433.4	394.44
433.622	381.44
433.844	401.44
434.066	398.44
434.287	413.44
434.509	414.44
434.731	433.44
434.953	449.44
435.175	434.44
435.397	440.44
435.618	418.44
435.84	418.44
436.062	394.44
436.284	405.44
436.505	419.44
436.727	423.44
436.949	407.44
437.17	381.44
437.392	385.44
437.614	367.44
437.835	363.44
438.057	354.44
438.278	373.44
438.5	381.44
438.721	386.44
438.943	404.44
439.165	392.44
439.386	403.44
439.608	417.44
439.829	413.44
440.05	408.44
440.272	397.44
440.493	395.44
440.715	409.44
440.936	414.44
441.158	422.44
441.379	423.44
441.6	436.44
441.822	440.44
442.043	425.44
442.264	423.44
442.486	424.44
442.707	432.44
442.928	429.44
443.149	420.44
443.371	428.44
443.592	439.44
443.813	463.44
444.034	465.44
444.255	490.44
444.476	465.44
444.698	519.44
444.919	511.44
445.14	581.44
445.361	509.44
445.582	450.44
445.803	433.44
446.024	423.44
446.245	420.44
446.466	441.44
446.687	400.44
446.908	411.44
447.129	399.44
447.35	396.44
447.571	383.44
447.792	386.44
448.013	387.44
448.234	391.44
448.455	391.44
448.675	385.44
448.896	375.44
449.117	358.44
449.338	387.44
449.559	367.44
449.779	363.44
450	375.44
450.221	379.44
450.442	389.44
450.662	363.44
450.883	371.44
451.104	394.44
451.324	373.44
451.545	380.44
451.766	367.44
451.986	354.44
452.207	373.44
452.428	373.44
452.648	359.44
452.869	359.44
453.089	368.44
453.31	371.44
453.53	370.44
453.751	340.44
453.971	355.44
454.192	359.44
454.412	336.44
454.633	314.44
454.853	335.44
455.073	347.44
455.294	355.44
455.514	338.44
455.734	354.44
455.955	359.44
456.175	334.44
456.395	328.44
456.616	357.44
456.836	335.44
457.056	348.44
457.276	325.44
457.497	340.44
457.717	346.44
457.937	358.44
458.157	335.44
458.377	341.44
458.598	353.44
458.818	360.44
459.038	365.44
459.258	393.44
459.478	412.44
459.698	387.44
459.918	412.44
460.138	430.44
460.358	454.44
460.578	456.44
460.798	463.44
461.018	440.44
461.238	431.44
461.458	456.44
461.678	444.44
461.898	450.44
462.118	462.44
462.338	454.44
462.558	491.44
462.777	509.44
462.997	551.44
463.217	557.44
463.437	586.44
463.657	510.44
463.876	493.44
464.096	510.44
464.316	507.44
464.536	515.44
464.755	480.44
464.975	472.44
465.195	472.44
465.414	443.44
465.634	429.44
465.854	417.44
466.073	412.44
466.293	394.44
466.512	384.44
466.732	385.44
466.951	388.44
467.171	388.44
467.391	392.44
467.61	374.44
467.829	391.44
468.049	394.44
468.268	365.44
468.488	389.44
468.707	381.44
468.927	368.44
469.146	373.44
469.365	385.44
469.585	364.44
469.804	400.44
470.023	400.44
470.243	402.44
470.462	385.44
470.681	391.44
470.901	382.44
471.12	385.44
471.339	411.44
471.558	396.44
471.777	371.44
471.997	347.44
472.216	358.44
472.435	366.44
472.654	343.44
472.873	354.44
473.092	352.44
473.311	363.44
473.53	352.44
473.749	339.44
473.968	365.44
474.187	353.44
474.406	339.44
474.625	348.44
474.844	341.44
475.063	358.44
475.282	347.44
475.501	363.44
475.72	362.44
475.939	367.44
476.158	356.44
476.377	344.44
476.596	362.44
476.814	381.44
477.033	382.44
477.252	389.44
477.471	382.44
477.69	387.44
477.908	410.44
478.127	409.44
478.346	428.44
478.564	415.44
478.783	408.44
479.002	441.44
479.22	420.44
479.439	422.44
479.658	406.44
479.876	423.44
480.095	424.44
480.313	444.44
480.532	451.44
480.751	431.44
480.969	422.44
481.188	430.44
481.406	411.44
481.624	399.44
481.843	408.44
482.061	377.44
482.28	402.44
482.498	413.44
482.717	383.44
482.935	383.44
483.153	401.44
483.372	407.44
483.59	409.44
483.808	404.44
484.027	403.44
484.245	411.44
484.463	391.44
484.681	413.44
484.9	388.44
485.118	413.44
485.336	397.44
485.554	405.44
485.772	401.44
485.99	422.44
486.209	401.44
486.427	407.44
486.645	404.44
486.863	422.44
487.081	410.44
487.299	412.44
487.517	422.44
487.735	400.44
487.953	412.44
488.171	418.44
488.389	419.44
488.607	412.44
488.825	386.44
489.043	423.44
489.261	401.44
489.479	405.44
489.696	404.44
489.914	403.44
490.132	397.44
490.35	395.44
490.568	396.44
490.786	414.44
491.003	401.44
491.221	416.44
491.439	421.44
491.657	392.44
491.874	429.44
492.092	420.44
492.31	422.44
492.527	443.44
492.745	420.44
492.963	439.44
493.18	422.44
493.398	441.44
493.615	430.44
493.833	456.44
494.05	444.44
494.268	452.44
494.485	430.44
494.703	449.44
494.92	445.44
495.138	433.44
495.355	432.44
495.573	441.44
495.79	439.44
496.008	431.44
496.225	446.44
496.442	442.44
496.66	452.44
496.877	461.44
497.094	459.44
497.312	481.44
497.529	478.44
497.746	495.44
497.963	515.44
498.181	511.44
498.398	538.44
498.615	561.44
498.832	606.44
499.049	630.44
499.267	655.44
499.484	721.44
499.701	784.44
499.918	888.44
500.135	1001.44
500.352	1103.44
500.569	1134.44
500.786	1109.44
501.003	1009.44
501.22	908.44
501.437	852.44
501.654	755.44
501.871	707.44
502.088	644.44
