Data from Fe(NO3)3@0.1M.TitratingCurve.Agarose3%dH2O.NegLispCup.LampEnergy10.LIBS07252019_HRD10591_16-41-47-333.txt Node
Date: Thu Jul 25 16:41:47 EDT 2019
User: cochatt
Spectrometer: HR+D1059
Trigger mode: 1
Integration Time (sec): 1.000000E-1
Scans to average: 1
Electric dark correction enabled: true
Nonlinearity correction enabled: false
Boxcar width: 0
XAxis mode: Wavelengths
Number of Pixels in Spectrum: 2048
>>>>>Begin Spectral Data<<<<<
223.165	-7.75
223.4	-7.75
223.635	-7.75
223.869	-19.75
224.104	-18.75
224.338	-23.75
224.573	-17.75
224.808	-12.75
225.042	-5.75
225.277	-3.75
225.511	-2.75
225.746	9.25
225.98	-2.75
226.215	9.25
226.449	18.25
226.683	15.25
226.918	35.25
227.152	28.25
227.387	33.25
227.621	27.25
227.856	37.25
228.09	34.25
228.324	55.25
228.559	48.25
228.793	71.25
229.027	81.25
229.262	72.25
229.496	69.25
229.73	80.25
229.964	89.25
230.199	81.25
230.433	82.25
230.667	80.25
230.901	88.25
231.136	91.25
231.37	90.25
231.604	96.25
231.838	92.25
232.072	103.25
232.306	91.25
232.541	93.25
232.775	91.25
233.009	93.25
233.243	96.25
233.477	88.25
233.711	65.25
233.945	99.25
234.179	80.25
234.413	95.25
234.647	95.25
234.881	85.25
235.115	84.25
235.349	99.25
235.583	80.25
235.817	88.25
236.051	92.25
236.285	88.25
236.519	95.25
236.753	84.25
236.987	90.25
237.221	93.25
237.455	82.25
237.689	88.25
237.922	82.25
238.156	75.25
238.39	81.25
238.624	93.25
238.858	80.25
239.091	70.25
239.325	76.25
239.559	97.25
239.793	88.25
240.027	87.25
240.26	94.25
240.494	90.25
240.728	83.25
240.961	85.25
241.195	98.25
241.429	88.25
241.662	84.25
241.896	101.25
242.13	84.25
242.363	83.25
242.597	92.25
242.83	95.25
243.064	87.25
243.298	87.25
243.531	91.25
243.765	83.25
243.998	92.25
244.232	111.25
244.465	98.25
244.699	82.25
244.932	94.25
245.166	102.25
245.399	92.25
245.633	86.25
245.866	98.25
246.099	85.25
246.333	90.25
246.566	105.25
246.8	101.25
247.033	95.25
247.266	95.25
247.5	109.25
247.733	111.25
247.966	83.25
248.2	92.25
248.433	95.25
248.666	91.25
248.899	111.25
249.133	115.25
249.366	99.25
249.599	105.25
249.832	99.25
250.066	101.25
250.299	92.25
250.532	102.25
250.765	83.25
250.998	99.25
251.231	97.25
251.465	109.25
251.698	79.25
251.931	99.25
252.164	77.25
252.397	86.25
252.63	91.25
252.863	117.25
253.096	97.25
253.329	107.25
253.562	120.25
253.795	108.25
254.028	112.25
254.261	117.25
254.494	103.25
254.727	103.25
254.96	107.25
255.193	87.25
255.426	113.25
255.659	115.25
255.892	120.25
256.124	117.25
256.357	105.25
256.59	118.25
256.823	106.25
257.056	120.25
257.289	118.25
257.521	109.25
257.754	111.25
257.987	97.25
258.22	127.25
258.452	102.25
258.685	119.25
258.918	108.25
259.151	115.25
259.383	101.25
259.616	106.25
259.849	105.25
260.081	120.25
260.314	115.25
260.547	110.25
260.779	104.25
261.012	109.25
261.244	119.25
261.477	117.25
261.71	112.25
261.942	106.25
262.175	105.25
262.407	113.25
262.64	109.25
262.872	115.25
263.105	120.25
263.337	105.25
263.57	111.25
263.802	131.25
264.035	112.25
264.267	129.25
264.499	113.25
264.732	117.25
264.964	114.25
265.197	131.25
265.429	139.25
265.661	111.25
265.894	115.25
266.126	112.25
266.358	107.25
266.591	111.25
266.823	119.25
267.055	120.25
267.287	120.25
267.52	119.25
267.752	116.25
267.984	107.25
268.216	125.25
268.448	120.25
268.681	109.25
268.913	133.25
269.145	106.25
269.377	133.25
269.609	141.25
269.841	122.25
270.073	129.25
270.306	133.25
270.538	122.25
270.77	129.25
271.002	135.25
271.234	125.25
271.466	134.25
271.698	123.25
271.93	126.25
272.162	129.25
272.394	127.25
272.626	125.25
272.858	123.25
273.09	127.25
273.322	115.25
273.553	124.25
273.785	121.25
274.017	125.25
274.249	135.25
274.481	144.25
274.713	127.25
274.945	140.25
275.176	134.25
275.408	124.25
275.64	121.25
275.872	129.25
276.104	133.25
276.335	129.25
276.567	126.25
276.799	128.25
277.031	136.25
277.262	141.25
277.494	130.25
277.726	124.25
277.957	122.25
278.189	139.25
278.421	132.25
278.652	136.25
278.884	127.25
279.115	134.25
279.347	127.25
279.579	140.25
279.81	143.25
280.042	146.25
280.273	137.25
280.505	133.25
280.736	125.25
280.968	140.25
281.199	154.25
281.431	156.25
281.662	147.25
281.894	135.25
282.125	138.25
282.356	146.25
282.588	159.25
282.819	136.25
283.051	124.25
283.282	138.25
283.513	147.25
283.745	116.25
283.976	134.25
284.207	127.25
284.439	134.25
284.67	130.25
284.901	151.25
285.132	127.25
285.364	141.25
285.595	150.25
285.826	146.25
286.057	140.25
286.288	133.25
286.52	144.25
286.751	154.25
286.982	146.25
287.213	140.25
287.444	148.25
287.675	157.25
287.906	150.25
288.138	137.25
288.369	129.25
288.6	151.25
288.831	148.25
289.062	146.25
289.293	162.25
289.524	141.25
289.755	139.25
289.986	144.25
290.217	151.25
290.448	155.25
290.679	144.25
290.91	158.25
291.141	136.25
291.371	145.25
291.602	135.25
291.833	131.25
292.064	166.25
292.295	153.25
292.526	151.25
292.757	141.25
292.987	126.25
293.218	155.25
293.449	150.25
293.68	155.25
293.91	162.25
294.141	149.25
294.372	150.25
294.603	146.25
294.833	165.25
295.064	154.25
295.295	142.25
295.525	137.25
295.756	150.25
295.987	153.25
296.217	164.25
296.448	155.25
296.679	147.25
296.909	149.25
297.14	154.25
297.37	147.25
297.601	150.25
297.831	161.25
298.062	161.25
298.292	162.25
298.523	147.25
298.753	160.25
298.984	145.25
299.214	155.25
299.445	167.25
299.675	165.25
299.905	157.25
300.136	140.25
300.366	163.25
300.597	168.25
300.827	183.25
301.057	155.25
301.288	148.25
301.518	154.25
301.748	159.25
301.979	173.25
302.209	168.25
302.439	175.25
302.669	162.25
302.9	155.25
303.13	153.25
303.36	153.25
303.59	163.25
303.82	159.25
304.051	158.25
304.281	175.25
304.511	157.25
304.741	163.25
304.971	158.25
305.201	172.25
305.431	158.25
305.661	165.25
305.891	179.25
306.121	160.25
306.352	164.25
306.582	157.25
306.812	173.25
307.042	167.25
307.272	162.25
307.502	156.25
307.731	157.25
307.961	160.25
308.191	159.25
308.421	171.25
308.651	161.25
308.881	149.25
309.111	147.25
309.341	167.25
309.571	158.25
309.8	163.25
310.03	149.25
310.26	170.25
310.49	185.25
310.72	179.25
310.949	160.25
311.179	170.25
311.409	175.25
311.639	162.25
311.868	183.25
312.098	167.25
312.328	165.25
312.557	160.25
312.787	175.25
313.017	194.25
313.246	173.25
313.476	179.25
313.706	170.25
313.935	184.25
314.165	154.25
314.394	167.25
314.624	182.25
314.853	156.25
315.083	149.25
315.312	173.25
315.542	179.25
315.771	178.25
316.001	172.25
316.23	180.25
316.46	169.25
316.689	175.25
316.919	152.25
317.148	170.25
317.377	168.25
317.607	175.25
317.836	172.25
318.065	167.25
318.295	170.25
318.524	152.25
318.753	173.25
318.983	183.25
319.212	173.25
319.441	170.25
319.67	181.25
319.9	171.25
320.129	172.25
320.358	169.25
320.587	163.25
320.816	163.25
321.046	192.25
321.275	179.25
321.504	181.25
321.733	176.25
321.962	156.25
322.191	179.25
322.42	179.25
322.649	167.25
322.878	167.25
323.108	176.25
323.337	179.25
323.566	172.25
323.795	169.25
324.024	196.25
324.253	170.25
324.482	165.25
324.71	160.25
324.939	169.25
325.168	165.25
325.397	180.25
325.626	189.25
325.855	181.25
326.084	186.25
326.313	186.25
326.542	179.25
326.77	168.25
326.999	189.25
327.228	166.25
327.457	187.25
327.686	188.25
327.914	192.25
328.143	177.25
328.372	183.25
328.6	183.25
328.829	185.25
329.058	188.25
329.287	176.25
329.515	194.25
329.744	183.25
329.972	187.25
330.201	183.25
330.43	193.25
330.658	196.25
330.887	183.25
331.115	175.25
331.344	176.25
331.572	207.25
331.801	192.25
332.03	192.25
332.258	195.25
332.486	215.25
332.715	216.25
332.943	193.25
333.172	217.25
333.4	214.25
333.629	221.25
333.857	202.25
334.085	218.25
334.314	221.25
334.542	225.25
334.771	226.25
334.999	214.25
335.227	210.25
335.455	225.25
335.684	213.25
335.912	212.25
336.14	216.25
336.369	233.25
336.597	219.25
336.825	203.25
337.053	208.25
337.281	201.25
337.51	217.25
337.738	224.25
337.966	192.25
338.194	210.25
338.422	185.25
338.65	202.25
338.878	211.25
339.106	210.25
339.334	185.25
339.562	205.25
339.79	195.25
340.018	193.25
340.246	210.25
340.474	200.25
340.702	207.25
340.93	204.25
341.158	190.25
341.386	211.25
341.614	200.25
341.842	207.25
342.07	204.25
342.298	180.25
342.526	192.25
342.754	183.25
342.981	199.25
343.209	208.25
343.437	205.25
343.665	204.25
343.893	226.25
344.12	229.25
344.348	222.25
344.576	202.25
344.804	189.25
345.031	206.25
345.259	186.25
345.487	184.25
345.714	202.25
345.942	195.25
346.17	194.25
346.397	194.25
346.625	204.25
346.853	191.25
347.08	201.25
347.308	209.25
347.535	191.25
347.763	200.25
347.99	189.25
348.218	188.25
348.445	200.25
348.673	184.25
348.9	213.25
349.128	197.25
349.355	182.25
349.583	196.25
349.81	198.25
350.037	181.25
350.265	172.25
350.492	193.25
350.72	188.25
350.947	189.25
351.174	213.25
351.402	197.25
351.629	193.25
351.856	193.25
352.083	188.25
352.311	186.25
352.538	202.25
352.765	202.25
352.992	198.25
353.22	188.25
353.447	187.25
353.674	182.25
353.901	193.25
354.128	179.25
354.355	182.25
354.583	193.25
354.81	197.25
355.037	203.25
355.264	178.25
355.491	178.25
355.718	182.25
355.945	195.25
356.172	193.25
356.399	187.25
356.626	197.25
356.853	197.25
357.08	202.25
357.307	189.25
357.534	181.25
357.761	191.25
357.988	193.25
358.215	198.25
358.441	187.25
358.668	185.25
358.895	194.25
359.122	178.25
359.349	183.25
359.576	211.25
359.802	190.25
360.029	193.25
360.256	199.25
360.483	202.25
360.709	185.25
360.936	186.25
361.163	188.25
361.39	194.25
361.616	197.25
361.843	200.25
362.07	193.25
362.296	200.25
362.523	193.25
362.749	199.25
362.976	198.25
363.203	203.25
363.429	201.25
363.656	195.25
363.882	189.25
364.109	189.25
364.335	185.25
364.562	200.25
364.788	188.25
365.015	178.25
365.241	187.25
365.468	198.25
365.694	197.25
365.92	189.25
366.147	198.25
366.373	209.25
366.599	200.25
366.826	184.25
367.052	189.25
367.278	202.25
367.505	187.25
367.731	194.25
367.957	195.25
368.184	193.25
368.41	214.25
368.636	185.25
368.862	178.25
369.089	199.25
369.315	210.25
369.541	197.25
369.767	186.25
369.993	193.25
370.219	202.25
370.445	222.25
370.672	212.25
370.898	202.25
371.124	209.25
371.35	211.25
371.576	212.25
371.802	220.25
372.028	200.25
372.254	199.25
372.48	209.25
372.706	215.25
372.932	189.25
373.158	197.25
373.384	208.25
373.61	208.25
373.835	221.25
374.061	200.25
374.287	215.25
374.513	203.25
374.739	212.25
374.965	211.25
375.191	213.25
375.416	208.25
375.642	204.25
375.868	214.25
376.094	204.25
376.319	207.25
376.545	215.25
376.771	218.25
376.997	210.25
377.222	203.25
377.448	206.25
377.674	200.25
377.899	204.25
378.125	200.25
378.35	204.25
378.576	195.25
378.802	211.25
379.027	181.25
379.253	211.25
379.478	213.25
379.704	227.25
379.929	214.25
380.155	212.25
380.38	196.25
380.606	227.25
380.831	210.25
381.057	225.25
381.282	213.25
381.507	207.25
381.733	211.25
381.958	199.25
382.184	200.25
382.409	226.25
382.634	222.25
382.86	233.25
383.085	219.25
383.31	203.25
383.535	219.25
383.761	238.25
383.986	227.25
384.211	221.25
384.436	223.25
384.662	233.25
384.887	230.25
385.112	233.25
385.337	232.25
385.562	241.25
385.787	255.25
386.013	260.25
386.238	247.25
386.463	245.25
386.688	245.25
386.913	239.25
387.138	243.25
387.363	229.25
387.588	240.25
387.813	247.25
388.038	228.25
388.263	243.25
388.488	242.25
388.713	247.25
388.938	239.25
389.163	241.25
389.387	242.25
389.612	244.25
389.837	230.25
390.062	232.25
390.287	236.25
390.512	263.25
390.736	232.25
390.961	241.25
391.186	266.25
391.411	239.25
391.636	230.25
391.86	258.25
392.085	261.25
392.31	254.25
392.534	250.25
392.759	256.25
392.984	245.25
393.208	231.25
393.433	273.25
393.658	243.25
393.882	243.25
394.107	240.25
394.331	243.25
394.556	235.25
394.78	253.25
395.005	263.25
395.229	256.25
395.454	261.25
395.678	280.25
395.903	261.25
396.127	254.25
396.352	243.25
396.576	262.25
396.801	245.25
397.025	250.25
397.249	263.25
397.474	260.25
397.698	281.25
397.922	274.25
398.147	274.25
398.371	267.25
398.595	275.25
398.82	297.25
399.044	289.25
399.268	323.25
399.492	375.25
399.717	373.25
399.941	353.25
400.165	346.25
400.389	313.25
400.613	322.25
400.837	279.25
401.062	290.25
401.286	288.25
401.51	295.25
401.734	275.25
401.958	273.25
402.182	287.25
402.406	267.25
402.63	280.25
402.854	289.25
403.078	311.25
403.302	307.25
403.526	305.25
403.75	314.25
403.974	300.25
404.198	297.25
404.422	310.25
404.645	310.25
404.869	313.25
405.093	308.25
405.317	314.25
405.541	328.25
405.765	309.25
405.988	295.25
406.212	301.25
406.436	310.25
406.66	325.25
406.883	324.25
407.107	329.25
407.331	340.25
407.555	353.25
407.778	331.25
408.002	350.25
408.226	334.25
408.449	344.25
408.673	332.25
408.896	319.25
409.12	313.25
409.344	295.25
409.567	317.25
409.791	327.25
410.014	318.25
410.238	312.25
410.461	309.25
410.685	294.25
410.908	308.25
411.132	305.25
411.355	287.25
411.578	303.25
411.802	316.25
412.025	314.25
412.249	301.25
412.472	305.25
412.695	297.25
412.919	266.25
413.142	303.25
413.365	282.25
413.589	288.25
413.812	288.25
414.035	310.25
414.258	284.25
414.482	308.25
414.705	297.25
414.928	298.25
415.151	303.25
415.374	283.25
415.597	300.25
415.821	293.25
416.044	325.25
416.267	309.25
416.49	298.25
416.713	275.25
416.936	300.25
417.159	293.25
417.382	289.25
417.605	296.25
417.828	291.25
418.051	296.25
418.274	297.25
418.497	291.25
418.72	303.25
418.943	304.25
419.166	299.25
419.389	322.25
419.611	304.25
419.834	303.25
420.057	296.25
420.28	287.25
420.503	287.25
420.726	297.25
420.948	301.25
421.171	319.25
421.394	315.25
421.617	284.25
421.839	296.25
422.062	293.25
422.285	304.25
422.507	292.25
422.73	303.25
422.953	309.25
423.175	295.25
423.398	297.25
423.621	296.25
423.843	300.25
424.066	294.25
424.288	299.25
424.511	289.25
424.733	312.25
424.956	305.25
425.178	298.25
425.401	309.25
425.623	292.25
425.846	276.25
426.068	301.25
426.291	287.25
426.513	290.25
426.735	293.25
426.958	288.25
427.18	265.25
427.402	279.25
427.625	290.25
427.847	273.25
428.069	268.25
428.292	281.25
428.514	273.25
428.736	289.25
428.958	274.25
429.181	255.25
429.403	262.25
429.625	267.25
429.847	261.25
430.069	272.25
430.292	282.25
430.514	263.25
430.736	278.25
430.958	276.25
431.18	279.25
431.402	292.25
431.624	269.25
431.846	283.25
432.068	268.25
432.29	263.25
432.512	286.25
432.734	267.25
432.956	271.25
433.178	277.25
433.4	283.25
433.622	291.25
433.844	276.25
434.066	274.25
434.287	287.25
434.509	295.25
434.731	297.25
434.953	303.25
435.175	307.25
435.397	310.25
435.618	289.25
435.84	290.25
436.062	268.25
436.284	282.25
436.505	283.25
436.727	284.25
436.949	275.25
437.17	272.25
437.392	274.25
437.614	266.25
437.835	288.25
438.057	263.25
438.278	266.25
438.5	280.25
438.721	281.25
438.943	283.25
439.165	279.25
439.386	280.25
439.608	267.25
439.829	280.25
440.05	293.25
440.272	303.25
440.493	300.25
440.715	277.25
440.936	307.25
441.158	291.25
441.379	291.25
441.6	312.25
441.822	301.25
442.043	298.25
442.264	311.25
442.486	307.25
442.707	316.25
442.928	308.25
443.149	305.25
443.371	318.25
443.592	325.25
443.813	312.25
444.034	316.25
444.255	328.25
444.476	306.25
444.698	339.25
444.919	352.25
445.14	453.25
445.361	361.25
445.582	322.25
445.803	313.25
446.024	303.25
446.245	305.25
446.466	321.25
446.687	295.25
446.908	291.25
447.129	284.25
447.35	283.25
447.571	284.25
447.792	282.25
448.013	289.25
448.234	284.25
448.455	293.25
448.675	287.25
448.896	289.25
449.117	275.25
449.338	273.25
449.559	283.25
449.779	275.25
450	259.25
450.221	278.25
450.442	266.25
450.662	276.25
450.883	279.25
451.104	276.25
451.324	271.25
451.545	281.25
451.766	267.25
451.986	262.25
452.207	249.25
452.428	249.25
452.648	273.25
452.869	270.25
453.089	244.25
453.31	256.25
453.53	251.25
453.751	231.25
453.971	234.25
454.192	256.25
454.412	263.25
454.633	260.25
454.853	235.25
455.073	239.25
455.294	252.25
455.514	260.25
455.734	258.25
455.955	264.25
456.175	255.25
456.395	254.25
456.616	248.25
456.836	257.25
457.056	226.25
457.276	257.25
457.497	259.25
457.717	252.25
457.937	251.25
458.157	261.25
458.377	259.25
458.598	274.25
458.818	261.25
459.038	260.25
459.258	274.25
459.478	270.25
459.698	292.25
459.918	277.25
460.138	308.25
460.358	294.25
460.578	297.25
460.798	301.25
461.018	320.25
461.238	324.25
461.458	299.25
461.678	311.25
461.898	311.25
462.118	319.25
462.338	322.25
462.558	336.25
462.777	341.25
462.997	365.25
463.217	371.25
463.437	360.25
463.657	356.25
463.876	358.25
464.096	345.25
464.316	345.25
464.536	361.25
464.755	332.25
464.975	325.25
465.195	317.25
465.414	304.25
465.634	301.25
465.854	286.25
466.073	294.25
466.293	285.25
466.512	285.25
466.732	274.25
466.951	282.25
467.171	291.25
467.391	287.25
467.61	273.25
467.829	270.25
468.049	270.25
468.268	276.25
468.488	276.25
468.707	261.25
468.927	267.25
469.146	281.25
469.365	271.25
469.585	281.25
469.804	281.25
470.023	280.25
470.243	294.25
470.462	293.25
470.681	280.25
470.901	280.25
471.12	288.25
471.339	294.25
471.558	284.25
471.777	280.25
471.997	269.25
472.216	270.25
472.435	259.25
472.654	265.25
472.873	259.25
473.092	285.25
473.311	275.25
473.53	259.25
473.749	254.25
473.968	265.25
474.187	264.25
474.406	257.25
474.625	259.25
474.844	245.25
475.063	253.25
475.282	260.25
475.501	263.25
475.72	263.25
475.939	273.25
476.158	269.25
476.377	275.25
476.596	269.25
476.814	256.25
477.033	261.25
477.252	264.25
477.471	269.25
477.69	286.25
477.908	283.25
478.127	288.25
478.346	316.25
478.564	297.25
478.783	298.25
479.002	305.25
479.22	303.25
479.439	311.25
479.658	318.25
479.876	284.25
480.095	307.25
480.313	312.25
480.532	319.25
480.751	311.25
480.969	298.25
481.188	289.25
481.406	277.25
481.624	292.25
481.843	287.25
482.061	304.25
482.28	290.25
482.498	277.25
482.717	307.25
482.935	287.25
483.153	297.25
483.372	297.25
483.59	308.25
483.808	296.25
484.027	287.25
484.245	299.25
484.463	294.25
484.681	310.25
484.9	289.25
485.118	289.25
485.336	286.25
485.554	293.25
485.772	306.25
485.99	307.25
486.209	289.25
486.427	303.25
486.645	299.25
486.863	307.25
487.081	296.25
487.299	297.25
487.517	282.25
487.735	309.25
487.953	315.25
488.171	319.25
488.389	304.25
488.607	296.25
488.825	300.25
489.043	308.25
489.261	303.25
489.479	288.25
489.696	299.25
489.914	315.25
490.132	290.25
490.35	319.25
490.568	307.25
490.786	311.25
491.003	325.25
491.221	295.25
491.439	319.25
491.657	303.25
491.874	308.25
492.092	314.25
492.31	325.25
492.527	320.25
492.745	324.25
492.963	307.25
493.18	297.25
493.398	291.25
493.615	311.25
493.833	320.25
494.05	310.25
494.268	313.25
494.485	327.25
494.703	306.25
494.92	313.25
495.138	311.25
495.355	308.25
495.573	336.25
495.79	313.25
496.008	330.25
496.225	323.25
496.442	329.25
496.66	332.25
496.877	332.25
497.094	327.25
497.312	319.25
497.529	331.25
497.746	346.25
497.963	337.25
498.181	356.25
498.398	379.25
498.615	379.25
498.832	400.25
499.049	443.25
499.267	443.25
499.484	466.25
499.701	516.25
499.918	556.25
500.135	587.25
500.352	643.25
500.569	684.25
500.786	659.25
501.003	612.25
501.22	569.25
501.437	539.25
501.654	485.25
501.871	456.25
502.088	416.25
502.305	416.25
502.522	388.25
502.739	389.25
502.956	375.25
