Data from Fe(NO3)3@0.0125M.TitratingCurve.Agarose3%dH2O.NegLispCup.LampEnergy10.LIBS07252019_HRD10591_17-00-01-337.txt Node
Date: Thu Jul 25 17:00:01 EDT 2019
User: cochatt
Spectrometer: HR+D1059
Trigger mode: 1
Integration Time (sec): 1.000000E-1
Scans to average: 1
Electric dark correction enabled: true
Nonlinearity correction enabled: false
Boxcar width: 0
XAxis mode: Wavelengths
Number of Pixels in Spectrum: 2048
>>>>>Begin Spectral Data<<<<<
223.165	-15.94
223.4	-15.94
223.635	-15.94
223.869	-15.94
224.104	-15.94
224.338	-24.94
224.573	-12.94
224.808	-12.94
225.042	-9.94
225.277	-13.94
225.511	-2.94
225.746	6.06
225.98	13.06
226.215	19.06
226.449	9.06
226.683	13.06
226.918	27.06
227.152	38.06
227.387	30.06
227.621	32.06
227.856	41.06
228.09	40.06
228.324	49.06
228.559	44.06
228.793	76.06
229.027	87.06
229.262	99.06
229.496	95.06
229.73	92.06
229.964	95.06
230.199	91.06
230.433	89.06
230.667	102.06
230.901	107.06
231.136	97.06
231.37	106.06
231.604	79.06
231.838	94.06
232.072	105.06
232.306	100.06
232.541	107.06
232.775	95.06
233.009	113.06
233.243	106.06
233.477	112.06
233.711	119.06
233.945	99.06
234.179	114.06
234.413	122.06
234.647	107.06
234.881	113.06
235.115	134.06
235.349	110.06
235.583	105.06
235.817	107.06
236.051	119.06
236.285	100.06
236.519	107.06
236.753	119.06
236.987	92.06
237.221	107.06
237.455	100.06
237.689	110.06
237.922	115.06
238.156	114.06
238.39	123.06
238.624	143.06
238.858	126.06
239.091	116.06
239.325	120.06
239.559	114.06
239.793	126.06
240.027	129.06
240.26	111.06
240.494	105.06
240.728	128.06
240.961	120.06
241.195	134.06
241.429	136.06
241.662	122.06
241.896	128.06
242.13	120.06
242.363	112.06
242.597	123.06
242.83	158.06
243.064	122.06
243.298	124.06
243.531	135.06
243.765	137.06
243.998	123.06
244.232	128.06
244.465	129.06
244.699	132.06
244.932	140.06
245.166	137.06
245.399	138.06
245.633	136.06
245.866	131.06
246.099	128.06
246.333	139.06
246.566	133.06
246.8	143.06
247.033	154.06
247.266	149.06
247.5	140.06
247.733	138.06
247.966	139.06
248.2	149.06
248.433	145.06
248.666	146.06
248.899	152.06
249.133	140.06
249.366	135.06
249.599	158.06
249.832	153.06
250.066	165.06
250.299	155.06
250.532	155.06
250.765	176.06
250.998	160.06
251.231	150.06
251.465	178.06
251.698	162.06
251.931	152.06
252.164	152.06
252.397	158.06
252.63	168.06
252.863	166.06
253.096	158.06
253.329	153.06
253.562	163.06
253.795	165.06
254.028	168.06
254.261	163.06
254.494	168.06
254.727	177.06
254.96	163.06
255.193	156.06
255.426	178.06
255.659	159.06
255.892	179.06
256.124	172.06
256.357	169.06
256.59	186.06
256.823	169.06
257.056	176.06
257.289	178.06
257.521	160.06
257.754	164.06
257.987	185.06
258.22	155.06
258.452	182.06
258.685	184.06
258.918	187.06
259.151	197.06
259.383	194.06
259.616	183.06
259.849	188.06
260.081	195.06
260.314	188.06
260.547	184.06
260.779	177.06
261.012	194.06
261.244	182.06
261.477	184.06
261.71	186.06
261.942	175.06
262.175	195.06
262.407	192.06
262.64	194.06
262.872	208.06
263.105	209.06
263.337	217.06
263.57	188.06
263.802	191.06
264.035	200.06
264.267	205.06
264.499	204.06
264.732	225.06
264.964	192.06
265.197	209.06
265.429	199.06
265.661	185.06
265.894	196.06
266.126	196.06
266.358	185.06
266.591	198.06
266.823	199.06
267.055	214.06
267.287	209.06
267.52	205.06
267.752	211.06
267.984	220.06
268.216	211.06
268.448	203.06
268.681	227.06
268.913	219.06
269.145	205.06
269.377	210.06
269.609	213.06
269.841	207.06
270.073	208.06
270.306	210.06
270.538	216.06
270.77	219.06
271.002	222.06
271.234	230.06
271.466	227.06
271.698	209.06
271.93	211.06
272.162	201.06
272.394	222.06
272.626	216.06
272.858	224.06
273.09	230.06
273.322	226.06
273.553	222.06
273.785	233.06
274.017	227.06
274.249	246.06
274.481	241.06
274.713	254.06
274.945	255.06
275.176	246.06
275.408	257.06
275.64	240.06
275.872	258.06
276.104	247.06
276.335	242.06
276.567	247.06
276.799	238.06
277.031	242.06
277.262	243.06
277.494	252.06
277.726	233.06
277.957	234.06
278.189	251.06
278.421	255.06
278.652	248.06
278.884	278.06
279.115	241.06
279.347	255.06
279.579	249.06
279.81	257.06
280.042	268.06
280.273	271.06
280.505	256.06
280.736	262.06
280.968	271.06
281.199	235.06
281.431	272.06
281.662	270.06
281.894	248.06
282.125	267.06
282.356	267.06
282.588	260.06
282.819	276.06
283.051	269.06
283.282	265.06
283.513	298.06
283.745	283.06
283.976	278.06
284.207	272.06
284.439	282.06
284.67	269.06
284.901	293.06
285.132	278.06
285.364	279.06
285.595	285.06
285.826	286.06
286.057	286.06
286.288	268.06
286.52	301.06
286.751	288.06
286.982	278.06
287.213	271.06
287.444	295.06
287.675	275.06
287.906	287.06
288.138	288.06
288.369	284.06
288.6	310.06
288.831	282.06
289.062	297.06
289.293	293.06
289.524	275.06
289.755	289.06
289.986	279.06
290.217	291.06
290.448	294.06
290.679	290.06
290.91	289.06
291.141	304.06
291.371	293.06
291.602	296.06
291.833	286.06
292.064	298.06
292.295	299.06
292.526	294.06
292.757	297.06
292.987	295.06
293.218	274.06
293.449	289.06
293.68	293.06
293.91	293.06
294.141	320.06
294.372	298.06
294.603	302.06
294.833	289.06
295.064	293.06
295.295	291.06
295.525	284.06
295.756	278.06
295.987	305.06
296.217	325.06
296.448	302.06
296.679	302.06
296.909	295.06
297.14	312.06
297.37	299.06
297.601	320.06
297.831	310.06
298.062	331.06
298.292	318.06
298.523	314.06
298.753	319.06
298.984	329.06
299.214	318.06
299.445	315.06
299.675	312.06
299.905	326.06
300.136	330.06
300.366	322.06
300.597	302.06
300.827	320.06
301.057	325.06
301.288	322.06
301.518	352.06
301.748	334.06
301.979	330.06
302.209	333.06
302.439	353.06
302.669	314.06
302.9	344.06
303.13	321.06
303.36	352.06
303.59	329.06
303.82	344.06
304.051	336.06
304.281	372.06
304.511	318.06
304.741	360.06
304.971	318.06
305.201	327.06
305.431	346.06
305.661	337.06
305.891	336.06
306.121	344.06
306.352	350.06
306.582	339.06
306.812	347.06
307.042	339.06
307.272	330.06
307.502	339.06
307.731	354.06
307.961	335.06
308.191	337.06
308.421	343.06
308.651	339.06
308.881	337.06
309.111	351.06
309.341	337.06
309.571	353.06
309.8	364.06
310.03	354.06
310.26	351.06
310.49	369.06
310.72	363.06
310.949	350.06
311.179	350.06
311.409	337.06
311.639	346.06
311.868	358.06
312.098	357.06
312.328	328.06
312.557	355.06
312.787	344.06
313.017	361.06
313.246	361.06
313.476	346.06
313.706	342.06
313.935	363.06
314.165	366.06
314.394	376.06
314.624	380.06
314.853	371.06
315.083	388.06
315.312	364.06
315.542	362.06
315.771	375.06
316.001	386.06
316.23	378.06
316.46	371.06
316.689	382.06
316.919	373.06
317.148	392.06
317.377	396.06
317.607	372.06
317.836	368.06
318.065	377.06
318.295	363.06
318.524	382.06
318.753	386.06
318.983	372.06
319.212	350.06
319.441	380.06
319.67	373.06
319.9	384.06
320.129	378.06
320.358	370.06
320.587	371.06
320.816	403.06
321.046	379.06
321.275	367.06
321.504	392.06
321.733	380.06
321.962	376.06
322.191	383.06
322.42	393.06
322.649	398.06
322.878	393.06
323.108	378.06
323.337	401.06
323.566	390.06
323.795	392.06
324.024	390.06
324.253	385.06
324.482	404.06
324.71	408.06
324.939	415.06
325.168	392.06
325.397	405.06
325.626	404.06
325.855	400.06
326.084	388.06
326.313	422.06
326.542	417.06
326.77	433.06
326.999	417.06
327.228	418.06
327.457	399.06
327.686	415.06
327.914	417.06
328.143	408.06
328.372	406.06
328.6	432.06
328.829	423.06
329.058	427.06
329.287	392.06
329.515	420.06
329.744	403.06
329.972	429.06
330.201	422.06
330.43	404.06
330.658	414.06
330.887	439.06
331.115	426.06
331.344	438.06
331.572	440.06
331.801	447.06
332.03	443.06
332.258	433.06
332.486	443.06
332.715	452.06
332.943	466.06
333.172	480.06
333.4	465.06
333.629	474.06
333.857	450.06
334.085	480.06
334.314	472.06
334.542	489.06
334.771	475.06
334.999	486.06
335.227	483.06
335.455	484.06
335.684	494.06
335.912	480.06
336.14	474.06
336.369	470.06
336.597	490.06
336.825	473.06
337.053	470.06
337.281	456.06
337.51	464.06
337.738	463.06
337.966	468.06
338.194	470.06
338.422	490.06
338.65	451.06
338.878	442.06
339.106	452.06
339.334	453.06
339.562	459.06
339.79	456.06
340.018	435.06
340.246	452.06
340.474	446.06
340.702	436.06
340.93	445.06
341.158	468.06
341.386	454.06
341.614	436.06
341.842	429.06
342.07	451.06
342.298	443.06
342.526	437.06
342.754	450.06
342.981	455.06
343.209	457.06
343.437	475.06
343.665	466.06
343.893	495.06
344.12	483.06
344.348	491.06
344.576	459.06
344.804	467.06
345.031	459.06
345.259	448.06
345.487	463.06
345.714	465.06
345.942	436.06
346.17	437.06
346.397	429.06
346.625	469.06
346.853	442.06
347.08	442.06
347.308	440.06
347.535	446.06
347.763	433.06
347.99	432.06
348.218	442.06
348.445	430.06
348.673	426.06
348.9	431.06
349.128	438.06
349.355	431.06
349.583	435.06
349.81	430.06
350.037	439.06
350.265	435.06
350.492	430.06
350.72	441.06
350.947	416.06
351.174	428.06
351.402	444.06
351.629	425.06
351.856	434.06
352.083	438.06
352.311	435.06
352.538	412.06
352.765	429.06
352.992	425.06
353.22	421.06
353.447	429.06
353.674	415.06
353.901	418.06
354.128	423.06
354.355	426.06
354.583	450.06
354.81	436.06
355.037	428.06
355.264	426.06
355.491	432.06
355.718	409.06
355.945	425.06
356.172	439.06
356.399	429.06
356.626	433.06
356.853	440.06
357.08	433.06
357.307	451.06
357.534	420.06
357.761	433.06
357.988	427.06
358.215	448.06
358.441	455.06
358.668	426.06
358.895	446.06
359.122	434.06
359.349	433.06
359.576	436.06
359.802	414.06
360.029	434.06
360.256	435.06
360.483	452.06
360.709	437.06
360.936	448.06
361.163	424.06
361.39	440.06
361.616	450.06
361.843	454.06
362.07	448.06
362.296	459.06
362.523	443.06
362.749	446.06
362.976	452.06
363.203	459.06
363.429	446.06
363.656	432.06
363.882	439.06
364.109	439.06
364.335	440.06
364.562	445.06
364.788	444.06
365.015	444.06
365.241	415.06
365.468	456.06
365.694	446.06
365.92	443.06
366.147	430.06
366.373	441.06
366.599	445.06
366.826	436.06
367.052	459.06
367.278	445.06
367.505	454.06
367.731	476.06
367.957	451.06
368.184	460.06
368.41	455.06
368.636	463.06
368.862	462.06
369.089	459.06
369.315	436.06
369.541	473.06
369.767	455.06
369.993	451.06
370.219	458.06
370.445	455.06
370.672	470.06
370.898	485.06
371.124	467.06
371.35	479.06
371.576	453.06
371.802	472.06
372.028	484.06
372.254	483.06
372.48	471.06
372.706	490.06
372.932	487.06
373.158	505.06
373.384	500.06
373.61	494.06
373.835	502.06
374.061	491.06
374.287	508.06
374.513	481.06
374.739	510.06
374.965	504.06
375.191	513.06
375.416	524.06
375.642	498.06
375.868	507.06
376.094	499.06
376.319	490.06
376.545	492.06
376.771	490.06
376.997	476.06
377.222	470.06
377.448	468.06
377.674	452.06
377.899	490.06
378.125	507.06
378.35	485.06
378.576	505.06
378.802	468.06
379.027	489.06
379.253	479.06
379.478	476.06
379.704	474.06
379.929	495.06
380.155	484.06
380.38	459.06
380.606	472.06
380.831	480.06
381.057	483.06
381.282	499.06
381.507	480.06
381.733	486.06
381.958	474.06
382.184	506.06
382.409	528.06
382.634	506.06
382.86	508.06
383.085	503.06
383.31	510.06
383.535	484.06
383.761	506.06
383.986	520.06
384.211	528.06
384.436	524.06
384.662	529.06
384.887	533.06
385.112	522.06
385.337	523.06
385.562	552.06
385.787	537.06
386.013	555.06
386.238	538.06
386.463	555.06
386.688	549.06
386.913	533.06
387.138	519.06
387.363	556.06
387.588	537.06
387.813	563.06
388.038	544.06
388.263	555.06
388.488	532.06
388.713	563.06
388.938	570.06
389.163	561.06
389.387	550.06
389.612	534.06
389.837	592.06
390.062	575.06
390.287	531.06
390.512	575.06
390.736	556.06
390.961	565.06
391.186	580.06
391.411	544.06
391.636	552.06
391.86	575.06
392.085	599.06
392.31	571.06
392.534	600.06
392.759	565.06
392.984	593.06
393.208	598.06
393.433	606.06
393.658	609.06
393.882	577.06
394.107	581.06
394.331	582.06
394.556	576.06
394.78	585.06
395.005	592.06
395.229	566.06
395.454	585.06
395.678	594.06
395.903	601.06
396.127	593.06
396.352	591.06
396.576	607.06
396.801	612.06
397.025	627.06
397.249	627.06
397.474	594.06
397.698	609.06
397.922	624.06
398.147	632.06
398.371	630.06
398.595	670.06
398.82	644.06
399.044	672.06
399.268	702.06
399.492	726.06
399.717	764.06
399.941	736.06
400.165	766.06
400.389	722.06
400.613	710.06
400.837	671.06
401.062	690.06
401.286	684.06
401.51	663.06
401.734	681.06
401.958	653.06
402.182	642.06
402.406	646.06
402.63	660.06
402.854	644.06
403.078	670.06
403.302	675.06
403.526	643.06
403.75	673.06
403.974	662.06
404.198	674.06
404.422	693.06
404.645	700.06
404.869	655.06
405.093	683.06
405.317	664.06
405.541	698.06
405.765	653.06
405.988	695.06
406.212	674.06
406.436	696.06
406.66	699.06
406.883	729.06
407.107	719.06
407.331	731.06
407.555	743.06
407.778	762.06
408.002	727.06
408.226	745.06
408.449	753.06
408.673	738.06
408.896	722.06
409.12	705.06
409.344	699.06
409.567	687.06
409.791	712.06
410.014	705.06
410.238	703.06
410.461	697.06
410.685	672.06
410.908	665.06
411.132	655.06
411.355	672.06
411.578	671.06
411.802	678.06
412.025	662.06
412.249	668.06
412.472	674.06
412.695	658.06
412.919	663.06
413.142	654.06
413.365	676.06
413.589	662.06
413.812	675.06
414.035	656.06
414.258	662.06
414.482	669.06
414.705	665.06
414.928	651.06
415.151	671.06
415.374	657.06
415.597	649.06
415.821	660.06
416.044	624.06
416.267	633.06
416.49	647.06
416.713	651.06
416.936	657.06
417.159	632.06
417.382	629.06
417.605	619.06
417.828	642.06
418.051	622.06
418.274	642.06
418.497	639.06
418.72	641.06
418.943	623.06
419.166	637.06
419.389	704.06
419.611	697.06
419.834	655.06
420.057	664.06
420.28	631.06
420.503	613.06
420.726	623.06
420.948	622.06
421.171	635.06
421.394	642.06
421.617	622.06
421.839	594.06
422.062	638.06
422.285	634.06
422.507	630.06
422.73	633.06
422.953	613.06
423.175	612.06
423.398	646.06
423.621	619.06
423.843	645.06
424.066	633.06
424.288	629.06
424.511	633.06
424.733	624.06
424.956	628.06
425.178	649.06
425.401	633.06
425.623	645.06
425.846	616.06
426.068	618.06
426.291	635.06
426.513	625.06
426.735	613.06
426.958	627.06
427.18	602.06
427.402	601.06
427.625	613.06
427.847	608.06
428.069	600.06
428.292	615.06
428.514	611.06
428.736	568.06
428.958	626.06
429.181	581.06
429.403	582.06
429.625	593.06
429.847	586.06
430.069	604.06
430.292	600.06
430.514	575.06
430.736	588.06
430.958	611.06
431.18	613.06
431.402	600.06
431.624	598.06
431.846	612.06
432.068	607.06
432.29	622.06
432.512	624.06
432.734	599.06
432.956	607.06
433.178	594.06
433.4	601.06
433.622	625.06
433.844	615.06
434.066	622.06
434.287	620.06
434.509	622.06
434.731	598.06
434.953	615.06
435.175	646.06
435.397	628.06
435.618	610.06
435.84	620.06
436.062	628.06
436.284	594.06
436.505	598.06
436.727	603.06
436.949	600.06
437.17	598.06
437.392	595.06
437.614	608.06
437.835	597.06
438.057	599.06
438.278	577.06
438.5	558.06
438.721	596.06
438.943	581.06
439.165	591.06
439.386	584.06
439.608	607.06
439.829	586.06
440.05	572.06
440.272	602.06
440.493	603.06
440.715	626.06
440.936	610.06
441.158	616.06
441.379	602.06
441.6	635.06
441.822	587.06
442.043	608.06
442.264	624.06
442.486	609.06
442.707	617.06
442.928	630.06
443.149	622.06
443.371	620.06
443.592	593.06
443.813	610.06
444.034	611.06
444.255	641.06
444.476	639.06
444.698	647.06
444.919	661.06
445.14	729.06
445.361	681.06
445.582	616.06
445.803	622.06
446.024	599.06
446.245	642.06
446.466	644.06
446.687	582.06
446.908	600.06
447.129	577.06
447.35	567.06
447.571	586.06
447.792	548.06
448.013	566.06
448.234	576.06
448.455	574.06
448.675	571.06
448.896	570.06
449.117	576.06
449.338	563.06
449.559	582.06
449.779	558.06
450	558.06
450.221	547.06
450.442	550.06
450.662	528.06
450.883	558.06
451.104	577.06
451.324	555.06
451.545	578.06
451.766	568.06
451.986	544.06
452.207	549.06
452.428	558.06
452.648	539.06
452.869	517.06
453.089	535.06
453.31	538.06
453.53	551.06
453.751	562.06
453.971	535.06
454.192	528.06
454.412	515.06
454.633	543.06
454.853	534.06
455.073	547.06
455.294	559.06
455.514	560.06
455.734	533.06
455.955	512.06
456.175	544.06
456.395	531.06
456.616	514.06
456.836	547.06
457.056	556.06
457.276	524.06
457.497	530.06
457.717	523.06
457.937	567.06
458.157	551.06
458.377	545.06
458.598	575.06
458.818	575.06
459.038	558.06
459.258	575.06
459.478	602.06
459.698	616.06
459.918	607.06
460.138	603.06
460.358	609.06
460.578	638.06
460.798	658.06
461.018	645.06
461.238	651.06
461.458	649.06
461.678	626.06
461.898	676.06
462.118	652.06
462.338	702.06
462.558	697.06
462.777	694.06
462.997	712.06
463.217	723.06
463.437	741.06
463.657	726.06
463.876	704.06
464.096	732.06
464.316	719.06
464.536	690.06
464.755	667.06
464.975	666.06
465.195	664.06
465.414	640.06
465.634	637.06
465.854	628.06
466.073	613.06
466.293	617.06
466.512	593.06
466.732	588.06
466.951	592.06
467.171	599.06
467.391	598.06
467.61	566.06
467.829	599.06
468.049	588.06
468.268	569.06
468.488	589.06
468.707	578.06
468.927	577.06
469.146	596.06
469.365	568.06
469.585	594.06
469.804	580.06
470.023	580.06
470.243	629.06
470.462	575.06
470.681	600.06
470.901	581.06
471.12	601.06
471.339	603.06
471.558	592.06
471.777	600.06
471.997	602.06
472.216	568.06
472.435	590.06
472.654	591.06
472.873	586.06
473.092	597.06
473.311	578.06
473.53	575.06
473.749	579.06
473.968	607.06
474.187	572.06
474.406	602.06
474.625	592.06
474.844	580.06
475.063	608.06
475.282	584.06
475.501	592.06
475.72	600.06
475.939	609.06
476.158	617.06
476.377	629.06
476.596	645.06
476.814	627.06
477.033	631.06
477.252	635.06
477.471	652.06
477.69	643.06
477.908	657.06
478.127	692.06
478.346	635.06
478.564	680.06
478.783	664.06
479.002	670.06
479.22	666.06
479.439	691.06
479.658	696.06
479.876	683.06
480.095	701.06
480.313	720.06
480.532	704.06
480.751	707.06
480.969	690.06
481.188	709.06
481.406	700.06
481.624	688.06
481.843	695.06
482.061	684.06
482.28	690.06
482.498	706.06
482.717	692.06
482.935	675.06
483.153	711.06
483.372	709.06
483.59	695.06
483.808	703.06
484.027	710.06
484.245	714.06
484.463	699.06
484.681	714.06
484.9	720.06
485.118	711.06
485.336	709.06
485.554	713.06
485.772	726.06
485.99	729.06
486.209	719.06
486.427	708.06
486.645	720.06
486.863	708.06
487.081	719.06
487.299	701.06
487.517	697.06
487.735	757.06
487.953	725.06
488.171	725.06
488.389	728.06
488.607	731.06
488.825	697.06
489.043	715.06
489.261	720.06
489.479	710.06
489.696	706.06
489.914	718.06
490.132	733.06
490.35	722.06
490.568	741.06
490.786	689.06
491.003	744.06
491.221	745.06
491.439	730.06
491.657	731.06
491.874	731.06
492.092	733.06
492.31	739.06
492.527	727.06
492.745	742.06
492.963	743.06
493.18	760.06
493.398	741.06
493.615	745.06
493.833	766.06
494.05	750.06
494.268	766.06
494.485	770.06
494.703	747.06
494.92	771.06
495.138	771.06
495.355	763.06
495.573	797.06
495.79	790.06
496.008	793.06
496.225	740.06
496.442	785.06
496.66	793.06
496.877	835.06
497.094	830.06
497.312	844.06
497.529	835.06
497.746	840.06
497.963	856.06
498.181	876.06
498.398	911.06
498.615	930.06
498.832	981.06
499.049	1002.06
499.267	1019.06
499.484	1054.06
499.701	1103.06
499.918	1152.06
500.135	1226.06
500.352	1263.06
500.569	1234.06
500.786	1262.06
501.003	1248.06
501.22	1195.06
501.437	1131.06
