Data from Fe(NO3)3@0.1M.TitratingCurve.Agarose3%dH2O.NegLispCup.LampEnergy10.LIBS07252019_HRD10591_16-39-03-332.txt Node
Date: Thu Jul 25 16:39:03 EDT 2019
User: cochatt
Spectrometer: HR+D1059
Trigger mode: 1
Integration Time (sec): 1.000000E-1
Scans to average: 1
Electric dark correction enabled: true
Nonlinearity correction enabled: false
Boxcar width: 0
XAxis mode: Wavelengths
Number of Pixels in Spectrum: 2048
>>>>>Begin Spectral Data<<<<<
223.165	-24.56
223.4	-24.56
223.635	-24.56
223.869	-13.56
224.104	-30.56
224.338	1.44
224.573	-6.56
224.808	1.44
225.042	-25.56
225.277	-0.56
225.511	-12.56
225.746	-0.56
225.98	10.44
226.215	14.44
226.449	17.44
226.683	26.44
226.918	18.44
227.152	24.44
227.387	24.44
227.621	36.44
227.856	33.44
228.09	45.44
228.324	57.44
228.559	51.44
228.793	69.44
229.027	68.44
229.262	79.44
229.496	88.44
229.73	83.44
229.964	71.44
230.199	76.44
230.433	83.44
230.667	87.44
230.901	94.44
231.136	77.44
231.37	99.44
231.604	77.44
231.838	77.44
232.072	100.44
232.306	99.44
232.541	83.44
232.775	86.44
233.009	86.44
233.243	95.44
233.477	87.44
233.711	90.44
233.945	93.44
234.179	92.44
234.413	88.44
234.647	97.44
234.881	96.44
235.115	85.44
235.349	102.44
235.583	111.44
235.817	78.44
236.051	96.44
236.285	95.44
236.519	87.44
236.753	78.44
236.987	89.44
237.221	86.44
237.455	90.44
237.689	88.44
237.922	93.44
238.156	94.44
238.39	99.44
238.624	93.44
238.858	95.44
239.091	77.44
239.325	104.44
239.559	90.44
239.793	96.44
240.027	102.44
240.26	84.44
240.494	84.44
240.728	92.44
240.961	92.44
241.195	102.44
241.429	92.44
241.662	89.44
241.896	95.44
242.13	110.44
242.363	100.44
242.597	100.44
242.83	112.44
243.064	86.44
243.298	108.44
243.531	105.44
243.765	99.44
243.998	86.44
244.232	89.44
244.465	108.44
244.699	92.44
244.932	85.44
245.166	91.44
245.399	117.44
245.633	99.44
245.866	108.44
246.099	95.44
246.333	97.44
246.566	95.44
246.8	96.44
247.033	108.44
247.266	99.44
247.5	93.44
247.733	92.44
247.966	99.44
248.2	105.44
248.433	109.44
248.666	112.44
248.899	99.44
249.133	92.44
249.366	99.44
249.599	105.44
249.832	114.44
250.066	106.44
250.299	113.44
250.532	111.44
250.765	117.44
250.998	115.44
251.231	112.44
251.465	114.44
251.698	113.44
251.931	100.44
252.164	103.44
252.397	102.44
252.63	104.44
252.863	114.44
253.096	115.44
253.329	110.44
253.562	118.44
253.795	123.44
254.028	111.44
254.261	104.44
254.494	118.44
254.727	107.44
254.96	119.44
255.193	115.44
255.426	112.44
255.659	128.44
255.892	137.44
256.124	113.44
256.357	121.44
256.59	121.44
256.823	127.44
257.056	111.44
257.289	99.44
257.521	118.44
257.754	117.44
257.987	116.44
258.22	120.44
258.452	112.44
258.685	120.44
258.918	115.44
259.151	125.44
259.383	115.44
259.616	107.44
259.849	111.44
260.081	127.44
260.314	123.44
260.547	125.44
260.779	120.44
261.012	113.44
261.244	129.44
261.477	136.44
261.71	118.44
261.942	119.44
262.175	128.44
262.407	129.44
262.64	126.44
262.872	134.44
263.105	124.44
263.337	119.44
263.57	127.44
263.802	126.44
264.035	125.44
264.267	120.44
264.499	119.44
264.732	151.44
264.964	113.44
265.197	124.44
265.429	127.44
265.661	125.44
265.894	132.44
266.126	128.44
266.358	116.44
266.591	129.44
266.823	133.44
267.055	123.44
267.287	127.44
267.52	144.44
267.752	135.44
267.984	131.44
268.216	130.44
268.448	122.44
268.681	124.44
268.913	116.44
269.145	132.44
269.377	129.44
269.609	128.44
269.841	145.44
270.073	118.44
270.306	138.44
270.538	145.44
270.77	132.44
271.002	132.44
271.234	133.44
271.466	146.44
271.698	147.44
271.93	148.44
272.162	140.44
272.394	144.44
272.626	153.44
272.858	128.44
273.09	143.44
273.322	143.44
273.553	144.44
273.785	143.44
274.017	137.44
274.249	154.44
274.481	140.44
274.713	159.44
274.945	153.44
275.176	152.44
275.408	137.44
275.64	152.44
275.872	154.44
276.104	147.44
276.335	147.44
276.567	157.44
276.799	153.44
277.031	144.44
277.262	140.44
277.494	148.44
277.726	139.44
277.957	138.44
278.189	136.44
278.421	151.44
278.652	151.44
278.884	144.44
279.115	142.44
279.347	141.44
279.579	155.44
279.81	140.44
280.042	156.44
280.273	151.44
280.505	141.44
280.736	153.44
280.968	163.44
281.199	153.44
281.431	153.44
281.662	172.44
281.894	151.44
282.125	161.44
282.356	163.44
282.588	155.44
282.819	169.44
283.051	139.44
283.282	148.44
283.513	157.44
283.745	176.44
283.976	153.44
284.207	161.44
284.439	152.44
284.67	157.44
284.901	148.44
285.132	170.44
285.364	151.44
285.595	163.44
285.826	152.44
286.057	143.44
286.288	158.44
286.52	162.44
286.751	160.44
286.982	161.44
287.213	168.44
287.444	167.44
287.675	164.44
287.906	175.44
288.138	172.44
288.369	163.44
288.6	171.44
288.831	159.44
289.062	171.44
289.293	167.44
289.524	164.44
289.755	159.44
289.986	149.44
290.217	176.44
290.448	168.44
290.679	158.44
290.91	182.44
291.141	155.44
291.371	163.44
291.602	153.44
291.833	159.44
292.064	164.44
292.295	148.44
292.526	160.44
292.757	159.44
292.987	178.44
293.218	162.44
293.449	172.44
293.68	184.44
293.91	162.44
294.141	164.44
294.372	185.44
294.603	167.44
294.833	167.44
295.064	169.44
295.295	167.44
295.525	172.44
295.756	169.44
295.987	168.44
296.217	163.44
296.448	185.44
296.679	173.44
296.909	185.44
297.14	160.44
297.37	178.44
297.601	180.44
297.831	160.44
298.062	169.44
298.292	169.44
298.523	176.44
298.753	178.44
298.984	184.44
299.214	170.44
299.445	171.44
299.675	165.44
299.905	180.44
300.136	180.44
300.366	175.44
300.597	164.44
300.827	189.44
301.057	179.44
301.288	190.44
301.518	191.44
301.748	181.44
301.979	185.44
302.209	197.44
302.439	193.44
302.669	189.44
302.9	183.44
303.13	193.44
303.36	203.44
303.59	179.44
303.82	172.44
304.051	194.44
304.281	186.44
304.511	180.44
304.741	188.44
304.971	194.44
305.201	209.44
305.431	187.44
305.661	197.44
305.891	198.44
306.121	197.44
306.352	186.44
306.582	197.44
306.812	192.44
307.042	188.44
307.272	187.44
307.502	194.44
307.731	191.44
307.961	170.44
308.191	184.44
308.421	176.44
308.651	215.44
308.881	196.44
309.111	195.44
309.341	183.44
309.571	192.44
309.8	200.44
310.03	196.44
310.26	186.44
310.49	188.44
310.72	195.44
310.949	193.44
311.179	176.44
311.409	187.44
311.639	197.44
311.868	186.44
312.098	181.44
312.328	196.44
312.557	213.44
312.787	191.44
313.017	196.44
313.246	210.44
313.476	211.44
313.706	194.44
313.935	201.44
314.165	194.44
314.394	218.44
314.624	196.44
314.853	197.44
315.083	213.44
315.312	204.44
315.542	217.44
315.771	209.44
316.001	210.44
316.23	183.44
316.46	180.44
316.689	194.44
316.919	178.44
317.148	198.44
317.377	200.44
317.607	183.44
317.836	196.44
318.065	207.44
318.295	200.44
318.524	199.44
318.753	194.44
318.983	222.44
319.212	201.44
319.441	196.44
319.67	201.44
319.9	201.44
320.129	196.44
320.358	201.44
320.587	215.44
320.816	208.44
321.046	195.44
321.275	218.44
321.504	210.44
321.733	206.44
321.962	207.44
322.191	226.44
322.42	197.44
322.649	200.44
322.878	202.44
323.108	203.44
323.337	193.44
323.566	212.44
323.795	207.44
324.024	204.44
324.253	202.44
324.482	204.44
324.71	200.44
324.939	211.44
325.168	209.44
325.397	218.44
325.626	226.44
325.855	213.44
326.084	224.44
326.313	208.44
326.542	215.44
326.77	224.44
326.999	211.44
327.228	217.44
327.457	213.44
327.686	205.44
327.914	226.44
328.143	231.44
328.372	215.44
328.6	208.44
328.829	203.44
329.058	229.44
329.287	229.44
329.515	202.44
329.744	228.44
329.972	227.44
330.201	225.44
330.43	236.44
330.658	217.44
330.887	227.44
331.115	235.44
331.344	230.44
331.572	233.44
331.801	232.44
332.03	232.44
332.258	245.44
332.486	239.44
332.715	236.44
332.943	241.44
333.172	238.44
333.4	278.44
333.629	273.44
333.857	253.44
334.085	266.44
334.314	249.44
334.542	249.44
334.771	273.44
334.999	264.44
335.227	252.44
335.455	271.44
335.684	243.44
335.912	239.44
336.14	256.44
336.369	237.44
336.597	261.44
336.825	244.44
337.053	241.44
337.281	255.44
337.51	241.44
337.738	223.44
337.966	244.44
338.194	237.44
338.422	225.44
338.65	253.44
338.878	245.44
339.106	260.44
339.334	247.44
339.562	239.44
339.79	216.44
340.018	228.44
340.246	244.44
340.474	232.44
340.702	235.44
340.93	241.44
341.158	219.44
341.386	218.44
341.614	224.44
341.842	234.44
342.07	229.44
342.298	223.44
342.526	212.44
342.754	247.44
342.981	237.44
343.209	239.44
343.437	263.44
343.665	244.44
343.893	253.44
344.12	270.44
344.348	265.44
344.576	233.44
344.804	251.44
345.031	233.44
345.259	241.44
345.487	264.44
345.714	237.44
345.942	230.44
346.17	236.44
346.397	235.44
346.625	237.44
346.853	219.44
347.08	214.44
347.308	235.44
347.535	230.44
347.763	240.44
347.99	231.44
348.218	221.44
348.445	221.44
348.673	221.44
348.9	230.44
349.128	234.44
349.355	218.44
349.583	226.44
349.81	224.44
350.037	227.44
350.265	228.44
350.492	243.44
350.72	245.44
350.947	223.44
351.174	212.44
351.402	211.44
351.629	231.44
351.856	237.44
352.083	223.44
352.311	226.44
352.538	244.44
352.765	235.44
352.992	217.44
353.22	219.44
353.447	219.44
353.674	228.44
353.901	239.44
354.128	242.44
354.355	221.44
354.583	226.44
354.81	218.44
355.037	223.44
355.264	215.44
355.491	239.44
355.718	219.44
355.945	242.44
356.172	220.44
356.399	230.44
356.626	238.44
356.853	219.44
357.08	245.44
357.307	247.44
357.534	229.44
357.761	237.44
357.988	246.44
358.215	234.44
358.441	224.44
358.668	219.44
358.895	229.44
359.122	231.44
359.349	240.44
359.576	240.44
359.802	224.44
360.029	232.44
360.256	231.44
360.483	230.44
360.709	227.44
360.936	227.44
361.163	228.44
361.39	233.44
361.616	239.44
361.843	244.44
362.07	216.44
362.296	236.44
362.523	227.44
362.749	244.44
362.976	211.44
363.203	235.44
363.429	223.44
363.656	231.44
363.882	224.44
364.109	215.44
364.335	230.44
364.562	226.44
364.788	241.44
365.015	236.44
365.241	225.44
365.468	235.44
365.694	246.44
365.92	239.44
366.147	221.44
366.373	224.44
366.599	223.44
366.826	228.44
367.052	236.44
367.278	236.44
367.505	246.44
367.731	241.44
367.957	240.44
368.184	225.44
368.41	232.44
368.636	232.44
368.862	233.44
369.089	233.44
369.315	232.44
369.541	253.44
369.767	257.44
369.993	255.44
370.219	252.44
370.445	239.44
370.672	248.44
370.898	255.44
371.124	240.44
371.35	237.44
371.576	268.44
371.802	272.44
372.028	247.44
372.254	255.44
372.48	249.44
372.706	252.44
372.932	261.44
373.158	243.44
373.384	270.44
373.61	264.44
373.835	275.44
374.061	256.44
374.287	261.44
374.513	239.44
374.739	268.44
374.965	283.44
375.191	268.44
375.416	281.44
375.642	273.44
375.868	278.44
376.094	248.44
376.319	251.44
376.545	253.44
376.771	259.44
376.997	266.44
377.222	255.44
377.448	260.44
377.674	269.44
377.899	251.44
378.125	250.44
378.35	249.44
378.576	269.44
378.802	258.44
379.027	263.44
379.253	275.44
379.478	246.44
379.704	259.44
379.929	259.44
380.155	252.44
380.38	272.44
380.606	279.44
380.831	275.44
381.057	260.44
381.282	261.44
381.507	257.44
381.733	278.44
381.958	269.44
382.184	273.44
382.409	270.44
382.634	273.44
382.86	278.44
383.085	272.44
383.31	287.44
383.535	264.44
383.761	280.44
383.986	279.44
384.211	277.44
384.436	287.44
384.662	295.44
384.887	308.44
385.112	292.44
385.337	306.44
385.562	284.44
385.787	281.44
386.013	295.44
386.238	309.44
386.463	306.44
386.688	297.44
386.913	298.44
387.138	312.44
387.363	289.44
387.588	321.44
387.813	295.44
388.038	302.44
388.263	298.44
388.488	298.44
388.713	318.44
388.938	308.44
389.163	295.44
389.387	287.44
389.612	281.44
389.837	310.44
390.062	298.44
390.287	311.44
390.512	297.44
390.736	289.44
390.961	303.44
391.186	299.44
391.411	321.44
391.636	303.44
391.86	318.44
392.085	314.44
392.31	301.44
392.534	318.44
392.759	329.44
392.984	338.44
393.208	335.44
393.433	316.44
393.658	297.44
393.882	333.44
394.107	323.44
394.331	323.44
394.556	332.44
394.78	330.44
395.005	316.44
395.229	325.44
395.454	343.44
395.678	344.44
395.903	320.44
396.127	315.44
396.352	344.44
396.576	322.44
396.801	324.44
397.025	338.44
397.249	328.44
397.474	343.44
397.698	345.44
397.922	345.44
398.147	350.44
398.371	357.44
398.595	365.44
398.82	369.44
399.044	379.44
399.268	393.44
399.492	444.44
399.717	455.44
399.941	476.44
400.165	439.44
400.389	401.44
400.613	390.44
400.837	390.44
401.062	377.44
401.286	389.44
401.51	356.44
401.734	378.44
401.958	367.44
402.182	367.44
402.406	367.44
402.63	382.44
402.854	358.44
403.078	360.44
403.302	362.44
403.526	377.44
403.75	398.44
403.974	385.44
404.198	404.44
404.422	380.44
404.645	389.44
404.869	393.44
405.093	391.44
405.317	370.44
405.541	373.44
405.765	389.44
405.988	397.44
406.212	377.44
406.436	403.44
406.66	402.44
406.883	408.44
407.107	443.44
407.331	427.44
407.555	444.44
407.778	451.44
408.002	421.44
408.226	416.44
408.449	424.44
408.673	422.44
408.896	406.44
409.12	427.44
409.344	411.44
409.567	381.44
409.791	403.44
410.014	385.44
410.238	387.44
410.461	408.44
410.685	408.44
410.908	383.44
411.132	389.44
411.355	378.44
411.578	376.44
411.802	393.44
412.025	394.44
412.249	372.44
412.472	384.44
412.695	369.44
412.919	369.44
413.142	376.44
413.365	374.44
413.589	384.44
413.812	362.44
414.035	369.44
414.258	375.44
414.482	363.44
414.705	365.44
414.928	376.44
415.151	359.44
415.374	381.44
415.597	379.44
415.821	374.44
416.044	370.44
416.267	362.44
416.49	365.44
416.713	358.44
416.936	362.44
417.159	363.44
417.382	364.44
417.605	357.44
417.828	356.44
418.051	370.44
418.274	363.44
418.497	379.44
418.72	398.44
418.943	365.44
419.166	356.44
419.389	397.44
419.611	407.44
419.834	393.44
420.057	398.44
420.28	381.44
420.503	365.44
420.726	364.44
420.948	371.44
421.171	377.44
421.394	386.44
421.617	378.44
421.839	374.44
422.062	387.44
422.285	363.44
422.507	374.44
422.73	373.44
422.953	361.44
423.175	375.44
423.398	372.44
423.621	364.44
423.843	377.44
424.066	394.44
424.288	388.44
424.511	377.44
424.733	371.44
424.956	394.44
425.178	393.44
425.401	379.44
425.623	368.44
425.846	373.44
426.068	361.44
426.291	362.44
426.513	356.44
426.735	363.44
426.958	356.44
427.18	373.44
427.402	350.44
427.625	359.44
427.847	372.44
428.069	369.44
428.292	377.44
428.514	370.44
428.736	343.44
428.958	330.44
429.181	358.44
429.403	340.44
429.625	349.44
429.847	324.44
430.069	351.44
430.292	353.44
430.514	368.44
430.736	369.44
430.958	361.44
431.18	352.44
431.402	348.44
431.624	355.44
431.846	322.44
432.068	354.44
432.29	333.44
432.512	327.44
432.734	364.44
432.956	355.44
433.178	366.44
433.4	374.44
433.622	354.44
433.844	348.44
434.066	344.44
434.287	352.44
434.509	371.44
434.731	369.44
434.953	375.44
435.175	388.44
435.397	383.44
435.618	386.44
435.84	385.44
436.062	340.44
436.284	355.44
436.505	356.44
436.727	375.44
436.949	369.44
437.17	364.44
437.392	369.44
437.614	360.44
437.835	343.44
438.057	347.44
438.278	336.44
438.5	355.44
438.721	359.44
438.943	359.44
439.165	361.44
439.386	344.44
439.608	364.44
439.829	363.44
440.05	354.44
440.272	368.44
440.493	367.44
440.715	381.44
440.936	381.44
441.158	368.44
441.379	354.44
441.6	387.44
441.822	387.44
442.043	414.44
442.264	379.44
442.486	385.44
442.707	389.44
442.928	383.44
443.149	391.44
443.371	407.44
443.592	398.44
443.813	392.44
444.034	393.44
444.255	407.44
444.476	429.44
444.698	431.44
444.919	437.44
445.14	492.44
445.361	426.44
445.582	397.44
445.803	390.44
446.024	394.44
446.245	383.44
446.466	369.44
446.687	376.44
446.908	369.44
447.129	368.44
447.35	372.44
447.571	362.44
447.792	355.44
448.013	349.44
448.234	355.44
448.455	336.44
448.675	356.44
448.896	371.44
449.117	354.44
449.338	347.44
449.559	340.44
449.779	345.44
450	331.44
450.221	337.44
450.442	345.44
450.662	353.44
450.883	353.44
451.104	355.44
451.324	345.44
451.545	365.44
451.766	316.44
451.986	360.44
452.207	346.44
452.428	348.44
452.648	351.44
452.869	329.44
453.089	328.44
453.31	330.44
453.53	317.44
453.751	332.44
453.971	309.44
454.192	346.44
454.412	327.44
454.633	324.44
454.853	336.44
455.073	315.44
455.294	327.44
455.514	325.44
455.734	329.44
455.955	340.44
456.175	336.44
456.395	330.44
456.616	316.44
456.836	316.44
457.056	322.44
457.276	346.44
457.497	337.44
457.717	343.44
457.937	315.44
458.157	339.44
458.377	341.44
458.598	342.44
458.818	335.44
459.038	341.44
459.258	350.44
459.478	370.44
459.698	343.44
459.918	365.44
460.138	372.44
460.358	379.44
460.578	400.44
460.798	393.44
461.018	397.44
461.238	410.44
461.458	400.44
461.678	400.44
461.898	401.44
462.118	404.44
462.338	421.44
462.558	451.44
462.777	433.44
462.997	456.44
463.217	467.44
463.437	462.44
463.657	466.44
463.876	439.44
464.096	452.44
464.316	416.44
464.536	444.44
464.755	426.44
464.975	412.44
465.195	419.44
465.414	405.44
465.634	398.44
465.854	362.44
466.073	375.44
466.293	373.44
466.512	364.44
466.732	372.44
466.951	339.44
467.171	351.44
467.391	359.44
467.61	368.44
467.829	379.44
468.049	356.44
468.268	368.44
468.488	344.44
468.707	352.44
468.927	351.44
469.146	353.44
469.365	367.44
469.585	369.44
469.804	379.44
470.023	365.44
470.243	361.44
470.462	374.44
470.681	375.44
470.901	358.44
471.12	351.44
471.339	351.44
471.558	364.44
471.777	359.44
471.997	337.44
472.216	341.44
472.435	347.44
472.654	340.44
472.873	343.44
473.092	349.44
473.311	357.44
473.53	347.44
473.749	345.44
473.968	343.44
474.187	345.44
474.406	353.44
474.625	341.44
474.844	360.44
475.063	352.44
475.282	344.44
475.501	343.44
475.72	361.44
475.939	353.44
476.158	357.44
476.377	364.44
476.596	352.44
476.814	358.44
477.033	343.44
477.252	368.44
477.471	391.44
477.69	374.44
477.908	393.44
478.127	402.44
478.346	387.44
478.564	413.44
478.783	396.44
479.002	409.44
479.22	403.44
479.439	401.44
479.658	399.44
479.876	417.44
480.095	402.44
480.313	419.44
480.532	414.44
480.751	415.44
480.969	389.44
481.188	405.44
481.406	395.44
481.624	390.44
481.843	378.44
482.061	376.44
482.28	384.44
482.498	368.44
482.717	388.44
482.935	374.44
483.153	379.44
483.372	420.44
483.59	365.44
483.808	379.44
484.027	391.44
484.245	377.44
484.463	371.44
484.681	381.44
484.9	376.44
485.118	402.44
485.336	386.44
485.554	389.44
485.772	397.44
485.99	386.44
486.209	381.44
486.427	382.44
486.645	407.44
486.863	404.44
487.081	379.44
487.299	391.44
487.517	408.44
487.735	410.44
487.953	403.44
488.171	412.44
488.389	402.44
488.607	393.44
488.825	402.44
489.043	416.44
489.261	409.44
489.479	404.44
489.696	392.44
489.914	421.44
490.132	401.44
490.35	390.44
490.568	414.44
490.786	400.44
491.003	407.44
491.221	406.44
491.439	412.44
491.657	425.44
491.874	416.44
492.092	430.44
492.31	418.44
492.527	405.44
492.745	417.44
492.963	414.44
493.18	408.44
493.398	436.44
493.615	413.44
493.833	424.44
494.05	435.44
494.268	421.44
494.485	416.44
494.703	424.44
494.92	413.44
495.138	414.44
495.355	417.44
495.573	428.44
495.79	431.44
496.008	439.44
496.225	426.44
496.442	434.44
496.66	435.44
496.877	441.44
497.094	448.44
497.312	447.44
497.529	466.44
497.746	454.44
497.963	472.44
498.181	491.44
498.398	527.44
498.615	535.44
498.832	530.44
499.049	553.44
499.267	620.44
499.484	632.44
499.701	670.44
499.918	728.44
500.135	768.44
500.352	807.44
500.569	839.44
500.786	816.44
501.003	793.44
501.22	749.44
501.437	698.44
501.654	638.44
501.871	595.44
502.088	566.44
502.305	539.44
502.522	515.44
