Data from Fe(NO3)3@0.1M.TitratingCurve.Agarose3%dH2O.NegLispCup.LampEnergy10.LIBS07252019_HRD10591_16-39-22-333.txt Node
Date: Thu Jul 25 16:39:22 EDT 2019
User: cochatt
Spectrometer: HR+D1059
Trigger mode: 1
Integration Time (sec): 1.000000E-1
Scans to average: 1
Electric dark correction enabled: true
Nonlinearity correction enabled: false
Boxcar width: 0
XAxis mode: Wavelengths
Number of Pixels in Spectrum: 2048
>>>>>Begin Spectral Data<<<<<
223.165	-14.44
223.4	-14.44
223.635	-14.44
223.869	-22.44
224.104	-29.44
224.338	-23.44
224.573	-15.44
224.808	4.56
225.042	-12.44
225.277	1.56
225.511	-7.44
225.746	1.56
225.98	2.56
226.215	5.56
226.449	22.56
226.683	23.56
226.918	35.56
227.152	27.56
227.387	36.56
227.621	30.56
227.856	38.56
228.09	54.56
228.324	49.56
228.559	43.56
228.793	56.56
229.027	58.56
229.262	65.56
229.496	74.56
229.73	70.56
229.964	83.56
230.199	71.56
230.433	70.56
230.667	88.56
230.901	89.56
231.136	75.56
231.37	89.56
231.604	80.56
231.838	65.56
232.072	89.56
232.306	88.56
232.541	95.56
232.775	75.56
233.009	88.56
233.243	89.56
233.477	89.56
233.711	107.56
233.945	91.56
234.179	74.56
234.413	87.56
234.647	73.56
234.881	65.56
235.115	71.56
235.349	84.56
235.583	78.56
235.817	84.56
236.051	99.56
236.285	90.56
236.519	84.56
236.753	96.56
236.987	90.56
237.221	76.56
237.455	90.56
237.689	93.56
237.922	93.56
238.156	73.56
238.39	79.56
238.624	92.56
238.858	73.56
239.091	86.56
239.325	79.56
239.559	89.56
239.793	83.56
240.027	86.56
240.26	85.56
240.494	85.56
240.728	85.56
240.961	80.56
241.195	85.56
241.429	91.56
241.662	94.56
241.896	92.56
242.13	83.56
242.363	88.56
242.597	83.56
242.83	87.56
243.064	90.56
243.298	83.56
243.531	83.56
243.765	84.56
243.998	94.56
244.232	91.56
244.465	82.56
244.699	100.56
244.932	98.56
245.166	76.56
245.399	89.56
245.633	92.56
245.866	86.56
246.099	72.56
246.333	93.56
246.566	98.56
246.8	94.56
247.033	90.56
247.266	97.56
247.5	96.56
247.733	78.56
247.966	94.56
248.2	82.56
248.433	97.56
248.666	98.56
248.899	101.56
249.133	98.56
249.366	99.56
249.599	90.56
249.832	106.56
250.066	99.56
250.299	83.56
250.532	96.56
250.765	99.56
250.998	88.56
251.231	92.56
251.465	84.56
251.698	87.56
251.931	78.56
252.164	97.56
252.397	110.56
252.63	99.56
252.863	102.56
253.096	108.56
253.329	99.56
253.562	100.56
253.795	103.56
254.028	100.56
254.261	105.56
254.494	92.56
254.727	102.56
254.96	113.56
255.193	98.56
255.426	94.56
255.659	87.56
255.892	94.56
256.124	92.56
256.357	111.56
256.59	115.56
256.823	99.56
257.056	88.56
257.289	95.56
257.521	94.56
257.754	99.56
257.987	107.56
258.22	101.56
258.452	103.56
258.685	115.56
258.918	107.56
259.151	90.56
259.383	94.56
259.616	94.56
259.849	102.56
260.081	106.56
260.314	123.56
260.547	110.56
260.779	103.56
261.012	120.56
261.244	112.56
261.477	96.56
261.71	102.56
261.942	102.56
262.175	89.56
262.407	94.56
262.64	94.56
262.872	115.56
263.105	111.56
263.337	102.56
263.57	102.56
263.802	102.56
264.035	102.56
264.267	97.56
264.499	107.56
264.732	113.56
264.964	95.56
265.197	112.56
265.429	106.56
265.661	103.56
265.894	119.56
266.126	98.56
266.358	103.56
266.591	104.56
266.823	102.56
267.055	108.56
267.287	111.56
267.52	109.56
267.752	115.56
267.984	123.56
268.216	90.56
268.448	117.56
268.681	106.56
268.913	108.56
269.145	118.56
269.377	111.56
269.609	114.56
269.841	103.56
270.073	113.56
270.306	108.56
270.538	115.56
270.77	118.56
271.002	112.56
271.234	102.56
271.466	122.56
271.698	107.56
271.93	109.56
272.162	114.56
272.394	106.56
272.626	116.56
272.858	113.56
273.09	92.56
273.322	121.56
273.553	102.56
273.785	104.56
274.017	106.56
274.249	121.56
274.481	123.56
274.713	113.56
274.945	107.56
275.176	108.56
275.408	121.56
275.64	137.56
275.872	111.56
276.104	125.56
276.335	111.56
276.567	119.56
276.799	124.56
277.031	110.56
277.262	111.56
277.494	104.56
277.726	122.56
277.957	108.56
278.189	108.56
278.421	103.56
278.652	111.56
278.884	108.56
279.115	116.56
279.347	107.56
279.579	120.56
279.81	129.56
280.042	114.56
280.273	123.56
280.505	111.56
280.736	127.56
280.968	128.56
281.199	116.56
281.431	111.56
281.662	117.56
281.894	131.56
282.125	117.56
282.356	126.56
282.588	124.56
282.819	115.56
283.051	130.56
283.282	134.56
283.513	117.56
283.745	122.56
283.976	129.56
284.207	140.56
284.439	127.56
284.67	126.56
284.901	133.56
285.132	143.56
285.364	118.56
285.595	124.56
285.826	147.56
286.057	120.56
286.288	130.56
286.52	124.56
286.751	110.56
286.982	134.56
287.213	124.56
287.444	126.56
287.675	137.56
287.906	126.56
288.138	118.56
288.369	127.56
288.6	136.56
288.831	139.56
289.062	122.56
289.293	116.56
289.524	139.56
289.755	120.56
289.986	141.56
290.217	128.56
290.448	130.56
290.679	118.56
290.91	137.56
291.141	125.56
291.371	127.56
291.602	136.56
291.833	129.56
292.064	134.56
292.295	125.56
292.526	146.56
292.757	130.56
292.987	129.56
293.218	139.56
293.449	136.56
293.68	125.56
293.91	133.56
294.141	127.56
294.372	147.56
294.603	129.56
294.833	122.56
295.064	123.56
295.295	137.56
295.525	148.56
295.756	132.56
295.987	134.56
296.217	128.56
296.448	143.56
296.679	134.56
296.909	134.56
297.14	127.56
297.37	123.56
297.601	149.56
297.831	128.56
298.062	147.56
298.292	151.56
298.523	150.56
298.753	145.56
298.984	130.56
299.214	128.56
299.445	140.56
299.675	156.56
299.905	141.56
300.136	130.56
300.366	146.56
300.597	138.56
300.827	145.56
301.057	143.56
301.288	157.56
301.518	147.56
301.748	136.56
301.979	144.56
302.209	151.56
302.439	134.56
302.669	146.56
302.9	138.56
303.13	144.56
303.36	138.56
303.59	126.56
303.82	144.56
304.051	152.56
304.281	148.56
304.511	148.56
304.741	139.56
304.971	139.56
305.201	158.56
305.431	138.56
305.661	153.56
305.891	136.56
306.121	142.56
306.352	140.56
306.582	140.56
306.812	159.56
307.042	146.56
307.272	152.56
307.502	135.56
307.731	161.56
307.961	140.56
308.191	144.56
308.421	128.56
308.651	148.56
308.881	146.56
309.111	131.56
309.341	139.56
309.571	129.56
309.8	148.56
310.03	132.56
310.26	145.56
310.49	150.56
310.72	148.56
310.949	130.56
311.179	158.56
311.409	155.56
311.639	136.56
311.868	152.56
312.098	155.56
312.328	150.56
312.557	151.56
312.787	135.56
313.017	128.56
313.246	147.56
313.476	152.56
313.706	150.56
313.935	144.56
314.165	146.56
314.394	139.56
314.624	144.56
314.853	150.56
315.083	151.56
315.312	151.56
315.542	164.56
315.771	160.56
316.001	134.56
316.23	138.56
316.46	153.56
316.689	143.56
316.919	155.56
317.148	145.56
317.377	145.56
317.607	146.56
317.836	154.56
318.065	154.56
318.295	143.56
318.524	147.56
318.753	148.56
318.983	149.56
319.212	143.56
319.441	149.56
319.67	141.56
319.9	155.56
320.129	157.56
320.358	158.56
320.587	151.56
320.816	152.56
321.046	152.56
321.275	153.56
321.504	143.56
321.733	145.56
321.962	158.56
322.191	155.56
322.42	146.56
322.649	135.56
322.878	140.56
323.108	143.56
323.337	150.56
323.566	138.56
323.795	165.56
324.024	164.56
324.253	154.56
324.482	155.56
324.71	153.56
324.939	155.56
325.168	157.56
325.397	160.56
325.626	168.56
325.855	151.56
326.084	168.56
326.313	169.56
326.542	154.56
326.77	143.56
326.999	170.56
327.228	144.56
327.457	154.56
327.686	159.56
327.914	161.56
328.143	169.56
328.372	160.56
328.6	151.56
328.829	156.56
329.058	170.56
329.287	163.56
329.515	164.56
329.744	168.56
329.972	162.56
330.201	176.56
330.43	160.56
330.658	165.56
330.887	166.56
331.115	147.56
331.344	166.56
331.572	169.56
331.801	162.56
332.03	160.56
332.258	178.56
332.486	158.56
332.715	184.56
332.943	168.56
333.172	185.56
333.4	197.56
333.629	177.56
333.857	174.56
334.085	188.56
334.314	168.56
334.542	186.56
334.771	200.56
334.999	182.56
335.227	184.56
335.455	175.56
335.684	193.56
335.912	181.56
336.14	182.56
336.369	172.56
336.597	168.56
336.825	180.56
337.053	178.56
337.281	173.56
337.51	151.56
337.738	174.56
337.966	166.56
338.194	162.56
338.422	172.56
338.65	170.56
338.878	168.56
339.106	175.56
339.334	169.56
339.562	176.56
339.79	169.56
340.018	160.56
340.246	163.56
340.474	170.56
340.702	167.56
340.93	161.56
341.158	165.56
341.386	166.56
341.614	172.56
341.842	178.56
342.07	163.56
342.298	154.56
342.526	151.56
342.754	170.56
342.981	173.56
343.209	173.56
343.437	159.56
343.665	176.56
343.893	195.56
344.12	187.56
344.348	175.56
344.576	177.56
344.804	174.56
345.031	174.56
345.259	172.56
345.487	173.56
345.714	158.56
345.942	161.56
346.17	168.56
346.397	170.56
346.625	168.56
346.853	167.56
347.08	134.56
347.308	153.56
347.535	167.56
347.763	170.56
347.99	181.56
348.218	160.56
348.445	162.56
348.673	167.56
348.9	151.56
349.128	168.56
349.355	161.56
349.583	160.56
349.81	146.56
350.037	177.56
350.265	170.56
350.492	155.56
350.72	159.56
350.947	176.56
351.174	159.56
351.402	169.56
351.629	163.56
351.856	167.56
352.083	172.56
352.311	157.56
352.538	151.56
352.765	175.56
352.992	160.56
353.22	142.56
353.447	159.56
353.674	154.56
353.901	159.56
354.128	162.56
354.355	178.56
354.583	161.56
354.81	159.56
355.037	166.56
355.264	160.56
355.491	163.56
355.718	168.56
355.945	163.56
356.172	154.56
356.399	170.56
356.626	150.56
356.853	168.56
357.08	174.56
357.307	166.56
357.534	154.56
357.761	167.56
357.988	149.56
358.215	166.56
358.441	174.56
358.668	171.56
358.895	162.56
359.122	158.56
359.349	167.56
359.576	156.56
359.802	158.56
360.029	176.56
360.256	156.56
360.483	167.56
360.709	164.56
360.936	152.56
361.163	162.56
361.39	158.56
361.616	156.56
361.843	162.56
362.07	175.56
362.296	165.56
362.523	167.56
362.749	170.56
362.976	165.56
363.203	156.56
363.429	159.56
363.656	153.56
363.882	159.56
364.109	149.56
364.335	172.56
364.562	165.56
364.788	166.56
365.015	171.56
365.241	146.56
365.468	150.56
365.694	168.56
365.92	171.56
366.147	169.56
366.373	184.56
366.599	157.56
366.826	170.56
367.052	160.56
367.278	158.56
367.505	169.56
367.731	174.56
367.957	170.56
368.184	180.56
368.41	152.56
368.636	159.56
368.862	160.56
369.089	176.56
369.315	174.56
369.541	187.56
369.767	170.56
369.993	174.56
370.219	166.56
370.445	168.56
370.672	165.56
370.898	165.56
371.124	175.56
371.35	171.56
371.576	165.56
371.802	182.56
372.028	170.56
372.254	177.56
372.48	175.56
372.706	165.56
372.932	189.56
373.158	166.56
373.384	163.56
373.61	177.56
373.835	201.56
374.061	179.56
374.287	190.56
374.513	182.56
374.739	208.56
374.965	186.56
375.191	178.56
375.416	183.56
375.642	184.56
375.868	184.56
376.094	181.56
376.319	180.56
376.545	169.56
376.771	205.56
376.997	175.56
377.222	186.56
377.448	180.56
377.674	171.56
377.899	164.56
378.125	169.56
378.35	182.56
378.576	182.56
378.802	196.56
379.027	182.56
379.253	170.56
379.478	175.56
379.704	175.56
379.929	175.56
380.155	177.56
380.38	186.56
380.606	208.56
380.831	164.56
381.057	184.56
381.282	167.56
381.507	175.56
381.733	187.56
381.958	184.56
382.184	198.56
382.409	190.56
382.634	185.56
382.86	187.56
383.085	199.56
383.31	181.56
383.535	165.56
383.761	174.56
383.986	209.56
384.211	194.56
384.436	204.56
384.662	201.56
384.887	210.56
385.112	207.56
385.337	213.56
385.562	193.56
385.787	201.56
386.013	217.56
386.238	208.56
386.463	213.56
386.688	210.56
386.913	206.56
387.138	201.56
387.363	202.56
387.588	207.56
387.813	213.56
388.038	209.56
388.263	204.56
388.488	201.56
388.713	195.56
388.938	186.56
389.163	201.56
389.387	196.56
389.612	197.56
389.837	208.56
390.062	206.56
390.287	208.56
390.512	199.56
390.736	223.56
390.961	213.56
391.186	216.56
391.411	206.56
391.636	213.56
391.86	214.56
392.085	220.56
392.31	234.56
392.534	231.56
392.759	222.56
392.984	213.56
393.208	204.56
393.433	225.56
393.658	222.56
393.882	200.56
394.107	231.56
394.331	222.56
394.556	200.56
394.78	215.56
395.005	210.56
395.229	215.56
395.454	222.56
395.678	218.56
395.903	231.56
396.127	238.56
396.352	243.56
396.576	221.56
396.801	215.56
397.025	214.56
397.249	226.56
397.474	225.56
397.698	219.56
397.922	218.56
398.147	233.56
398.371	214.56
398.595	238.56
398.82	240.56
399.044	264.56
399.268	267.56
399.492	279.56
399.717	335.56
399.941	306.56
400.165	284.56
400.389	275.56
400.613	268.56
400.837	248.56
401.062	240.56
401.286	247.56
401.51	242.56
401.734	248.56
401.958	257.56
402.182	260.56
402.406	249.56
402.63	266.56
402.854	241.56
403.078	266.56
403.302	255.56
403.526	268.56
403.75	256.56
403.974	274.56
404.198	281.56
404.422	270.56
404.645	274.56
404.869	261.56
405.093	267.56
405.317	273.56
405.541	255.56
405.765	249.56
405.988	258.56
406.212	269.56
406.436	264.56
406.66	271.56
406.883	270.56
407.107	287.56
407.331	284.56
407.555	313.56
407.778	299.56
408.002	295.56
408.226	289.56
408.449	270.56
408.673	278.56
408.896	273.56
409.12	272.56
409.344	288.56
409.567	285.56
409.791	278.56
410.014	278.56
410.238	252.56
410.461	294.56
410.685	278.56
410.908	267.56
411.132	256.56
411.355	247.56
411.578	247.56
411.802	274.56
412.025	273.56
412.249	257.56
412.472	258.56
412.695	260.56
412.919	246.56
413.142	251.56
413.365	259.56
413.589	280.56
413.812	259.56
414.035	256.56
414.258	256.56
414.482	268.56
414.705	255.56
414.928	271.56
415.151	251.56
415.374	246.56
415.597	269.56
415.821	248.56
416.044	267.56
416.267	235.56
416.49	257.56
416.713	274.56
416.936	266.56
417.159	251.56
417.382	250.56
417.605	266.56
417.828	271.56
418.051	266.56
418.274	259.56
418.497	266.56
418.72	242.56
418.943	275.56
419.166	274.56
419.389	288.56
419.611	264.56
419.834	251.56
420.057	266.56
420.28	256.56
420.503	264.56
420.726	244.56
420.948	251.56
421.171	258.56
421.394	258.56
421.617	263.56
421.839	267.56
422.062	244.56
422.285	261.56
422.507	247.56
422.73	259.56
422.953	267.56
423.175	249.56
423.398	262.56
423.621	274.56
423.843	270.56
424.066	279.56
424.288	274.56
424.511	268.56
424.733	271.56
424.956	273.56
425.178	261.56
425.401	274.56
425.623	274.56
425.846	260.56
426.068	247.56
426.291	252.56
426.513	265.56
426.735	239.56
426.958	241.56
427.18	253.56
427.402	242.56
427.625	247.56
427.847	223.56
428.069	241.56
428.292	249.56
428.514	243.56
428.736	238.56
428.958	240.56
429.181	235.56
429.403	236.56
429.625	229.56
429.847	249.56
430.069	254.56
430.292	242.56
430.514	234.56
430.736	232.56
430.958	240.56
431.18	254.56
431.402	246.56
431.624	247.56
431.846	240.56
432.068	229.56
432.29	238.56
432.512	229.56
432.734	241.56
432.956	256.56
433.178	236.56
433.4	254.56
433.622	238.56
433.844	247.56
434.066	240.56
434.287	225.56
434.509	253.56
434.731	268.56
434.953	270.56
435.175	258.56
435.397	276.56
435.618	260.56
435.84	262.56
436.062	244.56
436.284	249.56
436.505	231.56
436.727	252.56
436.949	250.56
437.17	239.56
437.392	254.56
437.614	233.56
437.835	234.56
438.057	247.56
438.278	236.56
438.5	236.56
438.721	272.56
438.943	243.56
439.165	258.56
439.386	243.56
439.608	259.56
439.829	276.56
440.05	265.56
440.272	250.56
440.493	263.56
440.715	267.56
440.936	261.56
441.158	277.56
441.379	286.56
441.6	298.56
441.822	285.56
442.043	280.56
442.264	276.56
442.486	282.56
442.707	278.56
442.928	273.56
443.149	291.56
443.371	293.56
443.592	266.56
443.813	267.56
444.034	293.56
444.255	280.56
444.476	304.56
444.698	298.56
444.919	299.56
445.14	437.56
445.361	347.56
445.582	278.56
445.803	279.56
446.024	276.56
446.245	278.56
446.466	281.56
446.687	252.56
446.908	246.56
447.129	268.56
447.35	260.56
447.571	264.56
447.792	241.56
448.013	256.56
448.234	243.56
448.455	257.56
448.675	281.56
448.896	242.56
449.117	235.56
449.338	249.56
449.559	255.56
449.779	232.56
450	243.56
450.221	237.56
450.442	242.56
450.662	260.56
450.883	222.56
451.104	246.56
451.324	271.56
451.545	245.56
451.766	254.56
451.986	244.56
452.207	249.56
452.428	245.56
452.648	242.56
452.869	229.56
453.089	235.56
453.31	218.56
453.53	227.56
453.751	234.56
453.971	243.56
454.192	212.56
454.412	222.56
454.633	247.56
454.853	218.56
455.073	232.56
455.294	236.56
455.514	223.56
455.734	222.56
455.955	211.56
456.175	223.56
456.395	231.56
456.616	224.56
456.836	214.56
457.056	214.56
457.276	204.56
457.497	226.56
457.717	226.56
457.937	239.56
458.157	226.56
458.377	243.56
458.598	224.56
458.818	257.56
459.038	226.56
459.258	256.56
459.478	248.56
459.698	255.56
459.918	264.56
460.138	273.56
460.358	283.56
460.578	278.56
460.798	268.56
461.018	292.56
461.238	272.56
461.458	281.56
461.678	296.56
461.898	259.56
462.118	295.56
462.338	299.56
462.558	309.56
462.777	306.56
462.997	322.56
463.217	339.56
463.437	329.56
463.657	321.56
463.876	323.56
464.096	331.56
464.316	306.56
464.536	310.56
464.755	304.56
464.975	293.56
465.195	276.56
465.414	272.56
465.634	283.56
465.854	242.56
466.073	264.56
466.293	244.56
466.512	258.56
466.732	257.56
466.951	273.56
467.171	274.56
467.391	241.56
467.61	242.56
467.829	249.56
468.049	273.56
468.268	254.56
468.488	250.56
468.707	245.56
468.927	220.56
469.146	241.56
469.365	258.56
469.585	257.56
469.804	253.56
470.023	257.56
470.243	268.56
470.462	265.56
470.681	250.56
470.901	259.56
471.12	260.56
471.339	259.56
471.558	260.56
471.777	243.56
471.997	254.56
472.216	250.56
472.435	231.56
472.654	226.56
472.873	234.56
473.092	246.56
473.311	235.56
473.53	234.56
473.749	240.56
473.968	246.56
474.187	247.56
474.406	226.56
474.625	235.56
474.844	242.56
475.063	230.56
475.282	228.56
475.501	226.56
475.72	248.56
475.939	235.56
476.158	255.56
476.377	243.56
476.596	235.56
476.814	234.56
477.033	242.56
477.252	244.56
477.471	260.56
477.69	254.56
477.908	285.56
478.127	293.56
478.346	267.56
478.564	260.56
478.783	267.56
479.002	260.56
479.22	273.56
479.439	286.56
479.658	280.56
479.876	284.56
480.095	268.56
480.313	297.56
480.532	285.56
480.751	295.56
480.969	273.56
481.188	271.56
481.406	255.56
481.624	253.56
481.843	240.56
482.061	264.56
482.28	267.56
482.498	251.56
482.717	235.56
482.935	246.56
483.153	268.56
483.372	266.56
483.59	267.56
483.808	271.56
484.027	271.56
484.245	243.56
484.463	260.56
484.681	266.56
484.9	272.56
485.118	272.56
485.336	249.56
485.554	255.56
485.772	276.56
485.99	256.56
486.209	278.56
486.427	260.56
486.645	278.56
486.863	281.56
487.081	274.56
487.299	268.56
487.517	264.56
487.735	267.56
487.953	282.56
488.171	278.56
488.389	262.56
488.607	252.56
488.825	254.56
489.043	274.56
489.261	274.56
489.479	239.56
489.696	266.56
489.914	277.56
490.132	275.56
490.35	276.56
490.568	243.56
490.786	266.56
491.003	263.56
491.221	265.56
491.439	280.56
491.657	276.56
491.874	281.56
492.092	291.56
492.31	291.56
492.527	289.56
492.745	278.56
492.963	257.56
493.18	290.56
493.398	286.56
493.615	281.56
493.833	266.56
494.05	287.56
494.268	282.56
494.485	283.56
494.703	277.56
494.92	284.56
495.138	289.56
495.355	275.56
495.573	299.56
495.79	287.56
496.008	290.56
496.225	277.56
496.442	292.56
496.66	295.56
496.877	283.56
497.094	280.56
497.312	292.56
497.529	326.56
497.746	305.56
497.963	315.56
498.181	321.56
498.398	329.56
498.615	353.56
498.832	347.56
499.049	388.56
499.267	406.56
499.484	419.56
499.701	452.56
499.918	499.56
500.135	545.56
500.352	618.56
500.569	603.56
500.786	594.56
501.003	573.56
501.22	530.56
501.437	470.56
501.654	434.56
501.871	412.56
502.088	392.56
502.305	370.56
502.522	344.56
502.739	334.56
502.956	324.56
503.172	318.56
