Data from Fe(NO3)3@0.1M.TitratingCurve.Agarose3%dH2O.NegLispCup.LampEnergy10.LIBS07252019_HRD10591_16-37-40-331.txt Node
Date: Thu Jul 25 16:37:40 EDT 2019
User: cochatt
Spectrometer: HR+D1059
Trigger mode: 1
Integration Time (sec): 1.000000E-1
Scans to average: 1
Electric dark correction enabled: true
Nonlinearity correction enabled: false
Boxcar width: 0
XAxis mode: Wavelengths
Number of Pixels in Spectrum: 2048
>>>>>Begin Spectral Data<<<<<
223.165	-2.88
223.4	-2.88
223.635	-2.88
223.869	-8.88
224.104	-23.88
224.338	-12.88
224.573	-5.88
224.808	-10.88
225.042	-2.88
225.277	-9.88
225.511	0.12
225.746	-0.88
225.98	9.12
226.215	8.12
226.449	5.12
226.683	19.12
226.918	16.12
227.152	21.12
227.387	49.12
227.621	37.12
227.856	42.12
228.09	52.12
228.324	51.12
228.559	52.12
228.793	59.12
229.027	64.12
229.262	67.12
229.496	76.12
229.73	62.12
229.964	89.12
230.199	95.12
230.433	91.12
230.667	77.12
230.901	86.12
231.136	104.12
231.37	87.12
231.604	86.12
231.838	94.12
232.072	83.12
232.306	97.12
232.541	97.12
232.775	89.12
233.009	108.12
233.243	111.12
233.477	98.12
233.711	102.12
233.945	94.12
234.179	92.12
234.413	101.12
234.647	87.12
234.881	99.12
235.115	88.12
235.349	92.12
235.583	88.12
235.817	101.12
236.051	89.12
236.285	106.12
236.519	83.12
236.753	91.12
236.987	105.12
237.221	101.12
237.455	95.12
237.689	120.12
237.922	98.12
238.156	89.12
238.39	109.12
238.624	108.12
238.858	111.12
239.091	107.12
239.325	104.12
239.559	96.12
239.793	95.12
240.027	106.12
240.26	111.12
240.494	97.12
240.728	99.12
240.961	124.12
241.195	107.12
241.429	95.12
241.662	93.12
241.896	99.12
242.13	108.12
242.363	93.12
242.597	98.12
242.83	122.12
243.064	102.12
243.298	103.12
243.531	103.12
243.765	105.12
243.998	115.12
244.232	91.12
244.465	101.12
244.699	119.12
244.932	117.12
245.166	114.12
245.399	123.12
245.633	126.12
245.866	118.12
246.099	116.12
246.333	122.12
246.566	102.12
246.8	114.12
247.033	111.12
247.266	105.12
247.5	101.12
247.733	125.12
247.966	121.12
248.2	130.12
248.433	102.12
248.666	127.12
248.899	115.12
249.133	124.12
249.366	115.12
249.599	113.12
249.832	130.12
250.066	122.12
250.299	121.12
250.532	112.12
250.765	120.12
250.998	116.12
251.231	113.12
251.465	121.12
251.698	134.12
251.931	124.12
252.164	131.12
252.397	143.12
252.63	127.12
252.863	141.12
253.096	124.12
253.329	135.12
253.562	119.12
253.795	131.12
254.028	131.12
254.261	128.12
254.494	121.12
254.727	124.12
254.96	157.12
255.193	139.12
255.426	142.12
255.659	127.12
255.892	139.12
256.124	145.12
256.357	129.12
256.59	132.12
256.823	132.12
257.056	131.12
257.289	140.12
257.521	134.12
257.754	137.12
257.987	147.12
258.22	122.12
258.452	142.12
258.685	140.12
258.918	130.12
259.151	134.12
259.383	146.12
259.616	139.12
259.849	146.12
260.081	139.12
260.314	146.12
260.547	146.12
260.779	143.12
261.012	147.12
261.244	146.12
261.477	134.12
261.71	139.12
261.942	156.12
262.175	152.12
262.407	131.12
262.64	139.12
262.872	152.12
263.105	155.12
263.337	152.12
263.57	159.12
263.802	124.12
264.035	162.12
264.267	145.12
264.499	157.12
264.732	151.12
264.964	153.12
265.197	141.12
265.429	151.12
265.661	147.12
265.894	146.12
266.126	146.12
266.358	144.12
266.591	153.12
266.823	160.12
267.055	149.12
267.287	164.12
267.52	154.12
267.752	153.12
267.984	167.12
268.216	173.12
268.448	141.12
268.681	169.12
268.913	149.12
269.145	160.12
269.377	155.12
269.609	159.12
269.841	155.12
270.073	169.12
270.306	149.12
270.538	163.12
270.77	164.12
271.002	166.12
271.234	160.12
271.466	164.12
271.698	148.12
271.93	160.12
272.162	157.12
272.394	162.12
272.626	167.12
272.858	153.12
273.09	155.12
273.322	170.12
273.553	161.12
273.785	179.12
274.017	168.12
274.249	175.12
274.481	139.12
274.713	181.12
274.945	170.12
275.176	171.12
275.408	162.12
275.64	192.12
275.872	175.12
276.104	169.12
276.335	179.12
276.567	191.12
276.799	180.12
277.031	193.12
277.262	169.12
277.494	176.12
277.726	167.12
277.957	183.12
278.189	184.12
278.421	176.12
278.652	169.12
278.884	178.12
279.115	189.12
279.347	173.12
279.579	175.12
279.81	173.12
280.042	170.12
280.273	188.12
280.505	176.12
280.736	184.12
280.968	188.12
281.199	180.12
281.431	187.12
281.662	201.12
281.894	181.12
282.125	189.12
282.356	191.12
282.588	187.12
282.819	186.12
283.051	190.12
283.282	193.12
283.513	183.12
283.745	187.12
283.976	192.12
284.207	198.12
284.439	175.12
284.67	178.12
284.901	180.12
285.132	201.12
285.364	196.12
285.595	173.12
285.826	179.12
286.057	201.12
286.288	187.12
286.52	183.12
286.751	198.12
286.982	194.12
287.213	192.12
287.444	191.12
287.675	178.12
287.906	200.12
288.138	179.12
288.369	186.12
288.6	194.12
288.831	205.12
289.062	215.12
289.293	211.12
289.524	201.12
289.755	204.12
289.986	191.12
290.217	205.12
290.448	196.12
290.679	189.12
290.91	199.12
291.141	197.12
291.371	189.12
291.602	197.12
291.833	201.12
292.064	180.12
292.295	189.12
292.526	199.12
292.757	211.12
292.987	204.12
293.218	204.12
293.449	195.12
293.68	202.12
293.91	211.12
294.141	195.12
294.372	197.12
294.603	210.12
294.833	219.12
295.064	212.12
295.295	208.12
295.525	205.12
295.756	200.12
295.987	197.12
296.217	225.12
296.448	198.12
296.679	202.12
296.909	220.12
297.14	224.12
297.37	215.12
297.601	204.12
297.831	202.12
298.062	210.12
298.292	195.12
298.523	230.12
298.753	203.12
298.984	194.12
299.214	217.12
299.445	214.12
299.675	203.12
299.905	222.12
300.136	210.12
300.366	244.12
300.597	222.12
300.827	233.12
301.057	215.12
301.288	224.12
301.518	221.12
301.748	217.12
301.979	221.12
302.209	225.12
302.439	222.12
302.669	210.12
302.9	223.12
303.13	219.12
303.36	201.12
303.59	216.12
303.82	204.12
304.051	213.12
304.281	217.12
304.511	210.12
304.741	233.12
304.971	224.12
305.201	221.12
305.431	216.12
305.661	215.12
305.891	197.12
306.121	227.12
306.352	230.12
306.582	217.12
306.812	199.12
307.042	227.12
307.272	232.12
307.502	227.12
307.731	226.12
307.961	220.12
308.191	231.12
308.421	222.12
308.651	205.12
308.881	208.12
309.111	223.12
309.341	217.12
309.571	227.12
309.8	209.12
310.03	212.12
310.26	217.12
310.49	222.12
310.72	207.12
310.949	229.12
311.179	216.12
311.409	225.12
311.639	221.12
311.868	217.12
312.098	221.12
312.328	246.12
312.557	228.12
312.787	221.12
313.017	233.12
313.246	236.12
313.476	237.12
313.706	236.12
313.935	246.12
314.165	224.12
314.394	225.12
314.624	229.12
314.853	218.12
315.083	227.12
315.312	233.12
315.542	217.12
315.771	243.12
316.001	249.12
316.23	225.12
316.46	227.12
316.689	234.12
316.919	233.12
317.148	230.12
317.377	219.12
317.607	219.12
317.836	241.12
318.065	237.12
318.295	229.12
318.524	249.12
318.753	234.12
318.983	229.12
319.212	240.12
319.441	236.12
319.67	219.12
319.9	226.12
320.129	225.12
320.358	226.12
320.587	224.12
320.816	240.12
321.046	226.12
321.275	240.12
321.504	244.12
321.733	240.12
321.962	227.12
322.191	226.12
322.42	244.12
322.649	223.12
322.878	236.12
323.108	240.12
323.337	239.12
323.566	239.12
323.795	246.12
324.024	245.12
324.253	233.12
324.482	224.12
324.71	244.12
324.939	268.12
325.168	256.12
325.397	236.12
325.626	241.12
325.855	251.12
326.084	242.12
326.313	243.12
326.542	240.12
326.77	257.12
326.999	251.12
327.228	255.12
327.457	247.12
327.686	243.12
327.914	233.12
328.143	282.12
328.372	243.12
328.6	245.12
328.829	258.12
329.058	260.12
329.287	258.12
329.515	253.12
329.744	261.12
329.972	249.12
330.201	274.12
330.43	251.12
330.658	264.12
330.887	258.12
331.115	246.12
331.344	253.12
331.572	263.12
331.801	264.12
332.03	252.12
332.258	257.12
332.486	271.12
332.715	275.12
332.943	298.12
333.172	290.12
333.4	295.12
333.629	308.12
333.857	300.12
334.085	279.12
334.314	299.12
334.542	297.12
334.771	287.12
334.999	297.12
335.227	299.12
335.455	305.12
335.684	291.12
335.912	299.12
336.14	281.12
336.369	293.12
336.597	296.12
336.825	311.12
337.053	287.12
337.281	276.12
337.51	280.12
337.738	283.12
337.966	290.12
338.194	275.12
338.422	260.12
338.65	286.12
338.878	270.12
339.106	274.12
339.334	265.12
339.562	266.12
339.79	262.12
340.018	281.12
340.246	261.12
340.474	255.12
340.702	261.12
340.93	263.12
341.158	278.12
341.386	257.12
341.614	252.12
341.842	262.12
342.07	273.12
342.298	267.12
342.526	260.12
342.754	266.12
342.981	271.12
343.209	275.12
343.437	288.12
343.665	277.12
343.893	296.12
344.12	308.12
344.348	323.12
344.576	264.12
344.804	269.12
345.031	267.12
345.259	287.12
345.487	258.12
345.714	274.12
345.942	260.12
346.17	263.12
346.397	257.12
346.625	267.12
346.853	274.12
347.08	253.12
347.308	252.12
347.535	248.12
347.763	258.12
347.99	259.12
348.218	255.12
348.445	268.12
348.673	243.12
348.9	263.12
349.128	263.12
349.355	273.12
349.583	239.12
349.81	253.12
350.037	265.12
350.265	246.12
350.492	267.12
350.72	264.12
350.947	243.12
351.174	251.12
351.402	260.12
351.629	254.12
351.856	256.12
352.083	248.12
352.311	260.12
352.538	237.12
352.765	243.12
352.992	244.12
353.22	247.12
353.447	243.12
353.674	267.12
353.901	260.12
354.128	242.12
354.355	257.12
354.583	259.12
354.81	246.12
355.037	237.12
355.264	234.12
355.491	241.12
355.718	255.12
355.945	257.12
356.172	263.12
356.399	242.12
356.626	253.12
356.853	275.12
357.08	258.12
357.307	262.12
357.534	251.12
357.761	241.12
357.988	257.12
358.215	255.12
358.441	263.12
358.668	263.12
358.895	242.12
359.122	248.12
359.349	248.12
359.576	257.12
359.802	245.12
360.029	263.12
360.256	249.12
360.483	241.12
360.709	276.12
360.936	278.12
361.163	267.12
361.39	253.12
361.616	267.12
361.843	246.12
362.07	249.12
362.296	257.12
362.523	249.12
362.749	244.12
362.976	266.12
363.203	265.12
363.429	244.12
363.656	247.12
363.882	255.12
364.109	257.12
364.335	256.12
364.562	249.12
364.788	259.12
365.015	266.12
365.241	277.12
365.468	277.12
365.694	263.12
365.92	247.12
366.147	245.12
366.373	235.12
366.599	232.12
366.826	258.12
367.052	259.12
367.278	250.12
367.505	267.12
367.731	276.12
367.957	269.12
368.184	261.12
368.41	261.12
368.636	268.12
368.862	258.12
369.089	267.12
369.315	273.12
369.541	254.12
369.767	261.12
369.993	288.12
370.219	266.12
370.445	275.12
370.672	282.12
370.898	264.12
371.124	274.12
371.35	268.12
371.576	293.12
371.802	266.12
372.028	299.12
372.254	276.12
372.48	303.12
372.706	297.12
372.932	281.12
373.158	294.12
373.384	300.12
373.61	282.12
373.835	291.12
374.061	276.12
374.287	299.12
374.513	283.12
374.739	290.12
374.965	317.12
375.191	311.12
375.416	303.12
375.642	309.12
375.868	299.12
376.094	307.12
376.319	278.12
376.545	292.12
376.771	288.12
376.997	298.12
377.222	307.12
377.448	287.12
377.674	301.12
377.899	304.12
378.125	287.12
378.35	283.12
378.576	269.12
378.802	297.12
379.027	293.12
379.253	285.12
379.478	286.12
379.704	285.12
379.929	304.12
380.155	282.12
380.38	278.12
380.606	284.12
380.831	281.12
381.057	296.12
381.282	307.12
381.507	284.12
381.733	299.12
381.958	284.12
382.184	315.12
382.409	314.12
382.634	309.12
382.86	316.12
383.085	322.12
383.31	320.12
383.535	301.12
383.761	334.12
383.986	329.12
384.211	333.12
384.436	345.12
384.662	348.12
384.887	334.12
385.112	336.12
385.337	368.12
385.562	351.12
385.787	330.12
386.013	347.12
386.238	352.12
386.463	362.12
386.688	337.12
386.913	351.12
387.138	347.12
387.363	352.12
387.588	354.12
387.813	344.12
388.038	341.12
388.263	341.12
388.488	351.12
388.713	360.12
388.938	326.12
389.163	358.12
389.387	364.12
389.612	345.12
389.837	347.12
390.062	345.12
390.287	377.12
390.512	360.12
390.736	364.12
390.961	369.12
391.186	361.12
391.411	367.12
391.636	370.12
391.86	381.12
392.085	394.12
392.31	381.12
392.534	370.12
392.759	368.12
392.984	364.12
393.208	370.12
393.433	385.12
393.658	361.12
393.882	356.12
394.107	385.12
394.331	388.12
394.556	374.12
394.78	383.12
395.005	411.12
395.229	375.12
395.454	387.12
395.678	399.12
395.903	393.12
396.127	405.12
396.352	375.12
396.576	372.12
396.801	396.12
397.025	376.12
397.249	390.12
397.474	405.12
397.698	393.12
397.922	399.12
398.147	405.12
398.371	408.12
398.595	403.12
398.82	423.12
399.044	457.12
399.268	486.12
399.492	533.12
399.717	570.12
399.941	576.12
400.165	540.12
400.389	494.12
400.613	465.12
400.837	464.12
401.062	457.12
401.286	437.12
401.51	442.12
401.734	426.12
401.958	473.12
402.182	428.12
402.406	422.12
402.63	455.12
402.854	438.12
403.078	461.12
403.302	477.12
403.526	472.12
403.75	451.12
403.974	468.12
404.198	472.12
404.422	476.12
404.645	487.12
404.869	481.12
405.093	474.12
405.317	460.12
405.541	468.12
405.765	456.12
405.988	470.12
406.212	478.12
406.436	474.12
406.66	495.12
406.883	505.12
407.107	495.12
407.331	527.12
407.555	534.12
407.778	546.12
408.002	529.12
408.226	515.12
408.449	513.12
408.673	501.12
408.896	499.12
409.12	487.12
409.344	495.12
409.567	490.12
409.791	505.12
410.014	467.12
410.238	491.12
410.461	488.12
410.685	480.12
410.908	485.12
411.132	487.12
411.355	483.12
411.578	463.12
411.802	464.12
412.025	451.12
412.249	448.12
412.472	464.12
412.695	451.12
412.919	452.12
413.142	447.12
413.365	420.12
413.589	439.12
413.812	463.12
414.035	436.12
414.258	457.12
414.482	466.12
414.705	459.12
414.928	461.12
415.151	463.12
415.374	440.12
415.597	470.12
415.821	459.12
416.044	438.12
416.267	443.12
416.49	435.12
416.713	440.12
416.936	443.12
417.159	440.12
417.382	432.12
417.605	441.12
417.828	443.12
418.051	445.12
418.274	441.12
418.497	421.12
418.72	447.12
418.943	441.12
419.166	460.12
419.389	490.12
419.611	476.12
419.834	452.12
420.057	448.12
420.28	434.12
420.503	419.12
420.726	436.12
420.948	424.12
421.171	434.12
421.394	451.12
421.617	432.12
421.839	436.12
422.062	447.12
422.285	431.12
422.507	457.12
422.73	454.12
422.953	444.12
423.175	441.12
423.398	451.12
423.621	443.12
423.843	439.12
424.066	435.12
424.288	439.12
424.511	430.12
424.733	452.12
424.956	447.12
425.178	424.12
425.401	451.12
425.623	432.12
425.846	427.12
426.068	435.12
426.291	417.12
426.513	415.12
426.735	427.12
426.958	406.12
427.18	395.12
427.402	413.12
427.625	425.12
427.847	400.12
428.069	401.12
428.292	417.12
428.514	407.12
428.736	379.12
428.958	398.12
429.181	381.12
429.403	411.12
429.625	409.12
429.847	395.12
430.069	412.12
430.292	396.12
430.514	394.12
430.736	392.12
430.958	397.12
431.18	381.12
431.402	396.12
431.624	396.12
431.846	403.12
432.068	381.12
432.29	396.12
432.512	402.12
432.734	403.12
432.956	413.12
433.178	420.12
433.4	417.12
433.622	415.12
433.844	421.12
434.066	401.12
434.287	407.12
434.509	439.12
434.731	436.12
434.953	441.12
435.175	448.12
435.397	435.12
435.618	418.12
435.84	405.12
436.062	392.12
436.284	411.12
436.505	413.12
436.727	405.12
436.949	413.12
437.17	399.12
437.392	412.12
437.614	394.12
437.835	397.12
438.057	382.12
438.278	389.12
438.5	398.12
438.721	386.12
438.943	402.12
439.165	402.12
439.386	396.12
439.608	387.12
439.829	389.12
440.05	417.12
440.272	431.12
440.493	407.12
440.715	396.12
440.936	404.12
441.158	408.12
441.379	439.12
441.6	437.12
441.822	433.12
442.043	422.12
442.264	433.12
442.486	437.12
442.707	441.12
442.928	427.12
443.149	445.12
443.371	445.12
443.592	426.12
443.813	419.12
444.034	460.12
444.255	451.12
444.476	455.12
444.698	469.12
444.919	487.12
445.14	605.12
445.361	521.12
445.582	454.12
445.803	415.12
446.024	441.12
446.245	407.12
446.466	407.12
446.687	406.12
446.908	413.12
447.129	403.12
447.35	386.12
447.571	390.12
447.792	382.12
448.013	391.12
448.234	378.12
448.455	369.12
448.675	391.12
448.896	380.12
449.117	378.12
449.338	364.12
449.559	393.12
449.779	367.12
450	390.12
450.221	394.12
450.442	375.12
450.662	382.12
450.883	375.12
451.104	371.12
451.324	398.12
451.545	381.12
451.766	387.12
451.986	389.12
452.207	380.12
452.428	377.12
452.648	369.12
452.869	357.12
453.089	367.12
453.31	356.12
453.53	362.12
453.751	372.12
453.971	346.12
454.192	351.12
454.412	353.12
454.633	357.12
454.853	362.12
455.073	359.12
455.294	371.12
455.514	353.12
455.734	368.12
455.955	347.12
456.175	361.12
456.395	355.12
456.616	352.12
456.836	340.12
457.056	361.12
457.276	357.12
457.497	346.12
457.717	361.12
457.937	364.12
458.157	370.12
458.377	351.12
458.598	351.12
458.818	368.12
459.038	385.12
459.258	379.12
459.478	401.12
459.698	398.12
459.918	424.12
460.138	432.12
460.358	437.12
460.578	448.12
460.798	447.12
461.018	432.12
461.238	456.12
461.458	452.12
461.678	457.12
461.898	461.12
462.118	463.12
462.338	489.12
462.558	490.12
462.777	540.12
462.997	561.12
463.217	583.12
463.437	569.12
463.657	524.12
463.876	505.12
464.096	535.12
464.316	515.12
464.536	497.12
464.755	494.12
464.975	503.12
465.195	461.12
465.414	447.12
465.634	445.12
465.854	428.12
466.073	415.12
466.293	418.12
466.512	403.12
466.732	393.12
466.951	407.12
467.171	391.12
467.391	391.12
467.61	406.12
467.829	371.12
468.049	390.12
468.268	372.12
468.488	381.12
468.707	375.12
468.927	383.12
469.146	363.12
469.365	384.12
469.585	393.12
469.804	381.12
470.023	407.12
470.243	394.12
470.462	397.12
470.681	409.12
470.901	413.12
471.12	405.12
471.339	399.12
471.558	388.12
471.777	404.12
471.997	381.12
472.216	405.12
472.435	377.12
472.654	383.12
472.873	365.12
473.092	362.12
473.311	374.12
473.53	355.12
473.749	395.12
473.968	401.12
474.187	377.12
474.406	361.12
474.625	375.12
474.844	372.12
475.063	375.12
475.282	362.12
475.501	362.12
475.72	382.12
475.939	387.12
476.158	408.12
476.377	379.12
476.596	380.12
476.814	403.12
477.033	399.12
477.252	359.12
477.471	423.12
477.69	407.12
477.908	432.12
478.127	467.12
478.346	426.12
478.564	432.12
478.783	446.12
479.002	435.12
479.22	443.12
479.439	455.12
479.658	442.12
479.876	452.12
480.095	464.12
480.313	470.12
480.532	473.12
480.751	496.12
480.969	468.12
481.188	442.12
481.406	433.12
481.624	420.12
481.843	433.12
482.061	398.12
482.28	431.12
482.498	441.12
482.717	401.12
482.935	428.12
483.153	420.12
483.372	413.12
483.59	445.12
483.808	436.12
484.027	419.12
484.245	450.12
484.463	420.12
484.681	426.12
484.9	417.12
485.118	403.12
485.336	426.12
485.554	419.12
485.772	424.12
485.99	435.12
486.209	430.12
486.427	442.12
486.645	436.12
486.863	442.12
487.081	428.12
487.299	441.12
487.517	455.12
487.735	481.12
487.953	428.12
488.171	422.12
488.389	446.12
488.607	437.12
488.825	428.12
489.043	427.12
489.261	427.12
489.479	450.12
489.696	433.12
489.914	453.12
490.132	429.12
490.35	433.12
490.568	428.12
490.786	450.12
491.003	450.12
491.221	434.12
491.439	452.12
491.657	428.12
491.874	458.12
492.092	465.12
492.31	435.12
492.527	460.12
492.745	448.12
492.963	466.12
493.18	465.12
493.398	456.12
493.615	446.12
493.833	474.12
494.05	451.12
494.268	458.12
494.485	472.12
494.703	460.12
494.92	452.12
495.138	479.12
495.355	458.12
495.573	482.12
495.79	479.12
496.008	510.12
496.225	477.12
496.442	482.12
496.66	480.12
496.877	495.12
497.094	480.12
497.312	511.12
497.529	505.12
497.746	523.12
497.963	549.12
498.181	553.12
498.398	598.12
498.615	605.12
498.832	629.12
499.049	659.12
499.267	709.12
499.484	772.12
499.701	824.12
499.918	876.12
500.135	994.12
500.352	1087.12
500.569	1097.12
500.786	1056.12
501.003	1008.12
501.22	946.12
501.437	856.12
501.654	778.12
501.871	734.12
502.088	703.12
