Data from Fe(NO3)3@0.025M.TitratingCurve.Agarose3%dH2O.NegLispCup.LampEnergy10.LIBS07252019_HRD10591_16-54-44-335.txt Node
Date: Thu Jul 25 16:54:44 EDT 2019
User: cochatt
Spectrometer: HR+D1059
Trigger mode: 1
Integration Time (sec): 1.000000E-1
Scans to average: 1
Electric dark correction enabled: true
Nonlinearity correction enabled: false
Boxcar width: 0
XAxis mode: Wavelengths
Number of Pixels in Spectrum: 2048
>>>>>Begin Spectral Data<<<<<
223.165	10.38
223.4	10.38
223.635	10.38
223.869	-11.62
224.104	-27.62
224.338	-7.62
224.573	-18.62
224.808	-3.62
225.042	-11.62
225.277	-10.62
225.511	-9.62
225.746	3.38
225.98	-4.62
226.215	17.38
226.449	12.38
226.683	18.38
226.918	11.38
227.152	32.38
227.387	57.38
227.621	52.38
227.856	56.38
228.09	46.38
228.324	43.38
228.559	65.38
228.793	52.38
229.027	62.38
229.262	74.38
229.496	75.38
229.73	84.38
229.964	76.38
230.199	89.38
230.433	80.38
230.667	94.38
230.901	89.38
231.136	82.38
231.37	90.38
231.604	103.38
231.838	92.38
232.072	86.38
232.306	96.38
232.541	110.38
232.775	116.38
233.009	93.38
233.243	108.38
233.477	91.38
233.711	105.38
233.945	96.38
234.179	87.38
234.413	98.38
234.647	111.38
234.881	105.38
235.115	93.38
235.349	92.38
235.583	112.38
235.817	106.38
236.051	92.38
236.285	100.38
236.519	109.38
236.753	97.38
236.987	113.38
237.221	99.38
237.455	112.38
237.689	107.38
237.922	103.38
238.156	103.38
238.39	101.38
238.624	86.38
238.858	101.38
239.091	92.38
239.325	109.38
239.559	104.38
239.793	97.38
240.027	105.38
240.26	109.38
240.494	109.38
240.728	120.38
240.961	114.38
241.195	98.38
241.429	120.38
241.662	115.38
241.896	90.38
242.13	120.38
242.363	98.38
242.597	117.38
242.83	107.38
243.064	108.38
243.298	120.38
243.531	118.38
243.765	132.38
243.998	113.38
244.232	126.38
244.465	112.38
244.699	106.38
244.932	113.38
245.166	121.38
245.399	113.38
245.633	105.38
245.866	116.38
246.099	120.38
246.333	102.38
246.566	122.38
246.8	125.38
247.033	118.38
247.266	107.38
247.5	120.38
247.733	121.38
247.966	124.38
248.2	126.38
248.433	124.38
248.666	115.38
248.899	122.38
249.133	113.38
249.366	121.38
249.599	119.38
249.832	105.38
250.066	104.38
250.299	108.38
250.532	120.38
250.765	123.38
250.998	121.38
251.231	133.38
251.465	121.38
251.698	127.38
251.931	121.38
252.164	132.38
252.397	144.38
252.63	125.38
252.863	124.38
253.096	141.38
253.329	137.38
253.562	132.38
253.795	132.38
254.028	146.38
254.261	136.38
254.494	116.38
254.727	127.38
254.96	150.38
255.193	126.38
255.426	122.38
255.659	122.38
255.892	137.38
256.124	139.38
256.357	148.38
256.59	120.38
256.823	124.38
257.056	137.38
257.289	143.38
257.521	146.38
257.754	146.38
257.987	129.38
258.22	137.38
258.452	136.38
258.685	136.38
258.918	126.38
259.151	131.38
259.383	123.38
259.616	135.38
259.849	131.38
260.081	140.38
260.314	152.38
260.547	152.38
260.779	150.38
261.012	139.38
261.244	140.38
261.477	148.38
261.71	145.38
261.942	150.38
262.175	157.38
262.407	144.38
262.64	163.38
262.872	156.38
263.105	151.38
263.337	135.38
263.57	135.38
263.802	137.38
264.035	139.38
264.267	146.38
264.499	148.38
264.732	136.38
264.964	150.38
265.197	130.38
265.429	147.38
265.661	140.38
265.894	142.38
266.126	161.38
266.358	157.38
266.591	158.38
266.823	152.38
267.055	156.38
267.287	138.38
267.52	150.38
267.752	141.38
267.984	140.38
268.216	145.38
268.448	161.38
268.681	138.38
268.913	154.38
269.145	152.38
269.377	168.38
269.609	164.38
269.841	166.38
270.073	158.38
270.306	179.38
270.538	178.38
270.77	160.38
271.002	165.38
271.234	153.38
271.466	158.38
271.698	171.38
271.93	159.38
272.162	167.38
272.394	184.38
272.626	174.38
272.858	164.38
273.09	163.38
273.322	170.38
273.553	188.38
273.785	168.38
274.017	162.38
274.249	176.38
274.481	160.38
274.713	159.38
274.945	150.38
275.176	156.38
275.408	164.38
275.64	168.38
275.872	163.38
276.104	168.38
276.335	165.38
276.567	170.38
276.799	181.38
277.031	188.38
277.262	188.38
277.494	169.38
277.726	173.38
277.957	182.38
278.189	179.38
278.421	186.38
278.652	169.38
278.884	181.38
279.115	182.38
279.347	179.38
279.579	195.38
279.81	189.38
280.042	183.38
280.273	169.38
280.505	188.38
280.736	184.38
280.968	186.38
281.199	180.38
281.431	186.38
281.662	182.38
281.894	172.38
282.125	188.38
282.356	180.38
282.588	176.38
282.819	200.38
283.051	205.38
283.282	208.38
283.513	198.38
283.745	192.38
283.976	190.38
284.207	192.38
284.439	208.38
284.67	189.38
284.901	194.38
285.132	205.38
285.364	191.38
285.595	206.38
285.826	186.38
286.057	212.38
286.288	187.38
286.52	199.38
286.751	203.38
286.982	198.38
287.213	194.38
287.444	215.38
287.675	211.38
287.906	215.38
288.138	184.38
288.369	205.38
288.6	214.38
288.831	187.38
289.062	186.38
289.293	211.38
289.524	205.38
289.755	233.38
289.986	200.38
290.217	209.38
290.448	203.38
290.679	202.38
290.91	196.38
291.141	213.38
291.371	212.38
291.602	205.38
291.833	220.38
292.064	207.38
292.295	216.38
292.526	194.38
292.757	208.38
292.987	219.38
293.218	192.38
293.449	215.38
293.68	210.38
293.91	210.38
294.141	212.38
294.372	206.38
294.603	217.38
294.833	211.38
295.064	196.38
295.295	209.38
295.525	205.38
295.756	210.38
295.987	202.38
296.217	213.38
296.448	226.38
296.679	208.38
296.909	210.38
297.14	222.38
297.37	209.38
297.601	221.38
297.831	222.38
298.062	235.38
298.292	237.38
298.523	230.38
298.753	214.38
298.984	242.38
299.214	220.38
299.445	222.38
299.675	209.38
299.905	224.38
300.136	220.38
300.366	212.38
300.597	236.38
300.827	211.38
301.057	249.38
301.288	236.38
301.518	245.38
301.748	216.38
301.979	228.38
302.209	237.38
302.439	233.38
302.669	247.38
302.9	226.38
303.13	213.38
303.36	220.38
303.59	219.38
303.82	256.38
304.051	230.38
304.281	249.38
304.511	233.38
304.741	241.38
304.971	247.38
305.201	238.38
305.431	224.38
305.661	244.38
305.891	229.38
306.121	220.38
306.352	225.38
306.582	233.38
306.812	229.38
307.042	227.38
307.272	228.38
307.502	238.38
307.731	233.38
307.961	230.38
308.191	213.38
308.421	246.38
308.651	220.38
308.881	235.38
309.111	234.38
309.341	228.38
309.571	235.38
309.8	216.38
310.03	223.38
310.26	227.38
310.49	257.38
310.72	238.38
310.949	252.38
311.179	218.38
311.409	220.38
311.639	234.38
311.868	226.38
312.098	243.38
312.328	242.38
312.557	240.38
312.787	258.38
313.017	243.38
313.246	245.38
313.476	248.38
313.706	254.38
313.935	263.38
314.165	245.38
314.394	231.38
314.624	251.38
314.853	246.38
315.083	252.38
315.312	246.38
315.542	233.38
315.771	241.38
316.001	238.38
316.23	254.38
316.46	268.38
316.689	270.38
316.919	242.38
317.148	227.38
317.377	252.38
317.607	248.38
317.836	237.38
318.065	250.38
318.295	232.38
318.524	250.38
318.753	245.38
318.983	238.38
319.212	236.38
319.441	233.38
319.67	231.38
319.9	250.38
320.129	249.38
320.358	260.38
320.587	249.38
320.816	260.38
321.046	255.38
321.275	268.38
321.504	273.38
321.733	276.38
321.962	256.38
322.191	267.38
322.42	251.38
322.649	266.38
322.878	265.38
323.108	257.38
323.337	269.38
323.566	256.38
323.795	253.38
324.024	252.38
324.253	260.38
324.482	240.38
324.71	264.38
324.939	264.38
325.168	259.38
325.397	264.38
325.626	261.38
325.855	261.38
326.084	260.38
326.313	270.38
326.542	262.38
326.77	260.38
326.999	259.38
327.228	276.38
327.457	265.38
327.686	280.38
327.914	269.38
328.143	273.38
328.372	245.38
328.6	270.38
328.829	281.38
329.058	266.38
329.287	273.38
329.515	266.38
329.744	276.38
329.972	274.38
330.201	281.38
330.43	272.38
330.658	286.38
330.887	274.38
331.115	281.38
331.344	280.38
331.572	277.38
331.801	285.38
332.03	285.38
332.258	309.38
332.486	317.38
332.715	301.38
332.943	317.38
333.172	313.38
333.4	293.38
333.629	331.38
333.857	328.38
334.085	322.38
334.314	329.38
334.542	337.38
334.771	334.38
334.999	316.38
335.227	340.38
335.455	329.38
335.684	320.38
335.912	319.38
336.14	316.38
336.369	313.38
336.597	320.38
336.825	322.38
337.053	321.38
337.281	330.38
337.51	305.38
337.738	298.38
337.966	289.38
338.194	301.38
338.422	309.38
338.65	300.38
338.878	284.38
339.106	309.38
339.334	294.38
339.562	282.38
339.79	289.38
340.018	297.38
340.246	284.38
340.474	293.38
340.702	302.38
340.93	283.38
341.158	283.38
341.386	277.38
341.614	294.38
341.842	276.38
342.07	296.38
342.298	284.38
342.526	278.38
342.754	282.38
342.981	280.38
343.209	296.38
343.437	316.38
343.665	316.38
343.893	338.38
344.12	329.38
344.348	333.38
344.576	307.38
344.804	294.38
345.031	285.38
345.259	298.38
345.487	290.38
345.714	305.38
345.942	281.38
346.17	292.38
346.397	298.38
346.625	290.38
346.853	284.38
347.08	285.38
347.308	281.38
347.535	281.38
347.763	286.38
347.99	269.38
348.218	272.38
348.445	288.38
348.673	280.38
348.9	285.38
349.128	289.38
349.355	270.38
349.583	253.38
349.81	270.38
350.037	290.38
350.265	263.38
350.492	253.38
350.72	269.38
350.947	263.38
351.174	299.38
351.402	281.38
351.629	282.38
351.856	266.38
352.083	289.38
352.311	265.38
352.538	273.38
352.765	276.38
352.992	286.38
353.22	283.38
353.447	280.38
353.674	265.38
353.901	260.38
354.128	283.38
354.355	280.38
354.583	268.38
354.81	274.38
355.037	277.38
355.264	277.38
355.491	275.38
355.718	276.38
355.945	264.38
356.172	290.38
356.399	296.38
356.626	280.38
356.853	292.38
357.08	280.38
357.307	267.38
357.534	263.38
357.761	269.38
357.988	268.38
358.215	285.38
358.441	269.38
358.668	285.38
358.895	283.38
359.122	296.38
359.349	273.38
359.576	274.38
359.802	273.38
360.029	276.38
360.256	255.38
360.483	272.38
360.709	274.38
360.936	287.38
361.163	278.38
361.39	268.38
361.616	265.38
361.843	273.38
362.07	269.38
362.296	285.38
362.523	275.38
362.749	281.38
362.976	285.38
363.203	275.38
363.429	270.38
363.656	283.38
363.882	261.38
364.109	268.38
364.335	266.38
364.562	269.38
364.788	281.38
365.015	284.38
365.241	248.38
365.468	294.38
365.694	278.38
365.92	289.38
366.147	279.38
366.373	298.38
366.599	281.38
366.826	290.38
367.052	290.38
367.278	279.38
367.505	272.38
367.731	287.38
367.957	286.38
368.184	272.38
368.41	284.38
368.636	275.38
368.862	283.38
369.089	294.38
369.315	280.38
369.541	281.38
369.767	281.38
369.993	298.38
370.219	284.38
370.445	288.38
370.672	287.38
370.898	291.38
371.124	291.38
371.35	291.38
371.576	292.38
371.802	301.38
372.028	301.38
372.254	292.38
372.48	301.38
372.706	319.38
372.932	290.38
373.158	308.38
373.384	302.38
373.61	298.38
373.835	304.38
374.061	300.38
374.287	309.38
374.513	331.38
374.739	310.38
374.965	322.38
375.191	330.38
375.416	296.38
375.642	305.38
375.868	320.38
376.094	297.38
376.319	310.38
376.545	298.38
376.771	289.38
376.997	288.38
377.222	312.38
377.448	290.38
377.674	291.38
377.899	294.38
378.125	290.38
378.35	289.38
378.576	286.38
378.802	317.38
379.027	301.38
379.253	281.38
379.478	298.38
379.704	300.38
379.929	298.38
380.155	305.38
380.38	296.38
380.606	311.38
380.831	324.38
381.057	299.38
381.282	310.38
381.507	319.38
381.733	274.38
381.958	302.38
382.184	285.38
382.409	311.38
382.634	330.38
382.86	297.38
383.085	313.38
383.31	312.38
383.535	326.38
383.761	309.38
383.986	316.38
384.211	325.38
384.436	344.38
384.662	348.38
384.887	337.38
385.112	333.38
385.337	350.38
385.562	334.38
385.787	349.38
386.013	363.38
386.238	361.38
386.463	330.38
386.688	336.38
386.913	335.38
387.138	326.38
387.363	344.38
387.588	337.38
387.813	338.38
388.038	347.38
388.263	359.38
388.488	355.38
388.713	336.38
388.938	349.38
389.163	333.38
389.387	320.38
389.612	349.38
389.837	345.38
390.062	333.38
390.287	325.38
390.512	375.38
390.736	349.38
390.961	348.38
391.186	340.38
391.411	358.38
391.636	370.38
391.86	372.38
392.085	374.38
392.31	368.38
392.534	381.38
392.759	377.38
392.984	373.38
393.208	335.38
393.433	356.38
393.658	351.38
393.882	337.38
394.107	329.38
394.331	336.38
394.556	359.38
394.78	342.38
395.005	370.38
395.229	363.38
395.454	359.38
395.678	374.38
395.903	362.38
396.127	404.38
396.352	392.38
396.576	352.38
396.801	377.38
397.025	354.38
397.249	378.38
397.474	380.38
397.698	376.38
397.922	400.38
398.147	397.38
398.371	385.38
398.595	418.38
398.82	425.38
399.044	432.38
399.268	465.38
399.492	500.38
399.717	511.38
399.941	533.38
400.165	522.38
400.389	466.38
400.613	456.38
400.837	432.38
401.062	423.38
401.286	406.38
401.51	417.38
401.734	404.38
401.958	396.38
402.182	422.38
402.406	426.38
402.63	436.38
402.854	440.38
403.078	418.38
403.302	439.38
403.526	437.38
403.75	422.38
403.974	441.38
404.198	444.38
404.422	448.38
404.645	437.38
404.869	432.38
405.093	453.38
405.317	415.38
405.541	456.38
405.765	440.38
405.988	434.38
406.212	450.38
406.436	447.38
406.66	446.38
406.883	448.38
407.107	474.38
407.331	482.38
407.555	519.38
407.778	489.38
408.002	483.38
408.226	480.38
408.449	477.38
408.673	456.38
408.896	470.38
409.12	438.38
409.344	459.38
409.567	429.38
409.791	464.38
410.014	480.38
410.238	433.38
410.461	453.38
410.685	452.38
410.908	478.38
411.132	445.38
411.355	411.38
411.578	434.38
411.802	428.38
412.025	428.38
412.249	436.38
412.472	427.38
412.695	427.38
412.919	437.38
413.142	418.38
413.365	418.38
413.589	421.38
413.812	430.38
414.035	439.38
414.258	427.38
414.482	426.38
414.705	432.38
414.928	416.38
415.151	425.38
415.374	440.38
415.597	398.38
415.821	408.38
416.044	414.38
416.267	409.38
416.49	401.38
416.713	404.38
416.936	404.38
417.159	401.38
417.382	406.38
417.605	385.38
417.828	397.38
418.051	401.38
418.274	411.38
418.497	411.38
418.72	405.38
418.943	421.38
419.166	425.38
419.389	451.38
419.611	438.38
419.834	403.38
420.057	419.38
420.28	436.38
420.503	402.38
420.726	398.38
420.948	418.38
421.171	404.38
421.394	400.38
421.617	402.38
421.839	406.38
422.062	383.38
422.285	402.38
422.507	396.38
422.73	427.38
422.953	405.38
423.175	416.38
423.398	419.38
423.621	418.38
423.843	401.38
424.066	406.38
424.288	413.38
424.511	378.38
424.733	409.38
424.956	398.38
425.178	417.38
425.401	409.38
425.623	405.38
425.846	403.38
426.068	389.38
426.291	387.38
426.513	391.38
426.735	367.38
426.958	381.38
427.18	382.38
427.402	373.38
427.625	388.38
427.847	378.38
428.069	380.38
428.292	389.38
428.514	381.38
428.736	366.38
428.958	346.38
429.181	342.38
429.403	362.38
429.625	382.38
429.847	361.38
430.069	354.38
430.292	373.38
430.514	356.38
430.736	372.38
430.958	372.38
431.18	355.38
431.402	371.38
431.624	362.38
431.846	366.38
432.068	358.38
432.29	370.38
432.512	388.38
432.734	373.38
432.956	379.38
433.178	380.38
433.4	377.38
433.622	390.38
433.844	390.38
434.066	372.38
434.287	375.38
434.509	390.38
434.731	390.38
434.953	405.38
435.175	398.38
435.397	401.38
435.618	378.38
435.84	375.38
436.062	375.38
436.284	389.38
436.505	371.38
436.727	376.38
436.949	377.38
437.17	383.38
437.392	376.38
437.614	376.38
437.835	357.38
438.057	372.38
438.278	349.38
438.5	334.38
438.721	352.38
438.943	365.38
439.165	351.38
439.386	360.38
439.608	366.38
439.829	378.38
440.05	363.38
440.272	352.38
440.493	357.38
440.715	378.38
440.936	394.38
441.158	382.38
441.379	380.38
441.6	398.38
441.822	392.38
442.043	386.38
442.264	386.38
442.486	397.38
442.707	376.38
442.928	406.38
443.149	408.38
443.371	398.38
443.592	408.38
443.813	400.38
444.034	383.38
444.255	420.38
444.476	412.38
444.698	417.38
444.919	418.38
445.14	536.38
445.361	472.38
445.582	405.38
445.803	396.38
446.024	377.38
446.245	398.38
446.466	373.38
446.687	382.38
446.908	377.38
447.129	380.38
447.35	378.38
447.571	359.38
447.792	358.38
448.013	362.38
448.234	344.38
448.455	351.38
448.675	355.38
448.896	338.38
449.117	358.38
449.338	328.38
449.559	357.38
449.779	354.38
450	339.38
450.221	349.38
450.442	316.38
450.662	352.38
450.883	333.38
451.104	354.38
451.324	355.38
451.545	343.38
451.766	350.38
451.986	323.38
452.207	320.38
452.428	321.38
452.648	340.38
452.869	335.38
453.089	332.38
453.31	336.38
453.53	326.38
453.751	321.38
453.971	328.38
454.192	325.38
454.412	320.38
454.633	329.38
454.853	345.38
455.073	333.38
455.294	322.38
455.514	320.38
455.734	323.38
455.955	339.38
456.175	333.38
456.395	334.38
456.616	337.38
456.836	352.38
457.056	342.38
457.276	338.38
457.497	321.38
457.717	324.38
457.937	332.38
458.157	325.38
458.377	333.38
458.598	346.38
458.818	357.38
459.038	370.38
459.258	368.38
459.478	370.38
459.698	386.38
459.918	365.38
460.138	362.38
460.358	400.38
460.578	418.38
460.798	414.38
461.018	411.38
461.238	413.38
461.458	409.38
461.678	415.38
461.898	414.38
462.118	444.38
462.338	429.38
462.558	456.38
462.777	458.38
462.997	484.38
463.217	485.38
463.437	491.38
463.657	467.38
463.876	455.38
464.096	475.38
464.316	462.38
464.536	441.38
464.755	461.38
464.975	443.38
465.195	420.38
465.414	410.38
465.634	398.38
465.854	388.38
466.073	365.38
466.293	392.38
466.512	386.38
466.732	386.38
466.951	363.38
467.171	361.38
467.391	337.38
467.61	348.38
467.829	361.38
468.049	345.38
468.268	350.38
468.488	348.38
468.707	362.38
468.927	356.38
469.146	342.38
469.365	344.38
469.585	358.38
469.804	359.38
470.023	353.38
470.243	369.38
470.462	382.38
470.681	344.38
470.901	388.38
471.12	361.38
471.339	356.38
471.558	354.38
471.777	350.38
471.997	360.38
472.216	354.38
472.435	344.38
472.654	355.38
472.873	355.38
473.092	344.38
473.311	342.38
473.53	344.38
473.749	357.38
473.968	351.38
474.187	353.38
474.406	345.38
474.625	349.38
474.844	346.38
475.063	369.38
475.282	353.38
475.501	358.38
475.72	354.38
475.939	333.38
476.158	349.38
476.377	372.38
476.596	362.38
476.814	349.38
477.033	368.38
477.252	372.38
477.471	383.38
477.69	384.38
477.908	397.38
478.127	365.38
478.346	379.38
478.564	384.38
478.783	384.38
479.002	434.38
479.22	427.38
479.439	402.38
479.658	423.38
479.876	419.38
480.095	409.38
480.313	430.38
480.532	429.38
480.751	423.38
480.969	420.38
481.188	393.38
481.406	408.38
481.624	401.38
481.843	390.38
482.061	395.38
482.28	384.38
482.498	393.38
482.717	377.38
482.935	385.38
483.153	394.38
483.372	401.38
483.59	391.38
483.808	394.38
484.027	392.38
484.245	393.38
484.463	402.38
484.681	404.38
484.9	406.38
485.118	404.38
485.336	398.38
485.554	397.38
485.772	413.38
485.99	391.38
486.209	423.38
486.427	406.38
486.645	405.38
486.863	395.38
487.081	386.38
487.299	398.38
487.517	409.38
487.735	404.38
487.953	401.38
488.171	404.38
488.389	408.38
488.607	397.38
488.825	404.38
489.043	399.38
489.261	396.38
489.479	409.38
489.696	393.38
489.914	412.38
490.132	398.38
490.35	406.38
490.568	400.38
490.786	396.38
491.003	405.38
491.221	420.38
491.439	411.38
491.657	405.38
491.874	420.38
492.092	402.38
492.31	415.38
492.527	433.38
492.745	410.38
492.963	412.38
493.18	421.38
493.398	419.38
493.615	416.38
493.833	413.38
494.05	447.38
494.268	430.38
494.485	418.38
494.703	436.38
494.92	421.38
495.138	430.38
495.355	436.38
495.573	429.38
495.79	429.38
496.008	442.38
496.225	438.38
496.442	443.38
496.66	468.38
496.877	463.38
497.094	459.38
497.312	465.38
497.529	491.38
497.746	494.38
497.963	496.38
498.181	522.38
498.398	518.38
498.615	563.38
498.832	581.38
499.049	609.38
499.267	640.38
499.484	693.38
499.701	746.38
499.918	808.38
500.135	842.38
500.352	882.38
500.569	938.38
500.786	902.38
501.003	865.38
501.22	812.38
501.437	780.38
501.654	689.38
501.871	662.38
502.088	655.38
