Data from Fe(NO3)3@0.1M.TitratingCurve.Agarose3%dH2O.NegLispCup.LampEnergy10.LIBS07252019_HRD10591_16-39-04-332.txt Node
Date: Thu Jul 25 16:39:04 EDT 2019
User: cochatt
Spectrometer: HR+D1059
Trigger mode: 1
Integration Time (sec): 1.000000E-1
Scans to average: 1
Electric dark correction enabled: true
Nonlinearity correction enabled: false
Boxcar width: 0
XAxis mode: Wavelengths
Number of Pixels in Spectrum: 2048
>>>>>Begin Spectral Data<<<<<
223.165	-2.44
223.4	-2.44
223.635	-2.44
223.869	-2.44
224.104	-16.44
224.338	-14.44
224.573	-13.44
224.808	-26.44
225.042	-25.44
225.277	-9.44
225.511	5.56
225.746	3.56
225.98	3.56
226.215	7.56
226.449	21.56
226.683	17.56
226.918	22.56
227.152	28.56
227.387	20.56
227.621	42.56
227.856	49.56
228.09	55.56
228.324	53.56
228.559	55.56
228.793	60.56
229.027	61.56
229.262	76.56
229.496	71.56
229.73	74.56
229.964	82.56
230.199	84.56
230.433	82.56
230.667	92.56
230.901	78.56
231.136	75.56
231.37	79.56
231.604	90.56
231.838	93.56
232.072	83.56
232.306	89.56
232.541	83.56
232.775	87.56
233.009	101.56
233.243	90.56
233.477	102.56
233.711	94.56
233.945	98.56
234.179	92.56
234.413	103.56
234.647	86.56
234.881	109.56
235.115	112.56
235.349	93.56
235.583	82.56
235.817	94.56
236.051	102.56
236.285	102.56
236.519	97.56
236.753	94.56
236.987	87.56
237.221	91.56
237.455	97.56
237.689	88.56
237.922	99.56
238.156	109.56
238.39	89.56
238.624	101.56
238.858	103.56
239.091	97.56
239.325	92.56
239.559	107.56
239.793	83.56
240.027	99.56
240.26	108.56
240.494	85.56
240.728	101.56
240.961	109.56
241.195	95.56
241.429	105.56
241.662	92.56
241.896	107.56
242.13	94.56
242.363	101.56
242.597	87.56
242.83	89.56
243.064	104.56
243.298	109.56
243.531	101.56
243.765	108.56
243.998	95.56
244.232	119.56
244.465	104.56
244.699	105.56
244.932	94.56
245.166	100.56
245.399	110.56
245.633	118.56
245.866	99.56
246.099	116.56
246.333	120.56
246.566	123.56
246.8	95.56
247.033	109.56
247.266	102.56
247.5	113.56
247.733	110.56
247.966	102.56
248.2	104.56
248.433	109.56
248.666	112.56
248.899	127.56
249.133	113.56
249.366	106.56
249.599	106.56
249.832	94.56
250.066	105.56
250.299	108.56
250.532	107.56
250.765	98.56
250.998	135.56
251.231	130.56
251.465	113.56
251.698	111.56
251.931	115.56
252.164	118.56
252.397	109.56
252.63	100.56
252.863	121.56
253.096	125.56
253.329	121.56
253.562	124.56
253.795	118.56
254.028	121.56
254.261	116.56
254.494	102.56
254.727	108.56
254.96	133.56
255.193	118.56
255.426	128.56
255.659	136.56
255.892	124.56
256.124	117.56
256.357	132.56
256.59	125.56
256.823	127.56
257.056	120.56
257.289	118.56
257.521	138.56
257.754	131.56
257.987	131.56
258.22	135.56
258.452	122.56
258.685	117.56
258.918	131.56
259.151	129.56
259.383	123.56
259.616	109.56
259.849	125.56
260.081	151.56
260.314	125.56
260.547	147.56
260.779	135.56
261.012	146.56
261.244	139.56
261.477	137.56
261.71	129.56
261.942	122.56
262.175	123.56
262.407	127.56
262.64	136.56
262.872	140.56
263.105	137.56
263.337	138.56
263.57	141.56
263.802	127.56
264.035	134.56
264.267	122.56
264.499	132.56
264.732	142.56
264.964	133.56
265.197	155.56
265.429	140.56
265.661	151.56
265.894	153.56
266.126	149.56
266.358	133.56
266.591	136.56
266.823	140.56
267.055	141.56
267.287	137.56
267.52	136.56
267.752	137.56
267.984	140.56
268.216	141.56
268.448	163.56
268.681	154.56
268.913	142.56
269.145	134.56
269.377	135.56
269.609	141.56
269.841	141.56
270.073	155.56
270.306	156.56
270.538	156.56
270.77	152.56
271.002	144.56
271.234	155.56
271.466	146.56
271.698	142.56
271.93	154.56
272.162	153.56
272.394	147.56
272.626	144.56
272.858	149.56
273.09	141.56
273.322	157.56
273.553	152.56
273.785	146.56
274.017	141.56
274.249	157.56
274.481	149.56
274.713	154.56
274.945	158.56
275.176	169.56
275.408	166.56
275.64	169.56
275.872	155.56
276.104	155.56
276.335	177.56
276.567	142.56
276.799	146.56
277.031	142.56
277.262	161.56
277.494	158.56
277.726	150.56
277.957	156.56
278.189	152.56
278.421	163.56
278.652	174.56
278.884	150.56
279.115	166.56
279.347	162.56
279.579	162.56
279.81	159.56
280.042	158.56
280.273	154.56
280.505	159.56
280.736	151.56
280.968	157.56
281.199	162.56
281.431	169.56
281.662	175.56
281.894	170.56
282.125	155.56
282.356	174.56
282.588	182.56
282.819	162.56
283.051	168.56
283.282	175.56
283.513	169.56
283.745	169.56
283.976	163.56
284.207	156.56
284.439	171.56
284.67	175.56
284.901	172.56
285.132	173.56
285.364	170.56
285.595	170.56
285.826	171.56
286.057	185.56
286.288	164.56
286.52	182.56
286.751	172.56
286.982	174.56
287.213	172.56
287.444	166.56
287.675	180.56
287.906	179.56
288.138	183.56
288.369	174.56
288.6	167.56
288.831	179.56
289.062	169.56
289.293	177.56
289.524	186.56
289.755	183.56
289.986	191.56
290.217	181.56
290.448	177.56
290.679	168.56
290.91	186.56
291.141	193.56
291.371	186.56
291.602	175.56
291.833	179.56
292.064	187.56
292.295	188.56
292.526	176.56
292.757	179.56
292.987	191.56
293.218	168.56
293.449	174.56
293.68	170.56
293.91	180.56
294.141	186.56
294.372	180.56
294.603	183.56
294.833	171.56
295.064	188.56
295.295	173.56
295.525	183.56
295.756	187.56
295.987	185.56
296.217	181.56
296.448	181.56
296.679	189.56
296.909	176.56
297.14	193.56
297.37	192.56
297.601	179.56
297.831	193.56
298.062	207.56
298.292	169.56
298.523	183.56
298.753	192.56
298.984	187.56
299.214	181.56
299.445	201.56
299.675	199.56
299.905	199.56
300.136	199.56
300.366	182.56
300.597	173.56
300.827	191.56
301.057	203.56
301.288	201.56
301.518	203.56
301.748	207.56
301.979	197.56
302.209	191.56
302.439	205.56
302.669	185.56
302.9	203.56
303.13	184.56
303.36	189.56
303.59	196.56
303.82	193.56
304.051	201.56
304.281	208.56
304.511	195.56
304.741	199.56
304.971	198.56
305.201	211.56
305.431	184.56
305.661	209.56
305.891	194.56
306.121	213.56
306.352	213.56
306.582	207.56
306.812	208.56
307.042	191.56
307.272	210.56
307.502	201.56
307.731	217.56
307.961	185.56
308.191	219.56
308.421	214.56
308.651	205.56
308.881	187.56
309.111	197.56
309.341	213.56
309.571	207.56
309.8	194.56
310.03	213.56
310.26	189.56
310.49	222.56
310.72	204.56
310.949	194.56
311.179	212.56
311.409	213.56
311.639	202.56
311.868	201.56
312.098	205.56
312.328	213.56
312.557	211.56
312.787	214.56
313.017	207.56
313.246	215.56
313.476	195.56
313.706	216.56
313.935	209.56
314.165	217.56
314.394	211.56
314.624	205.56
314.853	211.56
315.083	198.56
315.312	223.56
315.542	205.56
315.771	228.56
316.001	220.56
316.23	217.56
316.46	211.56
316.689	203.56
316.919	204.56
317.148	187.56
317.377	225.56
317.607	204.56
317.836	204.56
318.065	219.56
318.295	207.56
318.524	188.56
318.753	218.56
318.983	212.56
319.212	203.56
319.441	214.56
319.67	213.56
319.9	198.56
320.129	207.56
320.358	219.56
320.587	201.56
320.816	224.56
321.046	218.56
321.275	210.56
321.504	208.56
321.733	217.56
321.962	214.56
322.191	219.56
322.42	226.56
322.649	202.56
322.878	211.56
323.108	215.56
323.337	211.56
323.566	245.56
323.795	223.56
324.024	224.56
324.253	206.56
324.482	225.56
324.71	219.56
324.939	217.56
325.168	220.56
325.397	220.56
325.626	204.56
325.855	221.56
326.084	234.56
326.313	232.56
326.542	214.56
326.77	222.56
326.999	235.56
327.228	233.56
327.457	220.56
327.686	247.56
327.914	241.56
328.143	236.56
328.372	227.56
328.6	230.56
328.829	232.56
329.058	236.56
329.287	228.56
329.515	237.56
329.744	238.56
329.972	238.56
330.201	236.56
330.43	243.56
330.658	235.56
330.887	226.56
331.115	244.56
331.344	247.56
331.572	241.56
331.801	246.56
332.03	248.56
332.258	272.56
332.486	254.56
332.715	261.56
332.943	261.56
333.172	271.56
333.4	279.56
333.629	289.56
333.857	286.56
334.085	281.56
334.314	265.56
334.542	284.56
334.771	272.56
334.999	273.56
335.227	256.56
335.455	286.56
335.684	276.56
335.912	285.56
336.14	281.56
336.369	273.56
336.597	271.56
336.825	266.56
337.053	254.56
337.281	259.56
337.51	248.56
337.738	265.56
337.966	247.56
338.194	263.56
338.422	251.56
338.65	235.56
338.878	262.56
339.106	238.56
339.334	247.56
339.562	249.56
339.79	237.56
340.018	226.56
340.246	244.56
340.474	232.56
340.702	243.56
340.93	223.56
341.158	234.56
341.386	227.56
341.614	236.56
341.842	252.56
342.07	226.56
342.298	230.56
342.526	239.56
342.754	233.56
342.981	230.56
343.209	269.56
343.437	239.56
343.665	262.56
343.893	297.56
344.12	279.56
344.348	282.56
344.576	289.56
344.804	268.56
345.031	257.56
345.259	234.56
345.487	232.56
345.714	248.56
345.942	235.56
346.17	236.56
346.397	246.56
346.625	244.56
346.853	226.56
347.08	233.56
347.308	234.56
347.535	234.56
347.763	225.56
347.99	241.56
348.218	228.56
348.445	235.56
348.673	233.56
348.9	223.56
349.128	232.56
349.355	221.56
349.583	228.56
349.81	237.56
350.037	226.56
350.265	231.56
350.492	234.56
350.72	249.56
350.947	243.56
351.174	237.56
351.402	243.56
351.629	232.56
351.856	241.56
352.083	247.56
352.311	227.56
352.538	224.56
352.765	229.56
352.992	233.56
353.22	248.56
353.447	226.56
353.674	238.56
353.901	237.56
354.128	221.56
354.355	225.56
354.583	222.56
354.81	245.56
355.037	229.56
355.264	230.56
355.491	248.56
355.718	246.56
355.945	245.56
356.172	227.56
356.399	230.56
356.626	238.56
356.853	230.56
357.08	235.56
357.307	231.56
357.534	246.56
357.761	239.56
357.988	245.56
358.215	236.56
358.441	231.56
358.668	230.56
358.895	239.56
359.122	228.56
359.349	251.56
359.576	232.56
359.802	232.56
360.029	229.56
360.256	228.56
360.483	241.56
360.709	228.56
360.936	245.56
361.163	249.56
361.39	238.56
361.616	242.56
361.843	234.56
362.07	241.56
362.296	250.56
362.523	247.56
362.749	224.56
362.976	240.56
363.203	247.56
363.429	236.56
363.656	237.56
363.882	247.56
364.109	247.56
364.335	238.56
364.562	247.56
364.788	237.56
365.015	246.56
365.241	222.56
365.468	234.56
365.694	249.56
365.92	253.56
366.147	228.56
366.373	238.56
366.599	247.56
366.826	243.56
367.052	234.56
367.278	233.56
367.505	229.56
367.731	250.56
367.957	227.56
368.184	250.56
368.41	259.56
368.636	254.56
368.862	241.56
369.089	244.56
369.315	261.56
369.541	261.56
369.767	244.56
369.993	247.56
370.219	244.56
370.445	254.56
370.672	269.56
370.898	238.56
371.124	254.56
371.35	257.56
371.576	261.56
371.802	260.56
372.028	262.56
372.254	257.56
372.48	275.56
372.706	265.56
372.932	276.56
373.158	266.56
373.384	277.56
373.61	265.56
373.835	279.56
374.061	272.56
374.287	281.56
374.513	278.56
374.739	265.56
374.965	269.56
375.191	272.56
375.416	307.56
375.642	277.56
375.868	299.56
376.094	265.56
376.319	271.56
376.545	264.56
376.771	264.56
376.997	258.56
377.222	263.56
377.448	253.56
377.674	250.56
377.899	271.56
378.125	262.56
378.35	245.56
378.576	253.56
378.802	272.56
379.027	261.56
379.253	245.56
379.478	262.56
379.704	265.56
379.929	250.56
380.155	266.56
380.38	271.56
380.606	279.56
380.831	258.56
381.057	284.56
381.282	261.56
381.507	286.56
381.733	276.56
381.958	259.56
382.184	295.56
382.409	261.56
382.634	293.56
382.86	291.56
383.085	284.56
383.31	299.56
383.535	284.56
383.761	295.56
383.986	281.56
384.211	301.56
384.436	299.56
384.662	288.56
384.887	310.56
385.112	299.56
385.337	328.56
385.562	298.56
385.787	325.56
386.013	316.56
386.238	321.56
386.463	309.56
386.688	303.56
386.913	298.56
387.138	311.56
387.363	286.56
387.588	302.56
387.813	302.56
388.038	300.56
388.263	306.56
388.488	305.56
388.713	307.56
388.938	291.56
389.163	286.56
389.387	310.56
389.612	309.56
389.837	281.56
390.062	302.56
390.287	303.56
390.512	309.56
390.736	307.56
390.961	299.56
391.186	316.56
391.411	328.56
391.636	337.56
391.86	359.56
392.085	351.56
392.31	315.56
392.534	332.56
392.759	325.56
392.984	333.56
393.208	347.56
393.433	326.56
393.658	312.56
393.882	318.56
394.107	316.56
394.331	323.56
394.556	331.56
394.78	318.56
395.005	316.56
395.229	325.56
395.454	332.56
395.678	349.56
395.903	336.56
396.127	349.56
396.352	320.56
396.576	343.56
396.801	329.56
397.025	319.56
397.249	330.56
397.474	336.56
397.698	359.56
397.922	341.56
398.147	342.56
398.371	336.56
398.595	373.56
398.82	393.56
399.044	395.56
399.268	431.56
399.492	481.56
399.717	482.56
399.941	473.56
400.165	450.56
400.389	442.56
400.613	409.56
400.837	377.56
401.062	366.56
401.286	373.56
401.51	369.56
401.734	375.56
401.958	377.56
402.182	374.56
402.406	372.56
402.63	377.56
402.854	381.56
403.078	387.56
403.302	402.56
403.526	382.56
403.75	397.56
403.974	396.56
404.198	434.56
404.422	420.56
404.645	403.56
404.869	396.56
405.093	403.56
405.317	399.56
405.541	397.56
405.765	394.56
405.988	405.56
406.212	400.56
406.436	405.56
406.66	413.56
406.883	410.56
407.107	443.56
407.331	459.56
407.555	466.56
407.778	457.56
408.002	439.56
408.226	428.56
408.449	422.56
408.673	423.56
408.896	427.56
409.12	415.56
409.344	412.56
409.567	413.56
409.791	438.56
410.014	419.56
410.238	433.56
410.461	399.56
410.685	400.56
410.908	391.56
411.132	390.56
411.355	373.56
411.578	402.56
411.802	389.56
412.025	391.56
412.249	384.56
412.472	388.56
412.695	396.56
412.919	383.56
413.142	374.56
413.365	396.56
413.589	390.56
413.812	361.56
414.035	381.56
414.258	385.56
414.482	373.56
414.705	381.56
414.928	397.56
415.151	400.56
415.374	390.56
415.597	385.56
415.821	380.56
416.044	379.56
416.267	381.56
416.49	383.56
416.713	400.56
416.936	388.56
417.159	356.56
417.382	374.56
417.605	382.56
417.828	379.56
418.051	367.56
418.274	364.56
418.497	389.56
418.72	377.56
418.943	379.56
419.166	406.56
419.389	418.56
419.611	409.56
419.834	393.56
420.057	392.56
420.28	381.56
420.503	371.56
420.726	357.56
420.948	348.56
421.171	374.56
421.394	375.56
421.617	378.56
421.839	387.56
422.062	383.56
422.285	373.56
422.507	400.56
422.73	381.56
422.953	386.56
423.175	387.56
423.398	399.56
423.621	414.56
423.843	398.56
424.066	383.56
424.288	373.56
424.511	396.56
424.733	378.56
424.956	384.56
425.178	372.56
425.401	383.56
425.623	376.56
425.846	361.56
426.068	363.56
426.291	382.56
426.513	380.56
426.735	377.56
426.958	364.56
427.18	368.56
427.402	379.56
427.625	357.56
427.847	355.56
428.069	338.56
428.292	339.56
428.514	358.56
428.736	348.56
428.958	356.56
429.181	365.56
429.403	346.56
429.625	352.56
429.847	334.56
430.069	345.56
430.292	351.56
430.514	358.56
430.736	348.56
430.958	336.56
431.18	374.56
431.402	349.56
431.624	353.56
431.846	355.56
432.068	339.56
432.29	346.56
432.512	350.56
432.734	355.56
432.956	345.56
433.178	374.56
433.4	365.56
433.622	357.56
433.844	354.56
434.066	361.56
434.287	341.56
434.509	351.56
434.731	374.56
434.953	379.56
435.175	406.56
435.397	395.56
435.618	369.56
435.84	355.56
436.062	356.56
436.284	373.56
436.505	369.56
436.727	358.56
436.949	378.56
437.17	357.56
437.392	353.56
437.614	357.56
437.835	352.56
438.057	348.56
438.278	339.56
438.5	347.56
438.721	361.56
438.943	348.56
439.165	344.56
439.386	357.56
439.608	353.56
439.829	363.56
440.05	360.56
440.272	385.56
440.493	365.56
440.715	349.56
440.936	373.56
441.158	372.56
441.379	391.56
441.6	412.56
441.822	397.56
442.043	413.56
442.264	396.56
442.486	380.56
442.707	373.56
442.928	379.56
443.149	384.56
443.371	378.56
443.592	388.56
443.813	371.56
444.034	413.56
444.255	397.56
444.476	402.56
444.698	445.56
444.919	442.56
445.14	520.56
445.361	453.56
445.582	395.56
445.803	385.56
446.024	393.56
446.245	391.56
446.466	372.56
446.687	390.56
446.908	390.56
447.129	386.56
447.35	360.56
447.571	360.56
447.792	330.56
448.013	359.56
448.234	360.56
448.455	356.56
448.675	343.56
448.896	345.56
449.117	330.56
449.338	348.56
449.559	338.56
449.779	313.56
450	333.56
450.221	343.56
450.442	331.56
450.662	357.56
450.883	353.56
451.104	334.56
451.324	345.56
451.545	345.56
451.766	353.56
451.986	338.56
452.207	336.56
452.428	352.56
452.648	348.56
452.869	336.56
453.089	321.56
453.31	340.56
453.53	334.56
453.751	323.56
453.971	307.56
454.192	311.56
454.412	316.56
454.633	316.56
454.853	334.56
455.073	295.56
455.294	324.56
455.514	327.56
455.734	326.56
455.955	307.56
456.175	323.56
456.395	317.56
456.616	302.56
456.836	320.56
457.056	315.56
457.276	300.56
457.497	291.56
457.717	313.56
457.937	328.56
458.157	319.56
458.377	330.56
458.598	327.56
458.818	325.56
459.038	328.56
459.258	335.56
459.478	351.56
459.698	372.56
459.918	361.56
460.138	385.56
460.358	375.56
460.578	386.56
460.798	388.56
461.018	415.56
461.238	414.56
461.458	405.56
461.678	393.56
461.898	399.56
462.118	393.56
462.338	399.56
462.558	437.56
462.777	451.56
462.997	467.56
463.217	500.56
463.437	499.56
463.657	449.56
463.876	445.56
464.096	453.56
464.316	444.56
464.536	405.56
464.755	437.56
464.975	425.56
465.195	410.56
465.414	377.56
465.634	379.56
465.854	362.56
466.073	369.56
466.293	377.56
466.512	341.56
466.732	334.56
466.951	346.56
467.171	351.56
467.391	350.56
467.61	359.56
467.829	346.56
468.049	357.56
468.268	341.56
468.488	325.56
468.707	347.56
468.927	329.56
469.146	334.56
469.365	350.56
469.585	356.56
469.804	335.56
470.023	360.56
470.243	348.56
470.462	364.56
470.681	363.56
470.901	354.56
471.12	346.56
471.339	347.56
471.558	350.56
471.777	354.56
471.997	346.56
472.216	342.56
472.435	323.56
472.654	320.56
472.873	321.56
473.092	327.56
473.311	320.56
473.53	341.56
473.749	313.56
473.968	342.56
474.187	322.56
474.406	322.56
474.625	331.56
474.844	335.56
475.063	337.56
475.282	346.56
475.501	318.56
475.72	345.56
475.939	339.56
476.158	352.56
476.377	332.56
476.596	349.56
476.814	351.56
477.033	330.56
477.252	333.56
477.471	351.56
477.69	343.56
477.908	352.56
478.127	381.56
478.346	369.56
478.564	389.56
478.783	392.56
479.002	391.56
479.22	396.56
479.439	409.56
479.658	392.56
479.876	403.56
480.095	393.56
480.313	393.56
480.532	414.56
480.751	417.56
480.969	379.56
481.188	372.56
481.406	374.56
481.624	374.56
481.843	353.56
482.061	373.56
482.28	351.56
482.498	367.56
482.717	386.56
482.935	369.56
483.153	373.56
483.372	378.56
483.59	367.56
483.808	362.56
484.027	355.56
484.245	379.56
484.463	361.56
484.681	377.56
484.9	371.56
485.118	373.56
485.336	386.56
485.554	373.56
485.772	399.56
485.99	382.56
486.209	381.56
486.427	369.56
486.645	371.56
486.863	366.56
487.081	373.56
487.299	373.56
487.517	387.56
487.735	398.56
487.953	392.56
488.171	390.56
488.389	377.56
488.607	391.56
488.825	365.56
489.043	355.56
489.261	385.56
489.479	393.56
489.696	385.56
489.914	378.56
490.132	374.56
490.35	377.56
490.568	381.56
490.786	394.56
491.003	389.56
491.221	382.56
491.439	374.56
491.657	385.56
491.874	401.56
492.092	398.56
492.31	413.56
492.527	403.56
492.745	391.56
492.963	393.56
493.18	394.56
493.398	411.56
493.615	409.56
493.833	410.56
494.05	402.56
494.268	404.56
494.485	398.56
494.703	421.56
494.92	413.56
495.138	410.56
495.355	396.56
495.573	387.56
495.79	407.56
496.008	418.56
496.225	417.56
496.442	410.56
496.66	443.56
496.877	435.56
497.094	439.56
497.312	427.56
497.529	423.56
497.746	452.56
497.963	435.56
498.181	446.56
498.398	473.56
498.615	495.56
498.832	514.56
499.049	567.56
499.267	571.56
499.484	629.56
499.701	673.56
499.918	749.56
500.135	823.56
500.352	886.56
500.569	921.56
500.786	906.56
501.003	833.56
501.22	747.56
501.437	710.56
501.654	622.56
501.871	587.56
502.088	554.56
502.305	522.56
