Data from Fe(NO3)3@0.0125M.TitratingCurve.Agarose3%dH2O.NegLispCup.LampEnergy10.LIBS07252019_HRD10591_17-01-38-336.txt Node
Date: Thu Jul 25 17:01:38 EDT 2019
User: cochatt
Spectrometer: HR+D1059
Trigger mode: 1
Integration Time (sec): 1.000000E-1
Scans to average: 1
Electric dark correction enabled: true
Nonlinearity correction enabled: false
Boxcar width: 0
XAxis mode: Wavelengths
Number of Pixels in Spectrum: 2048
>>>>>Begin Spectral Data<<<<<
223.165	-16.75
223.4	-16.75
223.635	-16.75
223.869	-19.75
224.104	-2.75
224.338	-6.75
224.573	-10.75
224.808	-18.75
225.042	-10.75
225.277	-16.75
225.511	-2.75
225.746	7.25
225.98	3.25
226.215	12.25
226.449	15.25
226.683	9.25
226.918	29.25
227.152	29.25
227.387	29.25
227.621	42.25
227.856	41.25
228.09	55.25
228.324	37.25
228.559	60.25
228.793	56.25
229.027	77.25
229.262	75.25
229.496	82.25
229.73	79.25
229.964	93.25
230.199	88.25
230.433	101.25
230.667	95.25
230.901	84.25
231.136	103.25
231.37	101.25
231.604	97.25
231.838	93.25
232.072	103.25
232.306	110.25
232.541	118.25
232.775	117.25
233.009	108.25
233.243	100.25
233.477	107.25
233.711	90.25
233.945	93.25
234.179	91.25
234.413	94.25
234.647	105.25
234.881	102.25
235.115	99.25
235.349	95.25
235.583	99.25
235.817	108.25
236.051	109.25
236.285	104.25
236.519	102.25
236.753	102.25
236.987	90.25
237.221	116.25
237.455	109.25
237.689	105.25
237.922	106.25
238.156	102.25
238.39	101.25
238.624	104.25
238.858	100.25
239.091	104.25
239.325	108.25
239.559	109.25
239.793	111.25
240.027	126.25
240.26	121.25
240.494	116.25
240.728	106.25
240.961	115.25
241.195	107.25
241.429	106.25
241.662	104.25
241.896	117.25
242.13	122.25
242.363	109.25
242.597	118.25
242.83	120.25
243.064	110.25
243.298	122.25
243.531	121.25
243.765	128.25
243.998	119.25
244.232	120.25
244.465	115.25
244.699	130.25
244.932	131.25
245.166	135.25
245.399	118.25
245.633	130.25
245.866	108.25
246.099	123.25
246.333	135.25
246.566	135.25
246.8	126.25
247.033	125.25
247.266	123.25
247.5	120.25
247.733	131.25
247.966	131.25
248.2	120.25
248.433	129.25
248.666	130.25
248.899	123.25
249.133	126.25
249.366	131.25
249.599	142.25
249.832	119.25
250.066	137.25
250.299	125.25
250.532	122.25
250.765	127.25
250.998	136.25
251.231	115.25
251.465	125.25
251.698	136.25
251.931	130.25
252.164	138.25
252.397	146.25
252.63	145.25
252.863	143.25
253.096	147.25
253.329	147.25
253.562	140.25
253.795	142.25
254.028	151.25
254.261	153.25
254.494	141.25
254.727	144.25
254.96	133.25
255.193	135.25
255.426	150.25
255.659	146.25
255.892	152.25
256.124	154.25
256.357	153.25
256.59	152.25
256.823	171.25
257.056	165.25
257.289	155.25
257.521	166.25
257.754	169.25
257.987	169.25
258.22	145.25
258.452	141.25
258.685	149.25
258.918	157.25
259.151	145.25
259.383	156.25
259.616	147.25
259.849	167.25
260.081	174.25
260.314	166.25
260.547	148.25
260.779	161.25
261.012	158.25
261.244	162.25
261.477	163.25
261.71	173.25
261.942	163.25
262.175	162.25
262.407	157.25
262.64	151.25
262.872	161.25
263.105	158.25
263.337	171.25
263.57	170.25
263.802	158.25
264.035	160.25
264.267	160.25
264.499	143.25
264.732	153.25
264.964	148.25
265.197	166.25
265.429	169.25
265.661	155.25
265.894	169.25
266.126	170.25
266.358	158.25
266.591	161.25
266.823	173.25
267.055	172.25
267.287	168.25
267.52	170.25
267.752	183.25
267.984	176.25
268.216	176.25
268.448	167.25
268.681	169.25
268.913	183.25
269.145	173.25
269.377	167.25
269.609	186.25
269.841	169.25
270.073	181.25
270.306	184.25
270.538	171.25
270.77	184.25
271.002	177.25
271.234	175.25
271.466	189.25
271.698	182.25
271.93	178.25
272.162	186.25
272.394	186.25
272.626	188.25
272.858	193.25
273.09	195.25
273.322	183.25
273.553	187.25
273.785	181.25
274.017	176.25
274.249	190.25
274.481	187.25
274.713	215.25
274.945	204.25
275.176	195.25
275.408	198.25
275.64	189.25
275.872	199.25
276.104	198.25
276.335	176.25
276.567	188.25
276.799	196.25
277.031	195.25
277.262	201.25
277.494	187.25
277.726	196.25
277.957	210.25
278.189	199.25
278.421	198.25
278.652	196.25
278.884	212.25
279.115	197.25
279.347	193.25
279.579	215.25
279.81	215.25
280.042	198.25
280.273	199.25
280.505	218.25
280.736	195.25
280.968	225.25
281.199	218.25
281.431	209.25
281.662	213.25
281.894	196.25
282.125	197.25
282.356	204.25
282.588	206.25
282.819	210.25
283.051	219.25
283.282	211.25
283.513	224.25
283.745	216.25
283.976	221.25
284.207	205.25
284.439	211.25
284.67	229.25
284.901	214.25
285.132	205.25
285.364	213.25
285.595	229.25
285.826	227.25
286.057	227.25
286.288	234.25
286.52	218.25
286.751	216.25
286.982	216.25
287.213	228.25
287.444	233.25
287.675	242.25
287.906	229.25
288.138	225.25
288.369	224.25
288.6	228.25
288.831	231.25
289.062	231.25
289.293	220.25
289.524	222.25
289.755	230.25
289.986	247.25
290.217	235.25
290.448	232.25
290.679	225.25
290.91	229.25
291.141	237.25
291.371	228.25
291.602	223.25
291.833	232.25
292.064	229.25
292.295	227.25
292.526	236.25
292.757	237.25
292.987	222.25
293.218	229.25
293.449	244.25
293.68	257.25
293.91	254.25
294.141	217.25
294.372	226.25
294.603	230.25
294.833	238.25
295.064	245.25
295.295	229.25
295.525	227.25
295.756	231.25
295.987	216.25
296.217	229.25
296.448	231.25
296.679	243.25
296.909	237.25
297.14	239.25
297.37	247.25
297.601	244.25
297.831	246.25
298.062	262.25
298.292	255.25
298.523	245.25
298.753	255.25
298.984	248.25
299.214	264.25
299.445	236.25
299.675	247.25
299.905	257.25
300.136	248.25
300.366	261.25
300.597	241.25
300.827	256.25
301.057	263.25
301.288	260.25
301.518	243.25
301.748	272.25
301.979	268.25
302.209	263.25
302.439	270.25
302.669	260.25
302.9	260.25
303.13	251.25
303.36	266.25
303.59	262.25
303.82	283.25
304.051	258.25
304.281	263.25
304.511	252.25
304.741	269.25
304.971	259.25
305.201	272.25
305.431	253.25
305.661	258.25
305.891	272.25
306.121	257.25
306.352	265.25
306.582	259.25
306.812	251.25
307.042	239.25
307.272	269.25
307.502	282.25
307.731	271.25
307.961	277.25
308.191	273.25
308.421	279.25
308.651	253.25
308.881	267.25
309.111	255.25
309.341	265.25
309.571	260.25
309.8	274.25
310.03	271.25
310.26	273.25
310.49	262.25
310.72	257.25
310.949	266.25
311.179	266.25
311.409	276.25
311.639	268.25
311.868	291.25
312.098	275.25
312.328	262.25
312.557	263.25
312.787	271.25
313.017	269.25
313.246	277.25
313.476	275.25
313.706	294.25
313.935	291.25
314.165	297.25
314.394	284.25
314.624	279.25
314.853	265.25
315.083	281.25
315.312	284.25
315.542	271.25
315.771	265.25
316.001	265.25
316.23	280.25
316.46	286.25
316.689	261.25
316.919	286.25
317.148	261.25
317.377	294.25
317.607	286.25
317.836	261.25
318.065	275.25
318.295	298.25
318.524	274.25
318.753	297.25
318.983	271.25
319.212	285.25
319.441	298.25
319.67	289.25
319.9	294.25
320.129	280.25
320.358	264.25
320.587	278.25
320.816	275.25
321.046	287.25
321.275	268.25
321.504	285.25
321.733	281.25
321.962	291.25
322.191	291.25
322.42	307.25
322.649	283.25
322.878	283.25
323.108	286.25
323.337	284.25
323.566	298.25
323.795	305.25
324.024	311.25
324.253	296.25
324.482	313.25
324.71	287.25
324.939	302.25
325.168	286.25
325.397	294.25
325.626	302.25
325.855	314.25
326.084	302.25
326.313	307.25
326.542	310.25
326.77	329.25
326.999	302.25
327.228	297.25
327.457	324.25
327.686	318.25
327.914	321.25
328.143	322.25
328.372	300.25
328.6	295.25
328.829	294.25
329.058	308.25
329.287	299.25
329.515	295.25
329.744	315.25
329.972	331.25
330.201	301.25
330.43	307.25
330.658	307.25
330.887	337.25
331.115	346.25
331.344	300.25
331.572	330.25
331.801	329.25
332.03	339.25
332.258	325.25
332.486	340.25
332.715	333.25
332.943	329.25
333.172	358.25
333.4	341.25
333.629	374.25
333.857	387.25
334.085	383.25
334.314	373.25
334.542	361.25
334.771	369.25
334.999	383.25
335.227	363.25
335.455	377.25
335.684	367.25
335.912	354.25
336.14	362.25
336.369	375.25
336.597	375.25
336.825	385.25
337.053	373.25
337.281	378.25
337.51	360.25
337.738	358.25
337.966	348.25
338.194	346.25
338.422	334.25
338.65	347.25
338.878	341.25
339.106	339.25
339.334	333.25
339.562	349.25
339.79	319.25
340.018	322.25
340.246	340.25
340.474	332.25
340.702	317.25
340.93	324.25
341.158	321.25
341.386	327.25
341.614	327.25
341.842	318.25
342.07	329.25
342.298	321.25
342.526	333.25
342.754	340.25
342.981	335.25
343.209	341.25
343.437	346.25
343.665	350.25
343.893	367.25
344.12	369.25
344.348	357.25
344.576	364.25
344.804	344.25
345.031	326.25
345.259	331.25
345.487	333.25
345.714	340.25
345.942	321.25
346.17	326.25
346.397	329.25
346.625	323.25
346.853	330.25
347.08	306.25
347.308	326.25
347.535	323.25
347.763	319.25
347.99	328.25
348.218	312.25
348.445	317.25
348.673	330.25
348.9	319.25
349.128	343.25
349.355	322.25
349.583	324.25
349.81	319.25
350.037	313.25
350.265	317.25
350.492	317.25
350.72	315.25
350.947	303.25
351.174	304.25
351.402	305.25
351.629	316.25
351.856	315.25
352.083	311.25
352.311	296.25
352.538	332.25
352.765	325.25
352.992	318.25
353.22	317.25
353.447	312.25
353.674	315.25
353.901	324.25
354.128	307.25
354.355	322.25
354.583	311.25
354.81	325.25
355.037	317.25
355.264	315.25
355.491	292.25
355.718	298.25
355.945	306.25
356.172	336.25
356.399	328.25
356.626	334.25
356.853	322.25
357.08	320.25
357.307	322.25
357.534	307.25
357.761	307.25
357.988	316.25
358.215	307.25
358.441	298.25
358.668	327.25
358.895	321.25
359.122	318.25
359.349	319.25
359.576	286.25
359.802	325.25
360.029	327.25
360.256	325.25
360.483	295.25
360.709	315.25
360.936	306.25
361.163	315.25
361.39	314.25
361.616	303.25
361.843	313.25
362.07	334.25
362.296	319.25
362.523	323.25
362.749	323.25
362.976	309.25
363.203	313.25
363.429	306.25
363.656	308.25
363.882	321.25
364.109	309.25
364.335	325.25
364.562	302.25
364.788	318.25
365.015	332.25
365.241	303.25
365.468	317.25
365.694	296.25
365.92	336.25
366.147	340.25
366.373	313.25
366.599	336.25
366.826	323.25
367.052	326.25
367.278	331.25
367.505	321.25
367.731	316.25
367.957	323.25
368.184	346.25
368.41	346.25
368.636	325.25
368.862	331.25
369.089	342.25
369.315	335.25
369.541	328.25
369.767	317.25
369.993	341.25
370.219	321.25
370.445	332.25
370.672	356.25
370.898	334.25
371.124	346.25
371.35	351.25
371.576	358.25
371.802	359.25
372.028	338.25
372.254	369.25
372.48	353.25
372.706	359.25
372.932	359.25
373.158	367.25
373.384	363.25
373.61	342.25
373.835	361.25
374.061	351.25
374.287	364.25
374.513	356.25
374.739	351.25
374.965	347.25
375.191	370.25
375.416	357.25
375.642	389.25
375.868	380.25
376.094	378.25
376.319	364.25
376.545	357.25
376.771	359.25
376.997	346.25
377.222	334.25
377.448	348.25
377.674	349.25
377.899	342.25
378.125	359.25
378.35	335.25
378.576	341.25
378.802	344.25
379.027	348.25
379.253	331.25
379.478	338.25
379.704	363.25
379.929	357.25
380.155	335.25
380.38	338.25
380.606	345.25
380.831	343.25
381.057	358.25
381.282	351.25
381.507	347.25
381.733	356.25
381.958	367.25
382.184	351.25
382.409	332.25
382.634	375.25
382.86	367.25
383.085	358.25
383.31	365.25
383.535	372.25
383.761	362.25
383.986	353.25
384.211	360.25
384.436	391.25
384.662	377.25
384.887	377.25
385.112	401.25
385.337	381.25
385.562	399.25
385.787	372.25
386.013	422.25
386.238	391.25
386.463	394.25
386.688	405.25
386.913	384.25
387.138	385.25
387.363	398.25
387.588	378.25
387.813	405.25
388.038	390.25
388.263	416.25
388.488	412.25
388.713	415.25
388.938	390.25
389.163	403.25
389.387	401.25
389.612	399.25
389.837	388.25
390.062	395.25
390.287	385.25
390.512	400.25
390.736	405.25
390.961	414.25
391.186	409.25
391.411	407.25
391.636	415.25
391.86	419.25
392.085	423.25
392.31	427.25
392.534	443.25
392.759	423.25
392.984	437.25
393.208	429.25
393.433	417.25
393.658	421.25
393.882	405.25
394.107	431.25
394.331	418.25
394.556	443.25
394.78	416.25
395.005	447.25
395.229	424.25
395.454	445.25
395.678	409.25
395.903	430.25
396.127	442.25
396.352	427.25
396.576	421.25
396.801	442.25
397.025	426.25
397.249	436.25
397.474	448.25
397.698	451.25
397.922	472.25
398.147	457.25
398.371	462.25
398.595	478.25
398.82	494.25
399.044	538.25
399.268	554.25
399.492	567.25
399.717	603.25
399.941	628.25
400.165	586.25
400.389	543.25
400.613	530.25
400.837	524.25
401.062	505.25
401.286	498.25
401.51	491.25
401.734	480.25
401.958	505.25
402.182	485.25
402.406	479.25
402.63	484.25
402.854	517.25
403.078	484.25
403.302	509.25
403.526	516.25
403.75	533.25
403.974	498.25
404.198	499.25
404.422	505.25
404.645	494.25
404.869	513.25
405.093	539.25
405.317	510.25
405.541	523.25
405.765	507.25
405.988	507.25
406.212	518.25
406.436	540.25
406.66	541.25
406.883	532.25
407.107	573.25
407.331	575.25
407.555	587.25
407.778	558.25
408.002	575.25
408.226	541.25
408.449	548.25
408.673	522.25
408.896	553.25
409.12	542.25
409.344	510.25
409.567	540.25
409.791	524.25
410.014	526.25
410.238	534.25
410.461	565.25
410.685	532.25
410.908	517.25
411.132	520.25
411.355	497.25
411.578	503.25
411.802	501.25
412.025	492.25
412.249	515.25
412.472	509.25
412.695	486.25
412.919	479.25
413.142	491.25
413.365	500.25
413.589	491.25
413.812	497.25
414.035	482.25
414.258	487.25
414.482	484.25
414.705	485.25
414.928	490.25
415.151	474.25
415.374	486.25
415.597	473.25
415.821	503.25
416.044	466.25
416.267	485.25
416.49	462.25
416.713	444.25
416.936	468.25
417.159	467.25
417.382	480.25
417.605	475.25
417.828	459.25
418.051	483.25
418.274	499.25
418.497	471.25
418.72	484.25
418.943	487.25
419.166	484.25
419.389	506.25
419.611	506.25
419.834	483.25
420.057	492.25
420.28	473.25
420.503	474.25
420.726	460.25
420.948	455.25
421.171	454.25
421.394	476.25
421.617	465.25
421.839	463.25
422.062	483.25
422.285	467.25
422.507	468.25
422.73	468.25
422.953	482.25
423.175	452.25
423.398	488.25
423.621	473.25
423.843	478.25
424.066	495.25
424.288	479.25
424.511	473.25
424.733	486.25
424.956	475.25
425.178	483.25
425.401	473.25
425.623	468.25
425.846	450.25
426.068	449.25
426.291	470.25
426.513	445.25
426.735	439.25
426.958	461.25
427.18	442.25
427.402	456.25
427.625	450.25
427.847	433.25
428.069	447.25
428.292	452.25
428.514	457.25
428.736	434.25
428.958	466.25
429.181	438.25
429.403	421.25
429.625	453.25
429.847	447.25
430.069	434.25
430.292	442.25
430.514	418.25
430.736	433.25
430.958	459.25
431.18	424.25
431.402	449.25
431.624	447.25
431.846	439.25
432.068	431.25
432.29	434.25
432.512	457.25
432.734	437.25
432.956	451.25
433.178	448.25
433.4	450.25
433.622	431.25
433.844	453.25
434.066	442.25
434.287	468.25
434.509	449.25
434.731	446.25
434.953	455.25
435.175	467.25
435.397	469.25
435.618	457.25
435.84	459.25
436.062	438.25
436.284	461.25
436.505	453.25
436.727	464.25
436.949	445.25
437.17	435.25
437.392	448.25
437.614	422.25
437.835	430.25
438.057	437.25
438.278	424.25
438.5	425.25
438.721	421.25
438.943	430.25
439.165	420.25
439.386	432.25
439.608	433.25
439.829	422.25
440.05	430.25
440.272	406.25
440.493	445.25
440.715	430.25
440.936	437.25
441.158	434.25
441.379	452.25
441.6	487.25
441.822	450.25
442.043	461.25
442.264	477.25
442.486	463.25
442.707	455.25
442.928	460.25
443.149	484.25
443.371	442.25
443.592	454.25
443.813	467.25
444.034	465.25
444.255	474.25
444.476	489.25
444.698	489.25
444.919	488.25
445.14	632.25
445.361	542.25
445.582	464.25
445.803	478.25
446.024	466.25
446.245	446.25
446.466	439.25
446.687	430.25
446.908	439.25
447.129	422.25
447.35	437.25
447.571	435.25
447.792	415.25
448.013	431.25
448.234	402.25
448.455	413.25
448.675	401.25
448.896	412.25
449.117	404.25
449.338	389.25
449.559	398.25
449.779	393.25
450	410.25
450.221	419.25
450.442	413.25
450.662	409.25
450.883	389.25
451.104	429.25
451.324	396.25
451.545	408.25
451.766	406.25
451.986	421.25
452.207	391.25
452.428	398.25
452.648	405.25
452.869	391.25
453.089	410.25
453.31	390.25
453.53	385.25
453.751	394.25
453.971	406.25
454.192	389.25
454.412	381.25
454.633	395.25
454.853	391.25
455.073	391.25
455.294	379.25
455.514	382.25
455.734	375.25
455.955	374.25
456.175	369.25
456.395	373.25
456.616	380.25
456.836	408.25
457.056	389.25
457.276	383.25
457.497	400.25
457.717	393.25
457.937	393.25
458.157	386.25
458.377	385.25
458.598	406.25
458.818	409.25
459.038	410.25
459.258	445.25
459.478	422.25
459.698	422.25
459.918	448.25
460.138	460.25
460.358	491.25
460.578	467.25
460.798	462.25
461.018	494.25
461.238	498.25
461.458	483.25
461.678	491.25
461.898	485.25
462.118	505.25
462.338	501.25
462.558	536.25
462.777	530.25
462.997	583.25
463.217	579.25
463.437	570.25
463.657	563.25
463.876	528.25
464.096	555.25
464.316	547.25
464.536	547.25
464.755	517.25
464.975	503.25
465.195	506.25
465.414	489.25
465.634	457.25
465.854	452.25
466.073	431.25
466.293	440.25
466.512	453.25
466.732	434.25
466.951	431.25
467.171	422.25
467.391	432.25
467.61	423.25
467.829	394.25
468.049	399.25
468.268	422.25
468.488	429.25
468.707	413.25
468.927	429.25
469.146	412.25
469.365	421.25
469.585	421.25
469.804	443.25
470.023	417.25
470.243	433.25
470.462	430.25
470.681	437.25
470.901	415.25
471.12	433.25
471.339	437.25
471.558	412.25
471.777	410.25
471.997	426.25
472.216	439.25
472.435	414.25
472.654	424.25
472.873	395.25
473.092	418.25
473.311	418.25
473.53	408.25
473.749	403.25
473.968	426.25
474.187	413.25
474.406	407.25
474.625	405.25
474.844	403.25
475.063	428.25
475.282	407.25
475.501	426.25
475.72	422.25
475.939	420.25
476.158	411.25
476.377	421.25
476.596	412.25
476.814	437.25
477.033	440.25
477.252	444.25
477.471	452.25
477.69	449.25
477.908	455.25
478.127	464.25
478.346	458.25
478.564	485.25
478.783	490.25
479.002	473.25
479.22	460.25
479.439	489.25
479.658	497.25
479.876	482.25
480.095	491.25
480.313	518.25
480.532	519.25
480.751	520.25
480.969	489.25
481.188	483.25
481.406	481.25
481.624	474.25
481.843	477.25
482.061	468.25
482.28	452.25
482.498	462.25
482.717	461.25
482.935	481.25
483.153	466.25
483.372	456.25
483.59	474.25
483.808	451.25
484.027	486.25
484.245	476.25
484.463	474.25
484.681	481.25
484.9	488.25
485.118	485.25
485.336	478.25
485.554	494.25
485.772	478.25
485.99	485.25
486.209	488.25
486.427	480.25
486.645	507.25
486.863	487.25
487.081	500.25
487.299	482.25
487.517	489.25
487.735	503.25
487.953	470.25
488.171	490.25
488.389	479.25
488.607	489.25
488.825	478.25
489.043	470.25
489.261	478.25
489.479	479.25
489.696	482.25
489.914	479.25
490.132	475.25
490.35	463.25
490.568	482.25
490.786	499.25
491.003	475.25
491.221	495.25
491.439	486.25
491.657	474.25
491.874	513.25
492.092	499.25
492.31	511.25
492.527	502.25
492.745	494.25
492.963	501.25
493.18	476.25
493.398	499.25
493.615	504.25
493.833	492.25
494.05	511.25
494.268	489.25
494.485	518.25
494.703	503.25
494.92	505.25
495.138	532.25
495.355	525.25
495.573	523.25
495.79	536.25
496.008	521.25
496.225	527.25
496.442	563.25
496.66	552.25
496.877	546.25
497.094	564.25
497.312	565.25
497.529	568.25
497.746	586.25
497.963	593.25
498.181	623.25
498.398	628.25
498.615	639.25
498.832	713.25
499.049	731.25
499.267	770.25
499.484	789.25
499.701	863.25
499.918	918.25
500.135	989.25
500.352	1060.25
500.569	1066.25
500.786	1078.25
501.003	1048.25
501.22	1013.25
501.437	926.25
501.654	845.25
