Data from Fe(NO3)3@0.1M.TitratingCurve.Agarose3%dH2O.NegLispCup.LampEnergy10.LIBS07252019_HRD10591_16-37-41-332.txt Node
Date: Thu Jul 25 16:37:41 EDT 2019
User: cochatt
Spectrometer: HR+D1059
Trigger mode: 1
Integration Time (sec): 1.000000E-1
Scans to average: 1
Electric dark correction enabled: true
Nonlinearity correction enabled: false
Boxcar width: 0
XAxis mode: Wavelengths
Number of Pixels in Spectrum: 2048
>>>>>Begin Spectral Data<<<<<
223.165	-4.75
223.4	-4.75
223.635	-4.75
223.869	-4.75
224.104	-25.75
224.338	-8.75
224.573	-24.75
224.808	-30.75
225.042	-19.75
225.277	-9.75
225.511	-1.75
225.746	7.25
225.98	-9.75
226.215	13.25
226.449	28.25
226.683	28.25
226.918	25.25
227.152	38.25
227.387	44.25
227.621	35.25
227.856	43.25
228.09	39.25
228.324	55.25
228.559	47.25
228.793	56.25
229.027	82.25
229.262	72.25
229.496	87.25
229.73	75.25
229.964	98.25
230.199	89.25
230.433	92.25
230.667	88.25
230.901	95.25
231.136	99.25
231.37	97.25
231.604	99.25
231.838	92.25
232.072	95.25
232.306	125.25
232.541	99.25
232.775	83.25
233.009	99.25
233.243	103.25
233.477	102.25
233.711	115.25
233.945	112.25
234.179	92.25
234.413	89.25
234.647	91.25
234.881	112.25
235.115	107.25
235.349	104.25
235.583	113.25
235.817	88.25
236.051	105.25
236.285	107.25
236.519	114.25
236.753	115.25
236.987	84.25
237.221	104.25
237.455	113.25
237.689	115.25
237.922	109.25
238.156	100.25
238.39	108.25
238.624	125.25
238.858	117.25
239.091	108.25
239.325	107.25
239.559	113.25
239.793	105.25
240.027	116.25
240.26	108.25
240.494	123.25
240.728	116.25
240.961	119.25
241.195	109.25
241.429	104.25
241.662	104.25
241.896	109.25
242.13	124.25
242.363	114.25
242.597	125.25
242.83	116.25
243.064	120.25
243.298	121.25
243.531	108.25
243.765	117.25
243.998	106.25
244.232	125.25
244.465	114.25
244.699	110.25
244.932	135.25
245.166	119.25
245.399	119.25
245.633	147.25
245.866	132.25
246.099	117.25
246.333	127.25
246.566	117.25
246.8	140.25
247.033	142.25
247.266	123.25
247.5	131.25
247.733	117.25
247.966	127.25
248.2	123.25
248.433	137.25
248.666	132.25
248.899	143.25
249.133	146.25
249.366	130.25
249.599	139.25
249.832	134.25
250.066	166.25
250.299	135.25
250.532	130.25
250.765	136.25
250.998	139.25
251.231	140.25
251.465	131.25
251.698	141.25
251.931	155.25
252.164	154.25
252.397	145.25
252.63	153.25
252.863	152.25
253.096	142.25
253.329	130.25
253.562	133.25
253.795	132.25
254.028	137.25
254.261	145.25
254.494	151.25
254.727	150.25
254.96	164.25
255.193	142.25
255.426	149.25
255.659	147.25
255.892	156.25
256.124	164.25
256.357	151.25
256.59	155.25
256.823	156.25
257.056	153.25
257.289	142.25
257.521	170.25
257.754	160.25
257.987	163.25
258.22	169.25
258.452	154.25
258.685	150.25
258.918	143.25
259.151	158.25
259.383	149.25
259.616	141.25
259.849	154.25
260.081	180.25
260.314	158.25
260.547	157.25
260.779	168.25
261.012	139.25
261.244	161.25
261.477	150.25
261.71	168.25
261.942	177.25
262.175	167.25
262.407	181.25
262.64	166.25
262.872	177.25
263.105	181.25
263.337	170.25
263.57	164.25
263.802	169.25
264.035	165.25
264.267	168.25
264.499	173.25
264.732	177.25
264.964	157.25
265.197	169.25
265.429	175.25
265.661	169.25
265.894	159.25
266.126	168.25
266.358	180.25
266.591	177.25
266.823	167.25
267.055	170.25
267.287	186.25
267.52	181.25
267.752	179.25
267.984	179.25
268.216	177.25
268.448	170.25
268.681	177.25
268.913	193.25
269.145	193.25
269.377	188.25
269.609	181.25
269.841	179.25
270.073	189.25
270.306	184.25
270.538	193.25
270.77	186.25
271.002	173.25
271.234	187.25
271.466	168.25
271.698	188.25
271.93	179.25
272.162	181.25
272.394	194.25
272.626	199.25
272.858	195.25
273.09	191.25
273.322	180.25
273.553	179.25
273.785	199.25
274.017	183.25
274.249	194.25
274.481	184.25
274.713	201.25
274.945	193.25
275.176	191.25
275.408	216.25
275.64	195.25
275.872	196.25
276.104	196.25
276.335	209.25
276.567	187.25
276.799	208.25
277.031	195.25
277.262	185.25
277.494	208.25
277.726	191.25
277.957	213.25
278.189	195.25
278.421	191.25
278.652	195.25
278.884	208.25
279.115	201.25
279.347	196.25
279.579	198.25
279.81	204.25
280.042	217.25
280.273	211.25
280.505	213.25
280.736	218.25
280.968	211.25
281.199	216.25
281.431	207.25
281.662	217.25
281.894	214.25
282.125	226.25
282.356	224.25
282.588	224.25
282.819	217.25
283.051	208.25
283.282	223.25
283.513	229.25
283.745	220.25
283.976	224.25
284.207	220.25
284.439	210.25
284.67	227.25
284.901	234.25
285.132	211.25
285.364	214.25
285.595	224.25
285.826	239.25
286.057	236.25
286.288	227.25
286.52	223.25
286.751	252.25
286.982	255.25
287.213	223.25
287.444	230.25
287.675	213.25
287.906	242.25
288.138	240.25
288.369	233.25
288.6	228.25
288.831	232.25
289.062	225.25
289.293	229.25
289.524	243.25
289.755	219.25
289.986	246.25
290.217	239.25
290.448	236.25
290.679	223.25
290.91	253.25
291.141	232.25
291.371	230.25
291.602	229.25
291.833	234.25
292.064	231.25
292.295	226.25
292.526	250.25
292.757	248.25
292.987	239.25
293.218	226.25
293.449	235.25
293.68	229.25
293.91	242.25
294.141	220.25
294.372	233.25
294.603	245.25
294.833	243.25
295.064	256.25
295.295	237.25
295.525	244.25
295.756	247.25
295.987	209.25
296.217	245.25
296.448	250.25
296.679	240.25
296.909	264.25
297.14	242.25
297.37	245.25
297.601	249.25
297.831	268.25
298.062	265.25
298.292	259.25
298.523	263.25
298.753	252.25
298.984	256.25
299.214	265.25
299.445	245.25
299.675	246.25
299.905	241.25
300.136	255.25
300.366	260.25
300.597	262.25
300.827	255.25
301.057	261.25
301.288	269.25
301.518	258.25
301.748	272.25
301.979	258.25
302.209	263.25
302.439	272.25
302.669	263.25
302.9	277.25
303.13	263.25
303.36	272.25
303.59	247.25
303.82	275.25
304.051	274.25
304.281	269.25
304.511	263.25
304.741	263.25
304.971	270.25
305.201	260.25
305.431	255.25
305.661	256.25
305.891	244.25
306.121	259.25
306.352	266.25
306.582	261.25
306.812	266.25
307.042	276.25
307.272	263.25
307.502	275.25
307.731	259.25
307.961	260.25
308.191	266.25
308.421	270.25
308.651	280.25
308.881	264.25
309.111	271.25
309.341	255.25
309.571	266.25
309.8	273.25
310.03	273.25
310.26	273.25
310.49	264.25
310.72	264.25
310.949	264.25
311.179	281.25
311.409	265.25
311.639	274.25
311.868	287.25
312.098	276.25
312.328	275.25
312.557	280.25
312.787	283.25
313.017	269.25
313.246	285.25
313.476	273.25
313.706	281.25
313.935	277.25
314.165	280.25
314.394	277.25
314.624	287.25
314.853	287.25
315.083	272.25
315.312	270.25
315.542	296.25
315.771	292.25
316.001	287.25
316.23	271.25
316.46	278.25
316.689	275.25
316.919	285.25
317.148	279.25
317.377	276.25
317.607	267.25
317.836	274.25
318.065	284.25
318.295	278.25
318.524	260.25
318.753	275.25
318.983	273.25
319.212	276.25
319.441	284.25
319.67	293.25
319.9	266.25
320.129	276.25
320.358	278.25
320.587	295.25
320.816	286.25
321.046	284.25
321.275	274.25
321.504	296.25
321.733	286.25
321.962	284.25
322.191	299.25
322.42	304.25
322.649	295.25
322.878	302.25
323.108	295.25
323.337	281.25
323.566	287.25
323.795	283.25
324.024	283.25
324.253	284.25
324.482	280.25
324.71	277.25
324.939	283.25
325.168	300.25
325.397	281.25
325.626	294.25
325.855	279.25
326.084	291.25
326.313	293.25
326.542	285.25
326.77	303.25
326.999	298.25
327.228	293.25
327.457	306.25
327.686	304.25
327.914	312.25
328.143	315.25
328.372	310.25
328.6	297.25
328.829	312.25
329.058	311.25
329.287	315.25
329.515	299.25
329.744	321.25
329.972	325.25
330.201	290.25
330.43	316.25
330.658	303.25
330.887	298.25
331.115	294.25
331.344	313.25
331.572	340.25
331.801	310.25
332.03	331.25
332.258	316.25
332.486	352.25
332.715	340.25
332.943	356.25
333.172	358.25
333.4	372.25
333.629	387.25
333.857	384.25
334.085	377.25
334.314	375.25
334.542	373.25
334.771	367.25
334.999	380.25
335.227	364.25
335.455	376.25
335.684	349.25
335.912	346.25
336.14	371.25
336.369	355.25
336.597	362.25
336.825	355.25
337.053	368.25
337.281	357.25
337.51	345.25
337.738	357.25
337.966	329.25
338.194	325.25
338.422	334.25
338.65	345.25
338.878	326.25
339.106	320.25
339.334	332.25
339.562	341.25
339.79	335.25
340.018	316.25
340.246	324.25
340.474	317.25
340.702	298.25
340.93	339.25
341.158	299.25
341.386	326.25
341.614	325.25
341.842	314.25
342.07	322.25
342.298	327.25
342.526	316.25
342.754	313.25
342.981	303.25
343.209	329.25
343.437	346.25
343.665	348.25
343.893	373.25
344.12	342.25
344.348	360.25
344.576	346.25
344.804	350.25
345.031	323.25
345.259	337.25
345.487	325.25
345.714	315.25
345.942	316.25
346.17	306.25
346.397	324.25
346.625	325.25
346.853	303.25
347.08	306.25
347.308	312.25
347.535	322.25
347.763	310.25
347.99	314.25
348.218	323.25
348.445	311.25
348.673	310.25
348.9	296.25
349.128	295.25
349.355	312.25
349.583	310.25
349.81	311.25
350.037	308.25
350.265	297.25
350.492	291.25
350.72	317.25
350.947	300.25
351.174	297.25
351.402	297.25
351.629	289.25
351.856	309.25
352.083	305.25
352.311	323.25
352.538	287.25
352.765	288.25
352.992	313.25
353.22	291.25
353.447	303.25
353.674	294.25
353.901	314.25
354.128	305.25
354.355	313.25
354.583	296.25
354.81	318.25
355.037	312.25
355.264	323.25
355.491	303.25
355.718	297.25
355.945	290.25
356.172	306.25
356.399	306.25
356.626	323.25
356.853	311.25
357.08	305.25
357.307	296.25
357.534	315.25
357.761	300.25
357.988	307.25
358.215	322.25
358.441	296.25
358.668	299.25
358.895	325.25
359.122	317.25
359.349	299.25
359.576	289.25
359.802	312.25
360.029	295.25
360.256	301.25
360.483	301.25
360.709	317.25
360.936	315.25
361.163	308.25
361.39	291.25
361.616	310.25
361.843	296.25
362.07	289.25
362.296	303.25
362.523	299.25
362.749	310.25
362.976	304.25
363.203	312.25
363.429	306.25
363.656	323.25
363.882	308.25
364.109	310.25
364.335	308.25
364.562	302.25
364.788	307.25
365.015	298.25
365.241	332.25
365.468	323.25
365.694	294.25
365.92	295.25
366.147	311.25
366.373	295.25
366.599	320.25
366.826	303.25
367.052	314.25
367.278	327.25
367.505	305.25
367.731	304.25
367.957	328.25
368.184	313.25
368.41	331.25
368.636	315.25
368.862	316.25
369.089	300.25
369.315	331.25
369.541	325.25
369.767	312.25
369.993	332.25
370.219	343.25
370.445	321.25
370.672	323.25
370.898	320.25
371.124	330.25
371.35	336.25
371.576	348.25
371.802	346.25
372.028	332.25
372.254	338.25
372.48	341.25
372.706	341.25
372.932	339.25
373.158	352.25
373.384	341.25
373.61	340.25
373.835	349.25
374.061	340.25
374.287	346.25
374.513	350.25
374.739	338.25
374.965	368.25
375.191	360.25
375.416	367.25
375.642	367.25
375.868	357.25
376.094	359.25
376.319	339.25
376.545	348.25
376.771	347.25
376.997	348.25
377.222	331.25
377.448	357.25
377.674	354.25
377.899	332.25
378.125	340.25
378.35	327.25
378.576	341.25
378.802	339.25
379.027	342.25
379.253	351.25
379.478	337.25
379.704	331.25
379.929	346.25
380.155	333.25
380.38	356.25
380.606	357.25
380.831	345.25
381.057	343.25
381.282	330.25
381.507	349.25
381.733	351.25
381.958	352.25
382.184	343.25
382.409	359.25
382.634	362.25
382.86	352.25
383.085	375.25
383.31	363.25
383.535	376.25
383.761	376.25
383.986	371.25
384.211	390.25
384.436	396.25
384.662	400.25
384.887	386.25
385.112	390.25
385.337	423.25
385.562	396.25
385.787	406.25
386.013	425.25
386.238	433.25
386.463	418.25
386.688	403.25
386.913	428.25
387.138	414.25
387.363	409.25
387.588	434.25
387.813	401.25
388.038	405.25
388.263	416.25
388.488	412.25
388.713	403.25
388.938	414.25
389.163	417.25
389.387	414.25
389.612	405.25
389.837	433.25
390.062	408.25
390.287	407.25
390.512	416.25
390.736	417.25
390.961	425.25
391.186	444.25
391.411	447.25
391.636	456.25
391.86	439.25
392.085	468.25
392.31	458.25
392.534	455.25
392.759	443.25
392.984	444.25
393.208	443.25
393.433	442.25
393.658	432.25
393.882	426.25
394.107	421.25
394.331	445.25
394.556	437.25
394.78	452.25
395.005	483.25
395.229	426.25
395.454	481.25
395.678	454.25
395.903	471.25
396.127	468.25
396.352	458.25
396.576	450.25
396.801	463.25
397.025	445.25
397.249	473.25
397.474	444.25
397.698	447.25
397.922	486.25
398.147	476.25
398.371	479.25
398.595	507.25
398.82	511.25
399.044	550.25
399.268	588.25
399.492	643.25
399.717	713.25
399.941	695.25
400.165	648.25
400.389	607.25
400.613	561.25
400.837	551.25
401.062	552.25
401.286	549.25
401.51	516.25
401.734	533.25
401.958	524.25
402.182	556.25
402.406	554.25
402.63	527.25
402.854	545.25
403.078	551.25
403.302	575.25
403.526	566.25
403.75	555.25
403.974	575.25
404.198	576.25
404.422	581.25
404.645	575.25
404.869	565.25
405.093	563.25
405.317	582.25
405.541	575.25
405.765	548.25
405.988	561.25
406.212	557.25
406.436	565.25
406.66	564.25
406.883	603.25
407.107	618.25
407.331	635.25
407.555	654.25
407.778	636.25
408.002	631.25
408.226	629.25
408.449	633.25
408.673	584.25
408.896	582.25
409.12	589.25
409.344	585.25
409.567	586.25
409.791	604.25
410.014	570.25
410.238	568.25
410.461	564.25
410.685	554.25
410.908	577.25
411.132	563.25
411.355	539.25
411.578	578.25
411.802	531.25
412.025	555.25
412.249	552.25
412.472	553.25
412.695	528.25
412.919	536.25
413.142	523.25
413.365	537.25
413.589	513.25
413.812	525.25
414.035	542.25
414.258	532.25
414.482	527.25
414.705	545.25
414.928	531.25
415.151	544.25
415.374	528.25
415.597	517.25
415.821	533.25
416.044	520.25
416.267	545.25
416.49	529.25
416.713	506.25
416.936	540.25
417.159	511.25
417.382	507.25
417.605	527.25
417.828	506.25
418.051	525.25
418.274	513.25
418.497	519.25
418.72	516.25
418.943	536.25
419.166	557.25
419.389	597.25
419.611	562.25
419.834	547.25
420.057	524.25
420.28	519.25
420.503	517.25
420.726	539.25
420.948	508.25
421.171	537.25
421.394	526.25
421.617	517.25
421.839	515.25
422.062	535.25
422.285	533.25
422.507	528.25
422.73	515.25
422.953	539.25
423.175	528.25
423.398	539.25
423.621	506.25
423.843	540.25
424.066	552.25
424.288	529.25
424.511	536.25
424.733	526.25
424.956	516.25
425.178	525.25
425.401	526.25
425.623	497.25
425.846	491.25
426.068	487.25
426.291	513.25
426.513	510.25
426.735	485.25
426.958	477.25
427.18	485.25
427.402	501.25
427.625	503.25
427.847	495.25
428.069	482.25
428.292	469.25
428.514	462.25
428.736	470.25
428.958	491.25
429.181	454.25
429.403	460.25
429.625	458.25
429.847	462.25
430.069	460.25
430.292	467.25
430.514	461.25
430.736	462.25
430.958	459.25
431.18	453.25
431.402	467.25
431.624	472.25
431.846	480.25
432.068	466.25
432.29	488.25
432.512	491.25
432.734	473.25
432.956	472.25
433.178	471.25
433.4	486.25
433.622	477.25
433.844	487.25
434.066	492.25
434.287	480.25
434.509	507.25
434.731	494.25
434.953	482.25
435.175	497.25
435.397	508.25
435.618	488.25
435.84	487.25
436.062	485.25
436.284	487.25
436.505	487.25
436.727	477.25
436.949	461.25
437.17	464.25
437.392	459.25
437.614	449.25
437.835	438.25
438.057	460.25
438.278	439.25
438.5	485.25
438.721	450.25
438.943	475.25
439.165	460.25
439.386	446.25
439.608	461.25
439.829	470.25
440.05	456.25
440.272	480.25
440.493	468.25
440.715	468.25
440.936	478.25
441.158	509.25
441.379	484.25
441.6	513.25
441.822	525.25
442.043	507.25
442.264	511.25
442.486	501.25
442.707	522.25
442.928	501.25
443.149	509.25
443.371	520.25
443.592	515.25
443.813	532.25
444.034	538.25
444.255	535.25
444.476	547.25
444.698	578.25
444.919	587.25
445.14	681.25
445.361	592.25
445.582	524.25
445.803	498.25
446.024	506.25
446.245	528.25
446.466	493.25
446.687	478.25
446.908	508.25
447.129	474.25
447.35	471.25
447.571	450.25
447.792	451.25
448.013	450.25
448.234	433.25
448.455	437.25
448.675	428.25
448.896	436.25
449.117	432.25
449.338	423.25
449.559	428.25
449.779	424.25
450	425.25
450.221	437.25
450.442	431.25
450.662	436.25
450.883	435.25
451.104	437.25
451.324	451.25
451.545	452.25
451.766	455.25
451.986	419.25
452.207	445.25
452.428	434.25
452.648	428.25
452.869	421.25
453.089	424.25
453.31	415.25
453.53	413.25
453.751	415.25
453.971	422.25
454.192	409.25
454.412	397.25
454.633	395.25
454.853	412.25
455.073	404.25
455.294	406.25
455.514	423.25
455.734	412.25
455.955	415.25
456.175	414.25
456.395	392.25
456.616	415.25
456.836	398.25
457.056	408.25
457.276	401.25
457.497	397.25
457.717	410.25
457.937	420.25
458.157	429.25
458.377	416.25
458.598	427.25
458.818	444.25
459.038	441.25
459.258	440.25
459.478	450.25
459.698	490.25
459.918	484.25
460.138	512.25
460.358	532.25
460.578	530.25
460.798	539.25
461.018	548.25
461.238	549.25
461.458	538.25
461.678	529.25
461.898	556.25
462.118	542.25
462.338	587.25
462.558	595.25
462.777	598.25
462.997	652.25
463.217	679.25
463.437	660.25
463.657	631.25
463.876	625.25
464.096	598.25
464.316	619.25
464.536	623.25
464.755	569.25
464.975	576.25
465.195	568.25
465.414	507.25
465.634	500.25
465.854	504.25
466.073	497.25
466.293	471.25
466.512	465.25
466.732	463.25
466.951	484.25
467.171	463.25
467.391	465.25
467.61	454.25
467.829	451.25
468.049	450.25
468.268	439.25
468.488	458.25
468.707	428.25
468.927	421.25
469.146	432.25
469.365	428.25
469.585	457.25
469.804	455.25
470.023	451.25
470.243	456.25
470.462	464.25
470.681	461.25
470.901	458.25
471.12	449.25
471.339	448.25
471.558	479.25
471.777	447.25
471.997	444.25
472.216	445.25
472.435	461.25
472.654	436.25
472.873	431.25
473.092	439.25
473.311	425.25
473.53	424.25
473.749	404.25
473.968	435.25
474.187	435.25
474.406	406.25
474.625	440.25
474.844	430.25
475.063	441.25
475.282	439.25
475.501	420.25
475.72	441.25
475.939	436.25
476.158	435.25
476.377	439.25
476.596	451.25
476.814	444.25
477.033	455.25
477.252	452.25
477.471	473.25
477.69	475.25
477.908	469.25
478.127	482.25
478.346	480.25
478.564	513.25
478.783	501.25
479.002	513.25
479.22	505.25
479.439	515.25
479.658	512.25
479.876	536.25
480.095	539.25
480.313	554.25
480.532	551.25
480.751	534.25
480.969	524.25
481.188	513.25
481.406	519.25
481.624	491.25
481.843	469.25
482.061	474.25
482.28	496.25
482.498	483.25
482.717	464.25
482.935	480.25
483.153	476.25
483.372	474.25
483.59	504.25
483.808	498.25
484.027	482.25
484.245	511.25
484.463	499.25
484.681	482.25
484.9	505.25
485.118	501.25
485.336	471.25
485.554	486.25
485.772	508.25
485.99	514.25
486.209	511.25
486.427	513.25
486.645	497.25
486.863	490.25
487.081	503.25
487.299	498.25
487.517	503.25
487.735	505.25
487.953	523.25
488.171	507.25
488.389	498.25
488.607	495.25
488.825	497.25
489.043	512.25
489.261	507.25
489.479	499.25
489.696	468.25
489.914	512.25
490.132	510.25
490.35	515.25
490.568	499.25
490.786	497.25
491.003	484.25
491.221	515.25
491.439	517.25
491.657	510.25
491.874	488.25
492.092	529.25
492.31	505.25
492.527	530.25
492.745	512.25
492.963	528.25
493.18	540.25
493.398	540.25
493.615	557.25
493.833	529.25
494.05	512.25
494.268	533.25
494.485	535.25
494.703	540.25
494.92	508.25
495.138	540.25
495.355	533.25
495.573	540.25
495.79	548.25
496.008	543.25
496.225	527.25
496.442	544.25
496.66	565.25
496.877	589.25
497.094	588.25
497.312	599.25
497.529	593.25
497.746	613.25
497.963	631.25
498.181	657.25
498.398	690.25
498.615	713.25
498.832	747.25
499.049	773.25
499.267	851.25
499.484	897.25
499.701	969.25
499.918	1072.25
500.135	1182.25
500.352	1306.25
500.569	1365.25
500.786	1350.25
501.003	1250.25
501.22	1149.25
501.437	1021.25
501.654	954.25
501.871	879.25
