Data from Fe(NO3)3@0.025M.TitratingCurve.Agarose3%dH2O.NegLispCup.LampEnergy10.LIBS07252019_HRD10591_16-55-23-335.txt Node
Date: Thu Jul 25 16:55:23 EDT 2019
User: cochatt
Spectrometer: HR+D1059
Trigger mode: 1
Integration Time (sec): 1.000000E-1
Scans to average: 1
Electric dark correction enabled: true
Nonlinearity correction enabled: false
Boxcar width: 0
XAxis mode: Wavelengths
Number of Pixels in Spectrum: 2048
>>>>>Begin Spectral Data<<<<<
223.165	-21.88
223.4	-21.88
223.635	-21.88
223.869	-11.88
224.104	-12.88
224.338	-11.88
224.573	-22.88
224.808	-16.88
225.042	-3.88
225.277	-1.88
225.511	-7.88
225.746	10.12
225.98	12.12
226.215	6.12
226.449	15.12
226.683	21.12
226.918	23.12
227.152	24.12
227.387	26.12
227.621	33.12
227.856	54.12
228.09	24.12
228.324	39.12
228.559	57.12
228.793	63.12
229.027	71.12
229.262	80.12
229.496	90.12
229.73	71.12
229.964	84.12
230.199	99.12
230.433	89.12
230.667	98.12
230.901	77.12
231.136	101.12
231.37	86.12
231.604	99.12
231.838	94.12
232.072	89.12
232.306	91.12
232.541	93.12
232.775	97.12
233.009	94.12
233.243	104.12
233.477	95.12
233.711	99.12
233.945	109.12
234.179	109.12
234.413	112.12
234.647	86.12
234.881	96.12
235.115	99.12
235.349	101.12
235.583	92.12
235.817	107.12
236.051	107.12
236.285	105.12
236.519	97.12
236.753	92.12
236.987	100.12
237.221	105.12
237.455	98.12
237.689	98.12
237.922	113.12
238.156	107.12
238.39	97.12
238.624	104.12
238.858	102.12
239.091	95.12
239.325	117.12
239.559	114.12
239.793	110.12
240.027	113.12
240.26	98.12
240.494	88.12
240.728	112.12
240.961	101.12
241.195	101.12
241.429	117.12
241.662	101.12
241.896	106.12
242.13	110.12
242.363	104.12
242.597	118.12
242.83	114.12
243.064	119.12
243.298	99.12
243.531	103.12
243.765	124.12
243.998	121.12
244.232	112.12
244.465	110.12
244.699	111.12
244.932	104.12
245.166	103.12
245.399	113.12
245.633	112.12
245.866	123.12
246.099	118.12
246.333	110.12
246.566	122.12
246.8	121.12
247.033	125.12
247.266	128.12
247.5	123.12
247.733	118.12
247.966	135.12
248.2	120.12
248.433	119.12
248.666	132.12
248.899	127.12
249.133	133.12
249.366	114.12
249.599	122.12
249.832	122.12
250.066	137.12
250.299	125.12
250.532	127.12
250.765	120.12
250.998	123.12
251.231	131.12
251.465	116.12
251.698	135.12
251.931	133.12
252.164	138.12
252.397	118.12
252.63	119.12
252.863	137.12
253.096	134.12
253.329	135.12
253.562	139.12
253.795	142.12
254.028	130.12
254.261	121.12
254.494	130.12
254.727	135.12
254.96	130.12
255.193	128.12
255.426	138.12
255.659	135.12
255.892	133.12
256.124	130.12
256.357	155.12
256.59	144.12
256.823	132.12
257.056	126.12
257.289	122.12
257.521	143.12
257.754	149.12
257.987	144.12
258.22	144.12
258.452	129.12
258.685	132.12
258.918	132.12
259.151	151.12
259.383	147.12
259.616	138.12
259.849	152.12
260.081	151.12
260.314	152.12
260.547	148.12
260.779	136.12
261.012	160.12
261.244	151.12
261.477	151.12
261.71	146.12
261.942	149.12
262.175	159.12
262.407	165.12
262.64	164.12
262.872	162.12
263.105	145.12
263.337	165.12
263.57	169.12
263.802	146.12
264.035	145.12
264.267	146.12
264.499	155.12
264.732	154.12
264.964	138.12
265.197	156.12
265.429	165.12
265.661	153.12
265.894	157.12
266.126	170.12
266.358	143.12
266.591	150.12
266.823	153.12
267.055	162.12
267.287	166.12
267.52	151.12
267.752	157.12
267.984	159.12
268.216	171.12
268.448	167.12
268.681	175.12
268.913	169.12
269.145	179.12
269.377	161.12
269.609	178.12
269.841	160.12
270.073	166.12
270.306	177.12
270.538	191.12
270.77	173.12
271.002	169.12
271.234	178.12
271.466	173.12
271.698	178.12
271.93	169.12
272.162	188.12
272.394	176.12
272.626	181.12
272.858	179.12
273.09	178.12
273.322	185.12
273.553	167.12
273.785	183.12
274.017	199.12
274.249	182.12
274.481	184.12
274.713	177.12
274.945	186.12
275.176	176.12
275.408	188.12
275.64	187.12
275.872	175.12
276.104	192.12
276.335	191.12
276.567	182.12
276.799	179.12
277.031	188.12
277.262	178.12
277.494	193.12
277.726	179.12
277.957	192.12
278.189	207.12
278.421	192.12
278.652	204.12
278.884	198.12
279.115	198.12
279.347	195.12
279.579	205.12
279.81	186.12
280.042	210.12
280.273	197.12
280.505	185.12
280.736	209.12
280.968	211.12
281.199	177.12
281.431	204.12
281.662	200.12
281.894	203.12
282.125	210.12
282.356	193.12
282.588	190.12
282.819	204.12
283.051	209.12
283.282	209.12
283.513	206.12
283.745	219.12
283.976	198.12
284.207	212.12
284.439	216.12
284.67	229.12
284.901	203.12
285.132	210.12
285.364	206.12
285.595	214.12
285.826	207.12
286.057	224.12
286.288	223.12
286.52	209.12
286.751	226.12
286.982	227.12
287.213	239.12
287.444	219.12
287.675	231.12
287.906	216.12
288.138	213.12
288.369	209.12
288.6	230.12
288.831	217.12
289.062	209.12
289.293	224.12
289.524	217.12
289.755	223.12
289.986	235.12
290.217	215.12
290.448	228.12
290.679	236.12
290.91	236.12
291.141	235.12
291.371	231.12
291.602	217.12
291.833	235.12
292.064	231.12
292.295	247.12
292.526	211.12
292.757	220.12
292.987	229.12
293.218	226.12
293.449	240.12
293.68	242.12
293.91	231.12
294.141	236.12
294.372	226.12
294.603	252.12
294.833	237.12
295.064	238.12
295.295	251.12
295.525	239.12
295.756	235.12
295.987	252.12
296.217	251.12
296.448	250.12
296.679	240.12
296.909	243.12
297.14	232.12
297.37	225.12
297.601	235.12
297.831	247.12
298.062	239.12
298.292	248.12
298.523	254.12
298.753	250.12
298.984	231.12
299.214	240.12
299.445	247.12
299.675	236.12
299.905	247.12
300.136	286.12
300.366	246.12
300.597	250.12
300.827	260.12
301.057	263.12
301.288	268.12
301.518	251.12
301.748	278.12
301.979	272.12
302.209	255.12
302.439	272.12
302.669	274.12
302.9	264.12
303.13	274.12
303.36	273.12
303.59	287.12
303.82	262.12
304.051	274.12
304.281	277.12
304.511	266.12
304.741	271.12
304.971	275.12
305.201	281.12
305.431	268.12
305.661	280.12
305.891	282.12
306.121	267.12
306.352	258.12
306.582	264.12
306.812	278.12
307.042	278.12
307.272	282.12
307.502	269.12
307.731	263.12
307.961	290.12
308.191	278.12
308.421	287.12
308.651	276.12
308.881	266.12
309.111	258.12
309.341	282.12
309.571	288.12
309.8	278.12
310.03	281.12
310.26	281.12
310.49	296.12
310.72	278.12
310.949	274.12
311.179	273.12
311.409	275.12
311.639	276.12
311.868	282.12
312.098	273.12
312.328	291.12
312.557	282.12
312.787	274.12
313.017	303.12
313.246	272.12
313.476	281.12
313.706	283.12
313.935	299.12
314.165	293.12
314.394	289.12
314.624	295.12
314.853	296.12
315.083	289.12
315.312	291.12
315.542	312.12
315.771	297.12
316.001	289.12
316.23	307.12
316.46	308.12
316.689	306.12
316.919	318.12
317.148	301.12
317.377	296.12
317.607	297.12
317.836	315.12
318.065	291.12
318.295	283.12
318.524	288.12
318.753	297.12
318.983	279.12
319.212	321.12
319.441	288.12
319.67	305.12
319.9	314.12
320.129	304.12
320.358	307.12
320.587	305.12
320.816	310.12
321.046	288.12
321.275	288.12
321.504	316.12
321.733	318.12
321.962	306.12
322.191	294.12
322.42	312.12
322.649	319.12
322.878	305.12
323.108	290.12
323.337	333.12
323.566	305.12
323.795	328.12
324.024	305.12
324.253	330.12
324.482	309.12
324.71	311.12
324.939	283.12
325.168	317.12
325.397	311.12
325.626	315.12
325.855	306.12
326.084	299.12
326.313	336.12
326.542	348.12
326.77	328.12
326.999	330.12
327.228	321.12
327.457	334.12
327.686	318.12
327.914	327.12
328.143	338.12
328.372	318.12
328.6	329.12
328.829	344.12
329.058	337.12
329.287	337.12
329.515	319.12
329.744	332.12
329.972	330.12
330.201	327.12
330.43	336.12
330.658	328.12
330.887	331.12
331.115	336.12
331.344	362.12
331.572	331.12
331.801	347.12
332.03	373.12
332.258	357.12
332.486	370.12
332.715	353.12
332.943	364.12
333.172	379.12
333.4	397.12
333.629	395.12
333.857	395.12
334.085	383.12
334.314	400.12
334.542	387.12
334.771	394.12
334.999	394.12
335.227	401.12
335.455	396.12
335.684	395.12
335.912	385.12
336.14	385.12
336.369	374.12
336.597	402.12
336.825	366.12
337.053	387.12
337.281	374.12
337.51	382.12
337.738	376.12
337.966	366.12
338.194	370.12
338.422	356.12
338.65	362.12
338.878	371.12
339.106	358.12
339.334	357.12
339.562	357.12
339.79	367.12
340.018	368.12
340.246	383.12
340.474	347.12
340.702	355.12
340.93	373.12
341.158	340.12
341.386	350.12
341.614	339.12
341.842	365.12
342.07	360.12
342.298	370.12
342.526	343.12
342.754	339.12
342.981	361.12
343.209	354.12
343.437	364.12
343.665	386.12
343.893	382.12
344.12	413.12
344.348	396.12
344.576	392.12
344.804	375.12
345.031	373.12
345.259	376.12
345.487	374.12
345.714	364.12
345.942	347.12
346.17	353.12
346.397	341.12
346.625	339.12
346.853	349.12
347.08	347.12
347.308	359.12
347.535	330.12
347.763	348.12
347.99	346.12
348.218	359.12
348.445	354.12
348.673	332.12
348.9	355.12
349.128	348.12
349.355	334.12
349.583	354.12
349.81	336.12
350.037	328.12
350.265	361.12
350.492	341.12
350.72	346.12
350.947	326.12
351.174	334.12
351.402	345.12
351.629	323.12
351.856	345.12
352.083	343.12
352.311	324.12
352.538	322.12
352.765	329.12
352.992	341.12
353.22	328.12
353.447	331.12
353.674	345.12
353.901	335.12
354.128	354.12
354.355	337.12
354.583	325.12
354.81	338.12
355.037	336.12
355.264	321.12
355.491	332.12
355.718	334.12
355.945	351.12
356.172	337.12
356.399	357.12
356.626	354.12
356.853	348.12
357.08	346.12
357.307	349.12
357.534	342.12
357.761	343.12
357.988	362.12
358.215	344.12
358.441	338.12
358.668	345.12
358.895	356.12
359.122	349.12
359.349	346.12
359.576	339.12
359.802	367.12
360.029	356.12
360.256	347.12
360.483	336.12
360.709	331.12
360.936	372.12
361.163	344.12
361.39	347.12
361.616	348.12
361.843	363.12
362.07	372.12
362.296	356.12
362.523	355.12
362.749	342.12
362.976	344.12
363.203	379.12
363.429	369.12
363.656	358.12
363.882	345.12
364.109	354.12
364.335	337.12
364.562	357.12
364.788	347.12
365.015	357.12
365.241	368.12
365.468	351.12
365.694	347.12
365.92	349.12
366.147	354.12
366.373	363.12
366.599	382.12
366.826	335.12
367.052	356.12
367.278	341.12
367.505	358.12
367.731	380.12
367.957	346.12
368.184	374.12
368.41	366.12
368.636	345.12
368.862	356.12
369.089	358.12
369.315	360.12
369.541	362.12
369.767	356.12
369.993	362.12
370.219	348.12
370.445	366.12
370.672	370.12
370.898	365.12
371.124	392.12
371.35	376.12
371.576	354.12
371.802	392.12
372.028	388.12
372.254	380.12
372.48	394.12
372.706	379.12
372.932	386.12
373.158	389.12
373.384	375.12
373.61	406.12
373.835	391.12
374.061	367.12
374.287	387.12
374.513	393.12
374.739	408.12
374.965	407.12
375.191	423.12
375.416	387.12
375.642	392.12
375.868	395.12
376.094	413.12
376.319	392.12
376.545	382.12
376.771	371.12
376.997	394.12
377.222	363.12
377.448	388.12
377.674	378.12
377.899	369.12
378.125	389.12
378.35	376.12
378.576	378.12
378.802	375.12
379.027	389.12
379.253	399.12
379.478	363.12
379.704	382.12
379.929	392.12
380.155	379.12
380.38	378.12
380.606	376.12
380.831	382.12
381.057	383.12
381.282	391.12
381.507	386.12
381.733	386.12
381.958	375.12
382.184	397.12
382.409	380.12
382.634	396.12
382.86	390.12
383.085	400.12
383.31	400.12
383.535	416.12
383.761	412.12
383.986	416.12
384.211	427.12
384.436	420.12
384.662	421.12
384.887	420.12
385.112	447.12
385.337	426.12
385.562	420.12
385.787	453.12
386.013	436.12
386.238	431.12
386.463	426.12
386.688	440.12
386.913	435.12
387.138	432.12
387.363	432.12
387.588	457.12
387.813	457.12
388.038	455.12
388.263	432.12
388.488	426.12
388.713	438.12
388.938	434.12
389.163	438.12
389.387	451.12
389.612	440.12
389.837	450.12
390.062	446.12
390.287	442.12
390.512	461.12
390.736	444.12
390.961	461.12
391.186	464.12
391.411	480.12
391.636	469.12
391.86	471.12
392.085	470.12
392.31	450.12
392.534	459.12
392.759	466.12
392.984	459.12
393.208	466.12
393.433	448.12
393.658	477.12
393.882	448.12
394.107	442.12
394.331	468.12
394.556	443.12
394.78	470.12
395.005	460.12
395.229	458.12
395.454	473.12
395.678	483.12
395.903	482.12
396.127	468.12
396.352	475.12
396.576	478.12
396.801	520.12
397.025	475.12
397.249	502.12
397.474	494.12
397.698	500.12
397.922	505.12
398.147	492.12
398.371	526.12
398.595	518.12
398.82	550.12
399.044	550.12
399.268	585.12
399.492	636.12
399.717	626.12
399.941	650.12
400.165	638.12
400.389	603.12
400.613	558.12
400.837	562.12
401.062	552.12
401.286	532.12
401.51	518.12
401.734	533.12
401.958	553.12
402.182	530.12
402.406	550.12
402.63	503.12
402.854	539.12
403.078	544.12
403.302	560.12
403.526	548.12
403.75	532.12
403.974	549.12
404.198	551.12
404.422	566.12
404.645	560.12
404.869	533.12
405.093	561.12
405.317	544.12
405.541	555.12
405.765	566.12
405.988	566.12
406.212	548.12
406.436	579.12
406.66	578.12
406.883	576.12
407.107	599.12
407.331	609.12
407.555	631.12
407.778	634.12
408.002	616.12
408.226	606.12
408.449	594.12
408.673	588.12
408.896	578.12
409.12	566.12
409.344	550.12
409.567	563.12
409.791	570.12
410.014	538.12
410.238	557.12
410.461	547.12
410.685	560.12
410.908	557.12
411.132	551.12
411.355	555.12
411.578	559.12
411.802	546.12
412.025	546.12
412.249	553.12
412.472	578.12
412.695	559.12
412.919	550.12
413.142	530.12
413.365	542.12
413.589	545.12
413.812	549.12
414.035	541.12
414.258	517.12
414.482	535.12
414.705	528.12
414.928	547.12
415.151	542.12
415.374	512.12
415.597	528.12
415.821	520.12
416.044	500.12
416.267	484.12
416.49	525.12
416.713	513.12
416.936	514.12
417.159	516.12
417.382	508.12
417.605	506.12
417.828	518.12
418.051	515.12
418.274	530.12
418.497	519.12
418.72	509.12
418.943	507.12
419.166	521.12
419.389	552.12
419.611	529.12
419.834	527.12
420.057	536.12
420.28	522.12
420.503	506.12
420.726	489.12
420.948	514.12
421.171	497.12
421.394	516.12
421.617	538.12
421.839	513.12
422.062	534.12
422.285	490.12
422.507	506.12
422.73	484.12
422.953	495.12
423.175	514.12
423.398	520.12
423.621	505.12
423.843	502.12
424.066	516.12
424.288	520.12
424.511	513.12
424.733	504.12
424.956	508.12
425.178	503.12
425.401	488.12
425.623	506.12
425.846	494.12
426.068	504.12
426.291	496.12
426.513	469.12
426.735	485.12
426.958	474.12
427.18	486.12
427.402	498.12
427.625	469.12
427.847	470.12
428.069	465.12
428.292	486.12
428.514	457.12
428.736	474.12
428.958	476.12
429.181	441.12
429.403	463.12
429.625	463.12
429.847	459.12
430.069	448.12
430.292	468.12
430.514	460.12
430.736	469.12
430.958	460.12
431.18	470.12
431.402	486.12
431.624	488.12
431.846	471.12
432.068	472.12
432.29	450.12
432.512	465.12
432.734	477.12
432.956	461.12
433.178	467.12
433.4	490.12
433.622	456.12
433.844	490.12
434.066	476.12
434.287	480.12
434.509	497.12
434.731	500.12
434.953	512.12
435.175	489.12
435.397	497.12
435.618	494.12
435.84	488.12
436.062	490.12
436.284	477.12
436.505	483.12
436.727	469.12
436.949	467.12
437.17	472.12
437.392	464.12
437.614	444.12
437.835	458.12
438.057	450.12
438.278	454.12
438.5	465.12
438.721	460.12
438.943	476.12
439.165	463.12
439.386	464.12
439.608	486.12
439.829	479.12
440.05	462.12
440.272	457.12
440.493	481.12
440.715	486.12
440.936	490.12
441.158	471.12
441.379	476.12
441.6	523.12
441.822	485.12
442.043	514.12
442.264	518.12
442.486	486.12
442.707	495.12
442.928	502.12
443.149	482.12
443.371	489.12
443.592	489.12
443.813	495.12
444.034	502.12
444.255	522.12
444.476	528.12
444.698	548.12
444.919	558.12
445.14	604.12
445.361	554.12
445.582	513.12
445.803	502.12
446.024	482.12
446.245	486.12
446.466	461.12
446.687	482.12
446.908	483.12
447.129	463.12
447.35	476.12
447.571	444.12
447.792	414.12
448.013	442.12
448.234	450.12
448.455	438.12
448.675	422.12
448.896	440.12
449.117	430.12
449.338	416.12
449.559	437.12
449.779	412.12
450	427.12
450.221	436.12
450.442	440.12
450.662	434.12
450.883	423.12
451.104	438.12
451.324	434.12
451.545	426.12
451.766	432.12
451.986	440.12
452.207	415.12
452.428	424.12
452.648	437.12
452.869	420.12
453.089	416.12
453.31	412.12
453.53	420.12
453.751	410.12
453.971	427.12
454.192	418.12
454.412	382.12
454.633	414.12
454.853	434.12
455.073	395.12
455.294	406.12
455.514	392.12
455.734	418.12
455.955	408.12
456.175	416.12
456.395	408.12
456.616	411.12
456.836	422.12
457.056	416.12
457.276	409.12
457.497	410.12
457.717	403.12
457.937	427.12
458.157	427.12
458.377	438.12
458.598	440.12
458.818	448.12
459.038	444.12
459.258	441.12
459.478	475.12
459.698	477.12
459.918	478.12
460.138	511.12
460.358	499.12
460.578	513.12
460.798	503.12
461.018	483.12
461.238	513.12
461.458	510.12
461.678	531.12
461.898	536.12
462.118	527.12
462.338	559.12
462.558	554.12
462.777	577.12
462.997	610.12
463.217	596.12
463.437	612.12
463.657	591.12
463.876	596.12
464.096	584.12
464.316	579.12
464.536	558.12
464.755	564.12
464.975	557.12
465.195	547.12
465.414	520.12
465.634	481.12
465.854	500.12
466.073	480.12
466.293	468.12
466.512	436.12
466.732	465.12
466.951	461.12
467.171	453.12
467.391	449.12
467.61	454.12
467.829	460.12
468.049	452.12
468.268	458.12
468.488	445.12
468.707	459.12
468.927	489.12
469.146	459.12
469.365	436.12
469.585	447.12
469.804	456.12
470.023	490.12
470.243	467.12
470.462	471.12
470.681	470.12
470.901	466.12
471.12	463.12
471.339	449.12
471.558	463.12
471.777	468.12
471.997	447.12
472.216	473.12
472.435	432.12
472.654	462.12
472.873	451.12
473.092	459.12
473.311	438.12
473.53	457.12
473.749	469.12
473.968	452.12
474.187	448.12
474.406	463.12
474.625	454.12
474.844	483.12
475.063	464.12
475.282	446.12
475.501	468.12
475.72	453.12
475.939	478.12
476.158	475.12
476.377	478.12
476.596	484.12
476.814	485.12
477.033	482.12
477.252	506.12
477.471	487.12
477.69	482.12
477.908	498.12
478.127	514.12
478.346	523.12
478.564	514.12
478.783	546.12
479.002	525.12
479.22	552.12
479.439	545.12
479.658	565.12
479.876	564.12
480.095	543.12
480.313	549.12
480.532	549.12
480.751	556.12
480.969	564.12
481.188	520.12
481.406	522.12
481.624	535.12
481.843	542.12
482.061	537.12
482.28	515.12
482.498	518.12
482.717	521.12
482.935	525.12
483.153	518.12
483.372	517.12
483.59	536.12
483.808	538.12
484.027	525.12
484.245	540.12
484.463	522.12
484.681	532.12
484.9	546.12
485.118	546.12
485.336	532.12
485.554	547.12
485.772	544.12
485.99	567.12
486.209	553.12
486.427	550.12
486.645	526.12
486.863	540.12
487.081	545.12
487.299	556.12
487.517	542.12
487.735	531.12
487.953	536.12
488.171	539.12
488.389	541.12
488.607	525.12
488.825	534.12
489.043	544.12
489.261	533.12
489.479	553.12
489.696	547.12
489.914	544.12
490.132	548.12
490.35	535.12
490.568	559.12
490.786	548.12
491.003	540.12
491.221	575.12
491.439	562.12
491.657	555.12
491.874	562.12
492.092	551.12
492.31	527.12
492.527	542.12
492.745	551.12
492.963	554.12
493.18	581.12
493.398	572.12
493.615	550.12
493.833	556.12
494.05	577.12
494.268	568.12
494.485	574.12
494.703	582.12
494.92	578.12
495.138	593.12
495.355	548.12
495.573	594.12
495.79	590.12
496.008	570.12
496.225	601.12
496.442	600.12
496.66	614.12
496.877	612.12
497.094	631.12
497.312	626.12
497.529	636.12
497.746	637.12
497.963	662.12
498.181	692.12
498.398	716.12
498.615	739.12
498.832	763.12
499.049	811.12
499.267	850.12
499.484	889.12
499.701	967.12
499.918	971.12
500.135	1018.12
500.352	1083.12
500.569	1094.12
500.786	1076.12
501.003	1063.12
501.22	1015.12
501.437	940.12
501.654	897.12
501.871	854.12
