Data from Fe(NO3)3@0.0125M.TitratingCurve.Agarose3%dH2O.NegLispCup.LampEnergy10.LIBS07252019_HRD10591_16-59-14-336.txt Node
Date: Thu Jul 25 16:59:14 EDT 2019
User: cochatt
Spectrometer: HR+D1059
Trigger mode: 1
Integration Time (sec): 1.000000E-1
Scans to average: 1
Electric dark correction enabled: true
Nonlinearity correction enabled: false
Boxcar width: 0
XAxis mode: Wavelengths
Number of Pixels in Spectrum: 2048
>>>>>Begin Spectral Data<<<<<
223.165	-13.56
223.4	-13.56
223.635	-13.56
223.869	-23.56
224.104	-11.56
224.338	-18.56
224.573	-28.56
224.808	-27.56
225.042	-2.56
225.277	-4.56
225.511	18.44
225.746	2.44
225.98	17.44
226.215	11.44
226.449	11.44
226.683	25.44
226.918	18.44
227.152	25.44
227.387	28.44
227.621	39.44
227.856	44.44
228.09	51.44
228.324	62.44
228.559	69.44
228.793	64.44
229.027	80.44
229.262	98.44
229.496	83.44
229.73	88.44
229.964	102.44
230.199	113.44
230.433	92.44
230.667	107.44
230.901	106.44
231.136	112.44
231.37	102.44
231.604	111.44
231.838	97.44
232.072	91.44
232.306	100.44
232.541	115.44
232.775	123.44
233.009	123.44
233.243	98.44
233.477	115.44
233.711	121.44
233.945	107.44
234.179	108.44
234.413	108.44
234.647	110.44
234.881	111.44
235.115	121.44
235.349	117.44
235.583	124.44
235.817	112.44
236.051	118.44
236.285	126.44
236.519	117.44
236.753	121.44
236.987	121.44
237.221	127.44
237.455	127.44
237.689	127.44
237.922	132.44
238.156	121.44
238.39	120.44
238.624	134.44
238.858	132.44
239.091	121.44
239.325	123.44
239.559	123.44
239.793	131.44
240.027	123.44
240.26	137.44
240.494	129.44
240.728	112.44
240.961	138.44
241.195	130.44
241.429	144.44
241.662	134.44
241.896	129.44
242.13	141.44
242.363	124.44
242.597	121.44
242.83	141.44
243.064	130.44
243.298	137.44
243.531	125.44
243.765	142.44
243.998	146.44
244.232	145.44
244.465	154.44
244.699	139.44
244.932	145.44
245.166	151.44
245.399	153.44
245.633	128.44
245.866	142.44
246.099	148.44
246.333	138.44
246.566	147.44
246.8	153.44
247.033	149.44
247.266	141.44
247.5	144.44
247.733	145.44
247.966	155.44
248.2	163.44
248.433	175.44
248.666	162.44
248.899	162.44
249.133	168.44
249.366	165.44
249.599	158.44
249.832	166.44
250.066	164.44
250.299	169.44
250.532	153.44
250.765	161.44
250.998	179.44
251.231	148.44
251.465	177.44
251.698	165.44
251.931	171.44
252.164	161.44
252.397	163.44
252.63	161.44
252.863	171.44
253.096	174.44
253.329	180.44
253.562	177.44
253.795	169.44
254.028	165.44
254.261	173.44
254.494	176.44
254.727	169.44
254.96	171.44
255.193	195.44
255.426	169.44
255.659	170.44
255.892	195.44
256.124	191.44
256.357	193.44
256.59	184.44
256.823	187.44
257.056	194.44
257.289	180.44
257.521	170.44
257.754	195.44
257.987	184.44
258.22	209.44
258.452	209.44
258.685	192.44
258.918	193.44
259.151	192.44
259.383	214.44
259.616	189.44
259.849	206.44
260.081	218.44
260.314	219.44
260.547	214.44
260.779	194.44
261.012	205.44
261.244	223.44
261.477	195.44
261.71	212.44
261.942	217.44
262.175	218.44
262.407	208.44
262.64	215.44
262.872	209.44
263.105	222.44
263.337	223.44
263.57	208.44
263.802	227.44
264.035	209.44
264.267	218.44
264.499	217.44
264.732	220.44
264.964	237.44
265.197	227.44
265.429	217.44
265.661	227.44
265.894	230.44
266.126	234.44
266.358	224.44
266.591	218.44
266.823	240.44
267.055	212.44
267.287	239.44
267.52	228.44
267.752	239.44
267.984	235.44
268.216	235.44
268.448	243.44
268.681	231.44
268.913	244.44
269.145	255.44
269.377	248.44
269.609	236.44
269.841	242.44
270.073	219.44
270.306	258.44
270.538	254.44
270.77	231.44
271.002	253.44
271.234	247.44
271.466	250.44
271.698	229.44
271.93	273.44
272.162	261.44
272.394	253.44
272.626	259.44
272.858	275.44
273.09	255.44
273.322	279.44
273.553	268.44
273.785	251.44
274.017	261.44
274.249	268.44
274.481	281.44
274.713	261.44
274.945	283.44
275.176	299.44
275.408	294.44
275.64	272.44
275.872	275.44
276.104	285.44
276.335	263.44
276.567	268.44
276.799	281.44
277.031	280.44
277.262	280.44
277.494	294.44
277.726	287.44
277.957	280.44
278.189	292.44
278.421	297.44
278.652	303.44
278.884	287.44
279.115	293.44
279.347	281.44
279.579	282.44
279.81	296.44
280.042	298.44
280.273	289.44
280.505	283.44
280.736	308.44
280.968	287.44
281.199	317.44
281.431	311.44
281.662	304.44
281.894	309.44
282.125	310.44
282.356	300.44
282.588	307.44
282.819	289.44
283.051	315.44
283.282	305.44
283.513	314.44
283.745	318.44
283.976	319.44
284.207	301.44
284.439	321.44
284.67	342.44
284.901	326.44
285.132	315.44
285.364	319.44
285.595	320.44
285.826	321.44
286.057	314.44
286.288	321.44
286.52	310.44
286.751	323.44
286.982	338.44
287.213	329.44
287.444	323.44
287.675	323.44
287.906	339.44
288.138	338.44
288.369	338.44
288.6	349.44
288.831	342.44
289.062	339.44
289.293	342.44
289.524	328.44
289.755	343.44
289.986	328.44
290.217	334.44
290.448	340.44
290.679	360.44
290.91	348.44
291.141	349.44
291.371	357.44
291.602	349.44
291.833	353.44
292.064	353.44
292.295	336.44
292.526	335.44
292.757	361.44
292.987	354.44
293.218	337.44
293.449	349.44
293.68	352.44
293.91	336.44
294.141	355.44
294.372	351.44
294.603	359.44
294.833	362.44
295.064	365.44
295.295	372.44
295.525	364.44
295.756	363.44
295.987	359.44
296.217	354.44
296.448	353.44
296.679	378.44
296.909	372.44
297.14	374.44
297.37	370.44
297.601	374.44
297.831	383.44
298.062	371.44
298.292	361.44
298.523	371.44
298.753	391.44
298.984	384.44
299.214	403.44
299.445	383.44
299.675	380.44
299.905	372.44
300.136	374.44
300.366	383.44
300.597	378.44
300.827	378.44
301.057	404.44
301.288	403.44
301.518	386.44
301.748	375.44
301.979	402.44
302.209	397.44
302.439	374.44
302.669	385.44
302.9	409.44
303.13	413.44
303.36	428.44
303.59	405.44
303.82	405.44
304.051	415.44
304.281	418.44
304.511	408.44
304.741	425.44
304.971	407.44
305.201	426.44
305.431	437.44
305.661	441.44
305.891	428.44
306.121	435.44
306.352	424.44
306.582	408.44
306.812	414.44
307.042	422.44
307.272	403.44
307.502	418.44
307.731	431.44
307.961	431.44
308.191	426.44
308.421	441.44
308.651	437.44
308.881	428.44
309.111	427.44
309.341	403.44
309.571	455.44
309.8	425.44
310.03	438.44
310.26	439.44
310.49	426.44
310.72	424.44
310.949	422.44
311.179	436.44
311.409	440.44
311.639	442.44
311.868	450.44
312.098	429.44
312.328	437.44
312.557	479.44
312.787	433.44
313.017	454.44
313.246	476.44
313.476	436.44
313.706	445.44
313.935	454.44
314.165	447.44
314.394	458.44
314.624	460.44
314.853	429.44
315.083	456.44
315.312	467.44
315.542	461.44
315.771	478.44
316.001	464.44
316.23	466.44
316.46	465.44
316.689	453.44
316.919	480.44
317.148	468.44
317.377	479.44
317.607	476.44
317.836	463.44
318.065	464.44
318.295	449.44
318.524	473.44
318.753	460.44
318.983	486.44
319.212	461.44
319.441	495.44
319.67	462.44
319.9	456.44
320.129	484.44
320.358	470.44
320.587	467.44
320.816	486.44
321.046	488.44
321.275	497.44
321.504	492.44
321.733	489.44
321.962	508.44
322.191	507.44
322.42	504.44
322.649	489.44
322.878	509.44
323.108	507.44
323.337	489.44
323.566	496.44
323.795	506.44
324.024	507.44
324.253	499.44
324.482	501.44
324.71	511.44
324.939	521.44
325.168	495.44
325.397	522.44
325.626	522.44
325.855	507.44
326.084	529.44
326.313	515.44
326.542	501.44
326.77	510.44
326.999	488.44
327.228	524.44
327.457	518.44
327.686	535.44
327.914	526.44
328.143	525.44
328.372	497.44
328.6	507.44
328.829	508.44
329.058	502.44
329.287	519.44
329.515	518.44
329.744	530.44
329.972	522.44
330.201	528.44
330.43	521.44
330.658	537.44
330.887	531.44
331.115	534.44
331.344	526.44
331.572	546.44
331.801	541.44
332.03	553.44
332.258	532.44
332.486	540.44
332.715	533.44
332.943	562.44
333.172	568.44
333.4	546.44
333.629	571.44
333.857	557.44
334.085	564.44
334.314	560.44
334.542	561.44
334.771	593.44
334.999	574.44
335.227	582.44
335.455	570.44
335.684	595.44
335.912	592.44
336.14	575.44
336.369	596.44
336.597	595.44
336.825	586.44
337.053	567.44
337.281	575.44
337.51	576.44
337.738	590.44
337.966	565.44
338.194	567.44
338.422	591.44
338.65	562.44
338.878	578.44
339.106	577.44
339.334	564.44
339.562	566.44
339.79	572.44
340.018	570.44
340.246	554.44
340.474	565.44
340.702	570.44
340.93	554.44
341.158	560.44
341.386	553.44
341.614	576.44
341.842	573.44
342.07	563.44
342.298	565.44
342.526	551.44
342.754	535.44
342.981	555.44
343.209	564.44
343.437	565.44
343.665	591.44
343.893	582.44
344.12	559.44
344.348	567.44
344.576	566.44
344.804	584.44
345.031	586.44
345.259	572.44
345.487	577.44
345.714	572.44
345.942	555.44
346.17	577.44
346.397	593.44
346.625	564.44
346.853	549.44
347.08	559.44
347.308	560.44
347.535	577.44
347.763	570.44
347.99	539.44
348.218	547.44
348.445	575.44
348.673	564.44
348.9	569.44
349.128	540.44
349.355	541.44
349.583	538.44
349.81	535.44
350.037	543.44
350.265	547.44
350.492	540.44
350.72	527.44
350.947	549.44
351.174	555.44
351.402	545.44
351.629	539.44
351.856	534.44
352.083	543.44
352.311	539.44
352.538	540.44
352.765	536.44
352.992	538.44
353.22	571.44
353.447	531.44
353.674	545.44
353.901	549.44
354.128	551.44
354.355	556.44
354.583	536.44
354.81	550.44
355.037	547.44
355.264	542.44
355.491	526.44
355.718	532.44
355.945	581.44
356.172	561.44
356.399	570.44
356.626	538.44
356.853	541.44
357.08	551.44
357.307	542.44
357.534	562.44
357.761	562.44
357.988	569.44
358.215	567.44
358.441	547.44
358.668	567.44
358.895	561.44
359.122	547.44
359.349	543.44
359.576	561.44
359.802	568.44
360.029	557.44
360.256	559.44
360.483	547.44
360.709	565.44
360.936	575.44
361.163	566.44
361.39	571.44
361.616	565.44
361.843	549.44
362.07	591.44
362.296	563.44
362.523	562.44
362.749	563.44
362.976	549.44
363.203	562.44
363.429	561.44
363.656	570.44
363.882	563.44
364.109	571.44
364.335	573.44
364.562	568.44
364.788	552.44
365.015	568.44
365.241	568.44
365.468	570.44
365.694	568.44
365.92	586.44
366.147	547.44
366.373	577.44
366.599	574.44
366.826	565.44
367.052	561.44
367.278	560.44
367.505	560.44
367.731	568.44
367.957	587.44
368.184	586.44
368.41	608.44
368.636	572.44
368.862	592.44
369.089	578.44
369.315	589.44
369.541	596.44
369.767	594.44
369.993	603.44
370.219	606.44
370.445	593.44
370.672	588.44
370.898	599.44
371.124	604.44
371.35	613.44
371.576	575.44
371.802	576.44
372.028	585.44
372.254	597.44
372.48	593.44
372.706	607.44
372.932	617.44
373.158	590.44
373.384	623.44
373.61	607.44
373.835	627.44
374.061	614.44
374.287	636.44
374.513	605.44
374.739	631.44
374.965	629.44
375.191	619.44
375.416	625.44
375.642	624.44
375.868	613.44
376.094	601.44
376.319	593.44
376.545	605.44
376.771	599.44
376.997	597.44
377.222	575.44
377.448	594.44
377.674	595.44
377.899	610.44
378.125	607.44
378.35	601.44
378.576	597.44
378.802	605.44
379.027	596.44
379.253	612.44
379.478	591.44
379.704	600.44
379.929	606.44
380.155	607.44
380.38	587.44
380.606	598.44
380.831	595.44
381.057	601.44
381.282	597.44
381.507	615.44
381.733	617.44
381.958	631.44
382.184	607.44
382.409	607.44
382.634	649.44
382.86	611.44
383.085	614.44
383.31	655.44
383.535	643.44
383.761	615.44
383.986	627.44
384.211	645.44
384.436	636.44
384.662	639.44
384.887	628.44
385.112	650.44
385.337	663.44
385.562	649.44
385.787	645.44
386.013	655.44
386.238	658.44
386.463	663.44
386.688	653.44
386.913	647.44
387.138	662.44
387.363	653.44
387.588	655.44
387.813	675.44
388.038	649.44
388.263	703.44
388.488	663.44
388.713	669.44
388.938	679.44
389.163	633.44
389.387	660.44
389.612	652.44
389.837	667.44
390.062	663.44
390.287	678.44
390.512	656.44
390.736	678.44
390.961	690.44
391.186	643.44
391.411	662.44
391.636	668.44
391.86	673.44
392.085	710.44
392.31	701.44
392.534	672.44
392.759	695.44
392.984	681.44
393.208	690.44
393.433	710.44
393.658	692.44
393.882	708.44
394.107	695.44
394.331	689.44
394.556	693.44
394.78	695.44
395.005	698.44
395.229	676.44
395.454	718.44
395.678	697.44
395.903	708.44
396.127	705.44
396.352	685.44
396.576	699.44
396.801	701.44
397.025	699.44
397.249	716.44
397.474	705.44
397.698	736.44
397.922	714.44
398.147	715.44
398.371	735.44
398.595	761.44
398.82	775.44
399.044	759.44
399.268	756.44
399.492	781.44
399.717	795.44
399.941	797.44
400.165	780.44
400.389	792.44
400.613	793.44
400.837	765.44
401.062	771.44
401.286	770.44
401.51	752.44
401.734	767.44
401.958	771.44
402.182	796.44
402.406	755.44
402.63	744.44
402.854	762.44
403.078	767.44
403.302	735.44
403.526	752.44
403.75	767.44
403.974	767.44
404.198	751.44
404.422	767.44
404.645	763.44
404.869	753.44
405.093	779.44
405.317	755.44
405.541	779.44
405.765	786.44
405.988	764.44
406.212	793.44
406.436	801.44
406.66	780.44
406.883	799.44
407.107	833.44
407.331	819.44
407.555	853.44
407.778	820.44
408.002	804.44
408.226	819.44
408.449	827.44
408.673	827.44
408.896	835.44
409.12	800.44
409.344	823.44
409.567	809.44
409.791	788.44
410.014	775.44
410.238	807.44
410.461	775.44
410.685	795.44
410.908	794.44
411.132	773.44
411.355	779.44
411.578	782.44
411.802	746.44
412.025	815.44
412.249	771.44
412.472	801.44
412.695	787.44
412.919	766.44
413.142	770.44
413.365	771.44
413.589	754.44
413.812	775.44
414.035	771.44
414.258	753.44
414.482	759.44
414.705	755.44
414.928	775.44
415.151	763.44
415.374	747.44
415.597	725.44
415.821	721.44
416.044	727.44
416.267	712.44
416.49	732.44
416.713	715.44
416.936	745.44
417.159	748.44
417.382	737.44
417.605	707.44
417.828	721.44
418.051	735.44
418.274	740.44
418.497	702.44
418.72	724.44
418.943	711.44
419.166	754.44
419.389	794.44
419.611	765.44
419.834	742.44
420.057	754.44
420.28	730.44
420.503	707.44
420.726	709.44
420.948	712.44
421.171	697.44
421.394	715.44
421.617	712.44
421.839	713.44
422.062	689.44
422.285	714.44
422.507	698.44
422.73	718.44
422.953	703.44
423.175	708.44
423.398	702.44
423.621	709.44
423.843	721.44
424.066	736.44
424.288	713.44
424.511	677.44
424.733	715.44
424.956	709.44
425.178	709.44
425.401	731.44
425.623	721.44
425.846	730.44
426.068	716.44
426.291	711.44
426.513	693.44
426.735	717.44
426.958	731.44
427.18	704.44
427.402	730.44
427.625	707.44
427.847	704.44
428.069	711.44
428.292	695.44
428.514	706.44
428.736	687.44
428.958	697.44
429.181	702.44
429.403	690.44
429.625	691.44
429.847	678.44
430.069	719.44
430.292	690.44
430.514	695.44
430.736	699.44
430.958	707.44
431.18	684.44
431.402	683.44
431.624	701.44
431.846	699.44
432.068	703.44
432.29	707.44
432.512	675.44
432.734	710.44
432.956	714.44
433.178	691.44
433.4	698.44
433.622	704.44
433.844	718.44
434.066	704.44
434.287	700.44
434.509	703.44
434.731	717.44
434.953	726.44
435.175	727.44
435.397	711.44
435.618	725.44
435.84	695.44
436.062	686.44
436.284	721.44
436.505	689.44
436.727	704.44
436.949	690.44
437.17	711.44
437.392	679.44
437.614	704.44
437.835	699.44
438.057	657.44
438.278	683.44
438.5	673.44
438.721	659.44
438.943	668.44
439.165	669.44
439.386	696.44
439.608	697.44
439.829	666.44
440.05	679.44
440.272	675.44
440.493	682.44
440.715	691.44
440.936	677.44
441.158	674.44
441.379	681.44
441.6	700.44
441.822	710.44
442.043	687.44
442.264	704.44
442.486	706.44
442.707	680.44
442.928	721.44
443.149	715.44
443.371	701.44
443.592	705.44
443.813	690.44
444.034	678.44
444.255	711.44
444.476	709.44
444.698	719.44
444.919	712.44
445.14	828.44
445.361	764.44
445.582	703.44
445.803	677.44
446.024	687.44
446.245	687.44
446.466	663.44
446.687	690.44
446.908	704.44
447.129	689.44
447.35	684.44
447.571	675.44
447.792	699.44
448.013	663.44
448.234	667.44
448.455	653.44
448.675	665.44
448.896	666.44
449.117	656.44
449.338	666.44
449.559	671.44
449.779	663.44
450	635.44
450.221	636.44
450.442	654.44
450.662	655.44
450.883	623.44
451.104	649.44
451.324	647.44
451.545	644.44
451.766	633.44
451.986	647.44
452.207	647.44
452.428	645.44
452.648	629.44
452.869	613.44
453.089	643.44
453.31	643.44
453.53	623.44
453.751	633.44
453.971	632.44
454.192	619.44
454.412	635.44
454.633	621.44
454.853	628.44
455.073	635.44
455.294	625.44
455.514	636.44
455.734	626.44
455.955	618.44
456.175	631.44
456.395	632.44
456.616	646.44
456.836	637.44
457.056	635.44
457.276	648.44
457.497	628.44
457.717	607.44
457.937	625.44
458.157	659.44
458.377	632.44
458.598	636.44
458.818	615.44
459.038	661.44
459.258	658.44
459.478	681.44
459.698	659.44
459.918	674.44
460.138	659.44
460.358	697.44
460.578	704.44
460.798	718.44
461.018	704.44
461.238	712.44
461.458	701.44
461.678	718.44
461.898	713.44
462.118	746.44
462.338	725.44
462.558	705.44
462.777	766.44
462.997	732.44
463.217	751.44
463.437	755.44
463.657	761.44
463.876	742.44
464.096	733.44
464.316	729.44
464.536	744.44
464.755	751.44
464.975	727.44
465.195	718.44
465.414	729.44
465.634	687.44
465.854	671.44
466.073	690.44
466.293	718.44
466.512	697.44
466.732	682.44
466.951	699.44
467.171	668.44
467.391	679.44
467.61	697.44
467.829	671.44
468.049	691.44
468.268	667.44
468.488	675.44
468.707	669.44
468.927	667.44
469.146	663.44
469.365	678.44
469.585	666.44
469.804	686.44
470.023	670.44
470.243	682.44
470.462	713.44
470.681	671.44
470.901	696.44
471.12	691.44
471.339	687.44
471.558	689.44
471.777	688.44
471.997	706.44
472.216	680.44
472.435	695.44
472.654	676.44
472.873	680.44
473.092	706.44
473.311	673.44
473.53	694.44
473.749	693.44
473.968	719.44
474.187	716.44
474.406	719.44
474.625	714.44
474.844	717.44
475.063	706.44
475.282	711.44
475.501	714.44
475.72	714.44
475.939	707.44
476.158	708.44
476.377	709.44
476.596	733.44
476.814	732.44
477.033	752.44
477.252	745.44
477.471	734.44
477.69	759.44
477.908	765.44
478.127	762.44
478.346	790.44
478.564	799.44
478.783	767.44
479.002	787.44
479.22	793.44
479.439	769.44
479.658	786.44
479.876	807.44
480.095	799.44
480.313	820.44
480.532	804.44
480.751	803.44
480.969	824.44
481.188	805.44
481.406	819.44
481.624	805.44
481.843	777.44
482.061	822.44
482.28	795.44
482.498	806.44
482.717	811.44
482.935	806.44
483.153	821.44
483.372	803.44
483.59	805.44
483.808	813.44
484.027	853.44
484.245	827.44
484.463	823.44
484.681	815.44
484.9	840.44
485.118	836.44
485.336	830.44
485.554	843.44
485.772	854.44
485.99	853.44
486.209	864.44
486.427	858.44
486.645	833.44
486.863	849.44
487.081	857.44
487.299	831.44
487.517	835.44
487.735	839.44
487.953	866.44
488.171	865.44
488.389	862.44
488.607	833.44
488.825	841.44
489.043	833.44
489.261	857.44
489.479	858.44
489.696	862.44
489.914	830.44
490.132	851.44
490.35	845.44
490.568	844.44
490.786	834.44
491.003	827.44
491.221	856.44
491.439	858.44
491.657	861.44
491.874	868.44
492.092	860.44
492.31	904.44
492.527	864.44
492.745	839.44
492.963	895.44
493.18	874.44
493.398	885.44
493.615	880.44
493.833	867.44
494.05	877.44
494.268	875.44
494.485	886.44
494.703	894.44
494.92	885.44
495.138	879.44
495.355	903.44
495.573	915.44
495.79	923.44
496.008	920.44
496.225	889.44
496.442	917.44
496.66	902.44
496.877	932.44
497.094	909.44
497.312	944.44
497.529	932.44
497.746	961.44
497.963	950.44
498.181	980.44
498.398	969.44
498.615	1007.44
498.832	1015.44
499.049	1027.44
499.267	1086.44
499.484	1089.44
499.701	1114.44
499.918	1126.44
500.135	1156.44
500.352	1191.44
500.569	1195.44
500.786	1174.44
501.003	1193.44
501.22	1159.44
501.437	1124.44
