Data from Fe(NO3)3@0.1M.TitratingCurve.Agarose3%dH2O.NegLispCup.LampEnergy10.LIBS07252019_HRD10591_16-37-18-331.txt Node
Date: Thu Jul 25 16:37:18 EDT 2019
User: cochatt
Spectrometer: HR+D1059
Trigger mode: 1
Integration Time (sec): 1.000000E-1
Scans to average: 1
Electric dark correction enabled: true
Nonlinearity correction enabled: false
Boxcar width: 0
XAxis mode: Wavelengths
Number of Pixels in Spectrum: 2048
>>>>>Begin Spectral Data<<<<<
223.165	-14.5
223.4	-14.5
223.635	-14.5
223.869	-20.5
224.104	-9.5
224.338	-20.5
224.573	-18.5
224.808	-6.5
225.042	-13.5
225.277	-11.5
225.511	0.5
225.746	2.5
225.98	0.5
226.215	19.5
226.449	22.5
226.683	24.5
226.918	21.5
227.152	23.5
227.387	40.5
227.621	34.5
227.856	40.5
228.09	44.5
228.324	56.5
228.559	60.5
228.793	67.5
229.027	53.5
229.262	65.5
229.496	63.5
229.73	81.5
229.964	85.5
230.199	61.5
230.433	77.5
230.667	79.5
230.901	60.5
231.136	81.5
231.37	88.5
231.604	82.5
231.838	87.5
232.072	92.5
232.306	78.5
232.541	89.5
232.775	87.5
233.009	68.5
233.243	85.5
233.477	86.5
233.711	93.5
233.945	95.5
234.179	80.5
234.413	82.5
234.647	95.5
234.881	91.5
235.115	75.5
235.349	96.5
235.583	90.5
235.817	82.5
236.051	82.5
236.285	99.5
236.519	95.5
236.753	87.5
236.987	83.5
237.221	95.5
237.455	90.5
237.689	82.5
237.922	100.5
238.156	87.5
238.39	85.5
238.624	81.5
238.858	85.5
239.091	96.5
239.325	80.5
239.559	80.5
239.793	78.5
240.027	88.5
240.26	83.5
240.494	82.5
240.728	82.5
240.961	101.5
241.195	85.5
241.429	72.5
241.662	75.5
241.896	79.5
242.13	78.5
242.363	72.5
242.597	93.5
242.83	97.5
243.064	86.5
243.298	102.5
243.531	76.5
243.765	103.5
243.998	80.5
244.232	91.5
244.465	83.5
244.699	112.5
244.932	88.5
245.166	87.5
245.399	90.5
245.633	85.5
245.866	86.5
246.099	89.5
246.333	95.5
246.566	88.5
246.8	96.5
247.033	91.5
247.266	75.5
247.5	79.5
247.733	84.5
247.966	88.5
248.2	92.5
248.433	97.5
248.666	92.5
248.899	83.5
249.133	91.5
249.366	101.5
249.599	91.5
249.832	87.5
250.066	97.5
250.299	103.5
250.532	104.5
250.765	88.5
250.998	79.5
251.231	89.5
251.465	91.5
251.698	83.5
251.931	98.5
252.164	96.5
252.397	91.5
252.63	106.5
252.863	91.5
253.096	101.5
253.329	104.5
253.562	97.5
253.795	103.5
254.028	99.5
254.261	104.5
254.494	105.5
254.727	97.5
254.96	97.5
255.193	85.5
255.426	106.5
255.659	83.5
255.892	108.5
256.124	101.5
256.357	106.5
256.59	109.5
256.823	103.5
257.056	97.5
257.289	91.5
257.521	98.5
257.754	90.5
257.987	99.5
258.22	99.5
258.452	105.5
258.685	111.5
258.918	94.5
259.151	96.5
259.383	111.5
259.616	109.5
259.849	112.5
260.081	87.5
260.314	134.5
260.547	114.5
260.779	97.5
261.012	114.5
261.244	113.5
261.477	99.5
261.71	120.5
261.942	112.5
262.175	113.5
262.407	110.5
262.64	102.5
262.872	101.5
263.105	126.5
263.337	120.5
263.57	120.5
263.802	112.5
264.035	102.5
264.267	109.5
264.499	103.5
264.732	102.5
264.964	122.5
265.197	107.5
265.429	106.5
265.661	95.5
265.894	93.5
266.126	91.5
266.358	105.5
266.591	100.5
266.823	101.5
267.055	101.5
267.287	115.5
267.52	106.5
267.752	98.5
267.984	110.5
268.216	113.5
268.448	99.5
268.681	113.5
268.913	100.5
269.145	111.5
269.377	105.5
269.609	103.5
269.841	96.5
270.073	107.5
270.306	116.5
270.538	115.5
270.77	105.5
271.002	113.5
271.234	106.5
271.466	102.5
271.698	99.5
271.93	102.5
272.162	104.5
272.394	102.5
272.626	108.5
272.858	113.5
273.09	120.5
273.322	123.5
273.553	116.5
273.785	114.5
274.017	112.5
274.249	130.5
274.481	107.5
274.713	117.5
274.945	137.5
275.176	127.5
275.408	129.5
275.64	129.5
275.872	121.5
276.104	112.5
276.335	135.5
276.567	118.5
276.799	105.5
277.031	111.5
277.262	120.5
277.494	123.5
277.726	118.5
277.957	121.5
278.189	124.5
278.421	119.5
278.652	111.5
278.884	122.5
279.115	106.5
279.347	107.5
279.579	118.5
279.81	109.5
280.042	118.5
280.273	111.5
280.505	106.5
280.736	122.5
280.968	118.5
281.199	135.5
281.431	120.5
281.662	117.5
281.894	110.5
282.125	98.5
282.356	119.5
282.588	113.5
282.819	117.5
283.051	111.5
283.282	113.5
283.513	123.5
283.745	122.5
283.976	115.5
284.207	120.5
284.439	118.5
284.67	119.5
284.901	123.5
285.132	128.5
285.364	120.5
285.595	135.5
285.826	137.5
286.057	125.5
286.288	128.5
286.52	114.5
286.751	118.5
286.982	120.5
287.213	119.5
287.444	121.5
287.675	122.5
287.906	123.5
288.138	106.5
288.369	122.5
288.6	135.5
288.831	117.5
289.062	102.5
289.293	129.5
289.524	118.5
289.755	125.5
289.986	121.5
290.217	114.5
290.448	133.5
290.679	137.5
290.91	125.5
291.141	136.5
291.371	121.5
291.602	118.5
291.833	126.5
292.064	121.5
292.295	122.5
292.526	119.5
292.757	101.5
292.987	133.5
293.218	115.5
293.449	122.5
293.68	121.5
293.91	128.5
294.141	120.5
294.372	130.5
294.603	134.5
294.833	121.5
295.064	119.5
295.295	132.5
295.525	125.5
295.756	130.5
295.987	124.5
296.217	119.5
296.448	123.5
296.679	121.5
296.909	138.5
297.14	134.5
297.37	134.5
297.601	117.5
297.831	126.5
298.062	128.5
298.292	139.5
298.523	138.5
298.753	128.5
298.984	139.5
299.214	132.5
299.445	142.5
299.675	131.5
299.905	137.5
300.136	130.5
300.366	122.5
300.597	137.5
300.827	120.5
301.057	126.5
301.288	124.5
301.518	132.5
301.748	134.5
301.979	138.5
302.209	127.5
302.439	131.5
302.669	125.5
302.9	137.5
303.13	135.5
303.36	122.5
303.59	122.5
303.82	134.5
304.051	136.5
304.281	127.5
304.511	137.5
304.741	119.5
304.971	135.5
305.201	138.5
305.431	126.5
305.661	133.5
305.891	115.5
306.121	134.5
306.352	110.5
306.582	121.5
306.812	127.5
307.042	127.5
307.272	135.5
307.502	144.5
307.731	135.5
307.961	122.5
308.191	146.5
308.421	132.5
308.651	133.5
308.881	131.5
309.111	133.5
309.341	140.5
309.571	125.5
309.8	139.5
310.03	129.5
310.26	134.5
310.49	133.5
310.72	126.5
310.949	135.5
311.179	136.5
311.409	128.5
311.639	142.5
311.868	132.5
312.098	130.5
312.328	140.5
312.557	138.5
312.787	137.5
313.017	132.5
313.246	136.5
313.476	134.5
313.706	140.5
313.935	145.5
314.165	121.5
314.394	136.5
314.624	138.5
314.853	130.5
315.083	132.5
315.312	129.5
315.542	142.5
315.771	136.5
316.001	143.5
316.23	129.5
316.46	129.5
316.689	130.5
316.919	113.5
317.148	147.5
317.377	129.5
317.607	138.5
317.836	144.5
318.065	140.5
318.295	136.5
318.524	131.5
318.753	135.5
318.983	150.5
319.212	151.5
319.441	129.5
319.67	130.5
319.9	137.5
320.129	131.5
320.358	142.5
320.587	149.5
320.816	131.5
321.046	131.5
321.275	145.5
321.504	131.5
321.733	153.5
321.962	136.5
322.191	147.5
322.42	142.5
322.649	153.5
322.878	153.5
323.108	144.5
323.337	143.5
323.566	129.5
323.795	145.5
324.024	138.5
324.253	147.5
324.482	135.5
324.71	125.5
324.939	144.5
325.168	132.5
325.397	139.5
325.626	129.5
325.855	149.5
326.084	142.5
326.313	137.5
326.542	138.5
326.77	166.5
326.999	138.5
327.228	146.5
327.457	131.5
327.686	116.5
327.914	137.5
328.143	134.5
328.372	147.5
328.6	137.5
328.829	139.5
329.058	139.5
329.287	144.5
329.515	152.5
329.744	130.5
329.972	156.5
330.201	137.5
330.43	135.5
330.658	138.5
330.887	151.5
331.115	157.5
331.344	147.5
331.572	145.5
331.801	154.5
332.03	155.5
332.258	148.5
332.486	151.5
332.715	151.5
332.943	163.5
333.172	139.5
333.4	150.5
333.629	154.5
333.857	158.5
334.085	159.5
334.314	156.5
334.542	170.5
334.771	162.5
334.999	151.5
335.227	150.5
335.455	145.5
335.684	146.5
335.912	157.5
336.14	154.5
336.369	146.5
336.597	177.5
336.825	158.5
337.053	159.5
337.281	147.5
337.51	141.5
337.738	155.5
337.966	150.5
338.194	145.5
338.422	114.5
338.65	144.5
338.878	154.5
339.106	154.5
339.334	162.5
339.562	156.5
339.79	134.5
340.018	145.5
340.246	151.5
340.474	145.5
340.702	149.5
340.93	155.5
341.158	143.5
341.386	137.5
341.614	150.5
341.842	161.5
342.07	159.5
342.298	142.5
342.526	148.5
342.754	148.5
342.981	143.5
343.209	159.5
343.437	151.5
343.665	146.5
343.893	155.5
344.12	152.5
344.348	169.5
344.576	144.5
344.804	148.5
345.031	135.5
345.259	137.5
345.487	146.5
345.714	135.5
345.942	137.5
346.17	145.5
346.397	159.5
346.625	141.5
346.853	156.5
347.08	155.5
347.308	143.5
347.535	123.5
347.763	156.5
347.99	151.5
348.218	155.5
348.445	142.5
348.673	135.5
348.9	159.5
349.128	160.5
349.355	145.5
349.583	135.5
349.81	158.5
350.037	143.5
350.265	149.5
350.492	130.5
350.72	131.5
350.947	158.5
351.174	143.5
351.402	147.5
351.629	153.5
351.856	131.5
352.083	134.5
352.311	147.5
352.538	143.5
352.765	143.5
352.992	153.5
353.22	159.5
353.447	153.5
353.674	138.5
353.901	143.5
354.128	138.5
354.355	127.5
354.583	145.5
354.81	147.5
355.037	152.5
355.264	149.5
355.491	136.5
355.718	165.5
355.945	140.5
356.172	144.5
356.399	138.5
356.626	157.5
356.853	160.5
357.08	162.5
357.307	149.5
357.534	157.5
357.761	137.5
357.988	138.5
358.215	135.5
358.441	160.5
358.668	147.5
358.895	156.5
359.122	140.5
359.349	150.5
359.576	147.5
359.802	149.5
360.029	147.5
360.256	153.5
360.483	161.5
360.709	157.5
360.936	161.5
361.163	144.5
361.39	166.5
361.616	146.5
361.843	143.5
362.07	158.5
362.296	153.5
362.523	141.5
362.749	143.5
362.976	168.5
363.203	166.5
363.429	147.5
363.656	156.5
363.882	150.5
364.109	137.5
364.335	155.5
364.562	153.5
364.788	142.5
365.015	158.5
365.241	151.5
365.468	144.5
365.694	156.5
365.92	168.5
366.147	157.5
366.373	148.5
366.599	152.5
366.826	161.5
367.052	147.5
367.278	140.5
367.505	168.5
367.731	147.5
367.957	147.5
368.184	166.5
368.41	153.5
368.636	167.5
368.862	154.5
369.089	166.5
369.315	166.5
369.541	163.5
369.767	162.5
369.993	159.5
370.219	160.5
370.445	155.5
370.672	157.5
370.898	152.5
371.124	173.5
371.35	173.5
371.576	154.5
371.802	171.5
372.028	176.5
372.254	185.5
372.48	184.5
372.706	184.5
372.932	170.5
373.158	161.5
373.384	183.5
373.61	183.5
373.835	181.5
374.061	170.5
374.287	170.5
374.513	168.5
374.739	185.5
374.965	190.5
375.191	175.5
375.416	177.5
375.642	175.5
375.868	171.5
376.094	185.5
376.319	181.5
376.545	175.5
376.771	173.5
376.997	174.5
377.222	165.5
377.448	177.5
377.674	175.5
377.899	152.5
378.125	173.5
378.35	173.5
378.576	179.5
378.802	168.5
379.027	173.5
379.253	180.5
379.478	170.5
379.704	177.5
379.929	161.5
380.155	170.5
380.38	181.5
380.606	161.5
380.831	166.5
381.057	171.5
381.282	189.5
381.507	174.5
381.733	187.5
381.958	185.5
382.184	190.5
382.409	208.5
382.634	185.5
382.86	189.5
383.085	185.5
383.31	189.5
383.535	189.5
383.761	189.5
383.986	181.5
384.211	197.5
384.436	190.5
384.662	188.5
384.887	191.5
385.112	205.5
385.337	191.5
385.562	191.5
385.787	194.5
386.013	214.5
386.238	212.5
386.463	203.5
386.688	217.5
386.913	189.5
387.138	211.5
387.363	210.5
387.588	211.5
387.813	198.5
388.038	204.5
388.263	206.5
388.488	195.5
388.713	202.5
388.938	210.5
389.163	207.5
389.387	221.5
389.612	204.5
389.837	208.5
390.062	195.5
390.287	213.5
390.512	208.5
390.736	204.5
390.961	221.5
391.186	202.5
391.411	225.5
391.636	225.5
391.86	215.5
392.085	213.5
392.31	246.5
392.534	207.5
392.759	223.5
392.984	208.5
393.208	217.5
393.433	215.5
393.658	231.5
393.882	225.5
394.107	219.5
394.331	242.5
394.556	239.5
394.78	214.5
395.005	217.5
395.229	229.5
395.454	242.5
395.678	223.5
395.903	229.5
396.127	241.5
396.352	232.5
396.576	229.5
396.801	243.5
397.025	231.5
397.249	255.5
397.474	232.5
397.698	229.5
397.922	241.5
398.147	234.5
398.371	229.5
398.595	253.5
398.82	248.5
399.044	260.5
399.268	267.5
399.492	292.5
399.717	321.5
399.941	305.5
400.165	320.5
400.389	290.5
400.613	266.5
400.837	274.5
401.062	262.5
401.286	250.5
401.51	246.5
401.734	246.5
401.958	274.5
402.182	250.5
402.406	266.5
402.63	267.5
402.854	260.5
403.078	264.5
403.302	268.5
403.526	271.5
403.75	273.5
403.974	272.5
404.198	271.5
404.422	285.5
404.645	254.5
404.869	278.5
405.093	279.5
405.317	286.5
405.541	287.5
405.765	271.5
405.988	269.5
406.212	273.5
406.436	276.5
406.66	271.5
406.883	279.5
407.107	298.5
407.331	321.5
407.555	315.5
407.778	302.5
408.002	290.5
408.226	313.5
408.449	277.5
408.673	263.5
408.896	275.5
409.12	281.5
409.344	286.5
409.567	292.5
409.791	262.5
410.014	293.5
410.238	271.5
410.461	289.5
410.685	271.5
410.908	264.5
411.132	296.5
411.355	271.5
411.578	285.5
411.802	261.5
412.025	264.5
412.249	269.5
412.472	282.5
412.695	261.5
412.919	256.5
413.142	254.5
413.365	272.5
413.589	272.5
413.812	286.5
414.035	287.5
414.258	262.5
414.482	282.5
414.705	279.5
414.928	269.5
415.151	273.5
415.374	274.5
415.597	266.5
415.821	261.5
416.044	269.5
416.267	245.5
416.49	269.5
416.713	248.5
416.936	259.5
417.159	262.5
417.382	273.5
417.605	279.5
417.828	262.5
418.051	252.5
418.274	274.5
418.497	263.5
418.72	243.5
418.943	245.5
419.166	280.5
419.389	275.5
419.611	286.5
419.834	277.5
420.057	269.5
420.28	273.5
420.503	270.5
420.726	257.5
420.948	266.5
421.171	280.5
421.394	255.5
421.617	291.5
421.839	268.5
422.062	267.5
422.285	269.5
422.507	273.5
422.73	260.5
422.953	257.5
423.175	276.5
423.398	281.5
423.621	257.5
423.843	274.5
424.066	269.5
424.288	291.5
424.511	260.5
424.733	252.5
424.956	281.5
425.178	257.5
425.401	262.5
425.623	272.5
425.846	232.5
426.068	257.5
426.291	266.5
426.513	248.5
426.735	266.5
426.958	249.5
427.18	257.5
427.402	241.5
427.625	247.5
427.847	263.5
428.069	263.5
428.292	245.5
428.514	256.5
428.736	234.5
428.958	247.5
429.181	243.5
429.403	255.5
429.625	246.5
429.847	239.5
430.069	250.5
430.292	241.5
430.514	228.5
430.736	243.5
430.958	253.5
431.18	245.5
431.402	254.5
431.624	233.5
431.846	252.5
432.068	234.5
432.29	247.5
432.512	261.5
432.734	245.5
432.956	241.5
433.178	260.5
433.4	250.5
433.622	254.5
433.844	257.5
434.066	250.5
434.287	254.5
434.509	248.5
434.731	271.5
434.953	271.5
435.175	271.5
435.397	274.5
435.618	259.5
435.84	259.5
436.062	245.5
436.284	245.5
436.505	274.5
436.727	239.5
436.949	265.5
437.17	250.5
437.392	244.5
437.614	222.5
437.835	253.5
438.057	237.5
438.278	237.5
438.5	257.5
438.721	246.5
438.943	251.5
439.165	251.5
439.386	243.5
439.608	266.5
439.829	259.5
440.05	238.5
440.272	262.5
440.493	267.5
440.715	270.5
440.936	226.5
441.158	248.5
441.379	263.5
441.6	273.5
441.822	261.5
442.043	268.5
442.264	285.5
442.486	263.5
442.707	263.5
442.928	270.5
443.149	258.5
443.371	296.5
443.592	281.5
443.813	281.5
444.034	280.5
444.255	274.5
444.476	287.5
444.698	281.5
444.919	291.5
445.14	374.5
445.361	335.5
445.582	282.5
445.803	267.5
446.024	265.5
446.245	249.5
446.466	275.5
446.687	256.5
446.908	275.5
447.129	262.5
447.35	255.5
447.571	261.5
447.792	252.5
448.013	240.5
448.234	260.5
448.455	241.5
448.675	272.5
448.896	254.5
449.117	242.5
449.338	237.5
449.559	254.5
449.779	233.5
450	233.5
450.221	236.5
450.442	235.5
450.662	248.5
450.883	257.5
451.104	258.5
451.324	247.5
451.545	255.5
451.766	238.5
451.986	229.5
452.207	243.5
452.428	233.5
452.648	237.5
452.869	218.5
453.089	224.5
453.31	232.5
453.53	219.5
453.751	225.5
453.971	222.5
454.192	213.5
454.412	243.5
454.633	225.5
454.853	225.5
455.073	217.5
455.294	238.5
455.514	231.5
455.734	241.5
455.955	217.5
456.175	224.5
456.395	250.5
456.616	234.5
456.836	232.5
457.056	225.5
457.276	231.5
457.497	244.5
457.717	232.5
457.937	226.5
458.157	238.5
458.377	220.5
458.598	240.5
458.818	234.5
459.038	250.5
459.258	244.5
459.478	243.5
459.698	254.5
459.918	256.5
460.138	262.5
460.358	268.5
460.578	287.5
460.798	271.5
461.018	271.5
461.238	278.5
461.458	281.5
461.678	273.5
461.898	279.5
462.118	305.5
462.338	261.5
462.558	267.5
462.777	321.5
462.997	311.5
463.217	295.5
463.437	322.5
463.657	319.5
463.876	303.5
464.096	303.5
464.316	287.5
464.536	297.5
464.755	310.5
464.975	296.5
465.195	289.5
465.414	273.5
465.634	271.5
465.854	255.5
466.073	239.5
466.293	246.5
466.512	255.5
466.732	258.5
466.951	268.5
467.171	244.5
467.391	254.5
467.61	256.5
467.829	242.5
468.049	234.5
468.268	250.5
468.488	246.5
468.707	243.5
468.927	267.5
469.146	248.5
469.365	267.5
469.585	273.5
469.804	234.5
470.023	241.5
470.243	250.5
470.462	234.5
470.681	258.5
470.901	245.5
471.12	255.5
471.339	233.5
471.558	245.5
471.777	254.5
471.997	244.5
472.216	242.5
472.435	244.5
472.654	256.5
472.873	244.5
473.092	243.5
473.311	241.5
473.53	258.5
473.749	249.5
473.968	247.5
474.187	245.5
474.406	241.5
474.625	250.5
474.844	241.5
475.063	265.5
475.282	235.5
475.501	260.5
475.72	258.5
475.939	272.5
476.158	264.5
476.377	253.5
476.596	283.5
476.814	267.5
477.033	264.5
477.252	251.5
477.471	257.5
477.69	264.5
477.908	280.5
478.127	282.5
478.346	277.5
478.564	286.5
478.783	295.5
479.002	295.5
479.22	305.5
479.439	285.5
479.658	278.5
479.876	274.5
480.095	302.5
480.313	312.5
480.532	287.5
480.751	285.5
480.969	279.5
481.188	279.5
481.406	283.5
481.624	281.5
481.843	263.5
482.061	276.5
482.28	278.5
482.498	258.5
482.717	277.5
482.935	274.5
483.153	263.5
483.372	282.5
483.59	285.5
483.808	279.5
484.027	287.5
484.245	298.5
484.463	279.5
484.681	303.5
484.9	278.5
485.118	293.5
485.336	285.5
485.554	281.5
485.772	293.5
485.99	294.5
486.209	290.5
486.427	303.5
486.645	286.5
486.863	307.5
487.081	294.5
487.299	293.5
487.517	295.5
487.735	286.5
487.953	314.5
488.171	309.5
488.389	292.5
488.607	277.5
488.825	282.5
489.043	271.5
489.261	293.5
489.479	299.5
489.696	303.5
489.914	305.5
490.132	298.5
490.35	296.5
490.568	277.5
490.786	300.5
491.003	307.5
491.221	298.5
491.439	319.5
491.657	303.5
491.874	299.5
492.092	307.5
492.31	326.5
492.527	320.5
492.745	313.5
492.963	308.5
493.18	311.5
493.398	301.5
493.615	311.5
493.833	322.5
494.05	313.5
494.268	309.5
494.485	318.5
494.703	329.5
494.92	309.5
495.138	315.5
495.355	302.5
495.573	317.5
495.79	331.5
496.008	299.5
496.225	339.5
496.442	314.5
496.66	330.5
496.877	298.5
497.094	344.5
497.312	322.5
497.529	329.5
497.746	315.5
497.963	363.5
498.181	331.5
498.398	356.5
498.615	377.5
498.832	395.5
499.049	401.5
499.267	422.5
499.484	412.5
499.701	450.5
499.918	509.5
500.135	512.5
500.352	544.5
500.569	562.5
500.786	573.5
501.003	546.5
501.22	522.5
501.437	494.5
501.654	467.5
501.871	447.5
502.088	415.5
502.305	405.5
502.522	374.5
502.739	375.5
502.956	350.5
503.172	354.5
503.389	330.5
503.606	342.5
503.823	338.5
504.04	320.5
504.256	327.5
504.473	326.5
504.69	328.5
504.907	327.5
505.123	309.5
505.34	318.5
505.557	319.5
505.773	297.5
505.99	305.5
506.207	297.5
506.423	309.5
506.64	289.5
506.856	279.5
507.073	288.5
507.289	273.5
507.506	298.5
507.722	286.5
507.939	272.5
508.155	273.5
508.372	283.5
508.588	295.5
508.805	276.5
509.021	277.5
509.238	268.5
509.454	273.5
509.67	268.5
509.887	262.5
510.103	265.5
510.319	271.5
510.536	262.5
510.752	234.5
510.968	257.5
511.184	254.5
511.401	273.5
511.617	274.5
511.833	266.5
512.049	273.5
512.265	262.5
512.481	262.5
512.698	269.5
512.914	262.5
513.13	266.5
513.346	265.5
513.562	252.5
513.778	267.5
513.994	257.5
514.21	261.5
514.426	287.5
514.642	279.5
514.858	261.5
515.074	267.5
515.29	282.5
515.506	264.5
515.721	255.5
515.937	273.5
516.153	271.5
516.369	268.5
516.585	264.5
516.801	266.5
517.016	285.5
517.232	312.5
517.448	299.5
517.664	308.5
517.879	307.5
518.095	319.5
518.311	289.5
518.527	299.5
518.742	272.5
518.958	301.5
519.173	291.5
519.389	289.5
519.605	274.5
519.82	261.5
520.036	288.5
520.251	278.5
520.467	274.5
520.682	276.5
520.898	275.5
521.113	262.5
