Data from Fe(NO3)3@0.05M.TitratingCurve.Agarose3%dH2O.NegLispCup.LampEnergy10.LIBS07252019_HRD10591_16-48-04-334.txt Node
Date: Thu Jul 25 16:48:04 EDT 2019
User: cochatt
Spectrometer: HR+D1059
Trigger mode: 1
Integration Time (sec): 1.000000E-1
Scans to average: 1
Electric dark correction enabled: true
Nonlinearity correction enabled: false
Boxcar width: 0
XAxis mode: Wavelengths
Number of Pixels in Spectrum: 2048
>>>>>Begin Spectral Data<<<<<
223.165	-15
223.4	-15
223.635	-15
223.869	-12
224.104	-15
224.338	-35
224.573	-11
224.808	-15
225.042	-3
225.277	-11
225.511	1
225.746	3
225.98	8
226.215	15
226.449	13
226.683	25
226.918	15
227.152	37
227.387	45
227.621	36
227.856	38
228.09	55
228.324	63
228.559	62
228.793	66
229.027	53
229.262	64
229.496	74
229.73	86
229.964	75
230.199	77
230.433	89
230.667	85
230.901	94
231.136	76
231.37	74
231.604	85
231.838	91
232.072	83
232.306	94
232.541	92
232.775	76
233.009	98
233.243	87
233.477	93
233.711	85
233.945	84
234.179	97
234.413	81
234.647	87
234.881	88
235.115	95
235.349	97
235.583	95
235.817	99
236.051	105
236.285	86
236.519	99
236.753	86
236.987	81
237.221	85
237.455	83
237.689	77
237.922	85
238.156	93
238.39	70
238.624	68
238.858	86
239.091	100
239.325	98
239.559	85
239.793	82
240.027	92
240.26	88
240.494	95
240.728	86
240.961	87
241.195	86
241.429	97
241.662	99
241.896	80
242.13	103
242.363	87
242.597	90
242.83	83
243.064	94
243.298	94
243.531	91
243.765	79
243.998	89
244.232	88
244.465	87
244.699	101
244.932	89
245.166	87
245.399	94
245.633	85
245.866	88
246.099	89
246.333	100
246.566	94
246.8	98
247.033	93
247.266	84
247.5	97
247.733	98
247.966	97
248.2	81
248.433	75
248.666	94
248.899	100
249.133	99
249.366	87
249.599	91
249.832	89
250.066	104
250.299	95
250.532	96
250.765	96
250.998	105
251.231	101
251.465	94
251.698	99
251.931	115
252.164	92
252.397	101
252.63	105
252.863	98
253.096	93
253.329	100
253.562	113
253.795	100
254.028	102
254.261	107
254.494	90
254.727	103
254.96	102
255.193	93
255.426	90
255.659	97
255.892	95
256.124	88
256.357	100
256.59	85
256.823	103
257.056	99
257.289	96
257.521	92
257.754	99
257.987	96
258.22	115
258.452	102
258.685	106
258.918	88
259.151	111
259.383	102
259.616	98
259.849	117
260.081	110
260.314	107
260.547	111
260.779	96
261.012	108
261.244	107
261.477	115
261.71	109
261.942	101
262.175	122
262.407	105
262.64	99
262.872	110
263.105	118
263.337	118
263.57	102
263.802	106
264.035	105
264.267	113
264.499	95
264.732	98
264.964	110
265.197	105
265.429	113
265.661	101
265.894	115
266.126	123
266.358	109
266.591	93
266.823	104
267.055	93
267.287	108
267.52	100
267.752	84
267.984	101
268.216	120
268.448	107
268.681	119
268.913	109
269.145	94
269.377	102
269.609	105
269.841	111
270.073	100
270.306	113
270.538	102
270.77	104
271.002	99
271.234	124
271.466	114
271.698	117
271.93	106
272.162	97
272.394	122
272.626	120
272.858	116
273.09	100
273.322	137
273.553	117
273.785	117
274.017	105
274.249	136
274.481	123
274.713	123
274.945	122
275.176	118
275.408	114
275.64	121
275.872	130
276.104	116
276.335	126
276.567	101
276.799	110
277.031	113
277.262	110
277.494	113
277.726	127
277.957	107
278.189	104
278.421	120
278.652	123
278.884	119
279.115	119
279.347	116
279.579	127
279.81	105
280.042	119
280.273	122
280.505	119
280.736	108
280.968	110
281.199	124
281.431	110
281.662	133
281.894	121
282.125	114
282.356	108
282.588	121
282.819	128
283.051	120
283.282	126
283.513	133
283.745	104
283.976	110
284.207	124
284.439	137
284.67	122
284.901	123
285.132	116
285.364	125
285.595	120
285.826	108
286.057	117
286.288	113
286.52	109
286.751	114
286.982	123
287.213	124
287.444	117
287.675	132
287.906	106
288.138	98
288.369	121
288.6	120
288.831	117
289.062	122
289.293	108
289.524	116
289.755	127
289.986	114
290.217	109
290.448	115
290.679	128
290.91	127
291.141	116
291.371	132
291.602	110
291.833	144
292.064	122
292.295	118
292.526	132
292.757	125
292.987	135
293.218	124
293.449	117
293.68	122
293.91	121
294.141	134
294.372	115
294.603	131
294.833	126
295.064	127
295.295	120
295.525	125
295.756	117
295.987	107
296.217	121
296.448	118
296.679	129
296.909	119
297.14	115
297.37	119
297.601	125
297.831	130
298.062	134
298.292	131
298.523	118
298.753	132
298.984	126
299.214	123
299.445	126
299.675	129
299.905	131
300.136	123
300.366	120
300.597	125
300.827	120
301.057	129
301.288	117
301.518	123
301.748	120
301.979	131
302.209	121
302.439	137
302.669	134
302.9	117
303.13	139
303.36	129
303.59	135
303.82	130
304.051	117
304.281	111
304.511	126
304.741	129
304.971	130
305.201	132
305.431	135
305.661	124
305.891	128
306.121	134
306.352	138
306.582	127
306.812	117
307.042	109
307.272	121
307.502	125
307.731	118
307.961	138
308.191	117
308.421	125
308.651	121
308.881	129
309.111	126
309.341	135
309.571	126
309.8	116
310.03	134
310.26	131
310.49	120
310.72	140
310.949	130
311.179	126
311.409	132
311.639	152
311.868	135
312.098	136
312.328	142
312.557	141
312.787	134
313.017	125
313.246	125
313.476	130
313.706	118
313.935	126
314.165	138
314.394	134
314.624	136
314.853	138
315.083	125
315.312	129
315.542	135
315.771	142
316.001	130
316.23	126
316.46	126
316.689	135
316.919	114
317.148	134
317.377	116
317.607	127
317.836	137
318.065	139
318.295	132
318.524	133
318.753	121
318.983	143
319.212	137
319.441	145
319.67	133
319.9	134
320.129	147
320.358	139
320.587	143
320.816	136
321.046	143
321.275	132
321.504	134
321.733	142
321.962	154
322.191	136
322.42	143
322.649	140
322.878	141
323.108	130
323.337	130
323.566	131
323.795	134
324.024	154
324.253	125
324.482	133
324.71	121
324.939	119
325.168	131
325.397	131
325.626	151
325.855	140
326.084	148
326.313	114
326.542	142
326.77	131
326.999	143
327.228	148
327.457	139
327.686	126
327.914	133
328.143	144
328.372	136
328.6	154
328.829	158
329.058	143
329.287	158
329.515	143
329.744	146
329.972	159
330.201	142
330.43	139
330.658	141
330.887	130
331.115	135
331.344	134
331.572	147
331.801	147
332.03	144
332.258	155
332.486	154
332.715	142
332.943	146
333.172	148
333.4	135
333.629	157
333.857	153
334.085	144
334.314	160
334.542	141
334.771	141
334.999	149
335.227	128
335.455	148
335.684	147
335.912	134
336.14	146
336.369	141
336.597	137
336.825	132
337.053	167
337.281	148
337.51	144
337.738	148
337.966	142
338.194	134
338.422	127
338.65	139
338.878	143
339.106	148
339.334	155
339.562	134
339.79	148
340.018	137
340.246	141
340.474	146
340.702	150
340.93	138
341.158	139
341.386	134
341.614	163
341.842	139
342.07	134
342.298	151
342.526	137
342.754	150
342.981	153
343.209	146
343.437	150
343.665	144
343.893	154
344.12	162
344.348	143
344.576	150
344.804	152
345.031	156
345.259	152
345.487	152
345.714	150
345.942	140
346.17	139
346.397	146
346.625	148
346.853	156
347.08	135
347.308	152
347.535	147
347.763	137
347.99	133
348.218	157
348.445	157
348.673	133
348.9	143
349.128	151
349.355	141
349.583	155
349.81	142
350.037	156
350.265	146
350.492	144
350.72	140
350.947	141
351.174	147
351.402	149
351.629	142
351.856	151
352.083	149
352.311	142
352.538	144
352.765	153
352.992	136
353.22	141
353.447	144
353.674	131
353.901	146
354.128	144
354.355	152
354.583	159
354.81	151
355.037	141
355.264	143
355.491	134
355.718	149
355.945	165
356.172	137
356.399	171
356.626	153
356.853	144
357.08	137
357.307	151
357.534	143
357.761	152
357.988	158
358.215	162
358.441	148
358.668	144
358.895	130
359.122	154
359.349	155
359.576	149
359.802	163
360.029	151
360.256	141
360.483	148
360.709	144
360.936	161
361.163	161
361.39	149
361.616	142
361.843	162
362.07	155
362.296	153
362.523	154
362.749	153
362.976	150
363.203	163
363.429	153
363.656	152
363.882	141
364.109	149
364.335	142
364.562	149
364.788	158
365.015	137
365.241	163
365.468	152
365.694	146
365.92	148
366.147	152
366.373	169
366.599	158
366.826	161
367.052	135
367.278	143
367.505	150
367.731	161
367.957	169
368.184	157
368.41	150
368.636	164
368.862	150
369.089	151
369.315	159
369.541	153
369.767	161
369.993	167
370.219	164
370.445	154
370.672	159
370.898	154
371.124	154
371.35	155
371.576	164
371.802	167
372.028	171
372.254	188
372.48	164
372.706	163
372.932	168
373.158	158
373.384	165
373.61	170
373.835	185
374.061	188
374.287	174
374.513	181
374.739	188
374.965	179
375.191	189
375.416	172
375.642	167
375.868	167
376.094	163
376.319	181
376.545	168
376.771	193
376.997	193
377.222	174
377.448	186
377.674	170
377.899	176
378.125	172
378.35	171
378.576	169
378.802	166
379.027	172
379.253	186
379.478	177
379.704	168
379.929	179
380.155	178
380.38	170
380.606	173
380.831	186
381.057	175
381.282	183
381.507	183
381.733	190
381.958	185
382.184	202
382.409	204
382.634	194
382.86	206
383.085	194
383.31	192
383.535	197
383.761	181
383.986	184
384.211	195
384.436	202
384.662	206
384.887	182
385.112	193
385.337	183
385.562	201
385.787	204
386.013	216
386.238	209
386.463	196
386.688	206
386.913	188
387.138	200
387.363	206
387.588	204
387.813	207
388.038	190
388.263	199
388.488	210
388.713	199
388.938	213
389.163	195
389.387	217
389.612	220
389.837	213
390.062	209
390.287	212
390.512	203
390.736	213
390.961	195
391.186	216
391.411	198
391.636	220
391.86	227
392.085	228
392.31	203
392.534	223
392.759	195
392.984	211
393.208	214
393.433	196
393.658	208
393.882	211
394.107	199
394.331	215
394.556	207
394.78	221
395.005	223
395.229	213
395.454	223
395.678	222
395.903	209
396.127	212
396.352	219
396.576	206
396.801	219
397.025	212
397.249	243
397.474	224
397.698	215
397.922	221
398.147	221
398.371	235
398.595	244
398.82	234
399.044	241
399.268	241
399.492	279
399.717	279
399.941	279
400.165	270
400.389	256
400.613	242
400.837	238
401.062	253
401.286	238
401.51	261
401.734	225
401.958	244
402.182	242
402.406	247
402.63	232
402.854	235
403.078	252
403.302	233
403.526	241
403.75	245
403.974	262
404.198	255
404.422	247
404.645	266
404.869	261
405.093	251
405.317	254
405.541	243
405.765	246
405.988	259
406.212	277
406.436	273
406.66	263
406.883	257
407.107	266
407.331	269
407.555	264
407.778	285
408.002	265
408.226	282
408.449	279
408.673	255
408.896	264
409.12	257
409.344	274
409.567	277
409.791	270
410.014	260
410.238	255
410.461	255
410.685	255
410.908	269
411.132	269
411.355	282
411.578	249
411.802	247
412.025	268
412.249	258
412.472	261
412.695	259
412.919	244
413.142	257
413.365	268
413.589	267
413.812	278
414.035	278
414.258	249
414.482	263
414.705	247
414.928	266
415.151	256
415.374	275
415.597	260
415.821	259
416.044	269
416.267	261
416.49	259
416.713	258
416.936	266
417.159	267
417.382	248
417.605	257
417.828	248
418.051	250
418.274	270
418.497	265
418.72	259
418.943	260
419.166	266
419.389	281
419.611	284
419.834	279
420.057	258
420.28	256
420.503	246
420.726	253
420.948	262
421.171	281
421.394	272
421.617	265
421.839	267
422.062	264
422.285	260
422.507	272
422.73	261
422.953	270
423.175	275
423.398	270
423.621	265
423.843	271
424.066	268
424.288	272
424.511	248
424.733	269
424.956	274
425.178	254
425.401	272
425.623	261
425.846	263
426.068	274
426.291	258
426.513	266
426.735	270
426.958	258
427.18	262
427.402	261
427.625	263
427.847	260
428.069	260
428.292	275
428.514	251
428.736	250
428.958	261
429.181	271
429.403	268
429.625	264
429.847	250
430.069	267
430.292	260
430.514	261
430.736	259
430.958	274
431.18	287
431.402	263
431.624	275
431.846	271
432.068	254
432.29	261
432.512	244
432.734	252
432.956	260
433.178	282
433.4	269
433.622	270
433.844	254
434.066	258
434.287	271
434.509	268
434.731	262
434.953	273
435.175	294
435.397	266
435.618	269
435.84	289
436.062	250
436.284	265
436.505	281
436.727	281
436.949	250
437.17	266
437.392	271
437.614	268
437.835	260
438.057	262
438.278	244
438.5	270
438.721	276
438.943	275
439.165	279
439.386	283
439.608	270
439.829	285
440.05	287
440.272	276
440.493	285
440.715	289
440.936	291
441.158	293
441.379	281
441.6	289
441.822	305
442.043	282
442.264	298
442.486	269
442.707	280
442.928	304
443.149	299
443.371	296
443.592	261
443.813	310
444.034	301
444.255	305
444.476	303
444.698	317
444.919	307
445.14	433
445.361	361
445.582	312
445.803	297
446.024	287
446.245	302
446.466	311
446.687	286
446.908	270
447.129	287
447.35	275
447.571	293
447.792	271
448.013	284
448.234	259
448.455	272
448.675	279
448.896	291
449.117	268
449.338	281
449.559	255
449.779	258
450	270
450.221	278
450.442	284
450.662	270
450.883	256
451.104	282
451.324	257
451.545	268
451.766	268
451.986	265
452.207	252
452.428	277
452.648	281
452.869	275
453.089	262
453.31	254
453.53	265
453.751	241
453.971	237
454.192	268
454.412	263
454.633	246
454.853	266
455.073	261
455.294	266
455.514	266
455.734	272
455.955	271
456.175	263
456.395	252
456.616	246
456.836	252
457.056	262
457.276	255
457.497	260
457.717	247
457.937	267
458.157	257
458.377	252
458.598	260
458.818	253
459.038	267
459.258	247
459.478	261
459.698	287
459.918	292
460.138	269
460.358	306
460.578	301
460.798	307
461.018	291
461.238	308
461.458	323
461.678	309
461.898	290
462.118	296
462.338	309
462.558	329
462.777	324
462.997	336
463.217	324
463.437	334
463.657	324
463.876	340
464.096	315
464.316	337
464.536	328
464.755	328
464.975	310
465.195	287
465.414	312
465.634	286
465.854	301
466.073	279
466.293	298
466.512	297
466.732	301
466.951	295
467.171	287
467.391	283
467.61	293
467.829	285
468.049	286
468.268	296
468.488	278
468.707	285
468.927	291
469.146	294
469.365	297
469.585	300
469.804	292
470.023	289
470.243	288
470.462	269
470.681	277
470.901	303
471.12	309
471.339	285
471.558	307
471.777	267
471.997	300
472.216	282
472.435	299
472.654	285
472.873	271
473.092	293
473.311	286
473.53	285
473.749	282
473.968	279
474.187	281
474.406	282
474.625	285
474.844	282
475.063	269
475.282	282
475.501	293
475.72	292
475.939	305
476.158	292
476.377	296
476.596	299
476.814	311
477.033	294
477.252	308
477.471	301
477.69	315
477.908	329
478.127	304
478.346	297
478.564	334
478.783	315
479.002	341
479.22	329
479.439	334
479.658	329
479.876	317
480.095	317
480.313	327
480.532	324
480.751	321
480.969	323
481.188	338
481.406	330
481.624	336
481.843	315
482.061	313
482.28	301
482.498	316
482.717	325
482.935	319
483.153	347
483.372	328
483.59	313
483.808	317
484.027	317
484.245	320
484.463	312
484.681	315
484.9	338
485.118	325
485.336	329
485.554	334
485.772	323
485.99	313
486.209	313
486.427	332
486.645	344
486.863	324
487.081	325
487.299	347
487.517	316
487.735	348
487.953	364
488.171	353
488.389	334
488.607	329
488.825	346
489.043	322
489.261	322
489.479	329
489.696	330
489.914	337
490.132	358
490.35	342
490.568	352
490.786	349
491.003	344
491.221	373
491.439	358
491.657	347
491.874	366
492.092	367
492.31	361
492.527	361
492.745	348
492.963	373
493.18	344
493.398	365
493.615	371
493.833	361
494.05	349
494.268	350
494.485	343
494.703	357
494.92	378
495.138	345
495.355	369
495.573	360
495.79	348
496.008	356
496.225	363
496.442	351
496.66	366
496.877	363
497.094	387
497.312	365
497.529	378
497.746	371
497.963	383
498.181	371
498.398	387
498.615	383
498.832	422
499.049	402
499.267	441
499.484	457
499.701	463
499.918	507
500.135	515
500.352	529
500.569	535
500.786	543
501.003	521
501.22	502
501.437	474
501.654	447
501.871	429
502.088	463
502.305	413
502.522	381
502.739	388
502.956	383
503.172	374
503.389	376
503.606	375
503.823	366
504.04	373
504.256	349
504.473	359
504.69	376
504.907	361
505.123	344
505.34	328
505.557	335
505.773	326
505.99	318
506.207	331
506.423	303
506.64	333
506.856	302
507.073	314
507.289	315
507.506	309
507.722	291
507.939	317
508.155	305
508.372	294
508.588	300
508.805	297
509.021	296
509.238	295
509.454	289
509.67	293
509.887	303
510.103	290
510.319	307
510.536	296
510.752	283
510.968	291
511.184	285
511.401	304
511.617	288
511.833	293
512.049	276
512.265	275
512.481	293
512.698	268
512.914	276
513.13	281
513.346	271
513.562	291
513.778	278
513.994	269
514.21	309
514.426	280
514.642	275
514.858	293
515.074	270
515.29	278
515.506	297
515.721	313
515.937	308
516.153	293
516.369	295
516.585	282
516.801	306
517.016	301
517.232	308
517.448	325
517.664	310
517.879	305
518.095	299
518.311	310
518.527	310
518.742	306
518.958	285
519.173	302
519.389	303
519.605	302
519.82	297
520.036	286
520.251	292
520.467	283
520.682	275
520.898	288
521.113	298
521.329	283
521.544	293
521.76	269
521.975	262
522.19	275
522.406	269
522.621	278
522.836	283
523.052	290
523.267	265
523.482	277
523.698	281
523.913	273
524.128	275
524.343	249
524.559	269
524.774	285
524.989	266
525.204	271
525.419	274
525.634	269
525.849	268
526.064	266
526.28	274
526.495	263
526.71	276
526.925	276
527.14	277
527.355	279
527.57	259
527.785	268
527.999	258
528.214	261
528.429	259
528.644	257
528.859	266
529.074	283
529.289	256
529.503	278
529.718	271
529.933	255
530.148	268
530.363	253
530.577	236
530.792	264
531.007	255
531.221	251
531.436	264
531.651	258
531.865	265
532.08	277
532.295	279
532.509	262
532.724	249
532.938	266
533.153	277
533.367	271
533.582	264
533.796	259
534.011	264
534.225	259
534.44	260
534.654	248
534.868	269
535.083	265
535.297	253
535.511	254
535.726	273
535.94	257
536.154	242
536.369	234
536.583	257
536.797	271
537.011	262
537.225	247
537.44	235
537.654	266
537.868	261
538.082	249
538.296	250
538.51	252
538.724	259
538.938	246
539.153	258
539.367	257
539.581	249
539.795	241
540.009	269
540.222	251
540.436	253
540.65	242
540.864	263
541.078	255
541.292	268
541.506	263
541.72	258
541.934	257
542.147	263
542.361	275
542.575	246
542.789	272
543.002	260
543.216	237
543.43	241
543.644	259
543.857	253
544.071	257
544.285	250
544.498	260
544.712	237
544.925	255
545.139	261
545.352	251
545.566	261
545.779	269
545.993	252
546.206	255
546.42	239
546.633	257
546.847	273
547.06	268
547.274	261
547.487	250
547.7	251
547.914	249
548.127	266
548.34	270
548.554	261
548.767	256
548.98	254
549.193	259
549.407	269
549.62	263
549.833	238
550.046	255
550.259	262
550.473	262
550.686	251
550.899	259
551.112	258
551.325	257
551.538	269
551.751	251
551.964	250
552.177	260
552.39	266
552.603	265
552.816	262
553.029	257
553.242	262
553.455	247
553.667	271
553.88	259
554.093	251
554.306	263
554.519	237
554.732	236
554.944	239
555.157	259
555.37	252
555.583	250
555.795	256
556.008	226
556.221	231
556.433	242
556.646	235
556.859	251
557.071	242
557.284	236
557.496	233
557.709	227
557.921	226
558.134	237
558.346	225
558.559	228
558.771	237
558.984	233
559.196	249
559.409	233
559.621	229
559.833	227
560.046	230
560.258	219
560.47	225
560.683	233
560.895	234
561.107	215
561.32	213
561.532	212
561.744	217
561.956	225
562.168	249
562.381	231
562.593	237
562.805	220
563.017	224
563.229	227
563.441	217
563.653	216
563.865	232
564.077	232
564.289	244
564.501	236
564.713	222
564.925	229
565.137	219
