Data from Fe(NO3)3@0.0125M.TitratingCurve.Agarose3%dH2O.NegLispCup.LampEnergy10.LIBS07252019_HRD10591_16-59-24-336.txt Node
Date: Thu Jul 25 16:59:24 EDT 2019
User: cochatt
Spectrometer: HR+D1059
Trigger mode: 1
Integration Time (sec): 1.000000E-1
Scans to average: 1
Electric dark correction enabled: true
Nonlinearity correction enabled: false
Boxcar width: 0
XAxis mode: Wavelengths
Number of Pixels in Spectrum: 2048
>>>>>Begin Spectral Data<<<<<
223.165	-21.69
223.4	-21.69
223.635	-21.69
223.869	-22.69
224.104	-19.69
224.338	-19.69
224.573	-12.69
224.808	-13.69
225.042	-8.69
225.277	-9.69
225.511	8.31
225.746	13.31
225.98	8.31
226.215	3.31
226.449	23.31
226.683	29.31
226.918	20.31
227.152	22.31
227.387	34.31
227.621	58.31
227.856	39.31
228.09	38.31
228.324	52.31
228.559	56.31
228.793	70.31
229.027	77.31
229.262	86.31
229.496	102.31
229.73	87.31
229.964	95.31
230.199	87.31
230.433	88.31
230.667	100.31
230.901	102.31
231.136	100.31
231.37	89.31
231.604	111.31
231.838	106.31
232.072	95.31
232.306	103.31
232.541	109.31
232.775	110.31
233.009	116.31
233.243	100.31
233.477	117.31
233.711	104.31
233.945	104.31
234.179	116.31
234.413	123.31
234.647	123.31
234.881	112.31
235.115	93.31
235.349	110.31
235.583	109.31
235.817	111.31
236.051	109.31
236.285	112.31
236.519	115.31
236.753	109.31
236.987	117.31
237.221	100.31
237.455	113.31
237.689	106.31
237.922	107.31
238.156	108.31
238.39	103.31
238.624	126.31
238.858	123.31
239.091	104.31
239.325	103.31
239.559	123.31
239.793	110.31
240.027	107.31
240.26	110.31
240.494	119.31
240.728	99.31
240.961	124.31
241.195	111.31
241.429	122.31
241.662	120.31
241.896	136.31
242.13	129.31
242.363	126.31
242.597	103.31
242.83	110.31
243.064	131.31
243.298	122.31
243.531	120.31
243.765	131.31
243.998	124.31
244.232	122.31
244.465	107.31
244.699	110.31
244.932	118.31
245.166	112.31
245.399	103.31
245.633	136.31
245.866	136.31
246.099	132.31
246.333	127.31
246.566	124.31
246.8	118.31
247.033	122.31
247.266	126.31
247.5	131.31
247.733	144.31
247.966	125.31
248.2	143.31
248.433	129.31
248.666	134.31
248.899	144.31
249.133	146.31
249.366	140.31
249.599	130.31
249.832	126.31
250.066	151.31
250.299	142.31
250.532	144.31
250.765	140.31
250.998	141.31
251.231	156.31
251.465	140.31
251.698	139.31
251.931	137.31
252.164	152.31
252.397	142.31
252.63	160.31
252.863	151.31
253.096	139.31
253.329	172.31
253.562	151.31
253.795	145.31
254.028	144.31
254.261	151.31
254.494	152.31
254.727	139.31
254.96	166.31
255.193	148.31
255.426	162.31
255.659	151.31
255.892	148.31
256.124	160.31
256.357	162.31
256.59	160.31
256.823	159.31
257.056	155.31
257.289	146.31
257.521	149.31
257.754	171.31
257.987	155.31
258.22	162.31
258.452	161.31
258.685	155.31
258.918	160.31
259.151	163.31
259.383	170.31
259.616	190.31
259.849	178.31
260.081	161.31
260.314	186.31
260.547	186.31
260.779	168.31
261.012	180.31
261.244	174.31
261.477	184.31
261.71	189.31
261.942	183.31
262.175	169.31
262.407	156.31
262.64	173.31
262.872	180.31
263.105	158.31
263.337	174.31
263.57	181.31
263.802	168.31
264.035	179.31
264.267	174.31
264.499	178.31
264.732	184.31
264.964	183.31
265.197	182.31
265.429	179.31
265.661	186.31
265.894	193.31
266.126	208.31
266.358	185.31
266.591	184.31
266.823	186.31
267.055	198.31
267.287	174.31
267.52	191.31
267.752	205.31
267.984	205.31
268.216	211.31
268.448	200.31
268.681	201.31
268.913	202.31
269.145	220.31
269.377	190.31
269.609	207.31
269.841	194.31
270.073	196.31
270.306	217.31
270.538	206.31
270.77	189.31
271.002	198.31
271.234	208.31
271.466	194.31
271.698	213.31
271.93	209.31
272.162	222.31
272.394	215.31
272.626	221.31
272.858	207.31
273.09	224.31
273.322	211.31
273.553	222.31
273.785	211.31
274.017	220.31
274.249	224.31
274.481	248.31
274.713	231.31
274.945	220.31
275.176	224.31
275.408	223.31
275.64	230.31
275.872	223.31
276.104	225.31
276.335	233.31
276.567	230.31
276.799	242.31
277.031	218.31
277.262	234.31
277.494	231.31
277.726	223.31
277.957	239.31
278.189	243.31
278.421	239.31
278.652	252.31
278.884	250.31
279.115	252.31
279.347	257.31
279.579	238.31
279.81	246.31
280.042	252.31
280.273	256.31
280.505	259.31
280.736	252.31
280.968	246.31
281.199	244.31
281.431	236.31
281.662	265.31
281.894	252.31
282.125	258.31
282.356	251.31
282.588	250.31
282.819	255.31
283.051	256.31
283.282	250.31
283.513	258.31
283.745	243.31
283.976	262.31
284.207	272.31
284.439	271.31
284.67	276.31
284.901	273.31
285.132	268.31
285.364	276.31
285.595	261.31
285.826	275.31
286.057	277.31
286.288	283.31
286.52	295.31
286.751	278.31
286.982	274.31
287.213	284.31
287.444	276.31
287.675	283.31
287.906	275.31
288.138	302.31
288.369	288.31
288.6	284.31
288.831	279.31
289.062	291.31
289.293	287.31
289.524	283.31
289.755	303.31
289.986	303.31
290.217	280.31
290.448	295.31
290.679	299.31
290.91	301.31
291.141	284.31
291.371	306.31
291.602	303.31
291.833	292.31
292.064	291.31
292.295	285.31
292.526	298.31
292.757	306.31
292.987	312.31
293.218	294.31
293.449	291.31
293.68	297.31
293.91	312.31
294.141	298.31
294.372	290.31
294.603	307.31
294.833	325.31
295.064	307.31
295.295	319.31
295.525	306.31
295.756	307.31
295.987	285.31
296.217	310.31
296.448	308.31
296.679	319.31
296.909	328.31
297.14	327.31
297.37	314.31
297.601	316.31
297.831	318.31
298.062	317.31
298.292	308.31
298.523	329.31
298.753	326.31
298.984	334.31
299.214	318.31
299.445	318.31
299.675	334.31
299.905	336.31
300.136	337.31
300.366	335.31
300.597	332.31
300.827	323.31
301.057	342.31
301.288	331.31
301.518	332.31
301.748	346.31
301.979	327.31
302.209	323.31
302.439	350.31
302.669	348.31
302.9	336.31
303.13	335.31
303.36	352.31
303.59	345.31
303.82	361.31
304.051	360.31
304.281	357.31
304.511	351.31
304.741	346.31
304.971	338.31
305.201	356.31
305.431	366.31
305.661	362.31
305.891	346.31
306.121	378.31
306.352	361.31
306.582	367.31
306.812	355.31
307.042	356.31
307.272	353.31
307.502	342.31
307.731	354.31
307.961	378.31
308.191	349.31
308.421	376.31
308.651	356.31
308.881	360.31
309.111	368.31
309.341	358.31
309.571	365.31
309.8	363.31
310.03	370.31
310.26	380.31
310.49	375.31
310.72	380.31
310.949	389.31
311.179	392.31
311.409	380.31
311.639	374.31
311.868	384.31
312.098	379.31
312.328	391.31
312.557	400.31
312.787	382.31
313.017	406.31
313.246	399.31
313.476	401.31
313.706	382.31
313.935	379.31
314.165	395.31
314.394	396.31
314.624	400.31
314.853	414.31
315.083	407.31
315.312	397.31
315.542	412.31
315.771	425.31
316.001	388.31
316.23	407.31
316.46	410.31
316.689	399.31
316.919	413.31
317.148	408.31
317.377	427.31
317.607	413.31
317.836	419.31
318.065	422.31
318.295	394.31
318.524	420.31
318.753	428.31
318.983	429.31
319.212	422.31
319.441	436.31
319.67	402.31
319.9	439.31
320.129	416.31
320.358	415.31
320.587	431.31
320.816	430.31
321.046	417.31
321.275	431.31
321.504	423.31
321.733	436.31
321.962	420.31
322.191	437.31
322.42	428.31
322.649	422.31
322.878	424.31
323.108	435.31
323.337	447.31
323.566	423.31
323.795	439.31
324.024	426.31
324.253	425.31
324.482	445.31
324.71	431.31
324.939	453.31
325.168	450.31
325.397	421.31
325.626	461.31
325.855	440.31
326.084	439.31
326.313	440.31
326.542	441.31
326.77	473.31
326.999	443.31
327.228	452.31
327.457	443.31
327.686	462.31
327.914	459.31
328.143	458.31
328.372	472.31
328.6	474.31
328.829	467.31
329.058	456.31
329.287	471.31
329.515	462.31
329.744	461.31
329.972	465.31
330.201	463.31
330.43	464.31
330.658	470.31
330.887	483.31
331.115	474.31
331.344	464.31
331.572	456.31
331.801	473.31
332.03	466.31
332.258	485.31
332.486	472.31
332.715	464.31
332.943	478.31
333.172	472.31
333.4	483.31
333.629	477.31
333.857	493.31
334.085	479.31
334.314	484.31
334.542	509.31
334.771	474.31
334.999	492.31
335.227	468.31
335.455	523.31
335.684	484.31
335.912	503.31
336.14	490.31
336.369	495.31
336.597	490.31
336.825	494.31
337.053	510.31
337.281	492.31
337.51	503.31
337.738	489.31
337.966	505.31
338.194	480.31
338.422	477.31
338.65	507.31
338.878	486.31
339.106	512.31
339.334	523.31
339.562	521.31
339.79	475.31
340.018	496.31
340.246	494.31
340.474	518.31
340.702	501.31
340.93	491.31
341.158	492.31
341.386	500.31
341.614	498.31
341.842	519.31
342.07	486.31
342.298	489.31
342.526	502.31
342.754	494.31
342.981	485.31
343.209	489.31
343.437	516.31
343.665	491.31
343.893	510.31
344.12	498.31
344.348	509.31
344.576	461.31
344.804	520.31
345.031	511.31
345.259	496.31
345.487	494.31
345.714	485.31
345.942	486.31
346.17	462.31
346.397	479.31
346.625	495.31
346.853	515.31
347.08	493.31
347.308	487.31
347.535	516.31
347.763	499.31
347.99	500.31
348.218	500.31
348.445	476.31
348.673	468.31
348.9	482.31
349.128	503.31
349.355	504.31
349.583	508.31
349.81	488.31
350.037	495.31
350.265	480.31
350.492	493.31
350.72	483.31
350.947	510.31
351.174	498.31
351.402	484.31
351.629	483.31
351.856	479.31
352.083	500.31
352.311	494.31
352.538	499.31
352.765	507.31
352.992	491.31
353.22	513.31
353.447	487.31
353.674	515.31
353.901	517.31
354.128	499.31
354.355	491.31
354.583	476.31
354.81	501.31
355.037	502.31
355.264	485.31
355.491	507.31
355.718	504.31
355.945	502.31
356.172	492.31
356.399	494.31
356.626	488.31
356.853	512.31
357.08	520.31
357.307	475.31
357.534	505.31
357.761	491.31
357.988	516.31
358.215	493.31
358.441	500.31
358.668	500.31
358.895	485.31
359.122	496.31
359.349	501.31
359.576	498.31
359.802	502.31
360.029	509.31
360.256	515.31
360.483	499.31
360.709	518.31
360.936	498.31
361.163	491.31
361.39	492.31
361.616	515.31
361.843	482.31
362.07	502.31
362.296	492.31
362.523	505.31
362.749	501.31
362.976	515.31
363.203	507.31
363.429	491.31
363.656	529.31
363.882	521.31
364.109	502.31
364.335	526.31
364.562	504.31
364.788	492.31
365.015	518.31
365.241	519.31
365.468	529.31
365.694	511.31
365.92	488.31
366.147	506.31
366.373	514.31
366.599	527.31
366.826	518.31
367.052	503.31
367.278	525.31
367.505	516.31
367.731	548.31
367.957	512.31
368.184	520.31
368.41	507.31
368.636	517.31
368.862	524.31
369.089	529.31
369.315	521.31
369.541	513.31
369.767	534.31
369.993	523.31
370.219	528.31
370.445	548.31
370.672	522.31
370.898	510.31
371.124	521.31
371.35	529.31
371.576	534.31
371.802	548.31
372.028	549.31
372.254	550.31
372.48	557.31
372.706	556.31
372.932	520.31
373.158	523.31
373.384	536.31
373.61	550.31
373.835	560.31
374.061	564.31
374.287	537.31
374.513	542.31
374.739	559.31
374.965	545.31
375.191	548.31
375.416	567.31
375.642	555.31
375.868	570.31
376.094	540.31
376.319	529.31
376.545	562.31
376.771	549.31
376.997	568.31
377.222	540.31
377.448	523.31
377.674	550.31
377.899	562.31
378.125	543.31
378.35	551.31
378.576	558.31
378.802	537.31
379.027	528.31
379.253	543.31
379.478	542.31
379.704	549.31
379.929	543.31
380.155	553.31
380.38	533.31
380.606	527.31
380.831	557.31
381.057	561.31
381.282	550.31
381.507	554.31
381.733	540.31
381.958	556.31
382.184	570.31
382.409	573.31
382.634	552.31
382.86	552.31
383.085	547.31
383.31	564.31
383.535	573.31
383.761	573.31
383.986	560.31
384.211	560.31
384.436	573.31
384.662	580.31
384.887	588.31
385.112	575.31
385.337	583.31
385.562	572.31
385.787	569.31
386.013	603.31
386.238	598.31
386.463	592.31
386.688	569.31
386.913	559.31
387.138	580.31
387.363	590.31
387.588	580.31
387.813	581.31
388.038	605.31
388.263	579.31
388.488	584.31
388.713	577.31
388.938	587.31
389.163	574.31
389.387	591.31
389.612	562.31
389.837	586.31
390.062	590.31
390.287	574.31
390.512	597.31
390.736	588.31
390.961	586.31
391.186	597.31
391.411	579.31
391.636	588.31
391.86	599.31
392.085	584.31
392.31	596.31
392.534	612.31
392.759	605.31
392.984	606.31
393.208	578.31
393.433	574.31
393.658	614.31
393.882	604.31
394.107	584.31
394.331	598.31
394.556	590.31
394.78	617.31
395.005	572.31
395.229	591.31
395.454	644.31
395.678	616.31
395.903	590.31
396.127	598.31
396.352	601.31
396.576	580.31
396.801	614.31
397.025	630.31
397.249	613.31
397.474	628.31
397.698	621.31
397.922	611.31
398.147	622.31
398.371	639.31
398.595	628.31
398.82	616.31
399.044	660.31
399.268	642.31
399.492	635.31
399.717	665.31
399.941	657.31
400.165	648.31
400.389	657.31
400.613	656.31
400.837	662.31
401.062	652.31
401.286	633.31
401.51	638.31
401.734	624.31
401.958	640.31
402.182	648.31
402.406	620.31
402.63	668.31
402.854	631.31
403.078	650.31
403.302	634.31
403.526	662.31
403.75	641.31
403.974	648.31
404.198	631.31
404.422	653.31
404.645	661.31
404.869	622.31
405.093	628.31
405.317	640.31
405.541	669.31
405.765	666.31
405.988	640.31
406.212	674.31
406.436	665.31
406.66	666.31
406.883	647.31
407.107	693.31
407.331	678.31
407.555	701.31
407.778	681.31
408.002	679.31
408.226	695.31
408.449	677.31
408.673	676.31
408.896	686.31
409.12	670.31
409.344	687.31
409.567	655.31
409.791	663.31
410.014	681.31
410.238	662.31
410.461	640.31
410.685	678.31
410.908	658.31
411.132	660.31
411.355	656.31
411.578	638.31
411.802	670.31
412.025	650.31
412.249	642.31
412.472	664.31
412.695	638.31
412.919	652.31
413.142	637.31
413.365	663.31
413.589	644.31
413.812	650.31
414.035	625.31
414.258	634.31
414.482	622.31
414.705	650.31
414.928	639.31
415.151	634.31
415.374	619.31
415.597	644.31
415.821	616.31
416.044	618.31
416.267	622.31
416.49	641.31
416.713	633.31
416.936	622.31
417.159	644.31
417.382	611.31
417.605	628.31
417.828	614.31
418.051	612.31
418.274	631.31
418.497	620.31
418.72	610.31
418.943	619.31
419.166	640.31
419.389	648.31
419.611	663.31
419.834	644.31
420.057	650.31
420.28	635.31
420.503	602.31
420.726	600.31
420.948	597.31
421.171	606.31
421.394	598.31
421.617	600.31
421.839	600.31
422.062	627.31
422.285	608.31
422.507	616.31
422.73	605.31
422.953	612.31
423.175	640.31
423.398	636.31
423.621	634.31
423.843	617.31
424.066	617.31
424.288	618.31
424.511	604.31
424.733	610.31
424.956	621.31
425.178	629.31
425.401	629.31
425.623	612.31
425.846	618.31
426.068	610.31
426.291	611.31
426.513	599.31
426.735	621.31
426.958	610.31
427.18	598.31
427.402	600.31
427.625	613.31
427.847	605.31
428.069	626.31
428.292	608.31
428.514	612.31
428.736	598.31
428.958	600.31
429.181	599.31
429.403	599.31
429.625	615.31
429.847	603.31
430.069	604.31
430.292	617.31
430.514	613.31
430.736	604.31
430.958	616.31
431.18	599.31
431.402	623.31
431.624	598.31
431.846	584.31
432.068	604.31
432.29	604.31
432.512	611.31
432.734	601.31
432.956	610.31
433.178	594.31
433.4	612.31
433.622	615.31
433.844	618.31
434.066	627.31
434.287	584.31
434.509	599.31
434.731	632.31
434.953	604.31
435.175	609.31
435.397	615.31
435.618	593.31
435.84	619.31
436.062	603.31
436.284	600.31
436.505	587.31
436.727	604.31
436.949	606.31
437.17	608.31
437.392	604.31
437.614	609.31
437.835	590.31
438.057	614.31
438.278	607.31
438.5	595.31
438.721	583.31
438.943	616.31
439.165	603.31
439.386	600.31
439.608	612.31
439.829	589.31
440.05	617.31
440.272	587.31
440.493	597.31
440.715	606.31
440.936	624.31
441.158	586.31
441.379	614.31
441.6	608.31
441.822	605.31
442.043	614.31
442.264	636.31
442.486	602.31
442.707	640.31
442.928	630.31
443.149	627.31
443.371	610.31
443.592	595.31
443.813	590.31
444.034	602.31
444.255	619.31
444.476	608.31
444.698	615.31
444.919	606.31
445.14	696.31
445.361	665.31
445.582	621.31
445.803	611.31
446.024	596.31
446.245	619.31
446.466	608.31
446.687	610.31
446.908	617.31
447.129	598.31
447.35	584.31
447.571	604.31
447.792	559.31
448.013	563.31
448.234	566.31
448.455	572.31
448.675	574.31
448.896	581.31
449.117	557.31
449.338	566.31
449.559	552.31
449.779	562.31
450	569.31
450.221	564.31
450.442	565.31
450.662	580.31
450.883	572.31
451.104	553.31
451.324	575.31
451.545	554.31
451.766	570.31
451.986	564.31
452.207	568.31
452.428	569.31
452.648	576.31
452.869	547.31
453.089	562.31
453.31	576.31
453.53	564.31
453.751	575.31
453.971	566.31
454.192	570.31
454.412	540.31
454.633	540.31
454.853	554.31
455.073	537.31
455.294	567.31
455.514	564.31
455.734	562.31
455.955	572.31
456.175	555.31
456.395	548.31
456.616	550.31
456.836	556.31
457.056	566.31
457.276	548.31
457.497	551.31
457.717	565.31
457.937	552.31
458.157	561.31
458.377	568.31
458.598	552.31
458.818	563.31
459.038	556.31
459.258	589.31
459.478	581.31
459.698	568.31
459.918	588.31
460.138	601.31
460.358	584.31
460.578	584.31
460.798	614.31
461.018	601.31
461.238	597.31
461.458	597.31
461.678	606.31
461.898	591.31
462.118	619.31
462.338	605.31
462.558	636.31
462.777	632.31
462.997	647.31
463.217	633.31
463.437	632.31
463.657	628.31
463.876	633.31
464.096	624.31
464.316	618.31
464.536	615.31
464.755	618.31
464.975	654.31
465.195	616.31
465.414	598.31
465.634	591.31
465.854	607.31
466.073	593.31
466.293	590.31
466.512	591.31
466.732	584.31
466.951	586.31
467.171	610.31
467.391	633.31
467.61	594.31
467.829	591.31
468.049	607.31
468.268	560.31
468.488	599.31
468.707	581.31
468.927	578.31
469.146	567.31
469.365	570.31
469.585	586.31
469.804	584.31
470.023	638.31
470.243	618.31
470.462	617.31
470.681	616.31
470.901	626.31
471.12	615.31
471.339	596.31
471.558	614.31
471.777	600.31
471.997	622.31
472.216	602.31
472.435	629.31
472.654	600.31
472.873	618.31
473.092	613.31
473.311	582.31
473.53	627.31
473.749	646.31
473.968	615.31
474.187	602.31
474.406	640.31
474.625	626.31
474.844	635.31
475.063	638.31
475.282	634.31
475.501	637.31
475.72	652.31
475.939	650.31
476.158	656.31
476.377	649.31
476.596	660.31
476.814	674.31
477.033	667.31
477.252	675.31
477.471	698.31
477.69	658.31
477.908	677.31
478.127	700.31
478.346	695.31
478.564	709.31
478.783	702.31
479.002	718.31
479.22	703.31
479.439	681.31
479.658	698.31
479.876	710.31
480.095	745.31
480.313	722.31
480.532	707.31
480.751	706.31
480.969	723.31
481.188	718.31
481.406	751.31
481.624	744.31
481.843	754.31
482.061	771.31
482.28	749.31
482.498	732.31
482.717	754.31
482.935	743.31
483.153	722.31
483.372	764.31
483.59	746.31
483.808	743.31
484.027	754.31
484.245	736.31
484.463	742.31
484.681	771.31
484.9	756.31
485.118	769.31
485.336	719.31
485.554	741.31
485.772	782.31
485.99	750.31
486.209	771.31
486.427	773.31
486.645	760.31
486.863	782.31
487.081	789.31
487.299	782.31
487.517	746.31
487.735	761.31
487.953	768.31
488.171	808.31
488.389	788.31
488.607	797.31
488.825	800.31
489.043	742.31
489.261	755.31
489.479	763.31
489.696	756.31
489.914	761.31
490.132	778.31
490.35	784.31
490.568	755.31
490.786	802.31
491.003	784.31
491.221	788.31
491.439	770.31
491.657	772.31
491.874	760.31
492.092	787.31
492.31	792.31
492.527	798.31
492.745	775.31
492.963	801.31
493.18	779.31
493.398	773.31
493.615	793.31
493.833	793.31
494.05	796.31
494.268	797.31
494.485	797.31
494.703	798.31
494.92	822.31
495.138	798.31
495.355	813.31
495.573	790.31
495.79	822.31
496.008	839.31
496.225	824.31
496.442	816.31
496.66	835.31
496.877	818.31
497.094	815.31
497.312	814.31
497.529	843.31
497.746	847.31
497.963	851.31
498.181	824.31
498.398	837.31
498.615	874.31
498.832	887.31
499.049	862.31
499.267	881.31
499.484	881.31
499.701	909.31
499.918	945.31
500.135	950.31
500.352	957.31
500.569	935.31
500.786	965.31
501.003	949.31
501.22	920.31
501.437	922.31
501.654	932.31
