Data from Fe(NO3)3@0.05M.TitratingCurve.Agarose3%dH2O.NegLispCup.LampEnergy10.LIBS07252019_HRD10591_16-48-51-334.txt Node
Date: Thu Jul 25 16:48:51 EDT 2019
User: cochatt
Spectrometer: HR+D1059
Trigger mode: 1
Integration Time (sec): 1.000000E-1
Scans to average: 1
Electric dark correction enabled: true
Nonlinearity correction enabled: false
Boxcar width: 0
XAxis mode: Wavelengths
Number of Pixels in Spectrum: 2048
>>>>>Begin Spectral Data<<<<<
223.165	-23.19
223.4	-23.19
223.635	-23.19
223.869	-13.19
224.104	-15.19
224.338	-11.19
224.573	-16.19
224.808	-11.19
225.042	-1.19
225.277	-0.19
225.511	-15.19
225.746	-1.19
225.98	-4.19
226.215	10.81
226.449	24.81
226.683	23.81
226.918	29.81
227.152	22.81
227.387	42.81
227.621	28.81
227.856	45.81
228.09	49.81
228.324	49.81
228.559	39.81
228.793	78.81
229.027	66.81
229.262	71.81
229.496	63.81
229.73	63.81
229.964	77.81
230.199	79.81
230.433	84.81
230.667	87.81
230.901	89.81
231.136	96.81
231.37	78.81
231.604	91.81
231.838	79.81
232.072	87.81
232.306	89.81
232.541	79.81
232.775	80.81
233.009	93.81
233.243	97.81
233.477	98.81
233.711	98.81
233.945	92.81
234.179	93.81
234.413	103.81
234.647	92.81
234.881	86.81
235.115	96.81
235.349	90.81
235.583	89.81
235.817	83.81
236.051	87.81
236.285	92.81
236.519	92.81
236.753	93.81
236.987	90.81
237.221	90.81
237.455	86.81
237.689	89.81
237.922	89.81
238.156	90.81
238.39	93.81
238.624	96.81
238.858	83.81
239.091	80.81
239.325	92.81
239.559	99.81
239.793	87.81
240.027	97.81
240.26	80.81
240.494	97.81
240.728	93.81
240.961	99.81
241.195	103.81
241.429	93.81
241.662	94.81
241.896	79.81
242.13	98.81
242.363	107.81
242.597	91.81
242.83	93.81
243.064	81.81
243.298	94.81
243.531	98.81
243.765	111.81
243.998	92.81
244.232	110.81
244.465	100.81
244.699	93.81
244.932	110.81
245.166	103.81
245.399	101.81
245.633	101.81
245.866	100.81
246.099	92.81
246.333	105.81
246.566	106.81
246.8	105.81
247.033	108.81
247.266	96.81
247.5	99.81
247.733	103.81
247.966	91.81
248.2	97.81
248.433	101.81
248.666	98.81
248.899	101.81
249.133	101.81
249.366	98.81
249.599	102.81
249.832	98.81
250.066	105.81
250.299	88.81
250.532	105.81
250.765	116.81
250.998	106.81
251.231	102.81
251.465	118.81
251.698	112.81
251.931	126.81
252.164	109.81
252.397	115.81
252.63	116.81
252.863	119.81
253.096	106.81
253.329	99.81
253.562	110.81
253.795	121.81
254.028	104.81
254.261	118.81
254.494	102.81
254.727	114.81
254.96	119.81
255.193	114.81
255.426	112.81
255.659	119.81
255.892	122.81
256.124	102.81
256.357	117.81
256.59	110.81
256.823	116.81
257.056	95.81
257.289	109.81
257.521	117.81
257.754	105.81
257.987	126.81
258.22	132.81
258.452	116.81
258.685	104.81
258.918	112.81
259.151	104.81
259.383	119.81
259.616	118.81
259.849	112.81
260.081	128.81
260.314	106.81
260.547	106.81
260.779	115.81
261.012	114.81
261.244	130.81
261.477	120.81
261.71	117.81
261.942	129.81
262.175	122.81
262.407	118.81
262.64	117.81
262.872	133.81
263.105	125.81
263.337	131.81
263.57	119.81
263.802	104.81
264.035	131.81
264.267	117.81
264.499	115.81
264.732	134.81
264.964	135.81
265.197	144.81
265.429	132.81
265.661	116.81
265.894	125.81
266.126	120.81
266.358	128.81
266.591	134.81
266.823	130.81
267.055	118.81
267.287	136.81
267.52	144.81
267.752	142.81
267.984	129.81
268.216	145.81
268.448	125.81
268.681	133.81
268.913	130.81
269.145	132.81
269.377	128.81
269.609	139.81
269.841	124.81
270.073	128.81
270.306	132.81
270.538	144.81
270.77	121.81
271.002	140.81
271.234	136.81
271.466	139.81
271.698	128.81
271.93	128.81
272.162	133.81
272.394	137.81
272.626	122.81
272.858	117.81
273.09	125.81
273.322	132.81
273.553	148.81
273.785	126.81
274.017	126.81
274.249	144.81
274.481	147.81
274.713	149.81
274.945	127.81
275.176	130.81
275.408	154.81
275.64	145.81
275.872	143.81
276.104	143.81
276.335	136.81
276.567	137.81
276.799	151.81
277.031	153.81
277.262	153.81
277.494	130.81
277.726	160.81
277.957	154.81
278.189	148.81
278.421	141.81
278.652	139.81
278.884	137.81
279.115	143.81
279.347	150.81
279.579	146.81
279.81	135.81
280.042	133.81
280.273	137.81
280.505	134.81
280.736	133.81
280.968	137.81
281.199	157.81
281.431	141.81
281.662	147.81
281.894	151.81
282.125	151.81
282.356	145.81
282.588	146.81
282.819	134.81
283.051	158.81
283.282	153.81
283.513	152.81
283.745	143.81
283.976	169.81
284.207	167.81
284.439	165.81
284.67	148.81
284.901	158.81
285.132	162.81
285.364	145.81
285.595	147.81
285.826	155.81
286.057	161.81
286.288	153.81
286.52	140.81
286.751	163.81
286.982	148.81
287.213	160.81
287.444	144.81
287.675	143.81
287.906	166.81
288.138	161.81
288.369	163.81
288.6	152.81
288.831	146.81
289.062	158.81
289.293	157.81
289.524	153.81
289.755	168.81
289.986	151.81
290.217	165.81
290.448	175.81
290.679	165.81
290.91	162.81
291.141	169.81
291.371	159.81
291.602	174.81
291.833	156.81
292.064	147.81
292.295	162.81
292.526	161.81
292.757	159.81
292.987	149.81
293.218	169.81
293.449	161.81
293.68	168.81
293.91	154.81
294.141	156.81
294.372	162.81
294.603	153.81
294.833	171.81
295.064	172.81
295.295	153.81
295.525	152.81
295.756	168.81
295.987	152.81
296.217	168.81
296.448	175.81
296.679	176.81
296.909	162.81
297.14	178.81
297.37	166.81
297.601	182.81
297.831	163.81
298.062	162.81
298.292	178.81
298.523	174.81
298.753	198.81
298.984	169.81
299.214	175.81
299.445	182.81
299.675	159.81
299.905	177.81
300.136	168.81
300.366	184.81
300.597	167.81
300.827	176.81
301.057	166.81
301.288	177.81
301.518	180.81
301.748	171.81
301.979	191.81
302.209	185.81
302.439	173.81
302.669	175.81
302.9	182.81
303.13	179.81
303.36	175.81
303.59	176.81
303.82	152.81
304.051	185.81
304.281	180.81
304.511	172.81
304.741	165.81
304.971	159.81
305.201	161.81
305.431	173.81
305.661	172.81
305.891	170.81
306.121	180.81
306.352	183.81
306.582	188.81
306.812	175.81
307.042	185.81
307.272	184.81
307.502	163.81
307.731	170.81
307.961	181.81
308.191	167.81
308.421	159.81
308.651	185.81
308.881	175.81
309.111	175.81
309.341	180.81
309.571	172.81
309.8	172.81
310.03	163.81
310.26	164.81
310.49	167.81
310.72	167.81
310.949	173.81
311.179	184.81
311.409	192.81
311.639	165.81
311.868	183.81
312.098	176.81
312.328	166.81
312.557	189.81
312.787	178.81
313.017	173.81
313.246	170.81
313.476	183.81
313.706	183.81
313.935	185.81
314.165	183.81
314.394	191.81
314.624	176.81
314.853	191.81
315.083	180.81
315.312	177.81
315.542	176.81
315.771	185.81
316.001	187.81
316.23	202.81
316.46	181.81
316.689	172.81
316.919	186.81
317.148	190.81
317.377	186.81
317.607	179.81
317.836	173.81
318.065	180.81
318.295	197.81
318.524	167.81
318.753	175.81
318.983	191.81
319.212	180.81
319.441	180.81
319.67	184.81
319.9	174.81
320.129	181.81
320.358	178.81
320.587	190.81
320.816	186.81
321.046	188.81
321.275	195.81
321.504	198.81
321.733	186.81
321.962	181.81
322.191	176.81
322.42	174.81
322.649	168.81
322.878	190.81
323.108	182.81
323.337	182.81
323.566	160.81
323.795	186.81
324.024	188.81
324.253	197.81
324.482	191.81
324.71	192.81
324.939	179.81
325.168	196.81
325.397	185.81
325.626	188.81
325.855	184.81
326.084	182.81
326.313	202.81
326.542	201.81
326.77	201.81
326.999	187.81
327.228	190.81
327.457	196.81
327.686	204.81
327.914	210.81
328.143	205.81
328.372	198.81
328.6	205.81
328.829	193.81
329.058	192.81
329.287	187.81
329.515	200.81
329.744	197.81
329.972	217.81
330.201	218.81
330.43	192.81
330.658	190.81
330.887	199.81
331.115	197.81
331.344	204.81
331.572	200.81
331.801	205.81
332.03	209.81
332.258	216.81
332.486	216.81
332.715	220.81
332.943	237.81
333.172	225.81
333.4	245.81
333.629	250.81
333.857	234.81
334.085	235.81
334.314	244.81
334.542	243.81
334.771	244.81
334.999	233.81
335.227	228.81
335.455	250.81
335.684	238.81
335.912	228.81
336.14	228.81
336.369	223.81
336.597	212.81
336.825	209.81
337.053	212.81
337.281	237.81
337.51	219.81
337.738	225.81
337.966	219.81
338.194	218.81
338.422	220.81
338.65	206.81
338.878	197.81
339.106	210.81
339.334	204.81
339.562	207.81
339.79	206.81
340.018	206.81
340.246	220.81
340.474	198.81
340.702	201.81
340.93	216.81
341.158	204.81
341.386	201.81
341.614	203.81
341.842	218.81
342.07	199.81
342.298	199.81
342.526	205.81
342.754	201.81
342.981	203.81
343.209	206.81
343.437	223.81
343.665	211.81
343.893	225.81
344.12	236.81
344.348	230.81
344.576	220.81
344.804	226.81
345.031	210.81
345.259	204.81
345.487	186.81
345.714	199.81
345.942	202.81
346.17	208.81
346.397	197.81
346.625	202.81
346.853	187.81
347.08	183.81
347.308	176.81
347.535	197.81
347.763	208.81
347.99	210.81
348.218	212.81
348.445	205.81
348.673	195.81
348.9	206.81
349.128	197.81
349.355	192.81
349.583	196.81
349.81	199.81
350.037	202.81
350.265	194.81
350.492	194.81
350.72	203.81
350.947	193.81
351.174	187.81
351.402	202.81
351.629	193.81
351.856	183.81
352.083	198.81
352.311	192.81
352.538	188.81
352.765	212.81
352.992	180.81
353.22	193.81
353.447	183.81
353.674	190.81
353.901	187.81
354.128	202.81
354.355	191.81
354.583	204.81
354.81	178.81
355.037	200.81
355.264	194.81
355.491	181.81
355.718	188.81
355.945	194.81
356.172	193.81
356.399	203.81
356.626	186.81
356.853	189.81
357.08	200.81
357.307	209.81
357.534	197.81
357.761	194.81
357.988	201.81
358.215	202.81
358.441	207.81
358.668	183.81
358.895	198.81
359.122	198.81
359.349	189.81
359.576	210.81
359.802	187.81
360.029	177.81
360.256	222.81
360.483	216.81
360.709	191.81
360.936	205.81
361.163	193.81
361.39	191.81
361.616	205.81
361.843	211.81
362.07	209.81
362.296	210.81
362.523	180.81
362.749	198.81
362.976	191.81
363.203	210.81
363.429	187.81
363.656	204.81
363.882	197.81
364.109	218.81
364.335	206.81
364.562	202.81
364.788	202.81
365.015	203.81
365.241	203.81
365.468	206.81
365.694	206.81
365.92	207.81
366.147	202.81
366.373	194.81
366.599	214.81
366.826	188.81
367.052	186.81
367.278	204.81
367.505	191.81
367.731	206.81
367.957	203.81
368.184	200.81
368.41	206.81
368.636	199.81
368.862	216.81
369.089	193.81
369.315	201.81
369.541	212.81
369.767	210.81
369.993	216.81
370.219	201.81
370.445	191.81
370.672	199.81
370.898	204.81
371.124	205.81
371.35	225.81
371.576	222.81
371.802	218.81
372.028	205.81
372.254	225.81
372.48	215.81
372.706	200.81
372.932	211.81
373.158	214.81
373.384	232.81
373.61	234.81
373.835	226.81
374.061	226.81
374.287	227.81
374.513	222.81
374.739	236.81
374.965	238.81
375.191	228.81
375.416	241.81
375.642	225.81
375.868	225.81
376.094	201.81
376.319	225.81
376.545	221.81
376.771	208.81
376.997	220.81
377.222	230.81
377.448	220.81
377.674	229.81
377.899	239.81
378.125	224.81
378.35	208.81
378.576	208.81
378.802	205.81
379.027	226.81
379.253	229.81
379.478	236.81
379.704	220.81
379.929	213.81
380.155	210.81
380.38	215.81
380.606	204.81
380.831	226.81
381.057	236.81
381.282	217.81
381.507	210.81
381.733	223.81
381.958	222.81
382.184	224.81
382.409	236.81
382.634	214.81
382.86	237.81
383.085	224.81
383.31	228.81
383.535	235.81
383.761	250.81
383.986	247.81
384.211	228.81
384.436	239.81
384.662	258.81
384.887	248.81
385.112	244.81
385.337	252.81
385.562	254.81
385.787	262.81
386.013	271.81
386.238	270.81
386.463	281.81
386.688	282.81
386.913	250.81
387.138	239.81
387.363	252.81
387.588	241.81
387.813	264.81
388.038	248.81
388.263	260.81
388.488	255.81
388.713	243.81
388.938	251.81
389.163	260.81
389.387	244.81
389.612	245.81
389.837	266.81
390.062	255.81
390.287	270.81
390.512	258.81
390.736	256.81
390.961	253.81
391.186	266.81
391.411	284.81
391.636	284.81
391.86	309.81
392.085	290.81
392.31	272.81
392.534	297.81
392.759	286.81
392.984	278.81
393.208	281.81
393.433	285.81
393.658	278.81
393.882	258.81
394.107	281.81
394.331	276.81
394.556	267.81
394.78	274.81
395.005	283.81
395.229	278.81
395.454	302.81
395.678	303.81
395.903	284.81
396.127	280.81
396.352	287.81
396.576	275.81
396.801	270.81
397.025	274.81
397.249	285.81
397.474	284.81
397.698	287.81
397.922	306.81
398.147	314.81
398.371	295.81
398.595	298.81
398.82	322.81
399.044	328.81
399.268	370.81
399.492	386.81
399.717	416.81
399.941	429.81
400.165	428.81
400.389	383.81
400.613	343.81
400.837	332.81
401.062	321.81
401.286	325.81
401.51	333.81
401.734	323.81
401.958	322.81
402.182	327.81
402.406	341.81
402.63	332.81
402.854	330.81
403.078	351.81
403.302	338.81
403.526	328.81
403.75	351.81
403.974	367.81
404.198	352.81
404.422	339.81
404.645	350.81
404.869	344.81
405.093	353.81
405.317	338.81
405.541	344.81
405.765	361.81
405.988	354.81
406.212	354.81
406.436	342.81
406.66	354.81
406.883	358.81
407.107	369.81
407.331	372.81
407.555	380.81
407.778	384.81
408.002	389.81
408.226	372.81
408.449	358.81
408.673	364.81
408.896	349.81
409.12	344.81
409.344	370.81
409.567	374.81
409.791	344.81
410.014	374.81
410.238	361.81
410.461	352.81
410.685	364.81
410.908	339.81
411.132	340.81
411.355	341.81
411.578	337.81
411.802	349.81
412.025	344.81
412.249	325.81
412.472	355.81
412.695	341.81
412.919	333.81
413.142	335.81
413.365	322.81
413.589	348.81
413.812	333.81
414.035	337.81
414.258	336.81
414.482	324.81
414.705	333.81
414.928	334.81
415.151	356.81
415.374	340.81
415.597	341.81
415.821	326.81
416.044	325.81
416.267	327.81
416.49	331.81
416.713	331.81
416.936	317.81
417.159	334.81
417.382	356.81
417.605	316.81
417.828	331.81
418.051	327.81
418.274	333.81
418.497	354.81
418.72	332.81
418.943	336.81
419.166	340.81
419.389	380.81
419.611	349.81
419.834	345.81
420.057	339.81
420.28	343.81
420.503	313.81
420.726	321.81
420.948	316.81
421.171	325.81
421.394	344.81
421.617	329.81
421.839	320.81
422.062	329.81
422.285	324.81
422.507	317.81
422.73	321.81
422.953	336.81
423.175	336.81
423.398	341.81
423.621	316.81
423.843	356.81
424.066	339.81
424.288	344.81
424.511	365.81
424.733	337.81
424.956	349.81
425.178	316.81
425.401	336.81
425.623	320.81
425.846	309.81
426.068	324.81
426.291	306.81
426.513	302.81
426.735	314.81
426.958	311.81
427.18	306.81
427.402	306.81
427.625	312.81
427.847	305.81
428.069	322.81
428.292	311.81
428.514	302.81
428.736	320.81
428.958	310.81
429.181	280.81
429.403	313.81
429.625	289.81
429.847	320.81
430.069	307.81
430.292	324.81
430.514	287.81
430.736	294.81
430.958	316.81
431.18	309.81
431.402	292.81
431.624	314.81
431.846	308.81
432.068	308.81
432.29	314.81
432.512	309.81
432.734	301.81
432.956	302.81
433.178	313.81
433.4	328.81
433.622	320.81
433.844	322.81
434.066	311.81
434.287	324.81
434.509	304.81
434.731	336.81
434.953	315.81
435.175	348.81
435.397	331.81
435.618	328.81
435.84	320.81
436.062	323.81
436.284	318.81
436.505	316.81
436.727	326.81
436.949	313.81
437.17	324.81
437.392	310.81
437.614	310.81
437.835	303.81
438.057	319.81
438.278	302.81
438.5	307.81
438.721	312.81
438.943	307.81
439.165	310.81
439.386	300.81
439.608	312.81
439.829	319.81
440.05	317.81
440.272	319.81
440.493	325.81
440.715	325.81
440.936	323.81
441.158	329.81
441.379	320.81
441.6	347.81
441.822	337.81
442.043	334.81
442.264	345.81
442.486	333.81
442.707	338.81
442.928	336.81
443.149	351.81
443.371	330.81
443.592	332.81
443.813	328.81
444.034	336.81
444.255	347.81
444.476	355.81
444.698	372.81
444.919	404.81
445.14	496.81
445.361	414.81
445.582	366.81
445.803	344.81
446.024	351.81
446.245	349.81
446.466	330.81
446.687	319.81
446.908	319.81
447.129	326.81
447.35	318.81
447.571	310.81
447.792	306.81
448.013	308.81
448.234	319.81
448.455	313.81
448.675	309.81
448.896	289.81
449.117	311.81
449.338	294.81
449.559	298.81
449.779	304.81
450	312.81
450.221	304.81
450.442	301.81
450.662	302.81
450.883	320.81
451.104	304.81
451.324	305.81
451.545	297.81
451.766	288.81
451.986	291.81
452.207	308.81
452.428	304.81
452.648	293.81
452.869	284.81
453.089	291.81
453.31	278.81
453.53	277.81
453.751	294.81
453.971	296.81
454.192	298.81
454.412	290.81
454.633	297.81
454.853	279.81
455.073	286.81
455.294	283.81
455.514	269.81
455.734	289.81
455.955	289.81
456.175	301.81
456.395	303.81
456.616	267.81
456.836	291.81
457.056	295.81
457.276	275.81
457.497	282.81
457.717	285.81
457.937	256.81
458.157	285.81
458.377	295.81
458.598	282.81
458.818	291.81
459.038	294.81
459.258	296.81
459.478	306.81
459.698	318.81
459.918	319.81
460.138	322.81
460.358	355.81
460.578	351.81
460.798	366.81
461.018	362.81
461.238	346.81
461.458	371.81
461.678	344.81
461.898	354.81
462.118	376.81
462.338	393.81
462.558	378.81
462.777	375.81
462.997	409.81
463.217	433.81
463.437	428.81
463.657	434.81
463.876	406.81
464.096	410.81
464.316	387.81
464.536	402.81
464.755	402.81
464.975	352.81
465.195	344.81
465.414	362.81
465.634	345.81
465.854	340.81
466.073	322.81
466.293	332.81
466.512	315.81
466.732	326.81
466.951	318.81
467.171	309.81
467.391	330.81
467.61	330.81
467.829	306.81
468.049	298.81
468.268	303.81
468.488	315.81
468.707	301.81
468.927	290.81
469.146	302.81
469.365	314.81
469.585	318.81
469.804	330.81
470.023	307.81
470.243	305.81
470.462	321.81
470.681	327.81
470.901	307.81
471.12	326.81
471.339	330.81
471.558	311.81
471.777	321.81
471.997	300.81
472.216	304.81
472.435	290.81
472.654	302.81
472.873	295.81
473.092	278.81
473.311	294.81
473.53	303.81
473.749	308.81
473.968	299.81
474.187	287.81
474.406	289.81
474.625	284.81
474.844	288.81
475.063	307.81
475.282	289.81
475.501	282.81
475.72	282.81
475.939	293.81
476.158	306.81
476.377	293.81
476.596	290.81
476.814	293.81
477.033	305.81
477.252	316.81
477.471	308.81
477.69	323.81
477.908	334.81
478.127	341.81
478.346	342.81
478.564	333.81
478.783	320.81
479.002	354.81
479.22	352.81
479.439	337.81
479.658	330.81
479.876	345.81
480.095	344.81
480.313	361.81
480.532	368.81
480.751	366.81
480.969	346.81
481.188	336.81
481.406	330.81
481.624	340.81
481.843	343.81
482.061	312.81
482.28	320.81
482.498	318.81
482.717	320.81
482.935	320.81
483.153	317.81
483.372	322.81
483.59	350.81
483.808	323.81
484.027	318.81
484.245	327.81
484.463	340.81
484.681	327.81
484.9	336.81
485.118	324.81
485.336	334.81
485.554	326.81
485.772	323.81
485.99	343.81
486.209	324.81
486.427	337.81
486.645	338.81
486.863	332.81
487.081	350.81
487.299	309.81
487.517	345.81
487.735	340.81
487.953	341.81
488.171	344.81
488.389	331.81
488.607	327.81
488.825	336.81
489.043	349.81
489.261	321.81
489.479	328.81
489.696	317.81
489.914	336.81
490.132	336.81
490.35	345.81
490.568	343.81
490.786	350.81
491.003	336.81
491.221	349.81
491.439	341.81
491.657	357.81
491.874	365.81
492.092	348.81
492.31	360.81
492.527	350.81
492.745	374.81
492.963	356.81
493.18	374.81
493.398	356.81
493.615	350.81
493.833	359.81
494.05	345.81
494.268	357.81
494.485	343.81
494.703	359.81
494.92	368.81
495.138	356.81
495.355	371.81
495.573	357.81
495.79	360.81
496.008	368.81
496.225	367.81
496.442	392.81
496.66	383.81
496.877	378.81
497.094	395.81
497.312	395.81
497.529	390.81
497.746	400.81
497.963	419.81
498.181	444.81
498.398	436.81
498.615	422.81
498.832	457.81
499.049	499.81
499.267	522.81
499.484	570.81
499.701	626.81
499.918	626.81
500.135	713.81
500.352	766.81
500.569	789.81
500.786	806.81
501.003	757.81
501.22	712.81
501.437	642.81
501.654	585.81
501.871	563.81
502.088	521.81
502.305	510.81
502.522	464.81
