Data from Fe(NO3)3@0.1M.TitratingCurve.Agarose3%dH2O.NegLispCup.LampEnergy10.LIBS07252019_HRD10591_16-37-28-331.txt Node
Date: Thu Jul 25 16:37:28 EDT 2019
User: cochatt
Spectrometer: HR+D1059
Trigger mode: 1
Integration Time (sec): 1.000000E-1
Scans to average: 1
Electric dark correction enabled: true
Nonlinearity correction enabled: false
Boxcar width: 0
XAxis mode: Wavelengths
Number of Pixels in Spectrum: 2048
>>>>>Begin Spectral Data<<<<<
223.165	-19.38
223.4	-19.38
223.635	-19.38
223.869	-7.38
224.104	-22.38
224.338	-24.38
224.573	-4.38
224.808	-15.38
225.042	-7.38
225.277	-5.38
225.511	-6.38
225.746	2.62
225.98	8.62
226.215	10.62
226.449	17.62
226.683	17.62
226.918	27.62
227.152	27.62
227.387	33.62
227.621	44.62
227.856	37.62
228.09	45.62
228.324	47.62
228.559	58.62
228.793	60.62
229.027	78.62
229.262	84.62
229.496	90.62
229.73	90.62
229.964	113.62
230.199	84.62
230.433	88.62
230.667	96.62
230.901	116.62
231.136	105.62
231.37	113.62
231.604	97.62
231.838	104.62
232.072	121.62
232.306	102.62
232.541	121.62
232.775	114.62
233.009	136.62
233.243	116.62
233.477	115.62
233.711	115.62
233.945	106.62
234.179	102.62
234.413	117.62
234.647	135.62
234.881	104.62
235.115	116.62
235.349	116.62
235.583	117.62
235.817	105.62
236.051	112.62
236.285	118.62
236.519	115.62
236.753	117.62
236.987	104.62
237.221	105.62
237.455	111.62
237.689	108.62
237.922	109.62
238.156	102.62
238.39	131.62
238.624	125.62
238.858	120.62
239.091	121.62
239.325	117.62
239.559	120.62
239.793	117.62
240.027	121.62
240.26	118.62
240.494	122.62
240.728	123.62
240.961	122.62
241.195	135.62
241.429	130.62
241.662	124.62
241.896	114.62
242.13	121.62
242.363	134.62
242.597	129.62
242.83	140.62
243.064	144.62
243.298	151.62
243.531	133.62
243.765	147.62
243.998	145.62
244.232	118.62
244.465	136.62
244.699	145.62
244.932	122.62
245.166	149.62
245.399	146.62
245.633	138.62
245.866	146.62
246.099	141.62
246.333	134.62
246.566	128.62
246.8	155.62
247.033	156.62
247.266	143.62
247.5	137.62
247.733	146.62
247.966	136.62
248.2	138.62
248.433	151.62
248.666	143.62
248.899	154.62
249.133	152.62
249.366	157.62
249.599	148.62
249.832	146.62
250.066	174.62
250.299	154.62
250.532	146.62
250.765	148.62
250.998	151.62
251.231	167.62
251.465	159.62
251.698	160.62
251.931	168.62
252.164	157.62
252.397	144.62
252.63	151.62
252.863	156.62
253.096	154.62
253.329	168.62
253.562	155.62
253.795	186.62
254.028	161.62
254.261	171.62
254.494	172.62
254.727	164.62
254.96	186.62
255.193	157.62
255.426	178.62
255.659	172.62
255.892	173.62
256.124	163.62
256.357	171.62
256.59	163.62
256.823	185.62
257.056	174.62
257.289	160.62
257.521	181.62
257.754	160.62
257.987	178.62
258.22	176.62
258.452	171.62
258.685	184.62
258.918	194.62
259.151	180.62
259.383	179.62
259.616	180.62
259.849	187.62
260.081	198.62
260.314	184.62
260.547	192.62
260.779	177.62
261.012	195.62
261.244	170.62
261.477	177.62
261.71	194.62
261.942	188.62
262.175	190.62
262.407	192.62
262.64	190.62
262.872	183.62
263.105	182.62
263.337	203.62
263.57	199.62
263.802	184.62
264.035	204.62
264.267	201.62
264.499	187.62
264.732	203.62
264.964	187.62
265.197	196.62
265.429	197.62
265.661	211.62
265.894	197.62
266.126	213.62
266.358	200.62
266.591	218.62
266.823	203.62
267.055	202.62
267.287	196.62
267.52	194.62
267.752	201.62
267.984	201.62
268.216	215.62
268.448	202.62
268.681	214.62
268.913	197.62
269.145	210.62
269.377	201.62
269.609	202.62
269.841	205.62
270.073	198.62
270.306	204.62
270.538	217.62
270.77	217.62
271.002	195.62
271.234	221.62
271.466	214.62
271.698	227.62
271.93	205.62
272.162	198.62
272.394	217.62
272.626	241.62
272.858	210.62
273.09	224.62
273.322	231.62
273.553	234.62
273.785	234.62
274.017	240.62
274.249	229.62
274.481	237.62
274.713	241.62
274.945	220.62
275.176	239.62
275.408	242.62
275.64	241.62
275.872	244.62
276.104	243.62
276.335	244.62
276.567	245.62
276.799	238.62
277.031	231.62
277.262	246.62
277.494	230.62
277.726	251.62
277.957	240.62
278.189	245.62
278.421	241.62
278.652	253.62
278.884	243.62
279.115	225.62
279.347	240.62
279.579	244.62
279.81	231.62
280.042	237.62
280.273	243.62
280.505	242.62
280.736	239.62
280.968	258.62
281.199	270.62
281.431	268.62
281.662	248.62
281.894	254.62
282.125	242.62
282.356	245.62
282.588	243.62
282.819	246.62
283.051	245.62
283.282	237.62
283.513	272.62
283.745	257.62
283.976	247.62
284.207	260.62
284.439	263.62
284.67	260.62
284.901	260.62
285.132	271.62
285.364	276.62
285.595	255.62
285.826	262.62
286.057	238.62
286.288	269.62
286.52	278.62
286.751	265.62
286.982	280.62
287.213	254.62
287.444	266.62
287.675	254.62
287.906	292.62
288.138	281.62
288.369	272.62
288.6	270.62
288.831	262.62
289.062	306.62
289.293	280.62
289.524	264.62
289.755	271.62
289.986	277.62
290.217	289.62
290.448	288.62
290.679	279.62
290.91	278.62
291.141	276.62
291.371	289.62
291.602	276.62
291.833	278.62
292.064	279.62
292.295	273.62
292.526	294.62
292.757	275.62
292.987	271.62
293.218	271.62
293.449	301.62
293.68	299.62
293.91	275.62
294.141	283.62
294.372	274.62
294.603	293.62
294.833	289.62
295.064	283.62
295.295	285.62
295.525	281.62
295.756	292.62
295.987	282.62
296.217	300.62
296.448	308.62
296.679	283.62
296.909	282.62
297.14	285.62
297.37	301.62
297.601	322.62
297.831	306.62
298.062	303.62
298.292	285.62
298.523	280.62
298.753	325.62
298.984	300.62
299.214	297.62
299.445	305.62
299.675	299.62
299.905	306.62
300.136	293.62
300.366	273.62
300.597	299.62
300.827	325.62
301.057	304.62
301.288	325.62
301.518	296.62
301.748	305.62
301.979	310.62
302.209	340.62
302.439	316.62
302.669	337.62
302.9	312.62
303.13	310.62
303.36	316.62
303.59	317.62
303.82	316.62
304.051	321.62
304.281	314.62
304.511	314.62
304.741	327.62
304.971	297.62
305.201	337.62
305.431	298.62
305.661	306.62
305.891	306.62
306.121	300.62
306.352	323.62
306.582	316.62
306.812	306.62
307.042	321.62
307.272	302.62
307.502	312.62
307.731	309.62
307.961	312.62
308.191	310.62
308.421	312.62
308.651	316.62
308.881	313.62
309.111	319.62
309.341	327.62
309.571	320.62
309.8	297.62
310.03	320.62
310.26	332.62
310.49	315.62
310.72	334.62
310.949	312.62
311.179	324.62
311.409	310.62
311.639	323.62
311.868	307.62
312.098	343.62
312.328	329.62
312.557	325.62
312.787	331.62
313.017	334.62
313.246	328.62
313.476	331.62
313.706	322.62
313.935	319.62
314.165	346.62
314.394	348.62
314.624	331.62
314.853	340.62
315.083	357.62
315.312	338.62
315.542	350.62
315.771	320.62
316.001	325.62
316.23	309.62
316.46	333.62
316.689	321.62
316.919	326.62
317.148	345.62
317.377	323.62
317.607	355.62
317.836	331.62
318.065	329.62
318.295	347.62
318.524	336.62
318.753	343.62
318.983	337.62
319.212	328.62
319.441	332.62
319.67	333.62
319.9	331.62
320.129	342.62
320.358	347.62
320.587	335.62
320.816	311.62
321.046	342.62
321.275	327.62
321.504	340.62
321.733	345.62
321.962	346.62
322.191	339.62
322.42	338.62
322.649	337.62
322.878	354.62
323.108	334.62
323.337	336.62
323.566	335.62
323.795	349.62
324.024	346.62
324.253	337.62
324.482	344.62
324.71	326.62
324.939	365.62
325.168	372.62
325.397	354.62
325.626	365.62
325.855	357.62
326.084	350.62
326.313	359.62
326.542	368.62
326.77	364.62
326.999	372.62
327.228	352.62
327.457	360.62
327.686	349.62
327.914	368.62
328.143	380.62
328.372	372.62
328.6	357.62
328.829	372.62
329.058	353.62
329.287	371.62
329.515	380.62
329.744	361.62
329.972	360.62
330.201	383.62
330.43	368.62
330.658	360.62
330.887	373.62
331.115	386.62
331.344	382.62
331.572	384.62
331.801	391.62
332.03	408.62
332.258	407.62
332.486	410.62
332.715	428.62
332.943	421.62
333.172	414.62
333.4	427.62
333.629	433.62
333.857	453.62
334.085	469.62
334.314	469.62
334.542	473.62
334.771	441.62
334.999	432.62
335.227	462.62
335.455	441.62
335.684	425.62
335.912	451.62
336.14	424.62
336.369	418.62
336.597	432.62
336.825	429.62
337.053	433.62
337.281	420.62
337.51	407.62
337.738	416.62
337.966	420.62
338.194	432.62
338.422	380.62
338.65	413.62
338.878	397.62
339.106	390.62
339.334	404.62
339.562	392.62
339.79	393.62
340.018	389.62
340.246	385.62
340.474	369.62
340.702	380.62
340.93	386.62
341.158	388.62
341.386	376.62
341.614	353.62
341.842	375.62
342.07	380.62
342.298	386.62
342.526	369.62
342.754	387.62
342.981	394.62
343.209	381.62
343.437	399.62
343.665	411.62
343.893	439.62
344.12	458.62
344.348	422.62
344.576	409.62
344.804	408.62
345.031	421.62
345.259	403.62
345.487	393.62
345.714	394.62
345.942	397.62
346.17	370.62
346.397	365.62
346.625	376.62
346.853	366.62
347.08	379.62
347.308	352.62
347.535	358.62
347.763	361.62
347.99	378.62
348.218	390.62
348.445	378.62
348.673	358.62
348.9	387.62
349.128	373.62
349.355	331.62
349.583	353.62
349.81	356.62
350.037	361.62
350.265	390.62
350.492	346.62
350.72	357.62
350.947	360.62
351.174	380.62
351.402	358.62
351.629	358.62
351.856	351.62
352.083	361.62
352.311	361.62
352.538	360.62
352.765	358.62
352.992	380.62
353.22	346.62
353.447	367.62
353.674	364.62
353.901	373.62
354.128	377.62
354.355	365.62
354.583	374.62
354.81	368.62
355.037	358.62
355.264	354.62
355.491	379.62
355.718	357.62
355.945	374.62
356.172	358.62
356.399	373.62
356.626	374.62
356.853	380.62
357.08	379.62
357.307	373.62
357.534	381.62
357.761	368.62
357.988	372.62
358.215	374.62
358.441	344.62
358.668	376.62
358.895	380.62
359.122	372.62
359.349	380.62
359.576	357.62
359.802	373.62
360.029	369.62
360.256	376.62
360.483	353.62
360.709	366.62
360.936	382.62
361.163	354.62
361.39	333.62
361.616	347.62
361.843	334.62
362.07	349.62
362.296	356.62
362.523	346.62
362.749	365.62
362.976	363.62
363.203	373.62
363.429	357.62
363.656	374.62
363.882	354.62
364.109	375.62
364.335	372.62
364.562	369.62
364.788	341.62
365.015	384.62
365.241	382.62
365.468	382.62
365.694	371.62
365.92	382.62
366.147	373.62
366.373	373.62
366.599	364.62
366.826	365.62
367.052	355.62
367.278	373.62
367.505	370.62
367.731	371.62
367.957	386.62
368.184	371.62
368.41	387.62
368.636	368.62
368.862	388.62
369.089	380.62
369.315	377.62
369.541	382.62
369.767	386.62
369.993	399.62
370.219	390.62
370.445	392.62
370.672	401.62
370.898	394.62
371.124	391.62
371.35	407.62
371.576	425.62
371.802	404.62
372.028	394.62
372.254	386.62
372.48	412.62
372.706	406.62
372.932	430.62
373.158	422.62
373.384	404.62
373.61	412.62
373.835	409.62
374.061	407.62
374.287	432.62
374.513	416.62
374.739	413.62
374.965	446.62
375.191	446.62
375.416	432.62
375.642	439.62
375.868	410.62
376.094	418.62
376.319	413.62
376.545	408.62
376.771	422.62
376.997	393.62
377.222	402.62
377.448	410.62
377.674	396.62
377.899	396.62
378.125	394.62
378.35	413.62
378.576	401.62
378.802	378.62
379.027	425.62
379.253	395.62
379.478	386.62
379.704	406.62
379.929	413.62
380.155	409.62
380.38	415.62
380.606	408.62
380.831	398.62
381.057	421.62
381.282	418.62
381.507	417.62
381.733	424.62
381.958	440.62
382.184	430.62
382.409	409.62
382.634	438.62
382.86	444.62
383.085	459.62
383.31	434.62
383.535	451.62
383.761	454.62
383.986	452.62
384.211	447.62
384.436	472.62
384.662	476.62
384.887	473.62
385.112	491.62
385.337	508.62
385.562	502.62
385.787	466.62
386.013	494.62
386.238	487.62
386.463	488.62
386.688	485.62
386.913	481.62
387.138	489.62
387.363	476.62
387.588	475.62
387.813	484.62
388.038	482.62
388.263	481.62
388.488	499.62
388.713	514.62
388.938	491.62
389.163	469.62
389.387	464.62
389.612	465.62
389.837	470.62
390.062	470.62
390.287	488.62
390.512	477.62
390.736	479.62
390.961	476.62
391.186	513.62
391.411	498.62
391.636	504.62
391.86	515.62
392.085	537.62
392.31	527.62
392.534	516.62
392.759	533.62
392.984	541.62
393.208	518.62
393.433	514.62
393.658	540.62
393.882	518.62
394.107	523.62
394.331	518.62
394.556	527.62
394.78	516.62
395.005	519.62
395.229	523.62
395.454	546.62
395.678	543.62
395.903	534.62
396.127	534.62
396.352	542.62
396.576	518.62
396.801	500.62
397.025	535.62
397.249	515.62
397.474	517.62
397.698	564.62
397.922	551.62
398.147	540.62
398.371	554.62
398.595	591.62
398.82	591.62
399.044	635.62
399.268	678.62
399.492	740.62
399.717	833.62
399.941	821.62
400.165	748.62
400.389	690.62
400.613	662.62
400.837	641.62
401.062	612.62
401.286	601.62
401.51	628.62
401.734	611.62
401.958	611.62
402.182	625.62
402.406	598.62
402.63	620.62
402.854	620.62
403.078	636.62
403.302	655.62
403.526	655.62
403.75	693.62
403.974	666.62
404.198	664.62
404.422	670.62
404.645	654.62
404.869	662.62
405.093	639.62
405.317	665.62
405.541	660.62
405.765	656.62
405.988	642.62
406.212	661.62
406.436	692.62
406.66	721.62
406.883	669.62
407.107	725.62
407.331	746.62
407.555	758.62
407.778	756.62
408.002	710.62
408.226	730.62
408.449	750.62
408.673	710.62
408.896	705.62
409.12	673.62
409.344	689.62
409.567	665.62
409.791	686.62
410.014	670.62
410.238	684.62
410.461	675.62
410.685	689.62
410.908	642.62
411.132	647.62
411.355	642.62
411.578	651.62
411.802	644.62
412.025	645.62
412.249	642.62
412.472	650.62
412.695	638.62
412.919	630.62
413.142	600.62
413.365	618.62
413.589	627.62
413.812	632.62
414.035	625.62
414.258	613.62
414.482	644.62
414.705	649.62
414.928	656.62
415.151	608.62
415.374	630.62
415.597	625.62
415.821	595.62
416.044	606.62
416.267	576.62
416.49	570.62
416.713	604.62
416.936	597.62
417.159	577.62
417.382	599.62
417.605	588.62
417.828	616.62
418.051	601.62
418.274	593.62
418.497	599.62
418.72	588.62
418.943	621.62
419.166	645.62
419.389	666.62
419.611	651.62
419.834	644.62
420.057	632.62
420.28	611.62
420.503	585.62
420.726	574.62
420.948	595.62
421.171	618.62
421.394	601.62
421.617	600.62
421.839	599.62
422.062	594.62
422.285	598.62
422.507	621.62
422.73	619.62
422.953	620.62
423.175	632.62
423.398	614.62
423.621	615.62
423.843	616.62
424.066	616.62
424.288	622.62
424.511	621.62
424.733	607.62
424.956	578.62
425.178	602.62
425.401	585.62
425.623	594.62
425.846	578.62
426.068	572.62
426.291	596.62
426.513	578.62
426.735	561.62
426.958	554.62
427.18	580.62
427.402	574.62
427.625	543.62
427.847	542.62
428.069	534.62
428.292	548.62
428.514	525.62
428.736	544.62
428.958	551.62
429.181	520.62
429.403	523.62
429.625	546.62
429.847	524.62
430.069	530.62
430.292	551.62
430.514	551.62
430.736	564.62
430.958	537.62
431.18	546.62
431.402	541.62
431.624	526.62
431.846	548.62
432.068	548.62
432.29	560.62
432.512	537.62
432.734	534.62
432.956	551.62
433.178	546.62
433.4	547.62
433.622	560.62
433.844	541.62
434.066	562.62
434.287	557.62
434.509	570.62
434.731	577.62
434.953	598.62
435.175	625.62
435.397	617.62
435.618	585.62
435.84	572.62
436.062	573.62
436.284	574.62
436.505	556.62
436.727	550.62
436.949	545.62
437.17	531.62
437.392	558.62
437.614	549.62
437.835	509.62
438.057	517.62
438.278	533.62
438.5	534.62
438.721	538.62
438.943	516.62
439.165	518.62
439.386	524.62
439.608	517.62
439.829	535.62
440.05	544.62
440.272	537.62
440.493	536.62
440.715	566.62
440.936	571.62
441.158	570.62
441.379	577.62
441.6	584.62
441.822	599.62
442.043	607.62
442.264	598.62
442.486	604.62
442.707	586.62
442.928	596.62
443.149	602.62
443.371	570.62
443.592	598.62
443.813	601.62
444.034	596.62
444.255	604.62
444.476	648.62
444.698	669.62
444.919	692.62
445.14	766.62
445.361	683.62
445.582	612.62
445.803	584.62
446.024	584.62
446.245	571.62
446.466	574.62
446.687	552.62
446.908	547.62
447.129	539.62
447.35	544.62
447.571	536.62
447.792	512.62
448.013	517.62
448.234	519.62
448.455	512.62
448.675	494.62
448.896	499.62
449.117	492.62
449.338	498.62
449.559	498.62
449.779	493.62
450	500.62
450.221	498.62
450.442	477.62
450.662	491.62
450.883	492.62
451.104	521.62
451.324	506.62
451.545	497.62
451.766	524.62
451.986	511.62
452.207	484.62
452.428	496.62
452.648	474.62
452.869	502.62
453.089	494.62
453.31	463.62
453.53	484.62
453.751	483.62
453.971	483.62
454.192	481.62
454.412	470.62
454.633	501.62
454.853	472.62
455.073	489.62
455.294	490.62
455.514	504.62
455.734	476.62
455.955	472.62
456.175	449.62
456.395	485.62
456.616	462.62
456.836	459.62
457.056	475.62
457.276	451.62
457.497	475.62
457.717	488.62
457.937	480.62
458.157	454.62
458.377	477.62
458.598	489.62
458.818	494.62
459.038	494.62
459.258	527.62
459.478	544.62
459.698	541.62
459.918	572.62
460.138	602.62
460.358	626.62
460.578	620.62
460.798	612.62
461.018	610.62
461.238	632.62
461.458	620.62
461.678	610.62
461.898	636.62
462.118	630.62
462.338	656.62
462.558	658.62
462.777	682.62
462.997	741.62
463.217	774.62
463.437	773.62
463.657	715.62
463.876	715.62
464.096	710.62
464.316	706.62
464.536	699.62
464.755	672.62
464.975	674.62
465.195	630.62
465.414	610.62
465.634	594.62
465.854	568.62
466.073	554.62
466.293	566.62
466.512	536.62
466.732	550.62
466.951	539.62
467.171	529.62
467.391	529.62
467.61	524.62
467.829	522.62
468.049	496.62
468.268	504.62
468.488	501.62
468.707	521.62
468.927	516.62
469.146	517.62
469.365	527.62
469.585	517.62
469.804	530.62
470.023	524.62
470.243	540.62
470.462	500.62
470.681	530.62
470.901	539.62
471.12	532.62
471.339	542.62
471.558	541.62
471.777	505.62
471.997	511.62
472.216	493.62
472.435	493.62
472.654	503.62
472.873	507.62
473.092	481.62
473.311	487.62
473.53	507.62
473.749	520.62
473.968	514.62
474.187	503.62
474.406	525.62
474.625	535.62
474.844	504.62
475.063	503.62
475.282	512.62
475.501	497.62
475.72	507.62
475.939	510.62
476.158	523.62
476.377	512.62
476.596	525.62
476.814	541.62
477.033	520.62
477.252	524.62
477.471	546.62
477.69	540.62
477.908	559.62
478.127	580.62
478.346	578.62
478.564	596.62
478.783	593.62
479.002	621.62
479.22	610.62
479.439	615.62
479.658	574.62
479.876	589.62
480.095	615.62
480.313	646.62
480.532	666.62
480.751	636.62
480.969	617.62
481.188	608.62
481.406	595.62
481.624	572.62
481.843	591.62
482.061	587.62
482.28	587.62
482.498	569.62
482.717	544.62
482.935	583.62
483.153	551.62
483.372	572.62
483.59	560.62
483.808	564.62
484.027	581.62
484.245	583.62
484.463	597.62
484.681	581.62
484.9	566.62
485.118	579.62
485.336	596.62
485.554	567.62
485.772	605.62
485.99	615.62
486.209	595.62
486.427	594.62
486.645	599.62
486.863	605.62
487.081	604.62
487.299	585.62
487.517	585.62
487.735	596.62
487.953	584.62
488.171	592.62
488.389	592.62
488.607	572.62
488.825	588.62
489.043	585.62
489.261	599.62
489.479	617.62
489.696	589.62
489.914	598.62
490.132	604.62
490.35	595.62
490.568	590.62
490.786	600.62
491.003	589.62
491.221	615.62
491.439	600.62
491.657	603.62
491.874	608.62
492.092	618.62
492.31	603.62
492.527	597.62
492.745	626.62
492.963	632.62
493.18	607.62
493.398	630.62
493.615	620.62
493.833	625.62
494.05	612.62
494.268	610.62
494.485	621.62
494.703	608.62
494.92	624.62
495.138	634.62
495.355	640.62
495.573	640.62
495.79	650.62
496.008	668.62
496.225	652.62
496.442	676.62
496.66	672.62
496.877	666.62
497.094	667.62
497.312	697.62
497.529	706.62
497.746	720.62
497.963	725.62
498.181	760.62
498.398	781.62
498.615	847.62
498.832	849.62
499.049	927.62
499.267	950.62
499.484	1063.62
499.701	1125.62
499.918	1219.62
500.135	1352.62
500.352	1500.62
500.569	1568.62
500.786	1558.62
501.003	1463.62
501.22	1318.62
501.437	1209.62
501.654	1097.62
