Data from Fe(NO3)3@0.025M.TitratingCurve.Agarose3%dH2O.NegLispCup.LampEnergy10.LIBS07252019_HRD10591_16-54-05-335.txt Node
Date: Thu Jul 25 16:54:05 EDT 2019
User: cochatt
Spectrometer: HR+D1059
Trigger mode: 1
Integration Time (sec): 1.000000E-1
Scans to average: 1
Electric dark correction enabled: true
Nonlinearity correction enabled: false
Boxcar width: 0
XAxis mode: Wavelengths
Number of Pixels in Spectrum: 2048
>>>>>Begin Spectral Data<<<<<
223.165	-17.38
223.4	-17.38
223.635	-17.38
223.869	-25.38
224.104	-13.38
224.338	-7.38
224.573	-13.38
224.808	-15.38
225.042	-0.38
225.277	-0.38
225.511	1.62
225.746	3.62
225.98	4.62
226.215	23.62
226.449	15.62
226.683	7.62
226.918	5.62
227.152	30.62
227.387	29.62
227.621	30.62
227.856	44.62
228.09	55.62
228.324	57.62
228.559	49.62
228.793	58.62
229.027	85.62
229.262	86.62
229.496	73.62
229.73	86.62
229.964	85.62
230.199	110.62
230.433	109.62
230.667	79.62
230.901	114.62
231.136	112.62
231.37	111.62
231.604	104.62
231.838	113.62
232.072	127.62
232.306	123.62
232.541	113.62
232.775	109.62
233.009	122.62
233.243	99.62
233.477	105.62
233.711	120.62
233.945	123.62
234.179	108.62
234.413	115.62
234.647	117.62
234.881	123.62
235.115	125.62
235.349	116.62
235.583	117.62
235.817	117.62
236.051	120.62
236.285	110.62
236.519	119.62
236.753	113.62
236.987	119.62
237.221	119.62
237.455	116.62
237.689	129.62
237.922	117.62
238.156	122.62
238.39	117.62
238.624	133.62
238.858	136.62
239.091	128.62
239.325	118.62
239.559	133.62
239.793	125.62
240.027	130.62
240.26	112.62
240.494	146.62
240.728	126.62
240.961	146.62
241.195	125.62
241.429	137.62
241.662	143.62
241.896	130.62
242.13	131.62
242.363	138.62
242.597	124.62
242.83	139.62
243.064	149.62
243.298	133.62
243.531	136.62
243.765	147.62
243.998	131.62
244.232	135.62
244.465	163.62
244.699	144.62
244.932	163.62
245.166	127.62
245.399	145.62
245.633	128.62
245.866	159.62
246.099	154.62
246.333	141.62
246.566	134.62
246.8	158.62
247.033	161.62
247.266	157.62
247.5	157.62
247.733	151.62
247.966	159.62
248.2	179.62
248.433	161.62
248.666	158.62
248.899	163.62
249.133	163.62
249.366	164.62
249.599	188.62
249.832	177.62
250.066	178.62
250.299	168.62
250.532	177.62
250.765	174.62
250.998	182.62
251.231	167.62
251.465	165.62
251.698	173.62
251.931	183.62
252.164	159.62
252.397	171.62
252.63	182.62
252.863	196.62
253.096	182.62
253.329	178.62
253.562	176.62
253.795	192.62
254.028	185.62
254.261	198.62
254.494	186.62
254.727	198.62
254.96	189.62
255.193	186.62
255.426	203.62
255.659	181.62
255.892	182.62
256.124	199.62
256.357	200.62
256.59	186.62
256.823	203.62
257.056	197.62
257.289	183.62
257.521	198.62
257.754	180.62
257.987	185.62
258.22	201.62
258.452	204.62
258.685	203.62
258.918	197.62
259.151	214.62
259.383	215.62
259.616	221.62
259.849	229.62
260.081	238.62
260.314	227.62
260.547	217.62
260.779	212.62
261.012	230.62
261.244	226.62
261.477	234.62
261.71	202.62
261.942	214.62
262.175	226.62
262.407	225.62
262.64	209.62
262.872	211.62
263.105	222.62
263.337	237.62
263.57	227.62
263.802	231.62
264.035	206.62
264.267	219.62
264.499	215.62
264.732	229.62
264.964	225.62
265.197	225.62
265.429	242.62
265.661	226.62
265.894	229.62
266.126	221.62
266.358	214.62
266.591	231.62
266.823	233.62
267.055	226.62
267.287	233.62
267.52	233.62
267.752	233.62
267.984	257.62
268.216	224.62
268.448	240.62
268.681	243.62
268.913	259.62
269.145	225.62
269.377	239.62
269.609	237.62
269.841	256.62
270.073	238.62
270.306	244.62
270.538	247.62
270.77	246.62
271.002	243.62
271.234	259.62
271.466	248.62
271.698	250.62
271.93	238.62
272.162	257.62
272.394	255.62
272.626	254.62
272.858	255.62
273.09	274.62
273.322	271.62
273.553	253.62
273.785	273.62
274.017	291.62
274.249	294.62
274.481	290.62
274.713	297.62
274.945	305.62
275.176	294.62
275.408	298.62
275.64	288.62
275.872	328.62
276.104	267.62
276.335	275.62
276.567	262.62
276.799	279.62
277.031	284.62
277.262	279.62
277.494	267.62
277.726	273.62
277.957	267.62
278.189	282.62
278.421	277.62
278.652	280.62
278.884	276.62
279.115	291.62
279.347	291.62
279.579	289.62
279.81	306.62
280.042	292.62
280.273	291.62
280.505	283.62
280.736	287.62
280.968	289.62
281.199	287.62
281.431	302.62
281.662	293.62
281.894	301.62
282.125	293.62
282.356	304.62
282.588	278.62
282.819	307.62
283.051	315.62
283.282	280.62
283.513	301.62
283.745	297.62
283.976	286.62
284.207	316.62
284.439	314.62
284.67	312.62
284.901	304.62
285.132	307.62
285.364	307.62
285.595	311.62
285.826	294.62
286.057	311.62
286.288	307.62
286.52	307.62
286.751	317.62
286.982	293.62
287.213	310.62
287.444	322.62
287.675	320.62
287.906	321.62
288.138	308.62
288.369	307.62
288.6	314.62
288.831	308.62
289.062	332.62
289.293	326.62
289.524	295.62
289.755	343.62
289.986	333.62
290.217	318.62
290.448	328.62
290.679	320.62
290.91	334.62
291.141	313.62
291.371	319.62
291.602	321.62
291.833	303.62
292.064	321.62
292.295	335.62
292.526	330.62
292.757	328.62
292.987	308.62
293.218	319.62
293.449	332.62
293.68	321.62
293.91	328.62
294.141	328.62
294.372	322.62
294.603	342.62
294.833	325.62
295.064	336.62
295.295	327.62
295.525	331.62
295.756	338.62
295.987	342.62
296.217	338.62
296.448	327.62
296.679	346.62
296.909	344.62
297.14	354.62
297.37	323.62
297.601	358.62
297.831	343.62
298.062	348.62
298.292	347.62
298.523	345.62
298.753	341.62
298.984	353.62
299.214	341.62
299.445	345.62
299.675	368.62
299.905	361.62
300.136	357.62
300.366	363.62
300.597	366.62
300.827	355.62
301.057	363.62
301.288	365.62
301.518	363.62
301.748	371.62
301.979	366.62
302.209	378.62
302.439	374.62
302.669	387.62
302.9	377.62
303.13	371.62
303.36	372.62
303.59	367.62
303.82	374.62
304.051	367.62
304.281	353.62
304.511	371.62
304.741	376.62
304.971	359.62
305.201	359.62
305.431	375.62
305.661	369.62
305.891	373.62
306.121	375.62
306.352	403.62
306.582	366.62
306.812	374.62
307.042	401.62
307.272	372.62
307.502	376.62
307.731	382.62
307.961	378.62
308.191	370.62
308.421	385.62
308.651	381.62
308.881	388.62
309.111	404.62
309.341	367.62
309.571	384.62
309.8	380.62
310.03	371.62
310.26	370.62
310.49	371.62
310.72	383.62
310.949	390.62
311.179	390.62
311.409	388.62
311.639	378.62
311.868	390.62
312.098	397.62
312.328	387.62
312.557	406.62
312.787	385.62
313.017	381.62
313.246	400.62
313.476	371.62
313.706	402.62
313.935	390.62
314.165	397.62
314.394	398.62
314.624	380.62
314.853	394.62
315.083	419.62
315.312	412.62
315.542	432.62
315.771	403.62
316.001	399.62
316.23	417.62
316.46	411.62
316.689	403.62
316.919	412.62
317.148	442.62
317.377	417.62
317.607	433.62
317.836	428.62
318.065	424.62
318.295	411.62
318.524	432.62
318.753	410.62
318.983	424.62
319.212	409.62
319.441	419.62
319.67	418.62
319.9	431.62
320.129	419.62
320.358	410.62
320.587	415.62
320.816	419.62
321.046	417.62
321.275	438.62
321.504	417.62
321.733	431.62
321.962	416.62
322.191	442.62
322.42	422.62
322.649	436.62
322.878	432.62
323.108	430.62
323.337	427.62
323.566	424.62
323.795	454.62
324.024	435.62
324.253	456.62
324.482	440.62
324.71	440.62
324.939	437.62
325.168	452.62
325.397	433.62
325.626	431.62
325.855	457.62
326.084	445.62
326.313	448.62
326.542	437.62
326.77	450.62
326.999	441.62
327.228	430.62
327.457	435.62
327.686	454.62
327.914	455.62
328.143	447.62
328.372	447.62
328.6	450.62
328.829	465.62
329.058	463.62
329.287	437.62
329.515	458.62
329.744	453.62
329.972	450.62
330.201	451.62
330.43	465.62
330.658	465.62
330.887	471.62
331.115	467.62
331.344	476.62
331.572	471.62
331.801	470.62
332.03	475.62
332.258	493.62
332.486	473.62
332.715	470.62
332.943	484.62
333.172	484.62
333.4	507.62
333.629	509.62
333.857	504.62
334.085	506.62
334.314	517.62
334.542	501.62
334.771	508.62
334.999	504.62
335.227	511.62
335.455	533.62
335.684	522.62
335.912	527.62
336.14	526.62
336.369	528.62
336.597	517.62
336.825	509.62
337.053	501.62
337.281	488.62
337.51	485.62
337.738	516.62
337.966	521.62
338.194	493.62
338.422	513.62
338.65	510.62
338.878	506.62
339.106	490.62
339.334	480.62
339.562	496.62
339.79	487.62
340.018	490.62
340.246	483.62
340.474	493.62
340.702	513.62
340.93	490.62
341.158	499.62
341.386	493.62
341.614	476.62
341.842	485.62
342.07	484.62
342.298	486.62
342.526	486.62
342.754	488.62
342.981	478.62
343.209	477.62
343.437	476.62
343.665	506.62
343.893	509.62
344.12	527.62
344.348	499.62
344.576	515.62
344.804	510.62
345.031	500.62
345.259	473.62
345.487	481.62
345.714	470.62
345.942	462.62
346.17	500.62
346.397	477.62
346.625	479.62
346.853	486.62
347.08	473.62
347.308	484.62
347.535	476.62
347.763	471.62
347.99	472.62
348.218	469.62
348.445	475.62
348.673	457.62
348.9	464.62
349.128	457.62
349.355	457.62
349.583	479.62
349.81	477.62
350.037	461.62
350.265	471.62
350.492	472.62
350.72	455.62
350.947	450.62
351.174	475.62
351.402	479.62
351.629	448.62
351.856	456.62
352.083	469.62
352.311	452.62
352.538	444.62
352.765	462.62
352.992	457.62
353.22	452.62
353.447	447.62
353.674	470.62
353.901	465.62
354.128	457.62
354.355	442.62
354.583	472.62
354.81	454.62
355.037	451.62
355.264	448.62
355.491	444.62
355.718	472.62
355.945	466.62
356.172	460.62
356.399	456.62
356.626	476.62
356.853	472.62
357.08	454.62
357.307	454.62
357.534	490.62
357.761	482.62
357.988	475.62
358.215	457.62
358.441	459.62
358.668	474.62
358.895	473.62
359.122	470.62
359.349	470.62
359.576	452.62
359.802	451.62
360.029	472.62
360.256	469.62
360.483	460.62
360.709	480.62
360.936	458.62
361.163	478.62
361.39	463.62
361.616	482.62
361.843	481.62
362.07	474.62
362.296	466.62
362.523	468.62
362.749	477.62
362.976	482.62
363.203	487.62
363.429	480.62
363.656	485.62
363.882	485.62
364.109	464.62
364.335	478.62
364.562	460.62
364.788	469.62
365.015	489.62
365.241	470.62
365.468	442.62
365.694	486.62
365.92	471.62
366.147	462.62
366.373	486.62
366.599	464.62
366.826	467.62
367.052	484.62
367.278	480.62
367.505	487.62
367.731	496.62
367.957	498.62
368.184	484.62
368.41	488.62
368.636	485.62
368.862	494.62
369.089	508.62
369.315	487.62
369.541	499.62
369.767	510.62
369.993	483.62
370.219	501.62
370.445	501.62
370.672	508.62
370.898	490.62
371.124	475.62
371.35	484.62
371.576	494.62
371.802	493.62
372.028	508.62
372.254	528.62
372.48	507.62
372.706	507.62
372.932	504.62
373.158	535.62
373.384	523.62
373.61	544.62
373.835	545.62
374.061	523.62
374.287	523.62
374.513	526.62
374.739	527.62
374.965	540.62
375.191	547.62
375.416	546.62
375.642	534.62
375.868	546.62
376.094	532.62
376.319	516.62
376.545	519.62
376.771	503.62
376.997	528.62
377.222	506.62
377.448	502.62
377.674	480.62
377.899	513.62
378.125	511.62
378.35	494.62
378.576	495.62
378.802	485.62
379.027	497.62
379.253	523.62
379.478	535.62
379.704	515.62
379.929	514.62
380.155	522.62
380.38	523.62
380.606	507.62
380.831	503.62
381.057	520.62
381.282	513.62
381.507	536.62
381.733	526.62
381.958	511.62
382.184	529.62
382.409	510.62
382.634	530.62
382.86	525.62
383.085	553.62
383.31	542.62
383.535	554.62
383.761	541.62
383.986	539.62
384.211	550.62
384.436	536.62
384.662	557.62
384.887	559.62
385.112	563.62
385.337	571.62
385.562	555.62
385.787	563.62
386.013	593.62
386.238	590.62
386.463	547.62
386.688	552.62
386.913	574.62
387.138	561.62
387.363	580.62
387.588	582.62
387.813	574.62
388.038	597.62
388.263	582.62
388.488	594.62
388.713	559.62
388.938	572.62
389.163	569.62
389.387	586.62
389.612	588.62
389.837	597.62
390.062	584.62
390.287	585.62
390.512	558.62
390.736	576.62
390.961	574.62
391.186	583.62
391.411	606.62
391.636	626.62
391.86	589.62
392.085	621.62
392.31	592.62
392.534	616.62
392.759	607.62
392.984	600.62
393.208	592.62
393.433	624.62
393.658	625.62
393.882	604.62
394.107	607.62
394.331	601.62
394.556	611.62
394.78	613.62
395.005	595.62
395.229	609.62
395.454	602.62
395.678	629.62
395.903	652.62
396.127	644.62
396.352	633.62
396.576	639.62
396.801	621.62
397.025	622.62
397.249	628.62
397.474	646.62
397.698	638.62
397.922	666.62
398.147	658.62
398.371	657.62
398.595	668.62
398.82	678.62
399.044	703.62
399.268	691.62
399.492	714.62
399.717	767.62
399.941	752.62
400.165	737.62
400.389	711.62
400.613	723.62
400.837	725.62
401.062	696.62
401.286	682.62
401.51	682.62
401.734	697.62
401.958	690.62
402.182	650.62
402.406	682.62
402.63	658.62
402.854	665.62
403.078	649.62
403.302	671.62
403.526	669.62
403.75	665.62
403.974	683.62
404.198	669.62
404.422	682.62
404.645	681.62
404.869	705.62
405.093	676.62
405.317	704.62
405.541	698.62
405.765	701.62
405.988	704.62
406.212	670.62
406.436	673.62
406.66	719.62
406.883	698.62
407.107	734.62
407.331	733.62
407.555	770.62
407.778	746.62
408.002	780.62
408.226	772.62
408.449	755.62
408.673	746.62
408.896	713.62
409.12	719.62
409.344	721.62
409.567	700.62
409.791	710.62
410.014	709.62
410.238	705.62
410.461	703.62
410.685	715.62
410.908	698.62
411.132	690.62
411.355	694.62
411.578	690.62
411.802	681.62
412.025	705.62
412.249	693.62
412.472	693.62
412.695	691.62
412.919	680.62
413.142	677.62
413.365	681.62
413.589	687.62
413.812	685.62
414.035	678.62
414.258	685.62
414.482	654.62
414.705	679.62
414.928	701.62
415.151	705.62
415.374	683.62
415.597	656.62
415.821	654.62
416.044	656.62
416.267	660.62
416.49	662.62
416.713	635.62
416.936	657.62
417.159	641.62
417.382	671.62
417.605	637.62
417.828	622.62
418.051	640.62
418.274	633.62
418.497	645.62
418.72	646.62
418.943	629.62
419.166	683.62
419.389	706.62
419.611	711.62
419.834	673.62
420.057	663.62
420.28	633.62
420.503	625.62
420.726	642.62
420.948	631.62
421.171	653.62
421.394	641.62
421.617	645.62
421.839	637.62
422.062	647.62
422.285	619.62
422.507	625.62
422.73	652.62
422.953	639.62
423.175	636.62
423.398	631.62
423.621	634.62
423.843	647.62
424.066	615.62
424.288	607.62
424.511	619.62
424.733	614.62
424.956	644.62
425.178	612.62
425.401	635.62
425.623	623.62
425.846	635.62
426.068	635.62
426.291	592.62
426.513	622.62
426.735	627.62
426.958	623.62
427.18	627.62
427.402	611.62
427.625	621.62
427.847	601.62
428.069	614.62
428.292	601.62
428.514	615.62
428.736	594.62
428.958	617.62
429.181	643.62
429.403	611.62
429.625	613.62
429.847	589.62
430.069	616.62
430.292	619.62
430.514	594.62
430.736	585.62
430.958	595.62
431.18	591.62
431.402	587.62
431.624	609.62
431.846	595.62
432.068	611.62
432.29	630.62
432.512	600.62
432.734	621.62
432.956	607.62
433.178	598.62
433.4	581.62
433.622	621.62
433.844	627.62
434.066	625.62
434.287	611.62
434.509	633.62
434.731	645.62
434.953	636.62
435.175	640.62
435.397	619.62
435.618	604.62
435.84	614.62
436.062	605.62
436.284	615.62
436.505	629.62
436.727	623.62
436.949	580.62
437.17	598.62
437.392	598.62
437.614	588.62
437.835	564.62
438.057	606.62
438.278	599.62
438.5	581.62
438.721	598.62
438.943	578.62
439.165	602.62
439.386	587.62
439.608	590.62
439.829	585.62
440.05	596.62
440.272	625.62
440.493	599.62
440.715	613.62
440.936	601.62
441.158	592.62
441.379	594.62
441.6	625.62
441.822	603.62
442.043	599.62
442.264	601.62
442.486	615.62
442.707	625.62
442.928	603.62
443.149	609.62
443.371	624.62
443.592	608.62
443.813	638.62
444.034	646.62
444.255	618.62
444.476	641.62
444.698	623.62
444.919	645.62
445.14	771.62
445.361	683.62
445.582	628.62
445.803	602.62
446.024	612.62
446.245	603.62
446.466	596.62
446.687	570.62
446.908	594.62
447.129	596.62
447.35	570.62
447.571	595.62
447.792	555.62
448.013	554.62
448.234	555.62
448.455	541.62
448.675	553.62
448.896	580.62
449.117	578.62
449.338	551.62
449.559	562.62
449.779	546.62
450	533.62
450.221	550.62
450.442	554.62
450.662	544.62
450.883	548.62
451.104	554.62
451.324	534.62
451.545	554.62
451.766	542.62
451.986	528.62
452.207	553.62
452.428	551.62
452.648	555.62
452.869	560.62
453.089	530.62
453.31	548.62
453.53	529.62
453.751	530.62
453.971	533.62
454.192	535.62
454.412	537.62
454.633	550.62
454.853	553.62
455.073	543.62
455.294	535.62
455.514	523.62
455.734	564.62
455.955	552.62
456.175	549.62
456.395	544.62
456.616	528.62
456.836	539.62
457.056	532.62
457.276	522.62
457.497	565.62
457.717	547.62
457.937	554.62
458.157	553.62
458.377	556.62
458.598	575.62
458.818	592.62
459.038	571.62
459.258	594.62
459.478	575.62
459.698	576.62
459.918	579.62
460.138	614.62
460.358	607.62
460.578	613.62
460.798	613.62
461.018	640.62
461.238	625.62
461.458	619.62
461.678	646.62
461.898	653.62
462.118	620.62
462.338	660.62
462.558	658.62
462.777	661.62
462.997	692.62
463.217	670.62
463.437	692.62
463.657	685.62
463.876	678.62
464.096	687.62
464.316	671.62
464.536	666.62
464.755	678.62
464.975	655.62
465.195	632.62
465.414	633.62
465.634	628.62
465.854	597.62
466.073	598.62
466.293	602.62
466.512	590.62
466.732	583.62
466.951	590.62
467.171	583.62
467.391	581.62
467.61	598.62
467.829	569.62
468.049	590.62
468.268	564.62
468.488	585.62
468.707	584.62
468.927	582.62
469.146	584.62
469.365	595.62
469.585	580.62
469.804	603.62
470.023	591.62
470.243	573.62
470.462	568.62
470.681	595.62
470.901	580.62
471.12	576.62
471.339	575.62
471.558	580.62
471.777	583.62
471.997	592.62
472.216	589.62
472.435	590.62
472.654	594.62
472.873	583.62
473.092	567.62
473.311	574.62
473.53	604.62
473.749	592.62
473.968	596.62
474.187	578.62
474.406	569.62
474.625	592.62
474.844	580.62
475.063	605.62
475.282	581.62
475.501	581.62
475.72	614.62
475.939	607.62
476.158	615.62
476.377	644.62
476.596	623.62
476.814	651.62
477.033	633.62
477.252	635.62
477.471	618.62
477.69	616.62
477.908	649.62
478.127	655.62
478.346	657.62
478.564	643.62
478.783	657.62
479.002	679.62
479.22	660.62
479.439	687.62
479.658	702.62
479.876	659.62
480.095	671.62
480.313	691.62
480.532	689.62
480.751	689.62
480.969	690.62
481.188	685.62
481.406	711.62
481.624	687.62
481.843	691.62
482.061	709.62
482.28	685.62
482.498	707.62
482.717	692.62
482.935	692.62
483.153	671.62
483.372	673.62
483.59	709.62
483.808	693.62
484.027	696.62
484.245	700.62
484.463	697.62
484.681	703.62
484.9	719.62
485.118	746.62
485.336	700.62
485.554	697.62
485.772	714.62
485.99	698.62
486.209	698.62
486.427	712.62
486.645	702.62
486.863	712.62
487.081	703.62
487.299	710.62
487.517	708.62
487.735	693.62
487.953	704.62
488.171	707.62
488.389	699.62
488.607	726.62
488.825	702.62
489.043	724.62
489.261	693.62
489.479	694.62
489.696	723.62
489.914	715.62
490.132	714.62
490.35	724.62
490.568	713.62
490.786	692.62
491.003	704.62
491.221	723.62
491.439	701.62
491.657	745.62
491.874	728.62
492.092	737.62
492.31	703.62
492.527	741.62
492.745	761.62
492.963	736.62
493.18	734.62
493.398	719.62
493.615	722.62
493.833	729.62
494.05	737.62
494.268	762.62
494.485	722.62
494.703	724.62
494.92	743.62
495.138	761.62
495.355	765.62
495.573	767.62
495.79	757.62
496.008	791.62
496.225	794.62
496.442	784.62
496.66	791.62
496.877	784.62
497.094	819.62
497.312	814.62
497.529	821.62
497.746	819.62
497.963	829.62
498.181	871.62
498.398	874.62
498.615	875.62
498.832	942.62
499.049	963.62
499.267	967.62
499.484	1000.62
499.701	1026.62
499.918	1073.62
500.135	1077.62
500.352	1102.62
500.569	1104.62
500.786	1103.62
501.003	1103.62
501.22	1086.62
501.437	1047.62
501.654	1006.62
