Data from Fe(NO3)3@0.1M.TitratingCurve.Agarose3%dH2O.NegLispCup.LampEnergy10.LIBS07252019_HRD10591_16-41-56-334.txt Node
Date: Thu Jul 25 16:41:56 EDT 2019
User: cochatt
Spectrometer: HR+D1059
Trigger mode: 1
Integration Time (sec): 1.000000E-1
Scans to average: 1
Electric dark correction enabled: true
Nonlinearity correction enabled: false
Boxcar width: 0
XAxis mode: Wavelengths
Number of Pixels in Spectrum: 2048
>>>>>Begin Spectral Data<<<<<
223.165	-25.12
223.4	-25.12
223.635	-25.12
223.869	-19.12
224.104	-33.12
224.338	-15.12
224.573	-17.12
224.808	-16.12
225.042	-9.12
225.277	-7.12
225.511	3.88
225.746	-6.12
225.98	14.88
226.215	13.88
226.449	26.88
226.683	20.88
226.918	18.88
227.152	48.88
227.387	34.88
227.621	34.88
227.856	41.88
228.09	37.88
228.324	48.88
228.559	49.88
228.793	47.88
229.027	58.88
229.262	68.88
229.496	70.88
229.73	81.88
229.964	83.88
230.199	74.88
230.433	81.88
230.667	96.88
230.901	90.88
231.136	83.88
231.37	94.88
231.604	97.88
231.838	90.88
232.072	106.88
232.306	88.88
232.541	86.88
232.775	93.88
233.009	88.88
233.243	105.88
233.477	101.88
233.711	91.88
233.945	93.88
234.179	82.88
234.413	85.88
234.647	97.88
234.881	100.88
235.115	99.88
235.349	83.88
235.583	76.88
235.817	83.88
236.051	81.88
236.285	76.88
236.519	84.88
236.753	78.88
236.987	87.88
237.221	81.88
237.455	107.88
237.689	83.88
237.922	88.88
238.156	104.88
238.39	94.88
238.624	94.88
238.858	86.88
239.091	98.88
239.325	89.88
239.559	104.88
239.793	90.88
240.027	100.88
240.26	90.88
240.494	84.88
240.728	96.88
240.961	85.88
241.195	97.88
241.429	105.88
241.662	97.88
241.896	82.88
242.13	94.88
242.363	92.88
242.597	94.88
242.83	103.88
243.064	87.88
243.298	104.88
243.531	105.88
243.765	115.88
243.998	105.88
244.232	105.88
244.465	110.88
244.699	104.88
244.932	93.88
245.166	102.88
245.399	107.88
245.633	91.88
245.866	96.88
246.099	94.88
246.333	109.88
246.566	114.88
246.8	110.88
247.033	101.88
247.266	117.88
247.5	100.88
247.733	103.88
247.966	112.88
248.2	110.88
248.433	107.88
248.666	106.88
248.899	110.88
249.133	113.88
249.366	120.88
249.599	104.88
249.832	104.88
250.066	107.88
250.299	97.88
250.532	104.88
250.765	112.88
250.998	100.88
251.231	120.88
251.465	118.88
251.698	112.88
251.931	108.88
252.164	119.88
252.397	121.88
252.63	117.88
252.863	115.88
253.096	108.88
253.329	121.88
253.562	122.88
253.795	112.88
254.028	120.88
254.261	127.88
254.494	125.88
254.727	107.88
254.96	119.88
255.193	110.88
255.426	112.88
255.659	116.88
255.892	114.88
256.124	131.88
256.357	112.88
256.59	111.88
256.823	103.88
257.056	125.88
257.289	119.88
257.521	126.88
257.754	107.88
257.987	116.88
258.22	105.88
258.452	130.88
258.685	113.88
258.918	116.88
259.151	131.88
259.383	119.88
259.616	114.88
259.849	129.88
260.081	146.88
260.314	134.88
260.547	130.88
260.779	126.88
261.012	122.88
261.244	122.88
261.477	122.88
261.71	131.88
261.942	125.88
262.175	132.88
262.407	128.88
262.64	124.88
262.872	120.88
263.105	126.88
263.337	129.88
263.57	119.88
263.802	123.88
264.035	124.88
264.267	107.88
264.499	128.88
264.732	119.88
264.964	137.88
265.197	131.88
265.429	123.88
265.661	121.88
265.894	118.88
266.126	130.88
266.358	128.88
266.591	124.88
266.823	126.88
267.055	138.88
267.287	124.88
267.52	130.88
267.752	136.88
267.984	132.88
268.216	155.88
268.448	150.88
268.681	129.88
268.913	138.88
269.145	128.88
269.377	131.88
269.609	138.88
269.841	134.88
270.073	140.88
270.306	147.88
270.538	136.88
270.77	123.88
271.002	150.88
271.234	131.88
271.466	128.88
271.698	138.88
271.93	149.88
272.162	149.88
272.394	145.88
272.626	139.88
272.858	137.88
273.09	136.88
273.322	140.88
273.553	137.88
273.785	135.88
274.017	143.88
274.249	152.88
274.481	149.88
274.713	139.88
274.945	146.88
275.176	146.88
275.408	148.88
275.64	156.88
275.872	138.88
276.104	151.88
276.335	150.88
276.567	139.88
276.799	150.88
277.031	133.88
277.262	139.88
277.494	145.88
277.726	132.88
277.957	154.88
278.189	138.88
278.421	137.88
278.652	146.88
278.884	140.88
279.115	138.88
279.347	151.88
279.579	152.88
279.81	141.88
280.042	164.88
280.273	164.88
280.505	148.88
280.736	138.88
280.968	159.88
281.199	160.88
281.431	140.88
281.662	148.88
281.894	157.88
282.125	152.88
282.356	161.88
282.588	152.88
282.819	152.88
283.051	165.88
283.282	152.88
283.513	163.88
283.745	163.88
283.976	161.88
284.207	152.88
284.439	154.88
284.67	153.88
284.901	164.88
285.132	158.88
285.364	155.88
285.595	186.88
285.826	155.88
286.057	166.88
286.288	175.88
286.52	169.88
286.751	170.88
286.982	174.88
287.213	175.88
287.444	166.88
287.675	170.88
287.906	164.88
288.138	179.88
288.369	174.88
288.6	179.88
288.831	174.88
289.062	164.88
289.293	180.88
289.524	167.88
289.755	160.88
289.986	163.88
290.217	171.88
290.448	165.88
290.679	167.88
290.91	158.88
291.141	153.88
291.371	179.88
291.602	178.88
291.833	164.88
292.064	164.88
292.295	170.88
292.526	169.88
292.757	164.88
292.987	162.88
293.218	157.88
293.449	182.88
293.68	174.88
293.91	174.88
294.141	192.88
294.372	164.88
294.603	162.88
294.833	152.88
295.064	167.88
295.295	187.88
295.525	181.88
295.756	182.88
295.987	168.88
296.217	168.88
296.448	167.88
296.679	172.88
296.909	161.88
297.14	184.88
297.37	163.88
297.601	170.88
297.831	181.88
298.062	179.88
298.292	178.88
298.523	186.88
298.753	183.88
298.984	172.88
299.214	180.88
299.445	202.88
299.675	175.88
299.905	169.88
300.136	177.88
300.366	167.88
300.597	186.88
300.827	196.88
301.057	188.88
301.288	190.88
301.518	207.88
301.748	194.88
301.979	186.88
302.209	187.88
302.439	217.88
302.669	187.88
302.9	176.88
303.13	186.88
303.36	188.88
303.59	188.88
303.82	178.88
304.051	186.88
304.281	170.88
304.511	178.88
304.741	163.88
304.971	178.88
305.201	187.88
305.431	201.88
305.661	177.88
305.891	190.88
306.121	197.88
306.352	182.88
306.582	194.88
306.812	171.88
307.042	184.88
307.272	180.88
307.502	176.88
307.731	182.88
307.961	169.88
308.191	190.88
308.421	195.88
308.651	192.88
308.881	199.88
309.111	191.88
309.341	184.88
309.571	194.88
309.8	171.88
310.03	158.88
310.26	191.88
310.49	183.88
310.72	196.88
310.949	195.88
311.179	177.88
311.409	180.88
311.639	183.88
311.868	184.88
312.098	177.88
312.328	194.88
312.557	197.88
312.787	182.88
313.017	179.88
313.246	183.88
313.476	191.88
313.706	197.88
313.935	191.88
314.165	184.88
314.394	199.88
314.624	187.88
314.853	174.88
315.083	198.88
315.312	216.88
315.542	182.88
315.771	192.88
316.001	208.88
316.23	201.88
316.46	182.88
316.689	196.88
316.919	185.88
317.148	190.88
317.377	198.88
317.607	200.88
317.836	190.88
318.065	191.88
318.295	197.88
318.524	199.88
318.753	193.88
318.983	178.88
319.212	194.88
319.441	194.88
319.67	199.88
319.9	183.88
320.129	198.88
320.358	194.88
320.587	210.88
320.816	198.88
321.046	216.88
321.275	202.88
321.504	201.88
321.733	192.88
321.962	213.88
322.191	200.88
322.42	184.88
322.649	199.88
322.878	221.88
323.108	218.88
323.337	200.88
323.566	193.88
323.795	201.88
324.024	208.88
324.253	212.88
324.482	193.88
324.71	198.88
324.939	210.88
325.168	208.88
325.397	213.88
325.626	210.88
325.855	199.88
326.084	206.88
326.313	198.88
326.542	200.88
326.77	201.88
326.999	221.88
327.228	203.88
327.457	198.88
327.686	214.88
327.914	215.88
328.143	216.88
328.372	204.88
328.6	213.88
328.829	220.88
329.058	205.88
329.287	205.88
329.515	201.88
329.744	212.88
329.972	194.88
330.201	227.88
330.43	221.88
330.658	217.88
330.887	229.88
331.115	207.88
331.344	220.88
331.572	229.88
331.801	218.88
332.03	214.88
332.258	233.88
332.486	236.88
332.715	236.88
332.943	250.88
333.172	259.88
333.4	249.88
333.629	238.88
333.857	270.88
334.085	251.88
334.314	230.88
334.542	243.88
334.771	256.88
334.999	259.88
335.227	230.88
335.455	257.88
335.684	260.88
335.912	240.88
336.14	250.88
336.369	225.88
336.597	246.88
336.825	236.88
337.053	242.88
337.281	240.88
337.51	233.88
337.738	215.88
337.966	228.88
338.194	233.88
338.422	231.88
338.65	222.88
338.878	222.88
339.106	223.88
339.334	222.88
339.562	234.88
339.79	227.88
340.018	215.88
340.246	224.88
340.474	222.88
340.702	228.88
340.93	203.88
341.158	217.88
341.386	217.88
341.614	230.88
341.842	238.88
342.07	222.88
342.298	210.88
342.526	228.88
342.754	236.88
342.981	218.88
343.209	219.88
343.437	227.88
343.665	230.88
343.893	240.88
344.12	254.88
344.348	234.88
344.576	254.88
344.804	238.88
345.031	227.88
345.259	220.88
345.487	216.88
345.714	217.88
345.942	221.88
346.17	216.88
346.397	208.88
346.625	205.88
346.853	207.88
347.08	203.88
347.308	219.88
347.535	225.88
347.763	221.88
347.99	217.88
348.218	221.88
348.445	206.88
348.673	194.88
348.9	220.88
349.128	223.88
349.355	202.88
349.583	214.88
349.81	213.88
350.037	177.88
350.265	207.88
350.492	203.88
350.72	205.88
350.947	212.88
351.174	209.88
351.402	212.88
351.629	215.88
351.856	210.88
352.083	201.88
352.311	206.88
352.538	224.88
352.765	202.88
352.992	201.88
353.22	224.88
353.447	214.88
353.674	217.88
353.901	194.88
354.128	213.88
354.355	196.88
354.583	218.88
354.81	208.88
355.037	213.88
355.264	196.88
355.491	212.88
355.718	207.88
355.945	218.88
356.172	213.88
356.399	230.88
356.626	205.88
356.853	213.88
357.08	211.88
357.307	198.88
357.534	203.88
357.761	208.88
357.988	220.88
358.215	212.88
358.441	198.88
358.668	205.88
358.895	209.88
359.122	199.88
359.349	225.88
359.576	202.88
359.802	210.88
360.029	222.88
360.256	211.88
360.483	207.88
360.709	218.88
360.936	211.88
361.163	196.88
361.39	210.88
361.616	212.88
361.843	219.88
362.07	223.88
362.296	233.88
362.523	217.88
362.749	223.88
362.976	197.88
363.203	206.88
363.429	211.88
363.656	204.88
363.882	216.88
364.109	232.88
364.335	203.88
364.562	213.88
364.788	213.88
365.015	208.88
365.241	232.88
365.468	215.88
365.694	224.88
365.92	217.88
366.147	225.88
366.373	224.88
366.599	219.88
366.826	215.88
367.052	211.88
367.278	222.88
367.505	220.88
367.731	224.88
367.957	213.88
368.184	220.88
368.41	214.88
368.636	209.88
368.862	223.88
369.089	234.88
369.315	224.88
369.541	231.88
369.767	222.88
369.993	234.88
370.219	229.88
370.445	244.88
370.672	222.88
370.898	234.88
371.124	232.88
371.35	229.88
371.576	242.88
371.802	205.88
372.028	215.88
372.254	239.88
372.48	222.88
372.706	234.88
372.932	228.88
373.158	243.88
373.384	223.88
373.61	228.88
373.835	234.88
374.061	228.88
374.287	244.88
374.513	240.88
374.739	249.88
374.965	234.88
375.191	252.88
375.416	245.88
375.642	240.88
375.868	226.88
376.094	235.88
376.319	238.88
376.545	243.88
376.771	233.88
376.997	231.88
377.222	238.88
377.448	217.88
377.674	222.88
377.899	219.88
378.125	211.88
378.35	223.88
378.576	238.88
378.802	227.88
379.027	229.88
379.253	227.88
379.478	243.88
379.704	224.88
379.929	234.88
380.155	218.88
380.38	252.88
380.606	236.88
380.831	233.88
381.057	221.88
381.282	222.88
381.507	232.88
381.733	223.88
381.958	231.88
382.184	236.88
382.409	234.88
382.634	241.88
382.86	244.88
383.085	228.88
383.31	237.88
383.535	247.88
383.761	260.88
383.986	252.88
384.211	267.88
384.436	260.88
384.662	258.88
384.887	289.88
385.112	261.88
385.337	256.88
385.562	254.88
385.787	258.88
386.013	275.88
386.238	263.88
386.463	268.88
386.688	275.88
386.913	263.88
387.138	247.88
387.363	250.88
387.588	268.88
387.813	269.88
388.038	268.88
388.263	260.88
388.488	264.88
388.713	264.88
388.938	255.88
389.163	258.88
389.387	263.88
389.612	246.88
389.837	256.88
390.062	275.88
390.287	252.88
390.512	270.88
390.736	266.88
390.961	274.88
391.186	281.88
391.411	275.88
391.636	293.88
391.86	305.88
392.085	296.88
392.31	279.88
392.534	297.88
392.759	283.88
392.984	299.88
393.208	273.88
393.433	284.88
393.658	299.88
393.882	294.88
394.107	278.88
394.331	284.88
394.556	293.88
394.78	280.88
395.005	274.88
395.229	267.88
395.454	300.88
395.678	299.88
395.903	308.88
396.127	302.88
396.352	286.88
396.576	291.88
396.801	278.88
397.025	280.88
397.249	287.88
397.474	286.88
397.698	296.88
397.922	306.88
398.147	293.88
398.371	309.88
398.595	313.88
398.82	321.88
399.044	332.88
399.268	342.88
399.492	415.88
399.717	448.88
399.941	425.88
400.165	388.88
400.389	367.88
400.613	344.88
400.837	330.88
401.062	326.88
401.286	319.88
401.51	331.88
401.734	324.88
401.958	333.88
402.182	322.88
402.406	339.88
402.63	326.88
402.854	334.88
403.078	338.88
403.302	351.88
403.526	361.88
403.75	371.88
403.974	353.88
404.198	371.88
404.422	367.88
404.645	353.88
404.869	363.88
405.093	371.88
405.317	348.88
405.541	350.88
405.765	354.88
405.988	338.88
406.212	345.88
406.436	361.88
406.66	356.88
406.883	351.88
407.107	380.88
407.331	398.88
407.555	403.88
407.778	401.88
408.002	400.88
408.226	407.88
408.449	363.88
408.673	355.88
408.896	353.88
409.12	337.88
409.344	375.88
409.567	366.88
409.791	374.88
410.014	355.88
410.238	363.88
410.461	354.88
410.685	340.88
410.908	346.88
411.132	343.88
411.355	326.88
411.578	353.88
411.802	349.88
412.025	330.88
412.249	343.88
412.472	340.88
412.695	324.88
412.919	323.88
413.142	329.88
413.365	340.88
413.589	320.88
413.812	328.88
414.035	316.88
414.258	315.88
414.482	323.88
414.705	334.88
414.928	315.88
415.151	348.88
415.374	322.88
415.597	326.88
415.821	316.88
416.044	332.88
416.267	342.88
416.49	335.88
416.713	329.88
416.936	332.88
417.159	332.88
417.382	342.88
417.605	339.88
417.828	325.88
418.051	346.88
418.274	316.88
418.497	342.88
418.72	340.88
418.943	364.88
419.166	346.88
419.389	371.88
419.611	360.88
419.834	350.88
420.057	346.88
420.28	334.88
420.503	327.88
420.726	334.88
420.948	345.88
421.171	329.88
421.394	338.88
421.617	344.88
421.839	348.88
422.062	351.88
422.285	338.88
422.507	340.88
422.73	342.88
422.953	338.88
423.175	332.88
423.398	357.88
423.621	345.88
423.843	358.88
424.066	347.88
424.288	350.88
424.511	353.88
424.733	352.88
424.956	336.88
425.178	324.88
425.401	353.88
425.623	335.88
425.846	325.88
426.068	331.88
426.291	325.88
426.513	318.88
426.735	310.88
426.958	317.88
427.18	320.88
427.402	329.88
427.625	314.88
427.847	308.88
428.069	313.88
428.292	306.88
428.514	328.88
428.736	303.88
428.958	299.88
429.181	320.88
429.403	321.88
429.625	295.88
429.847	299.88
430.069	309.88
430.292	297.88
430.514	293.88
430.736	314.88
430.958	320.88
431.18	286.88
431.402	305.88
431.624	314.88
431.846	306.88
432.068	307.88
432.29	297.88
432.512	299.88
432.734	303.88
432.956	307.88
433.178	324.88
433.4	315.88
433.622	307.88
433.844	316.88
434.066	303.88
434.287	299.88
434.509	329.88
434.731	336.88
434.953	323.88
435.175	345.88
435.397	345.88
435.618	305.88
435.84	317.88
436.062	332.88
436.284	304.88
436.505	296.88
436.727	297.88
436.949	334.88
437.17	318.88
437.392	322.88
437.614	307.88
437.835	293.88
438.057	306.88
438.278	311.88
438.5	325.88
438.721	317.88
438.943	332.88
439.165	315.88
439.386	313.88
439.608	320.88
439.829	303.88
440.05	309.88
440.272	312.88
440.493	305.88
440.715	338.88
440.936	348.88
441.158	338.88
441.379	330.88
441.6	370.88
441.822	344.88
442.043	360.88
442.264	338.88
442.486	348.88
442.707	338.88
442.928	361.88
443.149	358.88
443.371	351.88
443.592	333.88
443.813	339.88
444.034	343.88
444.255	359.88
444.476	376.88
444.698	385.88
444.919	385.88
445.14	471.88
445.361	405.88
445.582	353.88
445.803	347.88
446.024	337.88
446.245	345.88
446.466	345.88
446.687	324.88
446.908	330.88
447.129	323.88
447.35	345.88
447.571	323.88
447.792	305.88
448.013	316.88
448.234	346.88
448.455	299.88
448.675	316.88
448.896	338.88
449.117	284.88
449.338	306.88
449.559	318.88
449.779	285.88
450	312.88
450.221	332.88
450.442	322.88
450.662	311.88
450.883	318.88
451.104	299.88
451.324	312.88
451.545	306.88
451.766	299.88
451.986	306.88
452.207	303.88
452.428	306.88
452.648	296.88
452.869	293.88
453.089	288.88
453.31	288.88
453.53	285.88
453.751	278.88
453.971	302.88
454.192	292.88
454.412	279.88
454.633	294.88
454.853	298.88
455.073	297.88
455.294	268.88
455.514	297.88
455.734	293.88
455.955	280.88
456.175	279.88
456.395	289.88
456.616	288.88
456.836	283.88
457.056	280.88
457.276	265.88
457.497	289.88
457.717	280.88
457.937	282.88
458.157	281.88
458.377	280.88
458.598	297.88
458.818	294.88
459.038	296.88
459.258	295.88
459.478	320.88
459.698	307.88
459.918	324.88
460.138	341.88
460.358	342.88
460.578	350.88
460.798	358.88
461.018	356.88
461.238	363.88
461.458	346.88
461.678	352.88
461.898	368.88
462.118	362.88
462.338	377.88
462.558	361.88
462.777	384.88
462.997	426.88
463.217	438.88
463.437	455.88
463.657	404.88
463.876	379.88
464.096	410.88
464.316	394.88
464.536	397.88
464.755	409.88
464.975	366.88
465.195	380.88
465.414	347.88
465.634	331.88
465.854	333.88
466.073	320.88
466.293	317.88
466.512	320.88
466.732	306.88
466.951	309.88
467.171	307.88
467.391	320.88
467.61	312.88
467.829	295.88
468.049	302.88
468.268	314.88
468.488	310.88
468.707	305.88
468.927	306.88
469.146	300.88
469.365	293.88
469.585	292.88
469.804	302.88
470.023	311.88
470.243	321.88
470.462	314.88
470.681	315.88
470.901	327.88
471.12	320.88
471.339	326.88
471.558	304.88
471.777	305.88
471.997	287.88
472.216	312.88
472.435	292.88
472.654	294.88
472.873	300.88
473.092	283.88
473.311	290.88
473.53	306.88
473.749	267.88
473.968	276.88
474.187	294.88
474.406	309.88
474.625	286.88
474.844	300.88
475.063	282.88
475.282	306.88
475.501	303.88
475.72	301.88
475.939	292.88
476.158	286.88
476.377	306.88
476.596	299.88
476.814	302.88
477.033	308.88
477.252	296.88
477.471	312.88
477.69	318.88
477.908	342.88
478.127	347.88
478.346	329.88
478.564	332.88
478.783	329.88
479.002	344.88
479.22	343.88
479.439	350.88
479.658	350.88
479.876	332.88
480.095	315.88
480.313	346.88
480.532	357.88
480.751	359.88
480.969	350.88
481.188	350.88
481.406	344.88
481.624	306.88
481.843	330.88
482.061	311.88
482.28	313.88
482.498	322.88
482.717	311.88
482.935	306.88
483.153	323.88
483.372	337.88
483.59	327.88
483.808	324.88
484.027	324.88
484.245	318.88
484.463	333.88
484.681	331.88
484.9	342.88
485.118	340.88
485.336	337.88
485.554	337.88
485.772	354.88
485.99	335.88
486.209	342.88
486.427	328.88
486.645	341.88
486.863	352.88
487.081	355.88
487.299	321.88
487.517	330.88
487.735	335.88
487.953	331.88
488.171	337.88
488.389	318.88
488.607	347.88
488.825	326.88
489.043	335.88
489.261	339.88
489.479	348.88
489.696	339.88
489.914	348.88
490.132	342.88
490.35	333.88
490.568	339.88
490.786	345.88
491.003	348.88
491.221	353.88
491.439	355.88
491.657	339.88
491.874	338.88
492.092	354.88
492.31	360.88
492.527	347.88
492.745	355.88
492.963	338.88
493.18	332.88
493.398	346.88
493.615	355.88
493.833	382.88
494.05	357.88
494.268	348.88
494.485	370.88
494.703	338.88
494.92	372.88
495.138	332.88
495.355	367.88
495.573	359.88
495.79	342.88
496.008	345.88
496.225	364.88
496.442	363.88
496.66	388.88
496.877	371.88
497.094	366.88
497.312	363.88
497.529	373.88
497.746	383.88
497.963	397.88
498.181	389.88
498.398	425.88
498.615	427.88
498.832	452.88
499.049	471.88
499.267	514.88
499.484	554.88
499.701	607.88
499.918	661.88
500.135	718.88
500.352	810.88
500.569	859.88
500.786	791.88
501.003	745.88
501.22	701.88
501.437	634.88
501.654	555.88
501.871	546.88
502.088	495.88
502.305	476.88
