Data from Fe(NO3)3@0.05M.TitratingCurve.Agarose3%dH2O.NegLispCup.LampEnergy10.LIBS07252019_HRD10591_16-46-49-335.txt Node
Date: Thu Jul 25 16:46:49 EDT 2019
User: cochatt
Spectrometer: HR+D1059
Trigger mode: 1
Integration Time (sec): 1.000000E-1
Scans to average: 1
Electric dark correction enabled: true
Nonlinearity correction enabled: false
Boxcar width: 0
XAxis mode: Wavelengths
Number of Pixels in Spectrum: 2048
>>>>>Begin Spectral Data<<<<<
223.165	-24.94
223.4	-24.94
223.635	-24.94
223.869	-7.94
224.104	-18.94
224.338	-16.94
224.573	-18.94
224.808	-20.94
225.042	-4.94
225.277	-4.94
225.511	-1.94
225.746	-10.94
225.98	16.06
226.215	27.06
226.449	11.06
226.683	19.06
226.918	25.06
227.152	33.06
227.387	23.06
227.621	34.06
227.856	33.06
228.09	43.06
228.324	52.06
228.559	55.06
228.793	72.06
229.027	115.06
229.262	122.06
229.496	120.06
229.73	135.06
229.964	155.06
230.199	147.06
230.433	131.06
230.667	139.06
230.901	150.06
231.136	151.06
231.37	153.06
231.604	167.06
231.838	172.06
232.072	157.06
232.306	169.06
232.541	169.06
232.775	178.06
233.009	179.06
233.243	172.06
233.477	178.06
233.711	181.06
233.945	198.06
234.179	183.06
234.413	181.06
234.647	179.06
234.881	198.06
235.115	191.06
235.349	187.06
235.583	195.06
235.817	184.06
236.051	199.06
236.285	200.06
236.519	199.06
236.753	205.06
236.987	195.06
237.221	204.06
237.455	186.06
237.689	207.06
237.922	208.06
238.156	215.06
238.39	232.06
238.624	267.06
238.858	259.06
239.091	229.06
239.325	236.06
239.559	236.06
239.793	234.06
240.027	266.06
240.26	243.06
240.494	257.06
240.728	250.06
240.961	252.06
241.195	247.06
241.429	262.06
241.662	261.06
241.896	250.06
242.13	237.06
242.363	242.06
242.597	262.06
242.83	263.06
243.064	265.06
243.298	257.06
243.531	266.06
243.765	264.06
243.998	269.06
244.232	265.06
244.465	270.06
244.699	287.06
244.932	281.06
245.166	289.06
245.399	295.06
245.633	271.06
245.866	293.06
246.099	285.06
246.333	281.06
246.566	317.06
246.8	283.06
247.033	304.06
247.266	303.06
247.5	298.06
247.733	308.06
247.966	310.06
248.2	305.06
248.433	340.06
248.666	352.06
248.899	332.06
249.133	340.06
249.366	340.06
249.599	338.06
249.832	351.06
250.066	345.06
250.299	323.06
250.532	343.06
250.765	324.06
250.998	325.06
251.231	324.06
251.465	335.06
251.698	336.06
251.931	353.06
252.164	344.06
252.397	357.06
252.63	367.06
252.863	383.06
253.096	390.06
253.329	379.06
253.562	381.06
253.795	383.06
254.028	410.06
254.261	389.06
254.494	401.06
254.727	385.06
254.96	378.06
255.193	398.06
255.426	419.06
255.659	385.06
255.892	367.06
256.124	384.06
256.357	379.06
256.59	408.06
256.823	411.06
257.056	385.06
257.289	399.06
257.521	388.06
257.754	415.06
257.987	398.06
258.22	418.06
258.452	425.06
258.685	409.06
258.918	436.06
259.151	434.06
259.383	439.06
259.616	438.06
259.849	460.06
260.081	499.06
260.314	536.06
260.547	469.06
260.779	449.06
261.012	463.06
261.244	457.06
261.477	485.06
261.71	491.06
261.942	456.06
262.175	452.06
262.407	465.06
262.64	454.06
262.872	455.06
263.105	477.06
263.337	504.06
263.57	478.06
263.802	462.06
264.035	444.06
264.267	458.06
264.499	471.06
264.732	452.06
264.964	451.06
265.197	454.06
265.429	473.06
265.661	469.06
265.894	465.06
266.126	488.06
266.358	474.06
266.591	454.06
266.823	489.06
267.055	498.06
267.287	465.06
267.52	474.06
267.752	449.06
267.984	486.06
268.216	490.06
268.448	517.06
268.681	503.06
268.913	496.06
269.145	517.06
269.377	521.06
269.609	530.06
269.841	530.06
270.073	510.06
270.306	523.06
270.538	509.06
270.77	519.06
271.002	499.06
271.234	510.06
271.466	529.06
271.698	537.06
271.93	551.06
272.162	541.06
272.394	561.06
272.626	554.06
272.858	541.06
273.09	571.06
273.322	540.06
273.553	556.06
273.785	581.06
274.017	596.06
274.249	609.06
274.481	636.06
274.713	682.06
274.945	677.06
275.176	730.06
275.408	657.06
275.64	673.06
275.872	652.06
276.104	618.06
276.335	589.06
276.567	597.06
276.799	578.06
277.031	601.06
277.262	578.06
277.494	565.06
277.726	607.06
277.957	598.06
278.189	606.06
278.421	598.06
278.652	598.06
278.884	616.06
279.115	603.06
279.347	603.06
279.579	628.06
279.81	614.06
280.042	605.06
280.273	629.06
280.505	610.06
280.736	607.06
280.968	634.06
281.199	613.06
281.431	615.06
281.662	615.06
281.894	632.06
282.125	641.06
282.356	631.06
282.588	638.06
282.819	646.06
283.051	625.06
283.282	645.06
283.513	639.06
283.745	690.06
283.976	646.06
284.207	633.06
284.439	643.06
284.67	644.06
284.901	650.06
285.132	644.06
285.364	676.06
285.595	661.06
285.826	682.06
286.057	663.06
286.288	687.06
286.52	671.06
286.751	682.06
286.982	682.06
287.213	678.06
287.444	675.06
287.675	706.06
287.906	691.06
288.138	694.06
288.369	665.06
288.6	686.06
288.831	712.06
289.062	675.06
289.293	673.06
289.524	689.06
289.755	700.06
289.986	687.06
290.217	684.06
290.448	691.06
290.679	693.06
290.91	682.06
291.141	670.06
291.371	688.06
291.602	700.06
291.833	698.06
292.064	721.06
292.295	707.06
292.526	711.06
292.757	708.06
292.987	697.06
293.218	707.06
293.449	733.06
293.68	726.06
293.91	746.06
294.141	712.06
294.372	728.06
294.603	730.06
294.833	723.06
295.064	732.06
295.295	727.06
295.525	719.06
295.756	717.06
295.987	714.06
296.217	727.06
296.448	731.06
296.679	723.06
296.909	729.06
297.14	731.06
297.37	754.06
297.601	749.06
297.831	755.06
298.062	717.06
298.292	759.06
298.523	773.06
298.753	757.06
298.984	758.06
299.214	773.06
299.445	779.06
299.675	740.06
299.905	781.06
300.136	770.06
300.366	777.06
300.597	773.06
300.827	785.06
301.057	781.06
301.288	785.06
301.518	757.06
301.748	777.06
301.979	809.06
302.209	827.06
302.439	837.06
302.669	822.06
302.9	791.06
303.13	827.06
303.36	836.06
303.59	821.06
303.82	801.06
304.051	829.06
304.281	839.06
304.511	800.06
304.741	821.06
304.971	784.06
305.201	808.06
305.431	823.06
305.661	809.06
305.891	797.06
306.121	803.06
306.352	819.06
306.582	820.06
306.812	821.06
307.042	787.06
307.272	821.06
307.502	809.06
307.731	818.06
307.961	817.06
308.191	809.06
308.421	810.06
308.651	826.06
308.881	803.06
309.111	807.06
309.341	804.06
309.571	816.06
309.8	838.06
310.03	855.06
310.26	836.06
310.49	856.06
310.72	833.06
310.949	833.06
311.179	825.06
311.409	842.06
311.639	806.06
311.868	831.06
312.098	850.06
312.328	858.06
312.557	862.06
312.787	882.06
313.017	824.06
313.246	837.06
313.476	852.06
313.706	852.06
313.935	881.06
314.165	883.06
314.394	870.06
314.624	846.06
314.853	867.06
315.083	838.06
315.312	859.06
315.542	860.06
315.771	896.06
316.001	875.06
316.23	875.06
316.46	892.06
316.689	908.06
316.919	894.06
317.148	909.06
317.377	918.06
317.607	903.06
317.836	898.06
318.065	885.06
318.295	895.06
318.524	921.06
318.753	897.06
318.983	891.06
319.212	902.06
319.441	917.06
319.67	892.06
319.9	912.06
320.129	895.06
320.358	898.06
320.587	923.06
320.816	884.06
321.046	902.06
321.275	895.06
321.504	911.06
321.733	900.06
321.962	933.06
322.191	921.06
322.42	935.06
322.649	939.06
322.878	932.06
323.108	950.06
323.337	926.06
323.566	928.06
323.795	931.06
324.024	929.06
324.253	942.06
324.482	951.06
324.71	950.06
324.939	948.06
325.168	946.06
325.397	965.06
325.626	947.06
325.855	967.06
326.084	974.06
326.313	995.06
326.542	974.06
326.77	989.06
326.999	977.06
327.228	963.06
327.457	964.06
327.686	968.06
327.914	955.06
328.143	979.06
328.372	962.06
328.6	952.06
328.829	976.06
329.058	966.06
329.287	1008.06
329.515	983.06
329.744	1016.06
329.972	994.06
330.201	1002.06
330.43	1015.06
330.658	1009.06
330.887	1017.06
331.115	1001.06
331.344	965.06
331.572	1024.06
331.801	1034.06
332.03	1038.06
332.258	1066.06
332.486	1054.06
332.715	1055.06
332.943	1080.06
333.172	1091.06
333.4	1087.06
333.629	1118.06
333.857	1132.06
334.085	1137.06
334.314	1100.06
334.542	1148.06
334.771	1128.06
334.999	1129.06
335.227	1139.06
335.455	1149.06
335.684	1163.06
335.912	1182.06
336.14	1129.06
336.369	1118.06
336.597	1133.06
336.825	1122.06
337.053	1128.06
337.281	1109.06
337.51	1117.06
337.738	1120.06
337.966	1137.06
338.194	1052.06
338.422	1078.06
338.65	1099.06
338.878	1058.06
339.106	1077.06
339.334	1089.06
339.562	1075.06
339.79	1069.06
340.018	1083.06
340.246	1036.06
340.474	1044.06
340.702	1042.06
340.93	1062.06
341.158	1033.06
341.386	1040.06
341.614	1042.06
341.842	1066.06
342.07	1037.06
342.298	1047.06
342.526	1042.06
342.754	1062.06
342.981	1023.06
343.209	1069.06
343.437	1065.06
343.665	1115.06
343.893	1084.06
344.12	1166.06
344.348	1155.06
344.576	1145.06
344.804	1125.06
345.031	1078.06
345.259	1110.06
345.487	1046.06
345.714	1050.06
345.942	1058.06
346.17	1080.06
346.397	1036.06
346.625	1029.06
346.853	1065.06
347.08	999.06
347.308	980.06
347.535	1006.06
347.763	1010.06
347.99	1007.06
348.218	978.06
348.445	1013.06
348.673	993.06
348.9	990.06
349.128	1001.06
349.355	996.06
349.583	1022.06
349.81	1003.06
350.037	1008.06
350.265	995.06
350.492	1028.06
350.72	1004.06
350.947	988.06
351.174	988.06
351.402	1015.06
351.629	999.06
351.856	1002.06
352.083	1009.06
352.311	984.06
352.538	1003.06
352.765	992.06
352.992	1009.06
353.22	964.06
353.447	976.06
353.674	970.06
353.901	1031.06
354.128	1004.06
354.355	1006.06
354.583	967.06
354.81	993.06
355.037	1003.06
355.264	1005.06
355.491	999.06
355.718	1005.06
355.945	1002.06
356.172	1012.06
356.399	984.06
356.626	1012.06
356.853	1022.06
357.08	1004.06
357.307	1013.06
357.534	989.06
357.761	1013.06
357.988	1021.06
358.215	1003.06
358.441	1061.06
358.668	1044.06
358.895	1010.06
359.122	1016.06
359.349	993.06
359.576	1003.06
359.802	1016.06
360.029	1020.06
360.256	966.06
360.483	1002.06
360.709	1031.06
360.936	1024.06
361.163	1028.06
361.39	1017.06
361.616	1011.06
361.843	1025.06
362.07	1001.06
362.296	1009.06
362.523	1005.06
362.749	982.06
362.976	1013.06
363.203	1057.06
363.429	1045.06
363.656	1012.06
363.882	999.06
364.109	1053.06
364.335	1009.06
364.562	1022.06
364.788	1048.06
365.015	1025.06
365.241	1025.06
365.468	1032.06
365.694	1042.06
365.92	1020.06
366.147	1040.06
366.373	1020.06
366.599	1023.06
366.826	1037.06
367.052	1015.06
367.278	1057.06
367.505	1062.06
367.731	1014.06
367.957	1042.06
368.184	1034.06
368.41	1061.06
368.636	1068.06
368.862	1080.06
369.089	1075.06
369.315	1100.06
369.541	1069.06
369.767	1046.06
369.993	1036.06
370.219	1061.06
370.445	1068.06
370.672	1106.06
370.898	1068.06
371.124	1096.06
371.35	1092.06
371.576	1093.06
371.802	1127.06
372.028	1131.06
372.254	1151.06
372.48	1121.06
372.706	1148.06
372.932	1140.06
373.158	1161.06
373.384	1141.06
373.61	1148.06
373.835	1192.06
374.061	1171.06
374.287	1170.06
374.513	1183.06
374.739	1164.06
374.965	1190.06
375.191	1206.06
375.416	1149.06
375.642	1141.06
375.868	1159.06
376.094	1153.06
376.319	1150.06
376.545	1176.06
376.771	1111.06
376.997	1145.06
377.222	1080.06
377.448	1109.06
377.674	1109.06
377.899	1111.06
378.125	1076.06
378.35	1113.06
378.576	1096.06
378.802	1087.06
379.027	1135.06
379.253	1126.06
379.478	1106.06
379.704	1104.06
379.929	1094.06
380.155	1124.06
380.38	1113.06
380.606	1134.06
380.831	1113.06
381.057	1141.06
381.282	1099.06
381.507	1130.06
381.733	1191.06
381.958	1163.06
382.184	1175.06
382.409	1180.06
382.634	1205.06
382.86	1186.06
383.085	1201.06
383.31	1194.06
383.535	1180.06
383.761	1182.06
383.986	1228.06
384.211	1234.06
384.436	1252.06
384.662	1215.06
384.887	1269.06
385.112	1247.06
385.337	1254.06
385.562	1257.06
385.787	1285.06
386.013	1283.06
386.238	1281.06
386.463	1302.06
386.688	1313.06
386.913	1278.06
387.138	1291.06
387.363	1298.06
387.588	1329.06
387.813	1293.06
388.038	1295.06
388.263	1307.06
388.488	1306.06
388.713	1351.06
388.938	1354.06
389.163	1346.06
389.387	1339.06
389.612	1357.06
389.837	1342.06
390.062	1292.06
390.287	1358.06
390.512	1314.06
390.736	1353.06
390.961	1329.06
391.186	1356.06
391.411	1366.06
391.636	1357.06
391.86	1423.06
392.085	1413.06
392.31	1429.06
392.534	1398.06
392.759	1411.06
392.984	1412.06
393.208	1420.06
393.433	1386.06
393.658	1375.06
393.882	1387.06
394.107	1376.06
394.331	1384.06
394.556	1382.06
394.78	1385.06
395.005	1386.06
395.229	1402.06
395.454	1419.06
395.678	1420.06
395.903	1417.06
396.127	1457.06
396.352	1449.06
396.576	1403.06
396.801	1413.06
397.025	1493.06
397.249	1485.06
397.474	1492.06
397.698	1465.06
397.922	1473.06
398.147	1536.06
398.371	1523.06
398.595	1582.06
398.82	1597.06
399.044	1626.06
399.268	1713.06
399.492	1754.06
399.717	1856.06
399.941	1845.06
400.165	1913.06
400.389	1782.06
400.613	1748.06
400.837	1677.06
401.062	1701.06
401.286	1650.06
401.51	1629.06
401.734	1586.06
401.958	1581.06
402.182	1590.06
402.406	1611.06
402.63	1586.06
402.854	1598.06
403.078	1595.06
403.302	1616.06
403.526	1617.06
403.75	1609.06
403.974	1653.06
404.198	1611.06
404.422	1655.06
404.645	1653.06
404.869	1682.06
405.093	1670.06
405.317	1661.06
405.541	1642.06
405.765	1665.06
405.988	1662.06
406.212	1646.06
406.436	1695.06
406.66	1738.06
406.883	1708.06
407.107	1799.06
407.331	1803.06
407.555	1841.06
407.778	1849.06
408.002	1838.06
408.226	1853.06
408.449	1817.06
408.673	1760.06
408.896	1754.06
409.12	1711.06
409.344	1734.06
409.567	1687.06
409.791	1659.06
410.014	1686.06
410.238	1723.06
410.461	1731.06
410.685	1701.06
410.908	1668.06
411.132	1701.06
411.355	1653.06
411.578	1661.06
411.802	1674.06
412.025	1644.06
412.249	1638.06
412.472	1652.06
412.695	1651.06
412.919	1623.06
413.142	1642.06
413.365	1604.06
413.589	1621.06
413.812	1591.06
414.035	1580.06
414.258	1605.06
414.482	1635.06
414.705	1596.06
414.928	1614.06
415.151	1603.06
415.374	1600.06
415.597	1591.06
415.821	1555.06
416.044	1540.06
416.267	1575.06
416.49	1559.06
416.713	1532.06
416.936	1525.06
417.159	1503.06
417.382	1523.06
417.605	1492.06
417.828	1535.06
418.051	1518.06
418.274	1531.06
418.497	1479.06
418.72	1541.06
418.943	1500.06
419.166	1586.06
419.389	1697.06
419.611	1691.06
419.834	1622.06
420.057	1572.06
420.28	1555.06
420.503	1519.06
420.726	1505.06
420.948	1502.06
421.171	1493.06
421.394	1490.06
421.617	1541.06
421.839	1501.06
422.062	1513.06
422.285	1463.06
422.507	1525.06
422.73	1515.06
422.953	1525.06
423.175	1522.06
423.398	1527.06
423.621	1499.06
423.843	1508.06
424.066	1527.06
424.288	1498.06
424.511	1530.06
424.733	1493.06
424.956	1499.06
425.178	1500.06
425.401	1515.06
425.623	1498.06
425.846	1499.06
426.068	1494.06
426.291	1491.06
426.513	1480.06
426.735	1495.06
426.958	1489.06
427.18	1454.06
427.402	1495.06
427.625	1491.06
427.847	1428.06
428.069	1445.06
428.292	1472.06
428.514	1437.06
428.736	1427.06
428.958	1468.06
429.181	1445.06
429.403	1419.06
429.625	1432.06
429.847	1438.06
430.069	1432.06
430.292	1428.06
430.514	1447.06
430.736	1435.06
430.958	1476.06
431.18	1481.06
431.402	1431.06
431.624	1431.06
431.846	1447.06
432.068	1412.06
432.29	1477.06
432.512	1455.06
432.734	1476.06
432.956	1446.06
433.178	1441.06
433.4	1428.06
433.622	1461.06
433.844	1477.06
434.066	1468.06
434.287	1471.06
434.509	1496.06
434.731	1484.06
434.953	1504.06
435.175	1546.06
435.397	1519.06
435.618	1491.06
435.84	1498.06
436.062	1447.06
436.284	1470.06
436.505	1435.06
436.727	1459.06
436.949	1438.06
437.17	1430.06
437.392	1412.06
437.614	1434.06
437.835	1404.06
438.057	1407.06
438.278	1383.06
438.5	1453.06
438.721	1423.06
438.943	1433.06
439.165	1385.06
439.386	1373.06
439.608	1426.06
439.829	1386.06
440.05	1446.06
440.272	1434.06
440.493	1435.06
440.715	1447.06
440.936	1427.06
441.158	1478.06
441.379	1448.06
441.6	1506.06
441.822	1497.06
442.043	1519.06
442.264	1506.06
442.486	1477.06
442.707	1506.06
442.928	1483.06
443.149	1514.06
443.371	1454.06
443.592	1502.06
443.813	1500.06
444.034	1504.06
444.255	1540.06
444.476	1578.06
444.698	1581.06
444.919	1595.06
445.14	1605.06
445.361	1621.06
445.582	1577.06
445.803	1455.06
446.024	1508.06
446.245	1494.06
446.466	1481.06
446.687	1428.06
446.908	1454.06
447.129	1415.06
447.35	1405.06
447.571	1367.06
447.792	1354.06
448.013	1367.06
448.234	1349.06
448.455	1361.06
448.675	1337.06
448.896	1333.06
449.117	1334.06
449.338	1364.06
449.559	1313.06
449.779	1317.06
450	1308.06
450.221	1362.06
450.442	1330.06
450.662	1334.06
450.883	1318.06
451.104	1302.06
451.324	1310.06
451.545	1324.06
451.766	1288.06
451.986	1325.06
452.207	1319.06
452.428	1278.06
452.648	1292.06
452.869	1268.06
453.089	1275.06
453.31	1284.06
453.53	1238.06
453.751	1243.06
453.971	1230.06
454.192	1286.06
454.412	1246.06
454.633	1265.06
454.853	1277.06
455.073	1251.06
455.294	1248.06
455.514	1256.06
455.734	1241.06
455.955	1237.06
456.175	1228.06
456.395	1256.06
456.616	1278.06
456.836	1294.06
457.056	1289.06
457.276	1231.06
457.497	1263.06
457.717	1266.06
457.937	1285.06
458.157	1295.06
458.377	1275.06
458.598	1321.06
458.818	1350.06
459.038	1395.06
459.258	1367.06
459.478	1405.06
459.698	1452.06
459.918	1463.06
460.138	1477.06
460.358	1525.06
460.578	1518.06
460.798	1528.06
461.018	1547.06
461.238	1547.06
461.458	1611.06
461.678	1567.06
461.898	1633.06
462.118	1602.06
462.338	1629.06
462.558	1690.06
462.777	1669.06
462.997	1753.06
463.217	1760.06
463.437	1816.06
463.657	1746.06
463.876	1750.06
464.096	1751.06
464.316	1706.06
464.536	1715.06
464.755	1685.06
464.975	1661.06
465.195	1567.06
465.414	1591.06
465.634	1500.06
465.854	1510.06
466.073	1463.06
466.293	1429.06
466.512	1441.06
466.732	1441.06
466.951	1445.06
467.171	1417.06
467.391	1421.06
467.61	1376.06
467.829	1385.06
468.049	1389.06
468.268	1358.06
468.488	1356.06
468.707	1345.06
468.927	1384.06
469.146	1413.06
469.365	1388.06
469.585	1361.06
469.804	1409.06
470.023	1398.06
470.243	1413.06
470.462	1404.06
470.681	1399.06
470.901	1443.06
471.12	1430.06
471.339	1386.06
471.558	1388.06
471.777	1416.06
471.997	1391.06
472.216	1390.06
472.435	1406.06
472.654	1351.06
472.873	1377.06
473.092	1416.06
473.311	1389.06
473.53	1350.06
473.749	1377.06
473.968	1350.06
474.187	1367.06
474.406	1399.06
474.625	1359.06
474.844	1402.06
475.063	1406.06
475.282	1418.06
475.501	1411.06
475.72	1425.06
475.939	1398.06
476.158	1441.06
476.377	1461.06
476.596	1487.06
476.814	1532.06
477.033	1509.06
477.252	1506.06
477.471	1485.06
477.69	1531.06
477.908	1532.06
478.127	1538.06
478.346	1562.06
478.564	1630.06
478.783	1646.06
479.002	1602.06
479.22	1622.06
479.439	1698.06
479.658	1653.06
479.876	1667.06
480.095	1669.06
480.313	1699.06
480.532	1715.06
480.751	1703.06
480.969	1671.06
481.188	1677.06
481.406	1672.06
481.624	1667.06
481.843	1619.06
482.061	1625.06
482.28	1659.06
482.498	1683.06
482.717	1607.06
482.935	1624.06
483.153	1624.06
483.372	1596.06
483.59	1611.06
483.808	1651.06
484.027	1577.06
484.245	1666.06
484.463	1610.06
484.681	1677.06
484.9	1679.06
485.118	1672.06
485.336	1634.06
485.554	1630.06
485.772	1699.06
485.99	1657.06
486.209	1634.06
486.427	1662.06
486.645	1660.06
486.863	1722.06
487.081	1683.06
487.299	1673.06
487.517	1738.06
487.735	1676.06
487.953	1699.06
488.171	1695.06
488.389	1665.06
488.607	1659.06
488.825	1646.06
489.043	1655.06
489.261	1665.06
489.479	1682.06
489.696	1676.06
489.914	1640.06
490.132	1671.06
490.35	1669.06
490.568	1693.06
490.786	1702.06
491.003	1684.06
491.221	1726.06
491.439	1701.06
491.657	1711.06
491.874	1687.06
