Data from Fe(NO3)3@0.1M.TitratingCurve.Agarose3%dH2O.NegLispCup.LampEnergy10.LIBS07252019_HRD10591_16-42-20-337.txt Node
Date: Thu Jul 25 16:42:20 EDT 2019
User: cochatt
Spectrometer: HR+D1059
Trigger mode: 1
Integration Time (sec): 1.000000E-1
Scans to average: 1
Electric dark correction enabled: true
Nonlinearity correction enabled: false
Boxcar width: 0
XAxis mode: Wavelengths
Number of Pixels in Spectrum: 2048
>>>>>Begin Spectral Data<<<<<
223.165	-7.88
223.4	-7.88
223.635	-7.88
223.869	-33.88
224.104	-3.88
224.338	0.12
224.573	-17.88
224.808	-4.88
225.042	-16.88
225.277	-1.88
225.511	2.12
225.746	-4.88
225.98	-1.88
226.215	6.12
226.449	16.12
226.683	6.12
226.918	20.12
227.152	43.12
227.387	36.12
227.621	32.12
227.856	45.12
228.09	46.12
228.324	42.12
228.559	56.12
228.793	64.12
229.027	67.12
229.262	94.12
229.496	78.12
229.73	95.12
229.964	108.12
230.199	89.12
230.433	101.12
230.667	110.12
230.901	92.12
231.136	102.12
231.37	83.12
231.604	107.12
231.838	101.12
232.072	87.12
232.306	101.12
232.541	105.12
232.775	98.12
233.009	102.12
233.243	99.12
233.477	109.12
233.711	125.12
233.945	106.12
234.179	112.12
234.413	117.12
234.647	117.12
234.881	93.12
235.115	103.12
235.349	119.12
235.583	110.12
235.817	108.12
236.051	97.12
236.285	111.12
236.519	97.12
236.753	116.12
236.987	116.12
237.221	111.12
237.455	114.12
237.689	110.12
237.922	117.12
238.156	126.12
238.39	105.12
238.624	91.12
238.858	103.12
239.091	117.12
239.325	118.12
239.559	103.12
239.793	119.12
240.027	101.12
240.26	92.12
240.494	113.12
240.728	120.12
240.961	122.12
241.195	121.12
241.429	130.12
241.662	117.12
241.896	128.12
242.13	122.12
242.363	112.12
242.597	120.12
242.83	136.12
243.064	100.12
243.298	126.12
243.531	130.12
243.765	121.12
243.998	126.12
244.232	124.12
244.465	111.12
244.699	118.12
244.932	120.12
245.166	144.12
245.399	133.12
245.633	145.12
245.866	124.12
246.099	129.12
246.333	124.12
246.566	134.12
246.8	129.12
247.033	138.12
247.266	142.12
247.5	135.12
247.733	141.12
247.966	129.12
248.2	141.12
248.433	137.12
248.666	135.12
248.899	155.12
249.133	140.12
249.366	150.12
249.599	154.12
249.832	147.12
250.066	136.12
250.299	142.12
250.532	148.12
250.765	136.12
250.998	139.12
251.231	156.12
251.465	146.12
251.698	136.12
251.931	133.12
252.164	148.12
252.397	134.12
252.63	158.12
252.863	150.12
253.096	153.12
253.329	159.12
253.562	152.12
253.795	153.12
254.028	160.12
254.261	162.12
254.494	163.12
254.727	167.12
254.96	139.12
255.193	166.12
255.426	146.12
255.659	153.12
255.892	163.12
256.124	157.12
256.357	169.12
256.59	165.12
256.823	165.12
257.056	168.12
257.289	159.12
257.521	165.12
257.754	163.12
257.987	154.12
258.22	180.12
258.452	179.12
258.685	162.12
258.918	178.12
259.151	166.12
259.383	178.12
259.616	172.12
259.849	157.12
260.081	166.12
260.314	156.12
260.547	170.12
260.779	181.12
261.012	180.12
261.244	178.12
261.477	174.12
261.71	170.12
261.942	174.12
262.175	163.12
262.407	182.12
262.64	165.12
262.872	170.12
263.105	168.12
263.337	168.12
263.57	179.12
263.802	175.12
264.035	177.12
264.267	180.12
264.499	184.12
264.732	199.12
264.964	169.12
265.197	186.12
265.429	173.12
265.661	182.12
265.894	198.12
266.126	203.12
266.358	185.12
266.591	176.12
266.823	190.12
267.055	170.12
267.287	183.12
267.52	196.12
267.752	201.12
267.984	192.12
268.216	184.12
268.448	184.12
268.681	186.12
268.913	184.12
269.145	193.12
269.377	203.12
269.609	187.12
269.841	193.12
270.073	199.12
270.306	178.12
270.538	178.12
270.77	179.12
271.002	200.12
271.234	184.12
271.466	199.12
271.698	200.12
271.93	198.12
272.162	201.12
272.394	198.12
272.626	199.12
272.858	208.12
273.09	199.12
273.322	198.12
273.553	197.12
273.785	203.12
274.017	200.12
274.249	207.12
274.481	203.12
274.713	219.12
274.945	207.12
275.176	209.12
275.408	212.12
275.64	203.12
275.872	222.12
276.104	219.12
276.335	217.12
276.567	212.12
276.799	203.12
277.031	230.12
277.262	239.12
277.494	230.12
277.726	217.12
277.957	223.12
278.189	208.12
278.421	188.12
278.652	227.12
278.884	209.12
279.115	230.12
279.347	215.12
279.579	223.12
279.81	220.12
280.042	220.12
280.273	241.12
280.505	223.12
280.736	222.12
280.968	222.12
281.199	226.12
281.431	231.12
281.662	222.12
281.894	234.12
282.125	231.12
282.356	233.12
282.588	231.12
282.819	231.12
283.051	237.12
283.282	221.12
283.513	240.12
283.745	234.12
283.976	229.12
284.207	251.12
284.439	251.12
284.67	225.12
284.901	243.12
285.132	232.12
285.364	255.12
285.595	261.12
285.826	230.12
286.057	231.12
286.288	226.12
286.52	255.12
286.751	231.12
286.982	250.12
287.213	252.12
287.444	233.12
287.675	221.12
287.906	246.12
288.138	258.12
288.369	262.12
288.6	258.12
288.831	257.12
289.062	272.12
289.293	228.12
289.524	246.12
289.755	244.12
289.986	262.12
290.217	248.12
290.448	265.12
290.679	263.12
290.91	241.12
291.141	254.12
291.371	250.12
291.602	241.12
291.833	255.12
292.064	240.12
292.295	241.12
292.526	240.12
292.757	255.12
292.987	262.12
293.218	244.12
293.449	246.12
293.68	241.12
293.91	263.12
294.141	255.12
294.372	256.12
294.603	249.12
294.833	257.12
295.064	258.12
295.295	249.12
295.525	269.12
295.756	276.12
295.987	243.12
296.217	283.12
296.448	258.12
296.679	276.12
296.909	261.12
297.14	280.12
297.37	274.12
297.601	282.12
297.831	271.12
298.062	275.12
298.292	279.12
298.523	290.12
298.753	292.12
298.984	278.12
299.214	274.12
299.445	282.12
299.675	273.12
299.905	268.12
300.136	262.12
300.366	292.12
300.597	295.12
300.827	283.12
301.057	289.12
301.288	307.12
301.518	293.12
301.748	285.12
301.979	299.12
302.209	295.12
302.439	276.12
302.669	296.12
302.9	279.12
303.13	266.12
303.36	306.12
303.59	267.12
303.82	307.12
304.051	305.12
304.281	295.12
304.511	279.12
304.741	273.12
304.971	272.12
305.201	293.12
305.431	287.12
305.661	299.12
305.891	293.12
306.121	282.12
306.352	288.12
306.582	306.12
306.812	289.12
307.042	293.12
307.272	276.12
307.502	290.12
307.731	285.12
307.961	282.12
308.191	280.12
308.421	277.12
308.651	289.12
308.881	284.12
309.111	302.12
309.341	290.12
309.571	304.12
309.8	302.12
310.03	292.12
310.26	298.12
310.49	291.12
310.72	283.12
310.949	287.12
311.179	290.12
311.409	285.12
311.639	300.12
311.868	301.12
312.098	298.12
312.328	318.12
312.557	297.12
312.787	298.12
313.017	315.12
313.246	310.12
313.476	304.12
313.706	320.12
313.935	298.12
314.165	303.12
314.394	328.12
314.624	313.12
314.853	316.12
315.083	313.12
315.312	319.12
315.542	315.12
315.771	296.12
316.001	299.12
316.23	292.12
316.46	301.12
316.689	306.12
316.919	291.12
317.148	295.12
317.377	308.12
317.607	315.12
317.836	314.12
318.065	301.12
318.295	317.12
318.524	291.12
318.753	300.12
318.983	304.12
319.212	289.12
319.441	316.12
319.67	318.12
319.9	312.12
320.129	293.12
320.358	316.12
320.587	308.12
320.816	304.12
321.046	310.12
321.275	303.12
321.504	299.12
321.733	312.12
321.962	295.12
322.191	302.12
322.42	306.12
322.649	292.12
322.878	302.12
323.108	315.12
323.337	346.12
323.566	323.12
323.795	306.12
324.024	313.12
324.253	289.12
324.482	305.12
324.71	309.12
324.939	331.12
325.168	321.12
325.397	327.12
325.626	317.12
325.855	312.12
326.084	335.12
326.313	325.12
326.542	346.12
326.77	323.12
326.999	310.12
327.228	326.12
327.457	322.12
327.686	334.12
327.914	316.12
328.143	337.12
328.372	320.12
328.6	332.12
328.829	335.12
329.058	327.12
329.287	335.12
329.515	330.12
329.744	326.12
329.972	341.12
330.201	335.12
330.43	321.12
330.658	330.12
330.887	324.12
331.115	334.12
331.344	341.12
331.572	357.12
331.801	364.12
332.03	360.12
332.258	378.12
332.486	370.12
332.715	348.12
332.943	382.12
333.172	395.12
333.4	427.12
333.629	411.12
333.857	410.12
334.085	413.12
334.314	412.12
334.542	432.12
334.771	407.12
334.999	402.12
335.227	397.12
335.455	393.12
335.684	388.12
335.912	406.12
336.14	393.12
336.369	391.12
336.597	387.12
336.825	395.12
337.053	386.12
337.281	387.12
337.51	376.12
337.738	363.12
337.966	361.12
338.194	376.12
338.422	359.12
338.65	366.12
338.878	370.12
339.106	362.12
339.334	362.12
339.562	358.12
339.79	352.12
340.018	357.12
340.246	362.12
340.474	354.12
340.702	339.12
340.93	341.12
341.158	338.12
341.386	348.12
341.614	341.12
341.842	331.12
342.07	332.12
342.298	343.12
342.526	352.12
342.754	350.12
342.981	344.12
343.209	352.12
343.437	368.12
343.665	386.12
343.893	430.12
344.12	411.12
344.348	386.12
344.576	393.12
344.804	367.12
345.031	328.12
345.259	379.12
345.487	351.12
345.714	362.12
345.942	338.12
346.17	337.12
346.397	322.12
346.625	326.12
346.853	318.12
347.08	329.12
347.308	338.12
347.535	343.12
347.763	340.12
347.99	328.12
348.218	338.12
348.445	323.12
348.673	331.12
348.9	337.12
349.128	333.12
349.355	305.12
349.583	328.12
349.81	335.12
350.037	329.12
350.265	332.12
350.492	310.12
350.72	333.12
350.947	334.12
351.174	337.12
351.402	322.12
351.629	334.12
351.856	340.12
352.083	327.12
352.311	312.12
352.538	319.12
352.765	315.12
352.992	314.12
353.22	320.12
353.447	332.12
353.674	341.12
353.901	318.12
354.128	338.12
354.355	336.12
354.583	309.12
354.81	311.12
355.037	322.12
355.264	344.12
355.491	338.12
355.718	350.12
355.945	308.12
356.172	324.12
356.399	315.12
356.626	322.12
356.853	325.12
357.08	340.12
357.307	335.12
357.534	338.12
357.761	329.12
357.988	331.12
358.215	315.12
358.441	324.12
358.668	319.12
358.895	320.12
359.122	302.12
359.349	321.12
359.576	325.12
359.802	342.12
360.029	328.12
360.256	323.12
360.483	333.12
360.709	309.12
360.936	322.12
361.163	330.12
361.39	326.12
361.616	320.12
361.843	323.12
362.07	324.12
362.296	314.12
362.523	340.12
362.749	342.12
362.976	336.12
363.203	330.12
363.429	360.12
363.656	329.12
363.882	324.12
364.109	331.12
364.335	341.12
364.562	319.12
364.788	338.12
365.015	330.12
365.241	321.12
365.468	332.12
365.694	318.12
365.92	337.12
366.147	325.12
366.373	333.12
366.599	322.12
366.826	339.12
367.052	312.12
367.278	352.12
367.505	338.12
367.731	332.12
367.957	335.12
368.184	333.12
368.41	329.12
368.636	323.12
368.862	362.12
369.089	343.12
369.315	339.12
369.541	348.12
369.767	339.12
369.993	331.12
370.219	350.12
370.445	356.12
370.672	341.12
370.898	331.12
371.124	371.12
371.35	357.12
371.576	347.12
371.802	371.12
372.028	330.12
372.254	350.12
372.48	338.12
372.706	339.12
372.932	394.12
373.158	378.12
373.384	363.12
373.61	358.12
373.835	343.12
374.061	366.12
374.287	354.12
374.513	374.12
374.739	372.12
374.965	394.12
375.191	378.12
375.416	391.12
375.642	383.12
375.868	374.12
376.094	366.12
376.319	376.12
376.545	361.12
376.771	361.12
376.997	363.12
377.222	347.12
377.448	345.12
377.674	350.12
377.899	365.12
378.125	363.12
378.35	362.12
378.576	333.12
378.802	356.12
379.027	354.12
379.253	359.12
379.478	359.12
379.704	340.12
379.929	359.12
380.155	336.12
380.38	353.12
380.606	340.12
380.831	349.12
381.057	349.12
381.282	365.12
381.507	367.12
381.733	361.12
381.958	350.12
382.184	388.12
382.409	382.12
382.634	363.12
382.86	363.12
383.085	375.12
383.31	389.12
383.535	373.12
383.761	390.12
383.986	386.12
384.211	411.12
384.436	416.12
384.662	438.12
384.887	423.12
385.112	410.12
385.337	427.12
385.562	444.12
385.787	432.12
386.013	427.12
386.238	426.12
386.463	422.12
386.688	414.12
386.913	430.12
387.138	432.12
387.363	422.12
387.588	425.12
387.813	425.12
388.038	424.12
388.263	420.12
388.488	435.12
388.713	426.12
388.938	415.12
389.163	416.12
389.387	410.12
389.612	426.12
389.837	410.12
390.062	396.12
390.287	429.12
390.512	417.12
390.736	435.12
390.961	416.12
391.186	450.12
391.411	426.12
391.636	446.12
391.86	464.12
392.085	467.12
392.31	455.12
392.534	457.12
392.759	463.12
392.984	442.12
393.208	471.12
393.433	428.12
393.658	445.12
393.882	465.12
394.107	452.12
394.331	440.12
394.556	448.12
394.78	458.12
395.005	451.12
395.229	466.12
395.454	482.12
395.678	489.12
395.903	471.12
396.127	497.12
396.352	451.12
396.576	447.12
396.801	440.12
397.025	435.12
397.249	456.12
397.474	476.12
397.698	463.12
397.922	482.12
398.147	453.12
398.371	452.12
398.595	489.12
398.82	515.12
399.044	552.12
399.268	607.12
399.492	675.12
399.717	713.12
399.941	754.12
400.165	661.12
400.389	590.12
400.613	584.12
400.837	549.12
401.062	519.12
401.286	515.12
401.51	531.12
401.734	515.12
401.958	522.12
402.182	526.12
402.406	513.12
402.63	564.12
402.854	547.12
403.078	572.12
403.302	579.12
403.526	599.12
403.75	595.12
403.974	599.12
404.198	589.12
404.422	584.12
404.645	589.12
404.869	568.12
405.093	597.12
405.317	552.12
405.541	583.12
405.765	559.12
405.988	554.12
406.212	558.12
406.436	577.12
406.66	595.12
406.883	584.12
407.107	628.12
407.331	664.12
407.555	660.12
407.778	687.12
408.002	642.12
408.226	611.12
408.449	650.12
408.673	594.12
408.896	609.12
409.12	603.12
409.344	607.12
409.567	601.12
409.791	613.12
410.014	584.12
410.238	577.12
410.461	591.12
410.685	583.12
410.908	546.12
411.132	564.12
411.355	534.12
411.578	553.12
411.802	554.12
412.025	570.12
412.249	567.12
412.472	542.12
412.695	540.12
412.919	522.12
413.142	546.12
413.365	517.12
413.589	534.12
413.812	542.12
414.035	503.12
414.258	541.12
414.482	539.12
414.705	563.12
414.928	550.12
415.151	552.12
415.374	536.12
415.597	561.12
415.821	516.12
416.044	516.12
416.267	534.12
416.49	541.12
416.713	502.12
416.936	524.12
417.159	524.12
417.382	519.12
417.605	518.12
417.828	519.12
418.051	517.12
418.274	519.12
418.497	512.12
418.72	543.12
418.943	550.12
419.166	577.12
419.389	606.12
419.611	576.12
419.834	558.12
420.057	538.12
420.28	526.12
420.503	528.12
420.726	527.12
420.948	521.12
421.171	524.12
421.394	547.12
421.617	535.12
421.839	543.12
422.062	540.12
422.285	536.12
422.507	541.12
422.73	540.12
422.953	533.12
423.175	565.12
423.398	573.12
423.621	532.12
423.843	560.12
424.066	551.12
424.288	551.12
424.511	559.12
424.733	534.12
424.956	536.12
425.178	533.12
425.401	543.12
425.623	535.12
425.846	531.12
426.068	511.12
426.291	515.12
426.513	493.12
426.735	510.12
426.958	489.12
427.18	484.12
427.402	514.12
427.625	484.12
427.847	491.12
428.069	483.12
428.292	490.12
428.514	489.12
428.736	500.12
428.958	477.12
429.181	486.12
429.403	459.12
429.625	466.12
429.847	479.12
430.069	448.12
430.292	471.12
430.514	476.12
430.736	474.12
430.958	471.12
431.18	478.12
431.402	466.12
431.624	462.12
431.846	470.12
432.068	485.12
432.29	468.12
432.512	463.12
432.734	477.12
432.956	479.12
433.178	499.12
433.4	504.12
433.622	499.12
433.844	485.12
434.066	490.12
434.287	483.12
434.509	506.12
434.731	530.12
434.953	532.12
435.175	533.12
435.397	516.12
435.618	511.12
435.84	491.12
436.062	507.12
436.284	484.12
436.505	507.12
436.727	484.12
436.949	484.12
437.17	474.12
437.392	488.12
437.614	472.12
437.835	473.12
438.057	464.12
438.278	460.12
438.5	458.12
438.721	476.12
438.943	494.12
439.165	475.12
439.386	478.12
439.608	492.12
439.829	495.12
440.05	508.12
440.272	494.12
440.493	525.12
440.715	507.12
440.936	498.12
441.158	512.12
441.379	500.12
441.6	520.12
441.822	555.12
442.043	559.12
442.264	535.12
442.486	501.12
442.707	531.12
442.928	521.12
443.149	534.12
443.371	537.12
443.592	527.12
443.813	571.12
444.034	584.12
444.255	560.12
444.476	587.12
444.698	596.12
444.919	640.12
445.14	696.12
445.361	624.12
445.582	554.12
445.803	539.12
446.024	522.12
446.245	523.12
446.466	544.12
446.687	513.12
446.908	507.12
447.129	481.12
447.35	479.12
447.571	476.12
447.792	478.12
448.013	475.12
448.234	443.12
448.455	458.12
448.675	455.12
448.896	466.12
449.117	455.12
449.338	462.12
449.559	461.12
449.779	453.12
450	448.12
450.221	442.12
450.442	466.12
450.662	470.12
450.883	451.12
451.104	451.12
451.324	480.12
451.545	456.12
451.766	454.12
451.986	468.12
452.207	447.12
452.428	434.12
452.648	460.12
452.869	455.12
453.089	433.12
453.31	448.12
453.53	439.12
453.751	416.12
453.971	438.12
454.192	444.12
454.412	410.12
454.633	424.12
454.853	432.12
455.073	434.12
455.294	440.12
455.514	428.12
455.734	416.12
455.955	423.12
456.175	426.12
456.395	426.12
456.616	409.12
456.836	412.12
457.056	430.12
457.276	422.12
457.497	416.12
457.717	407.12
457.937	406.12
458.157	426.12
458.377	435.12
458.598	425.12
458.818	442.12
459.038	475.12
459.258	458.12
459.478	470.12
459.698	498.12
459.918	501.12
460.138	546.12
460.358	545.12
460.578	543.12
460.798	563.12
461.018	559.12
461.238	551.12
461.458	542.12
461.678	562.12
461.898	578.12
462.118	555.12
462.338	571.12
462.558	622.12
462.777	642.12
462.997	654.12
463.217	714.12
463.437	725.12
463.657	660.12
463.876	634.12
464.096	640.12
464.316	624.12
464.536	647.12
464.755	597.12
464.975	598.12
465.195	558.12
465.414	525.12
465.634	496.12
465.854	503.12
466.073	490.12
466.293	492.12
466.512	468.12
466.732	472.12
466.951	458.12
467.171	465.12
467.391	458.12
467.61	476.12
467.829	458.12
468.049	452.12
468.268	439.12
468.488	438.12
468.707	443.12
468.927	455.12
469.146	455.12
469.365	445.12
469.585	456.12
469.804	462.12
470.023	502.12
470.243	484.12
470.462	482.12
470.681	478.12
470.901	466.12
471.12	491.12
471.339	471.12
471.558	459.12
471.777	474.12
471.997	463.12
472.216	449.12
472.435	445.12
472.654	425.12
472.873	426.12
473.092	433.12
473.311	445.12
473.53	437.12
473.749	433.12
473.968	438.12
474.187	430.12
474.406	423.12
474.625	443.12
474.844	462.12
475.063	434.12
475.282	450.12
475.501	429.12
475.72	440.12
475.939	448.12
476.158	445.12
476.377	443.12
476.596	464.12
476.814	469.12
477.033	442.12
477.252	455.12
477.471	460.12
477.69	465.12
477.908	494.12
478.127	520.12
478.346	513.12
478.564	516.12
478.783	515.12
479.002	520.12
479.22	522.12
479.439	534.12
479.658	494.12
479.876	493.12
480.095	518.12
480.313	564.12
480.532	557.12
480.751	551.12
480.969	524.12
481.188	510.12
481.406	494.12
481.624	480.12
481.843	498.12
482.061	497.12
482.28	489.12
482.498	500.12
482.717	471.12
482.935	487.12
483.153	474.12
483.372	495.12
483.59	485.12
483.808	495.12
484.027	523.12
484.245	493.12
484.463	490.12
484.681	534.12
484.9	514.12
485.118	515.12
485.336	502.12
485.554	512.12
485.772	503.12
485.99	520.12
486.209	512.12
486.427	503.12
486.645	545.12
486.863	529.12
487.081	513.12
487.299	512.12
487.517	506.12
487.735	530.12
487.953	538.12
488.171	495.12
488.389	504.12
488.607	519.12
488.825	518.12
489.043	502.12
489.261	501.12
489.479	508.12
489.696	527.12
489.914	505.12
490.132	511.12
490.35	507.12
490.568	518.12
490.786	517.12
491.003	523.12
491.221	534.12
491.439	516.12
491.657	520.12
491.874	520.12
492.092	508.12
492.31	528.12
492.527	537.12
492.745	540.12
492.963	524.12
493.18	543.12
493.398	535.12
493.615	534.12
493.833	503.12
494.05	518.12
494.268	539.12
494.485	540.12
494.703	540.12
494.92	530.12
495.138	536.12
495.355	526.12
495.573	532.12
495.79	544.12
496.008	555.12
496.225	537.12
496.442	565.12
496.66	534.12
496.877	561.12
497.094	578.12
497.312	579.12
497.529	581.12
497.746	596.12
497.963	619.12
498.181	617.12
498.398	670.12
498.615	696.12
498.832	728.12
499.049	775.12
499.267	851.12
499.484	914.12
499.701	993.12
499.918	1082.12
500.135	1250.12
500.352	1348.12
500.569	1415.12
500.786	1422.12
501.003	1311.12
501.22	1166.12
501.437	1051.12
501.654	943.12
501.871	878.12
