Data from Fe(NO3)3@0.1M.TitratingCurve.Agarose3%dH2O.NegLispCup.LampEnergy10.LIBS07252019_HRD10591_16-39-47-332.txt Node
Date: Thu Jul 25 16:39:47 EDT 2019
User: cochatt
Spectrometer: HR+D1059
Trigger mode: 1
Integration Time (sec): 1.000000E-1
Scans to average: 1
Electric dark correction enabled: true
Nonlinearity correction enabled: false
Boxcar width: 0
XAxis mode: Wavelengths
Number of Pixels in Spectrum: 2048
>>>>>Begin Spectral Data<<<<<
223.165	-18.5
223.4	-18.5
223.635	-18.5
223.869	-26.5
224.104	-18.5
224.338	-12.5
224.573	-18.5
224.808	-10.5
225.042	-15.5
225.277	-3.5
225.511	-2.5
225.746	1.5
225.98	6.5
226.215	-2.5
226.449	20.5
226.683	28.5
226.918	36.5
227.152	35.5
227.387	24.5
227.621	43.5
227.856	58.5
228.09	53.5
228.324	45.5
228.559	64.5
228.793	54.5
229.027	78.5
229.262	72.5
229.496	66.5
229.73	78.5
229.964	87.5
230.199	77.5
230.433	81.5
230.667	84.5
230.901	92.5
231.136	93.5
231.37	103.5
231.604	96.5
231.838	101.5
232.072	91.5
232.306	105.5
232.541	107.5
232.775	99.5
233.009	96.5
233.243	99.5
233.477	90.5
233.711	81.5
233.945	90.5
234.179	100.5
234.413	93.5
234.647	103.5
234.881	91.5
235.115	72.5
235.349	97.5
235.583	91.5
235.817	90.5
236.051	91.5
236.285	96.5
236.519	88.5
236.753	82.5
236.987	92.5
237.221	90.5
237.455	98.5
237.689	101.5
237.922	90.5
238.156	92.5
238.39	105.5
238.624	99.5
238.858	100.5
239.091	112.5
239.325	96.5
239.559	99.5
239.793	107.5
240.027	91.5
240.26	94.5
240.494	99.5
240.728	82.5
240.961	100.5
241.195	107.5
241.429	105.5
241.662	94.5
241.896	104.5
242.13	98.5
242.363	96.5
242.597	94.5
242.83	91.5
243.064	87.5
243.298	97.5
243.531	104.5
243.765	103.5
243.998	108.5
244.232	94.5
244.465	91.5
244.699	98.5
244.932	109.5
245.166	110.5
245.399	100.5
245.633	116.5
245.866	86.5
246.099	106.5
246.333	96.5
246.566	113.5
246.8	100.5
247.033	101.5
247.266	106.5
247.5	117.5
247.733	101.5
247.966	119.5
248.2	102.5
248.433	114.5
248.666	101.5
248.899	122.5
249.133	119.5
249.366	108.5
249.599	122.5
249.832	117.5
250.066	90.5
250.299	112.5
250.532	119.5
250.765	115.5
250.998	114.5
251.231	130.5
251.465	97.5
251.698	108.5
251.931	123.5
252.164	120.5
252.397	125.5
252.63	116.5
252.863	106.5
253.096	114.5
253.329	109.5
253.562	102.5
253.795	119.5
254.028	122.5
254.261	125.5
254.494	114.5
254.727	117.5
254.96	112.5
255.193	123.5
255.426	121.5
255.659	128.5
255.892	133.5
256.124	126.5
256.357	107.5
256.59	132.5
256.823	128.5
257.056	130.5
257.289	119.5
257.521	130.5
257.754	132.5
257.987	119.5
258.22	128.5
258.452	121.5
258.685	128.5
258.918	128.5
259.151	121.5
259.383	128.5
259.616	138.5
259.849	129.5
260.081	126.5
260.314	121.5
260.547	124.5
260.779	133.5
261.012	132.5
261.244	135.5
261.477	118.5
261.71	140.5
261.942	135.5
262.175	139.5
262.407	137.5
262.64	150.5
262.872	123.5
263.105	122.5
263.337	147.5
263.57	126.5
263.802	139.5
264.035	122.5
264.267	115.5
264.499	134.5
264.732	132.5
264.964	123.5
265.197	129.5
265.429	134.5
265.661	137.5
265.894	136.5
266.126	148.5
266.358	142.5
266.591	146.5
266.823	137.5
267.055	128.5
267.287	133.5
267.52	146.5
267.752	137.5
267.984	134.5
268.216	148.5
268.448	135.5
268.681	133.5
268.913	147.5
269.145	121.5
269.377	143.5
269.609	127.5
269.841	157.5
270.073	141.5
270.306	139.5
270.538	148.5
270.77	144.5
271.002	142.5
271.234	134.5
271.466	148.5
271.698	139.5
271.93	138.5
272.162	155.5
272.394	128.5
272.626	125.5
272.858	134.5
273.09	141.5
273.322	136.5
273.553	150.5
273.785	167.5
274.017	148.5
274.249	147.5
274.481	149.5
274.713	153.5
274.945	160.5
275.176	168.5
275.408	158.5
275.64	156.5
275.872	143.5
276.104	146.5
276.335	157.5
276.567	156.5
276.799	137.5
277.031	147.5
277.262	162.5
277.494	152.5
277.726	152.5
277.957	183.5
278.189	153.5
278.421	154.5
278.652	151.5
278.884	153.5
279.115	160.5
279.347	154.5
279.579	150.5
279.81	165.5
280.042	155.5
280.273	166.5
280.505	160.5
280.736	161.5
280.968	155.5
281.199	164.5
281.431	149.5
281.662	153.5
281.894	155.5
282.125	166.5
282.356	159.5
282.588	175.5
282.819	168.5
283.051	156.5
283.282	165.5
283.513	156.5
283.745	163.5
283.976	162.5
284.207	169.5
284.439	165.5
284.67	163.5
284.901	174.5
285.132	165.5
285.364	151.5
285.595	173.5
285.826	155.5
286.057	157.5
286.288	165.5
286.52	156.5
286.751	168.5
286.982	165.5
287.213	166.5
287.444	177.5
287.675	184.5
287.906	186.5
288.138	169.5
288.369	171.5
288.6	167.5
288.831	179.5
289.062	172.5
289.293	178.5
289.524	174.5
289.755	181.5
289.986	170.5
290.217	172.5
290.448	174.5
290.679	187.5
290.91	180.5
291.141	178.5
291.371	180.5
291.602	173.5
291.833	178.5
292.064	180.5
292.295	187.5
292.526	192.5
292.757	180.5
292.987	163.5
293.218	165.5
293.449	182.5
293.68	172.5
293.91	192.5
294.141	179.5
294.372	165.5
294.603	197.5
294.833	171.5
295.064	193.5
295.295	196.5
295.525	180.5
295.756	194.5
295.987	188.5
296.217	195.5
296.448	178.5
296.679	182.5
296.909	177.5
297.14	170.5
297.37	187.5
297.601	188.5
297.831	186.5
298.062	195.5
298.292	190.5
298.523	186.5
298.753	207.5
298.984	180.5
299.214	193.5
299.445	190.5
299.675	173.5
299.905	191.5
300.136	175.5
300.366	206.5
300.597	178.5
300.827	186.5
301.057	193.5
301.288	196.5
301.518	196.5
301.748	190.5
301.979	200.5
302.209	214.5
302.439	182.5
302.669	201.5
302.9	194.5
303.13	177.5
303.36	200.5
303.59	207.5
303.82	194.5
304.051	205.5
304.281	186.5
304.511	203.5
304.741	194.5
304.971	193.5
305.201	204.5
305.431	200.5
305.661	186.5
305.891	193.5
306.121	184.5
306.352	199.5
306.582	189.5
306.812	185.5
307.042	172.5
307.272	184.5
307.502	182.5
307.731	191.5
307.961	190.5
308.191	214.5
308.421	188.5
308.651	194.5
308.881	191.5
309.111	188.5
309.341	180.5
309.571	196.5
309.8	193.5
310.03	209.5
310.26	211.5
310.49	192.5
310.72	198.5
310.949	193.5
311.179	205.5
311.409	200.5
311.639	222.5
311.868	194.5
312.098	199.5
312.328	195.5
312.557	193.5
312.787	214.5
313.017	189.5
313.246	205.5
313.476	206.5
313.706	187.5
313.935	224.5
314.165	199.5
314.394	206.5
314.624	203.5
314.853	201.5
315.083	188.5
315.312	216.5
315.542	209.5
315.771	194.5
316.001	213.5
316.23	205.5
316.46	208.5
316.689	185.5
316.919	186.5
317.148	188.5
317.377	206.5
317.607	212.5
317.836	207.5
318.065	192.5
318.295	195.5
318.524	211.5
318.753	205.5
318.983	197.5
319.212	195.5
319.441	189.5
319.67	212.5
319.9	204.5
320.129	209.5
320.358	212.5
320.587	219.5
320.816	218.5
321.046	208.5
321.275	214.5
321.504	200.5
321.733	194.5
321.962	210.5
322.191	206.5
322.42	217.5
322.649	196.5
322.878	210.5
323.108	215.5
323.337	209.5
323.566	206.5
323.795	217.5
324.024	200.5
324.253	196.5
324.482	187.5
324.71	201.5
324.939	203.5
325.168	212.5
325.397	211.5
325.626	206.5
325.855	219.5
326.084	205.5
326.313	215.5
326.542	233.5
326.77	226.5
326.999	212.5
327.228	209.5
327.457	222.5
327.686	212.5
327.914	217.5
328.143	222.5
328.372	205.5
328.6	228.5
328.829	218.5
329.058	202.5
329.287	199.5
329.515	225.5
329.744	209.5
329.972	219.5
330.201	227.5
330.43	216.5
330.658	225.5
330.887	215.5
331.115	238.5
331.344	233.5
331.572	231.5
331.801	230.5
332.03	236.5
332.258	252.5
332.486	247.5
332.715	248.5
332.943	274.5
333.172	281.5
333.4	274.5
333.629	263.5
333.857	278.5
334.085	277.5
334.314	278.5
334.542	265.5
334.771	260.5
334.999	254.5
335.227	258.5
335.455	264.5
335.684	274.5
335.912	260.5
336.14	267.5
336.369	269.5
336.597	247.5
336.825	237.5
337.053	254.5
337.281	237.5
337.51	253.5
337.738	248.5
337.966	248.5
338.194	238.5
338.422	225.5
338.65	231.5
338.878	232.5
339.106	245.5
339.334	256.5
339.562	230.5
339.79	229.5
340.018	229.5
340.246	225.5
340.474	237.5
340.702	223.5
340.93	227.5
341.158	235.5
341.386	234.5
341.614	241.5
341.842	223.5
342.07	233.5
342.298	222.5
342.526	218.5
342.754	227.5
342.981	226.5
343.209	247.5
343.437	231.5
343.665	229.5
343.893	257.5
344.12	274.5
344.348	258.5
344.576	255.5
344.804	241.5
345.031	221.5
345.259	236.5
345.487	221.5
345.714	217.5
345.942	217.5
346.17	232.5
346.397	234.5
346.625	242.5
346.853	221.5
347.08	217.5
347.308	216.5
347.535	212.5
347.763	204.5
347.99	231.5
348.218	218.5
348.445	242.5
348.673	234.5
348.9	211.5
349.128	226.5
349.355	236.5
349.583	229.5
349.81	218.5
350.037	232.5
350.265	225.5
350.492	209.5
350.72	229.5
350.947	199.5
351.174	231.5
351.402	236.5
351.629	229.5
351.856	234.5
352.083	228.5
352.311	227.5
352.538	230.5
352.765	228.5
352.992	204.5
353.22	210.5
353.447	194.5
353.674	226.5
353.901	234.5
354.128	220.5
354.355	224.5
354.583	217.5
354.81	222.5
355.037	221.5
355.264	223.5
355.491	226.5
355.718	218.5
355.945	205.5
356.172	226.5
356.399	221.5
356.626	226.5
356.853	218.5
357.08	226.5
357.307	231.5
357.534	233.5
357.761	239.5
357.988	210.5
358.215	232.5
358.441	242.5
358.668	219.5
358.895	214.5
359.122	236.5
359.349	224.5
359.576	210.5
359.802	231.5
360.029	231.5
360.256	213.5
360.483	240.5
360.709	232.5
360.936	224.5
361.163	240.5
361.39	225.5
361.616	230.5
361.843	232.5
362.07	214.5
362.296	233.5
362.523	211.5
362.749	237.5
362.976	221.5
363.203	212.5
363.429	236.5
363.656	215.5
363.882	227.5
364.109	209.5
364.335	234.5
364.562	236.5
364.788	209.5
365.015	228.5
365.241	216.5
365.468	219.5
365.694	220.5
365.92	233.5
366.147	230.5
366.373	217.5
366.599	217.5
366.826	224.5
367.052	227.5
367.278	217.5
367.505	235.5
367.731	214.5
367.957	244.5
368.184	232.5
368.41	214.5
368.636	222.5
368.862	217.5
369.089	240.5
369.315	222.5
369.541	255.5
369.767	232.5
369.993	223.5
370.219	219.5
370.445	236.5
370.672	245.5
370.898	230.5
371.124	226.5
371.35	241.5
371.576	234.5
371.802	232.5
372.028	236.5
372.254	253.5
372.48	247.5
372.706	237.5
372.932	266.5
373.158	243.5
373.384	243.5
373.61	267.5
373.835	244.5
374.061	256.5
374.287	253.5
374.513	243.5
374.739	256.5
374.965	257.5
375.191	252.5
375.416	258.5
375.642	257.5
375.868	257.5
376.094	256.5
376.319	260.5
376.545	249.5
376.771	250.5
376.997	246.5
377.222	241.5
377.448	262.5
377.674	264.5
377.899	231.5
378.125	222.5
378.35	247.5
378.576	232.5
378.802	250.5
379.027	250.5
379.253	236.5
379.478	247.5
379.704	231.5
379.929	233.5
380.155	258.5
380.38	236.5
380.606	239.5
380.831	227.5
381.057	260.5
381.282	249.5
381.507	244.5
381.733	263.5
381.958	260.5
382.184	259.5
382.409	255.5
382.634	259.5
382.86	263.5
383.085	281.5
383.31	261.5
383.535	264.5
383.761	284.5
383.986	265.5
384.211	290.5
384.436	267.5
384.662	268.5
384.887	273.5
385.112	292.5
385.337	287.5
385.562	291.5
385.787	285.5
386.013	294.5
386.238	289.5
386.463	283.5
386.688	287.5
386.913	280.5
387.138	297.5
387.363	298.5
387.588	273.5
387.813	290.5
388.038	287.5
388.263	294.5
388.488	298.5
388.713	291.5
388.938	282.5
389.163	281.5
389.387	281.5
389.612	282.5
389.837	275.5
390.062	281.5
390.287	283.5
390.512	300.5
390.736	290.5
390.961	284.5
391.186	300.5
391.411	297.5
391.636	284.5
391.86	315.5
392.085	317.5
392.31	310.5
392.534	306.5
392.759	301.5
392.984	308.5
393.208	321.5
393.433	282.5
393.658	304.5
393.882	297.5
394.107	306.5
394.331	312.5
394.556	308.5
394.78	307.5
395.005	325.5
395.229	310.5
395.454	332.5
395.678	317.5
395.903	325.5
396.127	315.5
396.352	307.5
396.576	317.5
396.801	315.5
397.025	315.5
397.249	313.5
397.474	304.5
397.698	309.5
397.922	324.5
398.147	302.5
398.371	324.5
398.595	345.5
398.82	347.5
399.044	370.5
399.268	397.5
399.492	444.5
399.717	452.5
399.941	458.5
400.165	411.5
400.389	388.5
400.613	374.5
400.837	375.5
401.062	347.5
401.286	355.5
401.51	348.5
401.734	342.5
401.958	341.5
402.182	350.5
402.406	358.5
402.63	351.5
402.854	353.5
403.078	380.5
403.302	389.5
403.526	370.5
403.75	376.5
403.974	397.5
404.198	400.5
404.422	386.5
404.645	400.5
404.869	389.5
405.093	362.5
405.317	360.5
405.541	380.5
405.765	374.5
405.988	368.5
406.212	375.5
406.436	374.5
406.66	380.5
406.883	393.5
407.107	421.5
407.331	423.5
407.555	432.5
407.778	419.5
408.002	422.5
408.226	427.5
408.449	413.5
408.673	401.5
408.896	387.5
409.12	377.5
409.344	402.5
409.567	392.5
409.791	395.5
410.014	398.5
410.238	384.5
410.461	393.5
410.685	378.5
410.908	374.5
411.132	381.5
411.355	378.5
411.578	382.5
411.802	369.5
412.025	372.5
412.249	372.5
412.472	370.5
412.695	364.5
412.919	354.5
413.142	336.5
413.365	359.5
413.589	384.5
413.812	381.5
414.035	372.5
414.258	354.5
414.482	374.5
414.705	352.5
414.928	354.5
415.151	366.5
415.374	370.5
415.597	376.5
415.821	339.5
416.044	344.5
416.267	352.5
416.49	337.5
416.713	358.5
416.936	344.5
417.159	348.5
417.382	345.5
417.605	347.5
417.828	347.5
418.051	371.5
418.274	360.5
418.497	344.5
418.72	354.5
418.943	378.5
419.166	373.5
419.389	394.5
419.611	398.5
419.834	363.5
420.057	374.5
420.28	331.5
420.503	343.5
420.726	349.5
420.948	350.5
421.171	349.5
421.394	371.5
421.617	358.5
421.839	346.5
422.062	352.5
422.285	354.5
422.507	368.5
422.73	351.5
422.953	359.5
423.175	330.5
423.398	366.5
423.621	352.5
423.843	383.5
424.066	360.5
424.288	362.5
424.511	364.5
424.733	357.5
424.956	376.5
425.178	369.5
425.401	357.5
425.623	358.5
425.846	351.5
426.068	348.5
426.291	354.5
426.513	334.5
426.735	341.5
426.958	360.5
427.18	316.5
427.402	331.5
427.625	350.5
427.847	334.5
428.069	304.5
428.292	340.5
428.514	319.5
428.736	330.5
428.958	347.5
429.181	316.5
429.403	313.5
429.625	313.5
429.847	305.5
430.069	324.5
430.292	324.5
430.514	337.5
430.736	320.5
430.958	316.5
431.18	331.5
431.402	336.5
431.624	317.5
431.846	314.5
432.068	328.5
432.29	307.5
432.512	328.5
432.734	332.5
432.956	323.5
433.178	327.5
433.4	326.5
433.622	328.5
433.844	322.5
434.066	326.5
434.287	334.5
434.509	341.5
434.731	344.5
434.953	365.5
435.175	351.5
435.397	348.5
435.618	338.5
435.84	354.5
436.062	339.5
436.284	329.5
436.505	346.5
436.727	332.5
436.949	314.5
437.17	338.5
437.392	336.5
437.614	321.5
437.835	325.5
438.057	307.5
438.278	312.5
438.5	312.5
438.721	332.5
438.943	324.5
439.165	335.5
439.386	330.5
439.608	344.5
439.829	343.5
440.05	332.5
440.272	337.5
440.493	364.5
440.715	344.5
440.936	362.5
441.158	372.5
441.379	368.5
441.6	360.5
441.822	357.5
442.043	361.5
442.264	368.5
442.486	346.5
442.707	351.5
442.928	366.5
443.149	392.5
443.371	385.5
443.592	374.5
443.813	370.5
444.034	398.5
444.255	378.5
444.476	376.5
444.698	403.5
444.919	414.5
445.14	477.5
445.361	432.5
445.582	375.5
445.803	364.5
446.024	349.5
446.245	361.5
446.466	357.5
446.687	355.5
446.908	347.5
447.129	341.5
447.35	337.5
447.571	329.5
447.792	324.5
448.013	356.5
448.234	328.5
448.455	314.5
448.675	316.5
448.896	328.5
449.117	316.5
449.338	304.5
449.559	317.5
449.779	324.5
450	332.5
450.221	307.5
450.442	318.5
450.662	336.5
450.883	314.5
451.104	330.5
451.324	311.5
451.545	316.5
451.766	307.5
451.986	317.5
452.207	327.5
452.428	309.5
452.648	314.5
452.869	312.5
453.089	310.5
453.31	316.5
453.53	300.5
453.751	286.5
453.971	316.5
454.192	289.5
454.412	298.5
454.633	301.5
454.853	313.5
455.073	314.5
455.294	320.5
455.514	307.5
455.734	306.5
455.955	302.5
456.175	287.5
456.395	293.5
456.616	283.5
456.836	306.5
457.056	307.5
457.276	290.5
457.497	283.5
457.717	297.5
457.937	293.5
458.157	294.5
458.377	298.5
458.598	301.5
458.818	299.5
459.038	313.5
459.258	335.5
459.478	341.5
459.698	350.5
459.918	348.5
460.138	343.5
460.358	350.5
460.578	392.5
460.798	367.5
461.018	389.5
461.238	401.5
461.458	388.5
461.678	373.5
461.898	391.5
462.118	379.5
462.338	404.5
462.558	380.5
462.777	393.5
462.997	438.5
463.217	484.5
463.437	458.5
463.657	427.5
463.876	443.5
464.096	436.5
464.316	437.5
464.536	426.5
464.755	406.5
464.975	405.5
465.195	384.5
465.414	370.5
465.634	343.5
465.854	342.5
466.073	326.5
466.293	324.5
466.512	352.5
466.732	341.5
466.951	336.5
467.171	329.5
467.391	350.5
467.61	345.5
467.829	325.5
468.049	332.5
468.268	307.5
468.488	329.5
468.707	312.5
468.927	330.5
469.146	316.5
469.365	307.5
469.585	311.5
469.804	312.5
470.023	336.5
470.243	340.5
470.462	345.5
470.681	340.5
470.901	346.5
471.12	340.5
471.339	330.5
471.558	330.5
471.777	340.5
471.997	352.5
472.216	325.5
472.435	293.5
472.654	308.5
472.873	298.5
473.092	297.5
473.311	316.5
473.53	310.5
473.749	301.5
473.968	307.5
474.187	292.5
474.406	306.5
474.625	324.5
474.844	321.5
475.063	318.5
475.282	307.5
475.501	308.5
475.72	308.5
475.939	321.5
476.158	316.5
476.377	323.5
476.596	339.5
476.814	300.5
477.033	296.5
477.252	323.5
477.471	338.5
477.69	316.5
477.908	351.5
478.127	353.5
478.346	346.5
478.564	341.5
478.783	363.5
479.002	352.5
479.22	357.5
479.439	372.5
479.658	356.5
479.876	345.5
480.095	364.5
480.313	385.5
480.532	403.5
480.751	392.5
480.969	348.5
481.188	361.5
481.406	343.5
481.624	345.5
481.843	349.5
482.061	320.5
482.28	348.5
482.498	333.5
482.717	334.5
482.935	352.5
483.153	355.5
483.372	340.5
483.59	335.5
483.808	352.5
484.027	361.5
484.245	344.5
484.463	329.5
484.681	333.5
484.9	358.5
485.118	363.5
485.336	347.5
485.554	345.5
485.772	344.5
485.99	338.5
486.209	352.5
486.427	353.5
486.645	376.5
486.863	351.5
487.081	368.5
487.299	336.5
487.517	349.5
487.735	343.5
487.953	352.5
488.171	356.5
488.389	366.5
488.607	361.5
488.825	356.5
489.043	348.5
489.261	349.5
489.479	333.5
489.696	360.5
489.914	352.5
490.132	347.5
490.35	345.5
490.568	346.5
490.786	380.5
491.003	368.5
491.221	345.5
491.439	368.5
491.657	369.5
491.874	380.5
492.092	368.5
492.31	364.5
492.527	374.5
492.745	376.5
492.963	372.5
493.18	385.5
493.398	370.5
493.615	377.5
493.833	346.5
494.05	378.5
494.268	398.5
494.485	368.5
494.703	370.5
494.92	379.5
495.138	370.5
495.355	353.5
495.573	390.5
495.79	373.5
496.008	380.5
496.225	379.5
496.442	389.5
496.66	378.5
496.877	392.5
497.094	409.5
497.312	404.5
497.529	408.5
497.746	415.5
497.963	419.5
498.181	440.5
498.398	459.5
498.615	458.5
498.832	498.5
499.049	518.5
499.267	593.5
499.484	606.5
499.701	677.5
499.918	688.5
500.135	762.5
500.352	836.5
500.569	874.5
500.786	875.5
501.003	794.5
501.22	728.5
501.437	694.5
501.654	621.5
501.871	575.5
502.088	524.5
502.305	492.5
502.522	481.5
502.739	470.5
502.956	460.5
503.172	443.5
503.389	426.5
503.606	416.5
503.823	410.5
504.04	398.5
504.256	423.5
504.473	392.5
504.69	399.5
504.907	398.5
505.123	381.5
505.34	372.5
505.557	370.5
505.773	383.5
505.99	354.5
506.207	352.5
506.423	340.5
506.64	338.5
506.856	346.5
507.073	332.5
507.289	345.5
507.506	324.5
507.722	314.5
507.939	345.5
508.155	325.5
508.372	310.5
508.588	305.5
508.805	314.5
509.021	319.5
509.238	310.5
509.454	318.5
509.67	317.5
509.887	309.5
510.103	322.5
510.319	312.5
510.536	304.5
510.752	297.5
510.968	308.5
511.184	288.5
511.401	320.5
511.617	315.5
511.833	307.5
512.049	299.5
512.265	292.5
512.481	295.5
512.698	306.5
512.914	301.5
513.13	304.5
513.346	304.5
513.562	296.5
513.778	295.5
513.994	305.5
514.21	310.5
514.426	322.5
514.642	306.5
514.858	319.5
515.074	306.5
515.29	321.5
515.506	332.5
515.721	315.5
515.937	317.5
516.153	329.5
516.369	327.5
516.585	330.5
516.801	331.5
517.016	355.5
517.232	364.5
517.448	387.5
517.664	391.5
517.879	387.5
518.095	382.5
518.311	388.5
518.527	368.5
518.742	355.5
518.958	354.5
519.173	345.5
519.389	340.5
519.605	300.5
519.82	321.5
520.036	324.5
520.251	318.5
