Data from Fe(NO3)3@0.05M.TitratingCurve.Agarose3%dH2O.NegLispCup.LampEnergy10.LIBS07252019_HRD10591_16-47-01-334.txt Node
Date: Thu Jul 25 16:47:01 EDT 2019
User: cochatt
Spectrometer: HR+D1059
Trigger mode: 1
Integration Time (sec): 1.000000E-1
Scans to average: 1
Electric dark correction enabled: true
Nonlinearity correction enabled: false
Boxcar width: 0
XAxis mode: Wavelengths
Number of Pixels in Spectrum: 2048
>>>>>Begin Spectral Data<<<<<
223.165	-9.62
223.4	-9.62
223.635	-9.62
223.869	-26.62
224.104	-12.62
224.338	-22.62
224.573	-12.62
224.808	-7.62
225.042	-10.62
225.277	-18.62
225.511	-3.62
225.746	20.38
225.98	-0.62
226.215	8.38
226.449	14.38
226.683	20.38
226.918	32.38
227.152	29.38
227.387	30.38
227.621	43.38
227.856	35.38
228.09	43.38
228.324	51.38
228.559	52.38
228.793	72.38
229.027	115.38
229.262	107.38
229.496	114.38
229.73	108.38
229.964	118.38
230.199	118.38
230.433	136.38
230.667	122.38
230.901	127.38
231.136	126.38
231.37	136.38
231.604	124.38
231.838	141.38
232.072	136.38
232.306	137.38
232.541	139.38
232.775	140.38
233.009	135.38
233.243	141.38
233.477	128.38
233.711	159.38
233.945	142.38
234.179	142.38
234.413	148.38
234.647	153.38
234.881	170.38
235.115	154.38
235.349	161.38
235.583	135.38
235.817	132.38
236.051	157.38
236.285	158.38
236.519	154.38
236.753	155.38
236.987	160.38
237.221	161.38
237.455	152.38
237.689	173.38
237.922	162.38
238.156	162.38
238.39	176.38
238.624	186.38
238.858	182.38
239.091	173.38
239.325	188.38
239.559	174.38
239.793	177.38
240.027	190.38
240.26	196.38
240.494	190.38
240.728	199.38
240.961	187.38
241.195	193.38
241.429	202.38
241.662	190.38
241.896	182.38
242.13	179.38
242.363	181.38
242.597	177.38
242.83	196.38
243.064	193.38
243.298	200.38
243.531	184.38
243.765	194.38
243.998	206.38
244.232	207.38
244.465	208.38
244.699	211.38
244.932	201.38
245.166	216.38
245.399	201.38
245.633	196.38
245.866	201.38
246.099	212.38
246.333	210.38
246.566	223.38
246.8	225.38
247.033	225.38
247.266	228.38
247.5	210.38
247.733	203.38
247.966	211.38
248.2	221.38
248.433	235.38
248.666	236.38
248.899	220.38
249.133	225.38
249.366	245.38
249.599	232.38
249.832	266.38
250.066	234.38
250.299	240.38
250.532	237.38
250.765	237.38
250.998	253.38
251.231	255.38
251.465	244.38
251.698	260.38
251.931	248.38
252.164	260.38
252.397	240.38
252.63	265.38
252.863	281.38
253.096	274.38
253.329	260.38
253.562	285.38
253.795	285.38
254.028	286.38
254.261	270.38
254.494	285.38
254.727	254.38
254.96	257.38
255.193	263.38
255.426	283.38
255.659	262.38
255.892	284.38
256.124	276.38
256.357	271.38
256.59	291.38
256.823	290.38
257.056	268.38
257.289	305.38
257.521	283.38
257.754	284.38
257.987	278.38
258.22	288.38
258.452	290.38
258.685	300.38
258.918	283.38
259.151	302.38
259.383	316.38
259.616	300.38
259.849	306.38
260.081	346.38
260.314	361.38
260.547	324.38
260.779	349.38
261.012	327.38
261.244	315.38
261.477	321.38
261.71	333.38
261.942	328.38
262.175	329.38
262.407	328.38
262.64	323.38
262.872	334.38
263.105	336.38
263.337	353.38
263.57	350.38
263.802	340.38
264.035	314.38
264.267	325.38
264.499	334.38
264.732	320.38
264.964	318.38
265.197	333.38
265.429	334.38
265.661	322.38
265.894	314.38
266.126	335.38
266.358	344.38
266.591	344.38
266.823	341.38
267.055	336.38
267.287	340.38
267.52	332.38
267.752	345.38
267.984	347.38
268.216	335.38
268.448	347.38
268.681	349.38
268.913	351.38
269.145	359.38
269.377	373.38
269.609	354.38
269.841	344.38
270.073	364.38
270.306	363.38
270.538	355.38
270.77	357.38
271.002	363.38
271.234	365.38
271.466	375.38
271.698	388.38
271.93	377.38
272.162	365.38
272.394	369.38
272.626	394.38
272.858	375.38
273.09	381.38
273.322	391.38
273.553	382.38
273.785	397.38
274.017	415.38
274.249	430.38
274.481	440.38
274.713	450.38
274.945	456.38
275.176	457.38
275.408	427.38
275.64	438.38
275.872	442.38
276.104	416.38
276.335	397.38
276.567	415.38
276.799	405.38
277.031	429.38
277.262	431.38
277.494	404.38
277.726	391.38
277.957	404.38
278.189	429.38
278.421	411.38
278.652	410.38
278.884	406.38
279.115	414.38
279.347	405.38
279.579	445.38
279.81	404.38
280.042	435.38
280.273	422.38
280.505	439.38
280.736	440.38
280.968	432.38
281.199	436.38
281.431	434.38
281.662	449.38
281.894	427.38
282.125	433.38
282.356	421.38
282.588	439.38
282.819	444.38
283.051	439.38
283.282	461.38
283.513	435.38
283.745	421.38
283.976	439.38
284.207	453.38
284.439	441.38
284.67	450.38
284.901	475.38
285.132	450.38
285.364	450.38
285.595	470.38
285.826	468.38
286.057	440.38
286.288	449.38
286.52	457.38
286.751	459.38
286.982	476.38
287.213	470.38
287.444	470.38
287.675	472.38
287.906	467.38
288.138	480.38
288.369	461.38
288.6	477.38
288.831	450.38
289.062	489.38
289.293	477.38
289.524	469.38
289.755	493.38
289.986	492.38
290.217	485.38
290.448	479.38
290.679	479.38
290.91	480.38
291.141	469.38
291.371	512.38
291.602	474.38
291.833	486.38
292.064	468.38
292.295	482.38
292.526	493.38
292.757	506.38
292.987	467.38
293.218	488.38
293.449	485.38
293.68	469.38
293.91	487.38
294.141	489.38
294.372	457.38
294.603	502.38
294.833	490.38
295.064	490.38
295.295	498.38
295.525	489.38
295.756	502.38
295.987	500.38
296.217	523.38
296.448	521.38
296.679	495.38
296.909	506.38
297.14	522.38
297.37	528.38
297.601	490.38
297.831	530.38
298.062	501.38
298.292	510.38
298.523	544.38
298.753	512.38
298.984	520.38
299.214	544.38
299.445	537.38
299.675	545.38
299.905	538.38
300.136	530.38
300.366	542.38
300.597	518.38
300.827	545.38
301.057	556.38
301.288	557.38
301.518	541.38
301.748	556.38
301.979	568.38
302.209	566.38
302.439	579.38
302.669	546.38
302.9	564.38
303.13	533.38
303.36	555.38
303.59	579.38
303.82	568.38
304.051	560.38
304.281	577.38
304.511	555.38
304.741	541.38
304.971	541.38
305.201	555.38
305.431	549.38
305.661	562.38
305.891	562.38
306.121	547.38
306.352	556.38
306.582	552.38
306.812	566.38
307.042	571.38
307.272	553.38
307.502	550.38
307.731	566.38
307.961	564.38
308.191	547.38
308.421	527.38
308.651	546.38
308.881	577.38
309.111	556.38
309.341	560.38
309.571	544.38
309.8	558.38
310.03	570.38
310.26	586.38
310.49	594.38
310.72	588.38
310.949	578.38
311.179	584.38
311.409	566.38
311.639	578.38
311.868	596.38
312.098	621.38
312.328	570.38
312.557	582.38
312.787	601.38
313.017	573.38
313.246	597.38
313.476	593.38
313.706	599.38
313.935	617.38
314.165	618.38
314.394	612.38
314.624	624.38
314.853	588.38
315.083	618.38
315.312	581.38
315.542	631.38
315.771	622.38
316.001	605.38
316.23	584.38
316.46	597.38
316.689	617.38
316.919	626.38
317.148	626.38
317.377	609.38
317.607	603.38
317.836	617.38
318.065	628.38
318.295	629.38
318.524	642.38
318.753	618.38
318.983	609.38
319.212	605.38
319.441	627.38
319.67	594.38
319.9	624.38
320.129	610.38
320.358	616.38
320.587	601.38
320.816	618.38
321.046	602.38
321.275	628.38
321.504	634.38
321.733	619.38
321.962	622.38
322.191	609.38
322.42	624.38
322.649	618.38
322.878	632.38
323.108	632.38
323.337	613.38
323.566	635.38
323.795	620.38
324.024	635.38
324.253	626.38
324.482	643.38
324.71	640.38
324.939	638.38
325.168	642.38
325.397	659.38
325.626	657.38
325.855	657.38
326.084	669.38
326.313	659.38
326.542	658.38
326.77	675.38
326.999	672.38
327.228	637.38
327.457	650.38
327.686	675.38
327.914	660.38
328.143	667.38
328.372	637.38
328.6	674.38
328.829	674.38
329.058	684.38
329.287	682.38
329.515	686.38
329.744	674.38
329.972	690.38
330.201	678.38
330.43	690.38
330.658	694.38
330.887	708.38
331.115	686.38
331.344	699.38
331.572	695.38
331.801	695.38
332.03	737.38
332.258	738.38
332.486	772.38
332.715	761.38
332.943	741.38
333.172	749.38
333.4	759.38
333.629	816.38
333.857	812.38
334.085	808.38
334.314	803.38
334.542	791.38
334.771	809.38
334.999	799.38
335.227	784.38
335.455	780.38
335.684	807.38
335.912	809.38
336.14	787.38
336.369	777.38
336.597	775.38
336.825	781.38
337.053	807.38
337.281	772.38
337.51	756.38
337.738	764.38
337.966	770.38
338.194	758.38
338.422	768.38
338.65	740.38
338.878	700.38
339.106	712.38
339.334	753.38
339.562	742.38
339.79	732.38
340.018	723.38
340.246	721.38
340.474	730.38
340.702	705.38
340.93	714.38
341.158	719.38
341.386	716.38
341.614	706.38
341.842	708.38
342.07	717.38
342.298	708.38
342.526	698.38
342.754	690.38
342.981	716.38
343.209	685.38
343.437	765.38
343.665	750.38
343.893	798.38
344.12	804.38
344.348	794.38
344.576	777.38
344.804	776.38
345.031	745.38
345.259	740.38
345.487	718.38
345.714	707.38
345.942	710.38
346.17	705.38
346.397	699.38
346.625	669.38
346.853	665.38
347.08	699.38
347.308	683.38
347.535	685.38
347.763	706.38
347.99	674.38
348.218	691.38
348.445	690.38
348.673	658.38
348.9	681.38
349.128	677.38
349.355	675.38
349.583	684.38
349.81	682.38
350.037	665.38
350.265	688.38
350.492	700.38
350.72	656.38
350.947	680.38
351.174	677.38
351.402	673.38
351.629	680.38
351.856	686.38
352.083	682.38
352.311	692.38
352.538	660.38
352.765	666.38
352.992	664.38
353.22	661.38
353.447	680.38
353.674	680.38
353.901	661.38
354.128	688.38
354.355	688.38
354.583	688.38
354.81	663.38
355.037	663.38
355.264	673.38
355.491	674.38
355.718	668.38
355.945	675.38
356.172	684.38
356.399	684.38
356.626	689.38
356.853	696.38
357.08	675.38
357.307	686.38
357.534	661.38
357.761	694.38
357.988	688.38
358.215	722.38
358.441	686.38
358.668	677.38
358.895	658.38
359.122	684.38
359.349	704.38
359.576	681.38
359.802	700.38
360.029	665.38
360.256	690.38
360.483	690.38
360.709	681.38
360.936	731.38
361.163	700.38
361.39	697.38
361.616	685.38
361.843	726.38
362.07	672.38
362.296	681.38
362.523	674.38
362.749	689.38
362.976	682.38
363.203	697.38
363.429	708.38
363.656	713.38
363.882	669.38
364.109	678.38
364.335	689.38
364.562	695.38
364.788	689.38
365.015	703.38
365.241	694.38
365.468	694.38
365.694	681.38
365.92	698.38
366.147	680.38
366.373	692.38
366.599	678.38
366.826	711.38
367.052	677.38
367.278	706.38
367.505	704.38
367.731	689.38
367.957	698.38
368.184	697.38
368.41	701.38
368.636	747.38
368.862	686.38
369.089	724.38
369.315	710.38
369.541	726.38
369.767	724.38
369.993	703.38
370.219	717.38
370.445	722.38
370.672	755.38
370.898	717.38
371.124	730.38
371.35	763.38
371.576	757.38
371.802	750.38
372.028	777.38
372.254	792.38
372.48	744.38
372.706	786.38
372.932	784.38
373.158	764.38
373.384	779.38
373.61	807.38
373.835	833.38
374.061	807.38
374.287	796.38
374.513	800.38
374.739	811.38
374.965	836.38
375.191	830.38
375.416	792.38
375.642	806.38
375.868	808.38
376.094	816.38
376.319	791.38
376.545	785.38
376.771	781.38
376.997	744.38
377.222	754.38
377.448	724.38
377.674	747.38
377.899	768.38
378.125	750.38
378.35	744.38
378.576	738.38
378.802	741.38
379.027	715.38
379.253	746.38
379.478	742.38
379.704	771.38
379.929	749.38
380.155	750.38
380.38	756.38
380.606	786.38
380.831	754.38
381.057	791.38
381.282	786.38
381.507	768.38
381.733	797.38
381.958	762.38
382.184	804.38
382.409	801.38
382.634	825.38
382.86	821.38
383.085	810.38
383.31	820.38
383.535	792.38
383.761	828.38
383.986	823.38
384.211	842.38
384.436	876.38
384.662	834.38
384.887	873.38
385.112	861.38
385.337	850.38
385.562	858.38
385.787	869.38
386.013	891.38
386.238	914.38
386.463	904.38
386.688	874.38
386.913	874.38
387.138	887.38
387.363	906.38
387.588	887.38
387.813	890.38
388.038	890.38
388.263	885.38
388.488	911.38
388.713	888.38
388.938	919.38
389.163	886.38
389.387	895.38
389.612	898.38
389.837	931.38
390.062	898.38
390.287	920.38
390.512	898.38
390.736	908.38
390.961	943.38
391.186	940.38
391.411	960.38
391.636	975.38
391.86	995.38
392.085	970.38
392.31	992.38
392.534	964.38
392.759	970.38
392.984	944.38
393.208	953.38
393.433	967.38
393.658	935.38
393.882	953.38
394.107	932.38
394.331	932.38
394.556	975.38
394.78	961.38
395.005	976.38
395.229	965.38
395.454	991.38
395.678	1001.38
395.903	999.38
396.127	1002.38
396.352	951.38
396.576	974.38
396.801	980.38
397.025	988.38
397.249	1012.38
397.474	999.38
397.698	993.38
397.922	1021.38
398.147	1009.38
398.371	1039.38
398.595	1067.38
398.82	1093.38
399.044	1153.38
399.268	1188.38
399.492	1280.38
399.717	1366.38
399.941	1402.38
400.165	1310.38
400.389	1221.38
400.613	1206.38
400.837	1150.38
401.062	1153.38
401.286	1120.38
401.51	1119.38
401.734	1101.38
401.958	1101.38
402.182	1107.38
402.406	1107.38
402.63	1136.38
402.854	1138.38
403.078	1137.38
403.302	1107.38
403.526	1152.38
403.75	1142.38
403.974	1176.38
404.198	1148.38
404.422	1166.38
404.645	1184.38
404.869	1182.38
405.093	1175.38
405.317	1190.38
405.541	1160.38
405.765	1162.38
405.988	1186.38
406.212	1195.38
406.436	1185.38
406.66	1239.38
406.883	1227.38
407.107	1280.38
407.331	1308.38
407.555	1332.38
407.778	1309.38
408.002	1272.38
408.226	1294.38
408.449	1291.38
408.673	1248.38
408.896	1231.38
409.12	1232.38
409.344	1218.38
409.567	1225.38
409.791	1216.38
410.014	1211.38
410.238	1202.38
410.461	1192.38
410.685	1216.38
410.908	1178.38
411.132	1194.38
411.355	1123.38
411.578	1148.38
411.802	1164.38
412.025	1156.38
412.249	1161.38
412.472	1204.38
412.695	1139.38
412.919	1138.38
413.142	1132.38
413.365	1120.38
413.589	1140.38
413.812	1091.38
414.035	1111.38
414.258	1129.38
414.482	1108.38
414.705	1117.38
414.928	1127.38
415.151	1127.38
415.374	1100.38
415.597	1111.38
415.821	1094.38
416.044	1049.38
416.267	1100.38
416.49	1095.38
416.713	1081.38
416.936	1092.38
417.159	1088.38
417.382	1092.38
417.605	1082.38
417.828	1059.38
418.051	1064.38
418.274	1088.38
418.497	1055.38
418.72	1089.38
418.943	1085.38
419.166	1148.38
419.389	1214.38
419.611	1189.38
419.834	1153.38
420.057	1121.38
420.28	1123.38
420.503	1082.38
420.726	1069.38
420.948	1059.38
421.171	1077.38
421.394	1067.38
421.617	1072.38
421.839	1047.38
422.062	1071.38
422.285	1065.38
422.507	1089.38
422.73	1052.38
422.953	1065.38
423.175	1118.38
423.398	1073.38
423.621	1085.38
423.843	1099.38
424.066	1095.38
424.288	1080.38
424.511	1056.38
424.733	1048.38
424.956	1078.38
425.178	1060.38
425.401	1102.38
425.623	1067.38
425.846	1072.38
426.068	1066.38
426.291	1047.38
426.513	1070.38
426.735	1037.38
426.958	1044.38
427.18	1000.38
427.402	1042.38
427.625	1060.38
427.847	1015.38
428.069	1029.38
428.292	1005.38
428.514	988.38
428.736	1014.38
428.958	991.38
429.181	1017.38
429.403	985.38
429.625	988.38
429.847	1034.38
430.069	969.38
430.292	1030.38
430.514	983.38
430.736	1024.38
430.958	1000.38
431.18	1016.38
431.402	1029.38
431.624	996.38
431.846	1001.38
432.068	1000.38
432.29	1008.38
432.512	1024.38
432.734	1015.38
432.956	986.38
433.178	1042.38
433.4	1026.38
433.622	1021.38
433.844	1032.38
434.066	1030.38
434.287	1042.38
434.509	1033.38
434.731	1034.38
434.953	1056.38
435.175	1064.38
435.397	1075.38
435.618	1049.38
435.84	1036.38
436.062	1034.38
436.284	1041.38
436.505	1045.38
436.727	1021.38
436.949	972.38
437.17	990.38
437.392	989.38
437.614	1018.38
437.835	999.38
438.057	1014.38
438.278	981.38
438.5	968.38
438.721	1009.38
438.943	981.38
439.165	979.38
439.386	976.38
439.608	991.38
439.829	1002.38
440.05	1011.38
440.272	1002.38
440.493	992.38
440.715	1040.38
440.936	1034.38
441.158	1041.38
441.379	1045.38
441.6	1080.38
441.822	1089.38
442.043	1085.38
442.264	1088.38
442.486	1053.38
442.707	1062.38
442.928	1046.38
443.149	1077.38
443.371	1039.38
443.592	1086.38
443.813	1060.38
444.034	1084.38
444.255	1117.38
444.476	1120.38
444.698	1133.38
444.919	1139.38
445.14	1230.38
445.361	1123.38
445.582	1124.38
445.803	1077.38
446.024	1037.38
446.245	1060.38
446.466	1041.38
446.687	1022.38
446.908	1017.38
447.129	1012.38
447.35	987.38
447.571	1020.38
447.792	968.38
448.013	974.38
448.234	955.38
448.455	949.38
448.675	954.38
448.896	933.38
449.117	915.38
449.338	930.38
449.559	934.38
449.779	930.38
450	928.38
450.221	941.38
450.442	952.38
450.662	923.38
450.883	927.38
451.104	947.38
451.324	919.38
451.545	928.38
451.766	927.38
451.986	908.38
452.207	942.38
452.428	903.38
452.648	889.38
452.869	873.38
453.089	892.38
453.31	907.38
453.53	884.38
453.751	883.38
453.971	892.38
454.192	883.38
454.412	891.38
454.633	893.38
454.853	900.38
455.073	880.38
455.294	892.38
455.514	901.38
455.734	885.38
455.955	884.38
456.175	875.38
456.395	875.38
456.616	869.38
456.836	899.38
457.056	918.38
457.276	875.38
457.497	872.38
457.717	888.38
457.937	901.38
458.157	908.38
458.377	907.38
458.598	929.38
458.818	948.38
459.038	987.38
459.258	979.38
459.478	1015.38
459.698	1013.38
459.918	1010.38
460.138	1048.38
460.358	1079.38
460.578	1055.38
460.798	1088.38
461.018	1117.38
461.238	1118.38
461.458	1092.38
461.678	1106.38
461.898	1125.38
462.118	1162.38
462.338	1155.38
462.558	1160.38
462.777	1224.38
462.997	1236.38
463.217	1294.38
463.437	1331.38
463.657	1290.38
463.876	1272.38
464.096	1270.38
464.316	1244.38
464.536	1228.38
464.755	1226.38
464.975	1193.38
465.195	1178.38
465.414	1140.38
465.634	1092.38
465.854	1047.38
466.073	1070.38
466.293	1013.38
466.512	1059.38
466.732	1020.38
466.951	996.38
467.171	1003.38
467.391	976.38
467.61	989.38
467.829	983.38
468.049	979.38
468.268	964.38
468.488	963.38
468.707	967.38
468.927	971.38
469.146	975.38
469.365	956.38
469.585	958.38
469.804	963.38
470.023	1002.38
470.243	951.38
470.462	980.38
470.681	990.38
470.901	992.38
471.12	997.38
471.339	969.38
471.558	963.38
471.777	979.38
471.997	977.38
472.216	968.38
472.435	964.38
472.654	966.38
472.873	976.38
473.092	965.38
473.311	945.38
473.53	961.38
473.749	941.38
473.968	966.38
474.187	958.38
474.406	937.38
474.625	933.38
474.844	942.38
475.063	982.38
475.282	970.38
475.501	950.38
475.72	950.38
475.939	999.38
476.158	988.38
476.377	1015.38
476.596	1024.38
476.814	1049.38
477.033	1030.38
477.252	1024.38
477.471	1033.38
477.69	1078.38
477.908	1087.38
478.127	1106.38
478.346	1066.38
478.564	1103.38
478.783	1122.38
479.002	1108.38
479.22	1152.38
479.439	1159.38
479.658	1143.38
479.876	1144.38
480.095	1155.38
480.313	1157.38
480.532	1166.38
480.751	1190.38
480.969	1147.38
481.188	1146.38
481.406	1144.38
481.624	1132.38
481.843	1074.38
482.061	1100.38
482.28	1126.38
482.498	1123.38
482.717	1104.38
482.935	1124.38
483.153	1106.38
483.372	1088.38
483.59	1121.38
483.808	1091.38
484.027	1126.38
484.245	1085.38
484.463	1117.38
484.681	1116.38
484.9	1129.38
485.118	1158.38
485.336	1126.38
485.554	1128.38
485.772	1154.38
485.99	1132.38
486.209	1138.38
486.427	1125.38
486.645	1124.38
486.863	1145.38
487.081	1129.38
487.299	1139.38
487.517	1138.38
487.735	1130.38
487.953	1144.38
488.171	1141.38
488.389	1144.38
488.607	1126.38
488.825	1114.38
489.043	1134.38
489.261	1148.38
489.479	1138.38
489.696	1124.38
489.914	1154.38
490.132	1145.38
490.35	1174.38
490.568	1157.38
490.786	1162.38
491.003	1141.38
491.221	1164.38
491.439	1149.38
491.657	1158.38
491.874	1159.38
492.092	1166.38
492.31	1167.38
492.527	1182.38
492.745	1158.38
492.963	1170.38
493.18	1183.38
493.398	1200.38
493.615	1193.38
493.833	1192.38
494.05	1207.38
494.268	1215.38
494.485	1223.38
494.703	1240.38
494.92	1211.38
495.138	1217.38
495.355	1218.38
495.573	1227.38
495.79	1249.38
496.008	1232.38
496.225	1260.38
496.442	1264.38
496.66	1300.38
496.877	1303.38
