Data from Fe(NO3)3@0.1M.TitratingCurve.Agarose3%dH2O.NegLispCup.LampEnergy10.LIBS07252019_HRD10591_16-40-43-334.txt Node
Date: Thu Jul 25 16:40:43 EDT 2019
User: cochatt
Spectrometer: HR+D1059
Trigger mode: 1
Integration Time (sec): 1.000000E-1
Scans to average: 1
Electric dark correction enabled: true
Nonlinearity correction enabled: false
Boxcar width: 0
XAxis mode: Wavelengths
Number of Pixels in Spectrum: 2048
>>>>>Begin Spectral Data<<<<<
223.165	-1.69
223.4	-1.69
223.635	-1.69
223.869	-19.69
224.104	-13.69
224.338	-21.69
224.573	-9.69
224.808	-10.69
225.042	-22.69
225.277	-9.69
225.511	2.31
225.746	-2.69
225.98	8.31
226.215	11.31
226.449	10.31
226.683	14.31
226.918	37.31
227.152	28.31
227.387	44.31
227.621	34.31
227.856	40.31
228.09	43.31
228.324	42.31
228.559	66.31
228.793	58.31
229.027	86.31
229.262	83.31
229.496	85.31
229.73	90.31
229.964	103.31
230.199	90.31
230.433	108.31
230.667	113.31
230.901	111.31
231.136	125.31
231.37	108.31
231.604	101.31
231.838	131.31
232.072	110.31
232.306	117.31
232.541	118.31
232.775	132.31
233.009	130.31
233.243	125.31
233.477	115.31
233.711	122.31
233.945	104.31
234.179	125.31
234.413	118.31
234.647	106.31
234.881	129.31
235.115	111.31
235.349	115.31
235.583	115.31
235.817	118.31
236.051	129.31
236.285	124.31
236.519	118.31
236.753	121.31
236.987	108.31
237.221	126.31
237.455	125.31
237.689	131.31
237.922	131.31
238.156	125.31
238.39	129.31
238.624	135.31
238.858	138.31
239.091	129.31
239.325	133.31
239.559	121.31
239.793	132.31
240.027	134.31
240.26	133.31
240.494	127.31
240.728	131.31
240.961	121.31
241.195	136.31
241.429	133.31
241.662	161.31
241.896	148.31
242.13	141.31
242.363	128.31
242.597	154.31
242.83	143.31
243.064	141.31
243.298	159.31
243.531	153.31
243.765	129.31
243.998	156.31
244.232	152.31
244.465	156.31
244.699	158.31
244.932	139.31
245.166	151.31
245.399	164.31
245.633	147.31
245.866	165.31
246.099	157.31
246.333	169.31
246.566	167.31
246.8	148.31
247.033	158.31
247.266	152.31
247.5	152.31
247.733	153.31
247.966	164.31
248.2	177.31
248.433	169.31
248.666	164.31
248.899	162.31
249.133	170.31
249.366	169.31
249.599	157.31
249.832	161.31
250.066	177.31
250.299	166.31
250.532	193.31
250.765	166.31
250.998	189.31
251.231	180.31
251.465	185.31
251.698	186.31
251.931	186.31
252.164	186.31
252.397	178.31
252.63	183.31
252.863	185.31
253.096	195.31
253.329	198.31
253.562	205.31
253.795	172.31
254.028	170.31
254.261	189.31
254.494	191.31
254.727	209.31
254.96	185.31
255.193	194.31
255.426	188.31
255.659	186.31
255.892	188.31
256.124	192.31
256.357	184.31
256.59	197.31
256.823	203.31
257.056	215.31
257.289	207.31
257.521	184.31
257.754	197.31
257.987	199.31
258.22	199.31
258.452	201.31
258.685	214.31
258.918	205.31
259.151	206.31
259.383	210.31
259.616	224.31
259.849	225.31
260.081	219.31
260.314	210.31
260.547	222.31
260.779	215.31
261.012	205.31
261.244	205.31
261.477	230.31
261.71	226.31
261.942	207.31
262.175	229.31
262.407	211.31
262.64	207.31
262.872	221.31
263.105	210.31
263.337	219.31
263.57	231.31
263.802	231.31
264.035	223.31
264.267	236.31
264.499	230.31
264.732	231.31
264.964	233.31
265.197	236.31
265.429	248.31
265.661	229.31
265.894	239.31
266.126	233.31
266.358	233.31
266.591	229.31
266.823	238.31
267.055	234.31
267.287	256.31
267.52	241.31
267.752	238.31
267.984	252.31
268.216	262.31
268.448	250.31
268.681	255.31
268.913	247.31
269.145	247.31
269.377	248.31
269.609	261.31
269.841	256.31
270.073	241.31
270.306	250.31
270.538	258.31
270.77	248.31
271.002	257.31
271.234	232.31
271.466	261.31
271.698	255.31
271.93	280.31
272.162	266.31
272.394	263.31
272.626	252.31
272.858	248.31
273.09	275.31
273.322	280.31
273.553	265.31
273.785	253.31
274.017	267.31
274.249	262.31
274.481	257.31
274.713	253.31
274.945	273.31
275.176	277.31
275.408	271.31
275.64	279.31
275.872	275.31
276.104	269.31
276.335	271.31
276.567	286.31
276.799	270.31
277.031	277.31
277.262	284.31
277.494	289.31
277.726	269.31
277.957	289.31
278.189	280.31
278.421	278.31
278.652	280.31
278.884	286.31
279.115	292.31
279.347	272.31
279.579	274.31
279.81	286.31
280.042	287.31
280.273	297.31
280.505	284.31
280.736	289.31
280.968	314.31
281.199	282.31
281.431	302.31
281.662	294.31
281.894	311.31
282.125	315.31
282.356	304.31
282.588	292.31
282.819	299.31
283.051	286.31
283.282	305.31
283.513	333.31
283.745	309.31
283.976	326.31
284.207	324.31
284.439	304.31
284.67	302.31
284.901	321.31
285.132	338.31
285.364	312.31
285.595	316.31
285.826	308.31
286.057	314.31
286.288	318.31
286.52	314.31
286.751	334.31
286.982	329.31
287.213	319.31
287.444	313.31
287.675	323.31
287.906	341.31
288.138	347.31
288.369	334.31
288.6	326.31
288.831	328.31
289.062	341.31
289.293	333.31
289.524	318.31
289.755	329.31
289.986	335.31
290.217	321.31
290.448	336.31
290.679	346.31
290.91	319.31
291.141	312.31
291.371	318.31
291.602	333.31
291.833	344.31
292.064	333.31
292.295	312.31
292.526	327.31
292.757	341.31
292.987	335.31
293.218	342.31
293.449	337.31
293.68	330.31
293.91	341.31
294.141	329.31
294.372	345.31
294.603	353.31
294.833	346.31
295.064	347.31
295.295	331.31
295.525	349.31
295.756	356.31
295.987	345.31
296.217	346.31
296.448	350.31
296.679	328.31
296.909	352.31
297.14	355.31
297.37	345.31
297.601	350.31
297.831	333.31
298.062	354.31
298.292	370.31
298.523	371.31
298.753	355.31
298.984	373.31
299.214	358.31
299.445	372.31
299.675	366.31
299.905	347.31
300.136	369.31
300.366	387.31
300.597	372.31
300.827	373.31
301.057	366.31
301.288	381.31
301.518	381.31
301.748	373.31
301.979	380.31
302.209	378.31
302.439	377.31
302.669	383.31
302.9	384.31
303.13	374.31
303.36	380.31
303.59	377.31
303.82	397.31
304.051	371.31
304.281	382.31
304.511	385.31
304.741	388.31
304.971	402.31
305.201	381.31
305.431	381.31
305.661	387.31
305.891	396.31
306.121	387.31
306.352	379.31
306.582	381.31
306.812	373.31
307.042	398.31
307.272	403.31
307.502	381.31
307.731	382.31
307.961	373.31
308.191	349.31
308.421	366.31
308.651	359.31
308.881	355.31
309.111	368.31
309.341	366.31
309.571	387.31
309.8	379.31
310.03	383.31
310.26	373.31
310.49	387.31
310.72	392.31
310.949	393.31
311.179	377.31
311.409	397.31
311.639	390.31
311.868	366.31
312.098	377.31
312.328	384.31
312.557	418.31
312.787	407.31
313.017	394.31
313.246	421.31
313.476	393.31
313.706	396.31
313.935	419.31
314.165	410.31
314.394	400.31
314.624	407.31
314.853	391.31
315.083	393.31
315.312	389.31
315.542	404.31
315.771	413.31
316.001	388.31
316.23	416.31
316.46	382.31
316.689	403.31
316.919	399.31
317.148	406.31
317.377	410.31
317.607	409.31
317.836	396.31
318.065	391.31
318.295	404.31
318.524	409.31
318.753	382.31
318.983	387.31
319.212	395.31
319.441	397.31
319.67	391.31
319.9	410.31
320.129	419.31
320.358	408.31
320.587	387.31
320.816	397.31
321.046	415.31
321.275	405.31
321.504	406.31
321.733	401.31
321.962	407.31
322.191	426.31
322.42	409.31
322.649	404.31
322.878	414.31
323.108	397.31
323.337	421.31
323.566	416.31
323.795	425.31
324.024	423.31
324.253	416.31
324.482	434.31
324.71	399.31
324.939	423.31
325.168	423.31
325.397	418.31
325.626	417.31
325.855	430.31
326.084	445.31
326.313	451.31
326.542	463.31
326.77	457.31
326.999	433.31
327.228	448.31
327.457	445.31
327.686	422.31
327.914	424.31
328.143	454.31
328.372	444.31
328.6	429.31
328.829	450.31
329.058	446.31
329.287	458.31
329.515	446.31
329.744	483.31
329.972	437.31
330.201	441.31
330.43	456.31
330.658	444.31
330.887	461.31
331.115	459.31
331.344	449.31
331.572	445.31
331.801	475.31
332.03	479.31
332.258	485.31
332.486	507.31
332.715	521.31
332.943	527.31
333.172	527.31
333.4	561.31
333.629	567.31
333.857	567.31
334.085	580.31
334.314	557.31
334.542	562.31
334.771	565.31
334.999	545.31
335.227	553.31
335.455	550.31
335.684	529.31
335.912	519.31
336.14	517.31
336.369	542.31
336.597	539.31
336.825	522.31
337.053	543.31
337.281	529.31
337.51	512.31
337.738	503.31
337.966	512.31
338.194	477.31
338.422	478.31
338.65	490.31
338.878	482.31
339.106	466.31
339.334	491.31
339.562	476.31
339.79	481.31
340.018	474.31
340.246	474.31
340.474	472.31
340.702	479.31
340.93	466.31
341.158	473.31
341.386	474.31
341.614	460.31
341.842	447.31
342.07	457.31
342.298	472.31
342.526	478.31
342.754	463.31
342.981	493.31
343.209	469.31
343.437	482.31
343.665	517.31
343.893	539.31
344.12	575.31
344.348	567.31
344.576	520.31
344.804	512.31
345.031	497.31
345.259	473.31
345.487	470.31
345.714	457.31
345.942	449.31
346.17	471.31
346.397	473.31
346.625	455.31
346.853	451.31
347.08	454.31
347.308	445.31
347.535	455.31
347.763	440.31
347.99	461.31
348.218	461.31
348.445	443.31
348.673	455.31
348.9	455.31
349.128	460.31
349.355	449.31
349.583	475.31
349.81	421.31
350.037	453.31
350.265	439.31
350.492	457.31
350.72	433.31
350.947	440.31
351.174	442.31
351.402	454.31
351.629	450.31
351.856	440.31
352.083	433.31
352.311	451.31
352.538	443.31
352.765	428.31
352.992	437.31
353.22	447.31
353.447	439.31
353.674	447.31
353.901	438.31
354.128	434.31
354.355	433.31
354.583	438.31
354.81	449.31
355.037	450.31
355.264	470.31
355.491	420.31
355.718	444.31
355.945	445.31
356.172	442.31
356.399	449.31
356.626	460.31
356.853	433.31
357.08	439.31
357.307	433.31
357.534	438.31
357.761	449.31
357.988	450.31
358.215	439.31
358.441	454.31
358.668	456.31
358.895	463.31
359.122	463.31
359.349	441.31
359.576	434.31
359.802	438.31
360.029	437.31
360.256	450.31
360.483	456.31
360.709	430.31
360.936	462.31
361.163	452.31
361.39	431.31
361.616	437.31
361.843	458.31
362.07	453.31
362.296	456.31
362.523	462.31
362.749	425.31
362.976	439.31
363.203	440.31
363.429	428.31
363.656	443.31
363.882	435.31
364.109	440.31
364.335	440.31
364.562	437.31
364.788	440.31
365.015	458.31
365.241	467.31
365.468	445.31
365.694	433.31
365.92	430.31
366.147	441.31
366.373	458.31
366.599	451.31
366.826	433.31
367.052	447.31
367.278	432.31
367.505	448.31
367.731	456.31
367.957	446.31
368.184	462.31
368.41	454.31
368.636	461.31
368.862	452.31
369.089	471.31
369.315	461.31
369.541	478.31
369.767	462.31
369.993	476.31
370.219	449.31
370.445	470.31
370.672	473.31
370.898	495.31
371.124	493.31
371.35	469.31
371.576	473.31
371.802	502.31
372.028	487.31
372.254	481.31
372.48	497.31
372.706	505.31
372.932	488.31
373.158	490.31
373.384	492.31
373.61	488.31
373.835	482.31
374.061	485.31
374.287	490.31
374.513	496.31
374.739	523.31
374.965	538.31
375.191	534.31
375.416	538.31
375.642	488.31
375.868	517.31
376.094	521.31
376.319	497.31
376.545	501.31
376.771	482.31
376.997	482.31
377.222	474.31
377.448	488.31
377.674	490.31
377.899	482.31
378.125	480.31
378.35	465.31
378.576	489.31
378.802	473.31
379.027	473.31
379.253	458.31
379.478	468.31
379.704	474.31
379.929	492.31
380.155	484.31
380.38	477.31
380.606	495.31
380.831	478.31
381.057	494.31
381.282	487.31
381.507	494.31
381.733	490.31
381.958	473.31
382.184	522.31
382.409	506.31
382.634	509.31
382.86	523.31
383.085	521.31
383.31	513.31
383.535	528.31
383.761	551.31
383.986	549.31
384.211	542.31
384.436	561.31
384.662	555.31
384.887	564.31
385.112	569.31
385.337	562.31
385.562	558.31
385.787	569.31
386.013	595.31
386.238	593.31
386.463	589.31
386.688	586.31
386.913	600.31
387.138	598.31
387.363	581.31
387.588	568.31
387.813	573.31
388.038	586.31
388.263	570.31
388.488	586.31
388.713	577.31
388.938	586.31
389.163	562.31
389.387	574.31
389.612	572.31
389.837	580.31
390.062	593.31
390.287	579.31
390.512	589.31
390.736	581.31
390.961	584.31
391.186	603.31
391.411	627.31
391.636	630.31
391.86	638.31
392.085	645.31
392.31	654.31
392.534	643.31
392.759	624.31
392.984	617.31
393.208	593.31
393.433	608.31
393.658	604.31
393.882	618.31
394.107	614.31
394.331	614.31
394.556	618.31
394.78	622.31
395.005	652.31
395.229	612.31
395.454	666.31
395.678	649.31
395.903	640.31
396.127	662.31
396.352	641.31
396.576	634.31
396.801	625.31
397.025	634.31
397.249	627.31
397.474	661.31
397.698	681.31
397.922	651.31
398.147	654.31
398.371	661.31
398.595	705.31
398.82	703.31
399.044	757.31
399.268	801.31
399.492	935.31
399.717	982.31
399.941	992.31
400.165	926.31
400.389	862.31
400.613	799.31
400.837	742.31
401.062	765.31
401.286	717.31
401.51	718.31
401.734	723.31
401.958	734.31
402.182	749.31
402.406	718.31
402.63	746.31
402.854	754.31
403.078	771.31
403.302	780.31
403.526	804.31
403.75	810.31
403.974	802.31
404.198	786.31
404.422	796.31
404.645	797.31
404.869	784.31
405.093	779.31
405.317	753.31
405.541	747.31
405.765	797.31
405.988	762.31
406.212	776.31
406.436	771.31
406.66	801.31
406.883	790.31
407.107	867.31
407.331	892.31
407.555	915.31
407.778	911.31
408.002	890.31
408.226	873.31
408.449	859.31
408.673	833.31
408.896	840.31
409.12	828.31
409.344	825.31
409.567	830.31
409.791	803.31
410.014	819.31
410.238	799.31
410.461	805.31
410.685	783.31
410.908	795.31
411.132	803.31
411.355	754.31
411.578	799.31
411.802	761.31
412.025	745.31
412.249	777.31
412.472	783.31
412.695	718.31
412.919	739.31
413.142	745.31
413.365	713.31
413.589	755.31
413.812	739.31
414.035	737.31
414.258	745.31
414.482	728.31
414.705	748.31
414.928	754.31
415.151	745.31
415.374	723.31
415.597	729.31
415.821	699.31
416.044	739.31
416.267	727.31
416.49	717.31
416.713	701.31
416.936	712.31
417.159	739.31
417.382	725.31
417.605	686.31
417.828	725.31
418.051	753.31
418.274	703.31
418.497	693.31
418.72	742.31
418.943	732.31
419.166	759.31
419.389	816.31
419.611	794.31
419.834	766.31
420.057	748.31
420.28	741.31
420.503	708.31
420.726	726.31
420.948	716.31
421.171	713.31
421.394	729.31
421.617	715.31
421.839	730.31
422.062	733.31
422.285	705.31
422.507	747.31
422.73	727.31
422.953	738.31
423.175	750.31
423.398	754.31
423.621	723.31
423.843	732.31
424.066	743.31
424.288	747.31
424.511	738.31
424.733	707.31
424.956	720.31
425.178	689.31
425.401	709.31
425.623	737.31
425.846	702.31
426.068	702.31
426.291	686.31
426.513	708.31
426.735	701.31
426.958	683.31
427.18	674.31
427.402	681.31
427.625	675.31
427.847	677.31
428.069	643.31
428.292	650.31
428.514	641.31
428.736	639.31
428.958	653.31
429.181	666.31
429.403	642.31
429.625	656.31
429.847	630.31
430.069	626.31
430.292	650.31
430.514	651.31
430.736	622.31
430.958	645.31
431.18	641.31
431.402	646.31
431.624	662.31
431.846	655.31
432.068	659.31
432.29	649.31
432.512	641.31
432.734	663.31
432.956	645.31
433.178	673.31
433.4	655.31
433.622	688.31
433.844	671.31
434.066	655.31
434.287	660.31
434.509	689.31
434.731	707.31
434.953	736.31
435.175	709.31
435.397	717.31
435.618	717.31
435.84	689.31
436.062	669.31
436.284	678.31
436.505	658.31
436.727	682.31
436.949	667.31
437.17	670.31
437.392	637.31
437.614	664.31
437.835	637.31
438.057	649.31
438.278	626.31
438.5	601.31
438.721	637.31
438.943	645.31
439.165	637.31
439.386	655.31
439.608	673.31
439.829	670.31
440.05	667.31
440.272	665.31
440.493	656.31
440.715	692.31
440.936	685.31
441.158	685.31
441.379	706.31
441.6	755.31
441.822	742.31
442.043	719.31
442.264	708.31
442.486	725.31
442.707	705.31
442.928	701.31
443.149	735.31
443.371	711.31
443.592	716.31
443.813	736.31
444.034	742.31
444.255	770.31
444.476	800.31
444.698	826.31
444.919	839.31
445.14	929.31
445.361	822.31
445.582	757.31
445.803	738.31
446.024	702.31
446.245	708.31
446.466	686.31
446.687	668.31
446.908	670.31
447.129	702.31
447.35	683.31
447.571	664.31
447.792	662.31
448.013	638.31
448.234	644.31
448.455	620.31
448.675	636.31
448.896	605.31
449.117	594.31
449.338	618.31
449.559	620.31
449.779	612.31
450	629.31
450.221	606.31
450.442	600.31
450.662	618.31
450.883	621.31
451.104	635.31
451.324	648.31
451.545	636.31
451.766	620.31
451.986	618.31
452.207	619.31
452.428	625.31
452.648	604.31
452.869	593.31
453.089	586.31
453.31	598.31
453.53	580.31
453.751	588.31
453.971	601.31
454.192	585.31
454.412	574.31
454.633	595.31
454.853	610.31
455.073	601.31
455.294	579.31
455.514	557.31
455.734	592.31
455.955	594.31
456.175	555.31
456.395	593.31
456.616	586.31
456.836	584.31
457.056	568.31
457.276	580.31
457.497	597.31
457.717	563.31
457.937	582.31
458.157	590.31
458.377	583.31
458.598	585.31
458.818	618.31
459.038	630.31
459.258	648.31
459.478	659.31
459.698	638.31
459.918	699.31
460.138	729.31
460.358	739.31
460.578	763.31
460.798	743.31
461.018	805.31
461.238	753.31
461.458	756.31
461.678	762.31
461.898	773.31
462.118	738.31
462.338	767.31
462.558	808.31
462.777	846.31
462.997	891.31
463.217	959.31
463.437	938.31
463.657	881.31
463.876	865.31
464.096	869.31
464.316	849.31
464.536	856.31
464.755	833.31
464.975	786.31
465.195	776.31
465.414	727.31
465.634	697.31
465.854	691.31
466.073	665.31
466.293	670.31
466.512	652.31
466.732	629.31
466.951	651.31
467.171	645.31
467.391	636.31
467.61	642.31
467.829	634.31
468.049	618.31
468.268	608.31
468.488	602.31
468.707	596.31
468.927	621.31
469.146	615.31
469.365	631.31
469.585	612.31
469.804	625.31
470.023	638.31
470.243	622.31
470.462	632.31
470.681	645.31
470.901	637.31
471.12	651.31
471.339	633.31
471.558	615.31
471.777	603.31
471.997	595.31
472.216	601.31
472.435	605.31
472.654	614.31
472.873	609.31
473.092	594.31
473.311	587.31
473.53	607.31
473.749	583.31
473.968	594.31
474.187	606.31
474.406	576.31
474.625	602.31
474.844	604.31
475.063	613.31
475.282	586.31
475.501	600.31
475.72	639.31
475.939	573.31
476.158	604.31
476.377	613.31
476.596	601.31
476.814	636.31
477.033	633.31
477.252	659.31
477.471	640.31
477.69	659.31
477.908	661.31
478.127	683.31
478.346	672.31
478.564	707.31
478.783	702.31
479.002	712.31
479.22	727.31
479.439	728.31
479.658	710.31
479.876	713.31
480.095	763.31
480.313	748.31
480.532	753.31
480.751	773.31
480.969	732.31
481.188	721.31
481.406	674.31
481.624	678.31
481.843	668.31
482.061	659.31
482.28	671.31
482.498	679.31
482.717	684.31
482.935	671.31
483.153	673.31
483.372	670.31
483.59	661.31
483.808	659.31
484.027	669.31
484.245	678.31
484.463	677.31
484.681	699.31
484.9	691.31
485.118	687.31
485.336	680.31
485.554	668.31
485.772	699.31
485.99	676.31
486.209	714.31
486.427	683.31
486.645	666.31
486.863	657.31
487.081	677.31
487.299	691.31
487.517	691.31
487.735	691.31
487.953	680.31
488.171	711.31
488.389	689.31
488.607	697.31
488.825	709.31
489.043	695.31
489.261	683.31
489.479	683.31
489.696	712.31
489.914	710.31
490.132	723.31
490.35	717.31
490.568	709.31
490.786	700.31
491.003	701.31
491.221	679.31
491.439	700.31
491.657	714.31
491.874	710.31
492.092	715.31
492.31	731.31
492.527	745.31
492.745	737.31
492.963	705.31
493.18	731.31
493.398	730.31
493.615	715.31
493.833	718.31
494.05	730.31
494.268	772.31
494.485	739.31
494.703	726.31
494.92	743.31
495.138	742.31
495.355	742.31
495.573	767.31
495.79	744.31
496.008	772.31
496.225	755.31
496.442	762.31
496.66	787.31
496.877	807.31
497.094	782.31
497.312	812.31
497.529	847.31
497.746	845.31
497.963	867.31
498.181	886.31
498.398	898.31
498.615	986.31
498.832	1029.31
499.049	1082.31
499.267	1165.31
499.484	1253.31
499.701	1371.31
499.918	1491.31
500.135	1637.31
500.352	1787.31
500.569	1891.31
500.786	1859.31
501.003	1788.31
501.22	1622.31
501.437	1450.31
