Data from Fe(NO3)3@0.025M.TitratingCurve.Agarose3%dH2O.NegLispCup.LampEnergy10.LIBS07252019_HRD10591_16-56-29-347.txt Node
Date: Thu Jul 25 16:56:29 EDT 2019
User: cochatt
Spectrometer: HR+D1059
Trigger mode: 1
Integration Time (sec): 1.000000E-1
Scans to average: 1
Electric dark correction enabled: true
Nonlinearity correction enabled: false
Boxcar width: 0
XAxis mode: Wavelengths
Number of Pixels in Spectrum: 2048
>>>>>Begin Spectral Data<<<<<
223.165	-7.38
223.4	-7.38
223.635	-7.38
223.869	-18.38
224.104	-22.38
224.338	-11.38
224.573	-14.38
224.808	-16.38
225.042	-21.38
225.277	-8.38
225.511	-7.38
225.746	-2.38
225.98	9.62
226.215	21.62
226.449	22.62
226.683	12.62
226.918	21.62
227.152	41.62
227.387	24.62
227.621	46.62
227.856	40.62
228.09	62.62
228.324	56.62
228.559	56.62
228.793	64.62
229.027	78.62
229.262	74.62
229.496	91.62
229.73	85.62
229.964	81.62
230.199	94.62
230.433	79.62
230.667	82.62
230.901	89.62
231.136	81.62
231.37	99.62
231.604	102.62
231.838	97.62
232.072	99.62
232.306	102.62
232.541	100.62
232.775	100.62
233.009	98.62
233.243	110.62
233.477	87.62
233.711	103.62
233.945	101.62
234.179	94.62
234.413	121.62
234.647	111.62
234.881	100.62
235.115	109.62
235.349	104.62
235.583	109.62
235.817	97.62
236.051	95.62
236.285	92.62
236.519	101.62
236.753	98.62
236.987	114.62
237.221	97.62
237.455	108.62
237.689	86.62
237.922	102.62
238.156	95.62
238.39	105.62
238.624	109.62
238.858	122.62
239.091	88.62
239.325	114.62
239.559	101.62
239.793	96.62
240.027	105.62
240.26	113.62
240.494	119.62
240.728	121.62
240.961	109.62
241.195	118.62
241.429	103.62
241.662	120.62
241.896	124.62
242.13	125.62
242.363	125.62
242.597	109.62
242.83	123.62
243.064	123.62
243.298	104.62
243.531	113.62
243.765	103.62
243.998	121.62
244.232	132.62
244.465	113.62
244.699	119.62
244.932	124.62
245.166	123.62
245.399	121.62
245.633	118.62
245.866	116.62
246.099	117.62
246.333	134.62
246.566	127.62
246.8	126.62
247.033	131.62
247.266	135.62
247.5	131.62
247.733	117.62
247.966	134.62
248.2	124.62
248.433	124.62
248.666	136.62
248.899	119.62
249.133	118.62
249.366	138.62
249.599	134.62
249.832	136.62
250.066	139.62
250.299	123.62
250.532	135.62
250.765	137.62
250.998	139.62
251.231	144.62
251.465	136.62
251.698	134.62
251.931	118.62
252.164	128.62
252.397	135.62
252.63	129.62
252.863	130.62
253.096	143.62
253.329	134.62
253.562	130.62
253.795	153.62
254.028	130.62
254.261	142.62
254.494	148.62
254.727	151.62
254.96	152.62
255.193	156.62
255.426	150.62
255.659	157.62
255.892	145.62
256.124	137.62
256.357	151.62
256.59	142.62
256.823	140.62
257.056	148.62
257.289	153.62
257.521	160.62
257.754	159.62
257.987	153.62
258.22	148.62
258.452	159.62
258.685	154.62
258.918	137.62
259.151	163.62
259.383	165.62
259.616	152.62
259.849	165.62
260.081	165.62
260.314	153.62
260.547	166.62
260.779	159.62
261.012	151.62
261.244	177.62
261.477	167.62
261.71	163.62
261.942	149.62
262.175	166.62
262.407	156.62
262.64	176.62
262.872	169.62
263.105	154.62
263.337	167.62
263.57	185.62
263.802	153.62
264.035	166.62
264.267	156.62
264.499	183.62
264.732	169.62
264.964	173.62
265.197	192.62
265.429	175.62
265.661	154.62
265.894	164.62
266.126	174.62
266.358	154.62
266.591	167.62
266.823	173.62
267.055	177.62
267.287	182.62
267.52	181.62
267.752	176.62
267.984	175.62
268.216	178.62
268.448	186.62
268.681	184.62
268.913	178.62
269.145	183.62
269.377	190.62
269.609	186.62
269.841	175.62
270.073	170.62
270.306	173.62
270.538	178.62
270.77	172.62
271.002	183.62
271.234	192.62
271.466	202.62
271.698	190.62
271.93	191.62
272.162	181.62
272.394	208.62
272.626	193.62
272.858	186.62
273.09	193.62
273.322	193.62
273.553	170.62
273.785	191.62
274.017	193.62
274.249	196.62
274.481	192.62
274.713	202.62
274.945	209.62
275.176	209.62
275.408	215.62
275.64	204.62
275.872	204.62
276.104	195.62
276.335	201.62
276.567	187.62
276.799	213.62
277.031	190.62
277.262	202.62
277.494	228.62
277.726	206.62
277.957	212.62
278.189	216.62
278.421	197.62
278.652	205.62
278.884	223.62
279.115	204.62
279.347	230.62
279.579	208.62
279.81	229.62
280.042	217.62
280.273	220.62
280.505	218.62
280.736	202.62
280.968	222.62
281.199	214.62
281.431	216.62
281.662	230.62
281.894	226.62
282.125	216.62
282.356	224.62
282.588	227.62
282.819	221.62
283.051	216.62
283.282	241.62
283.513	245.62
283.745	236.62
283.976	232.62
284.207	209.62
284.439	245.62
284.67	258.62
284.901	245.62
285.132	236.62
285.364	222.62
285.595	232.62
285.826	241.62
286.057	246.62
286.288	228.62
286.52	234.62
286.751	236.62
286.982	244.62
287.213	225.62
287.444	244.62
287.675	234.62
287.906	247.62
288.138	257.62
288.369	242.62
288.6	240.62
288.831	247.62
289.062	237.62
289.293	247.62
289.524	245.62
289.755	267.62
289.986	252.62
290.217	251.62
290.448	273.62
290.679	238.62
290.91	249.62
291.141	249.62
291.371	229.62
291.602	245.62
291.833	262.62
292.064	245.62
292.295	276.62
292.526	254.62
292.757	241.62
292.987	247.62
293.218	255.62
293.449	261.62
293.68	262.62
293.91	258.62
294.141	252.62
294.372	250.62
294.603	259.62
294.833	254.62
295.064	263.62
295.295	263.62
295.525	256.62
295.756	246.62
295.987	246.62
296.217	263.62
296.448	253.62
296.679	263.62
296.909	248.62
297.14	264.62
297.37	277.62
297.601	263.62
297.831	267.62
298.062	265.62
298.292	260.62
298.523	263.62
298.753	274.62
298.984	266.62
299.214	287.62
299.445	286.62
299.675	264.62
299.905	270.62
300.136	276.62
300.366	288.62
300.597	270.62
300.827	284.62
301.057	293.62
301.288	302.62
301.518	277.62
301.748	305.62
301.979	274.62
302.209	308.62
302.439	275.62
302.669	292.62
302.9	292.62
303.13	288.62
303.36	306.62
303.59	286.62
303.82	298.62
304.051	295.62
304.281	283.62
304.511	287.62
304.741	281.62
304.971	304.62
305.201	293.62
305.431	286.62
305.661	286.62
305.891	302.62
306.121	286.62
306.352	289.62
306.582	302.62
306.812	294.62
307.042	297.62
307.272	278.62
307.502	295.62
307.731	316.62
307.961	304.62
308.191	311.62
308.421	303.62
308.651	304.62
308.881	284.62
309.111	276.62
309.341	292.62
309.571	295.62
309.8	304.62
310.03	288.62
310.26	312.62
310.49	302.62
310.72	299.62
310.949	303.62
311.179	308.62
311.409	319.62
311.639	302.62
311.868	296.62
312.098	320.62
312.328	317.62
312.557	311.62
312.787	310.62
313.017	310.62
313.246	314.62
313.476	326.62
313.706	309.62
313.935	308.62
314.165	319.62
314.394	305.62
314.624	320.62
314.853	293.62
315.083	308.62
315.312	301.62
315.542	315.62
315.771	333.62
316.001	350.62
316.23	322.62
316.46	310.62
316.689	332.62
316.919	323.62
317.148	317.62
317.377	319.62
317.607	320.62
317.836	314.62
318.065	328.62
318.295	312.62
318.524	320.62
318.753	312.62
318.983	335.62
319.212	318.62
319.441	345.62
319.67	330.62
319.9	323.62
320.129	314.62
320.358	333.62
320.587	327.62
320.816	332.62
321.046	334.62
321.275	325.62
321.504	340.62
321.733	328.62
321.962	339.62
322.191	314.62
322.42	345.62
322.649	341.62
322.878	324.62
323.108	338.62
323.337	342.62
323.566	346.62
323.795	331.62
324.024	344.62
324.253	344.62
324.482	344.62
324.71	357.62
324.939	328.62
325.168	353.62
325.397	349.62
325.626	357.62
325.855	342.62
326.084	337.62
326.313	337.62
326.542	358.62
326.77	340.62
326.999	330.62
327.228	343.62
327.457	330.62
327.686	361.62
327.914	354.62
328.143	349.62
328.372	352.62
328.6	358.62
328.829	339.62
329.058	345.62
329.287	360.62
329.515	360.62
329.744	357.62
329.972	362.62
330.201	362.62
330.43	391.62
330.658	392.62
330.887	357.62
331.115	364.62
331.344	386.62
331.572	370.62
331.801	374.62
332.03	385.62
332.258	401.62
332.486	389.62
332.715	396.62
332.943	389.62
333.172	392.62
333.4	395.62
333.629	403.62
333.857	426.62
334.085	429.62
334.314	412.62
334.542	421.62
334.771	426.62
334.999	430.62
335.227	433.62
335.455	414.62
335.684	401.62
335.912	411.62
336.14	415.62
336.369	409.62
336.597	414.62
336.825	393.62
337.053	421.62
337.281	400.62
337.51	394.62
337.738	425.62
337.966	389.62
338.194	394.62
338.422	407.62
338.65	391.62
338.878	395.62
339.106	386.62
339.334	387.62
339.562	357.62
339.79	382.62
340.018	385.62
340.246	383.62
340.474	373.62
340.702	370.62
340.93	372.62
341.158	365.62
341.386	392.62
341.614	384.62
341.842	402.62
342.07	368.62
342.298	388.62
342.526	388.62
342.754	388.62
342.981	390.62
343.209	403.62
343.437	409.62
343.665	390.62
343.893	405.62
344.12	418.62
344.348	432.62
344.576	422.62
344.804	415.62
345.031	396.62
345.259	384.62
345.487	394.62
345.714	372.62
345.942	366.62
346.17	367.62
346.397	368.62
346.625	394.62
346.853	354.62
347.08	376.62
347.308	386.62
347.535	371.62
347.763	383.62
347.99	367.62
348.218	364.62
348.445	373.62
348.673	361.62
348.9	376.62
349.128	389.62
349.355	360.62
349.583	374.62
349.81	374.62
350.037	351.62
350.265	384.62
350.492	370.62
350.72	344.62
350.947	358.62
351.174	352.62
351.402	355.62
351.629	362.62
351.856	372.62
352.083	372.62
352.311	371.62
352.538	369.62
352.765	369.62
352.992	355.62
353.22	363.62
353.447	383.62
353.674	353.62
353.901	382.62
354.128	364.62
354.355	357.62
354.583	359.62
354.81	364.62
355.037	404.62
355.264	367.62
355.491	370.62
355.718	364.62
355.945	376.62
356.172	374.62
356.399	367.62
356.626	364.62
356.853	375.62
357.08	387.62
357.307	381.62
357.534	365.62
357.761	377.62
357.988	378.62
358.215	383.62
358.441	390.62
358.668	373.62
358.895	372.62
359.122	368.62
359.349	348.62
359.576	372.62
359.802	364.62
360.029	393.62
360.256	365.62
360.483	364.62
360.709	369.62
360.936	373.62
361.163	373.62
361.39	357.62
361.616	365.62
361.843	369.62
362.07	377.62
362.296	371.62
362.523	373.62
362.749	385.62
362.976	368.62
363.203	372.62
363.429	367.62
363.656	382.62
363.882	353.62
364.109	371.62
364.335	343.62
364.562	350.62
364.788	374.62
365.015	388.62
365.241	380.62
365.468	380.62
365.694	373.62
365.92	362.62
366.147	380.62
366.373	357.62
366.599	384.62
366.826	382.62
367.052	376.62
367.278	374.62
367.505	365.62
367.731	386.62
367.957	375.62
368.184	383.62
368.41	357.62
368.636	386.62
368.862	374.62
369.089	377.62
369.315	375.62
369.541	382.62
369.767	396.62
369.993	388.62
370.219	387.62
370.445	396.62
370.672	391.62
370.898	402.62
371.124	418.62
371.35	404.62
371.576	382.62
371.802	405.62
372.028	400.62
372.254	408.62
372.48	393.62
372.706	400.62
372.932	404.62
373.158	398.62
373.384	417.62
373.61	397.62
373.835	405.62
374.061	407.62
374.287	408.62
374.513	395.62
374.739	424.62
374.965	439.62
375.191	414.62
375.416	434.62
375.642	416.62
375.868	412.62
376.094	402.62
376.319	407.62
376.545	417.62
376.771	407.62
376.997	385.62
377.222	410.62
377.448	397.62
377.674	388.62
377.899	405.62
378.125	407.62
378.35	399.62
378.576	393.62
378.802	409.62
379.027	380.62
379.253	413.62
379.478	389.62
379.704	382.62
379.929	400.62
380.155	392.62
380.38	401.62
380.606	407.62
380.831	390.62
381.057	400.62
381.282	408.62
381.507	392.62
381.733	401.62
381.958	420.62
382.184	403.62
382.409	410.62
382.634	425.62
382.86	430.62
383.085	423.62
383.31	424.62
383.535	440.62
383.761	417.62
383.986	437.62
384.211	436.62
384.436	432.62
384.662	432.62
384.887	447.62
385.112	464.62
385.337	460.62
385.562	445.62
385.787	453.62
386.013	465.62
386.238	459.62
386.463	464.62
386.688	465.62
386.913	470.62
387.138	473.62
387.363	450.62
387.588	464.62
387.813	487.62
388.038	479.62
388.263	456.62
388.488	473.62
388.713	467.62
388.938	475.62
389.163	462.62
389.387	464.62
389.612	458.62
389.837	484.62
390.062	452.62
390.287	462.62
390.512	455.62
390.736	472.62
390.961	484.62
391.186	472.62
391.411	481.62
391.636	477.62
391.86	506.62
392.085	499.62
392.31	492.62
392.534	517.62
392.759	496.62
392.984	464.62
393.208	469.62
393.433	488.62
393.658	479.62
393.882	476.62
394.107	481.62
394.331	488.62
394.556	497.62
394.78	470.62
395.005	508.62
395.229	502.62
395.454	498.62
395.678	524.62
395.903	498.62
396.127	494.62
396.352	500.62
396.576	520.62
396.801	494.62
397.025	502.62
397.249	523.62
397.474	518.62
397.698	510.62
397.922	530.62
398.147	524.62
398.371	546.62
398.595	535.62
398.82	580.62
399.044	599.62
399.268	614.62
399.492	639.62
399.717	683.62
399.941	653.62
400.165	624.62
400.389	641.62
400.613	617.62
400.837	591.62
401.062	587.62
401.286	573.62
401.51	550.62
401.734	557.62
401.958	550.62
402.182	561.62
402.406	542.62
402.63	545.62
402.854	566.62
403.078	574.62
403.302	578.62
403.526	565.62
403.75	599.62
403.974	570.62
404.198	561.62
404.422	577.62
404.645	560.62
404.869	583.62
405.093	584.62
405.317	578.62
405.541	583.62
405.765	592.62
405.988	591.62
406.212	573.62
406.436	608.62
406.66	613.62
406.883	599.62
407.107	624.62
407.331	626.62
407.555	637.62
407.778	618.62
408.002	623.62
408.226	622.62
408.449	613.62
408.673	620.62
408.896	620.62
409.12	585.62
409.344	590.62
409.567	580.62
409.791	597.62
410.014	589.62
410.238	585.62
410.461	604.62
410.685	574.62
410.908	581.62
411.132	578.62
411.355	573.62
411.578	577.62
411.802	574.62
412.025	550.62
412.249	569.62
412.472	570.62
412.695	573.62
412.919	562.62
413.142	545.62
413.365	552.62
413.589	552.62
413.812	536.62
414.035	554.62
414.258	551.62
414.482	562.62
414.705	583.62
414.928	562.62
415.151	555.62
415.374	554.62
415.597	536.62
415.821	524.62
416.044	542.62
416.267	530.62
416.49	502.62
416.713	529.62
416.936	545.62
417.159	542.62
417.382	537.62
417.605	496.62
417.828	520.62
418.051	525.62
418.274	533.62
418.497	527.62
418.72	542.62
418.943	526.62
419.166	542.62
419.389	592.62
419.611	553.62
419.834	529.62
420.057	543.62
420.28	514.62
420.503	525.62
420.726	528.62
420.948	523.62
421.171	508.62
421.394	534.62
421.617	505.62
421.839	524.62
422.062	523.62
422.285	528.62
422.507	543.62
422.73	531.62
422.953	540.62
423.175	528.62
423.398	530.62
423.621	521.62
423.843	516.62
424.066	537.62
424.288	525.62
424.511	514.62
424.733	521.62
424.956	503.62
425.178	515.62
425.401	525.62
425.623	512.62
425.846	492.62
426.068	512.62
426.291	501.62
426.513	513.62
426.735	519.62
426.958	513.62
427.18	476.62
427.402	510.62
427.625	470.62
427.847	482.62
428.069	502.62
428.292	488.62
428.514	498.62
428.736	473.62
428.958	488.62
429.181	466.62
429.403	492.62
429.625	497.62
429.847	489.62
430.069	486.62
430.292	488.62
430.514	495.62
430.736	499.62
430.958	495.62
431.18	485.62
431.402	500.62
431.624	469.62
431.846	496.62
432.068	494.62
432.29	486.62
432.512	491.62
432.734	489.62
432.956	480.62
433.178	471.62
433.4	515.62
433.622	485.62
433.844	497.62
434.066	509.62
434.287	504.62
434.509	509.62
434.731	524.62
434.953	517.62
435.175	504.62
435.397	522.62
435.618	512.62
435.84	503.62
436.062	500.62
436.284	488.62
436.505	473.62
436.727	475.62
436.949	486.62
437.17	486.62
437.392	484.62
437.614	463.62
437.835	463.62
438.057	487.62
438.278	463.62
438.5	473.62
438.721	478.62
438.943	485.62
439.165	455.62
439.386	469.62
439.608	453.62
439.829	470.62
440.05	475.62
440.272	476.62
440.493	495.62
440.715	481.62
440.936	513.62
441.158	481.62
441.379	484.62
441.6	506.62
441.822	542.62
442.043	532.62
442.264	500.62
442.486	509.62
442.707	512.62
442.928	505.62
443.149	505.62
443.371	497.62
443.592	520.62
443.813	510.62
444.034	523.62
444.255	520.62
444.476	543.62
444.698	536.62
444.919	550.62
445.14	614.62
445.361	567.62
445.582	527.62
445.803	506.62
446.024	506.62
446.245	478.62
446.466	488.62
446.687	469.62
446.908	484.62
447.129	461.62
447.35	482.62
447.571	452.62
447.792	454.62
448.013	455.62
448.234	468.62
448.455	449.62
448.675	454.62
448.896	439.62
449.117	427.62
449.338	441.62
449.559	435.62
449.779	429.62
450	464.62
450.221	439.62
450.442	458.62
450.662	436.62
450.883	443.62
451.104	448.62
451.324	410.62
451.545	444.62
451.766	444.62
451.986	425.62
452.207	432.62
452.428	445.62
452.648	430.62
452.869	445.62
453.089	422.62
453.31	423.62
453.53	417.62
453.751	420.62
453.971	421.62
454.192	445.62
454.412	431.62
454.633	411.62
454.853	422.62
455.073	414.62
455.294	418.62
455.514	408.62
455.734	434.62
455.955	419.62
456.175	407.62
456.395	407.62
456.616	400.62
456.836	432.62
457.056	433.62
457.276	438.62
457.497	444.62
457.717	413.62
457.937	432.62
458.157	417.62
458.377	450.62
458.598	448.62
458.818	469.62
459.038	460.62
459.258	471.62
459.478	475.62
459.698	493.62
459.918	502.62
460.138	507.62
460.358	515.62
460.578	542.62
460.798	524.62
461.018	545.62
461.238	520.62
461.458	534.62
461.678	537.62
461.898	535.62
462.118	549.62
462.338	567.62
462.558	584.62
462.777	584.62
462.997	606.62
463.217	615.62
463.437	613.62
463.657	591.62
463.876	612.62
464.096	597.62
464.316	585.62
464.536	577.62
464.755	563.62
464.975	577.62
465.195	502.62
465.414	511.62
465.634	510.62
465.854	502.62
466.073	480.62
466.293	477.62
466.512	462.62
466.732	466.62
466.951	493.62
467.171	479.62
467.391	474.62
467.61	487.62
467.829	466.62
468.049	444.62
468.268	445.62
468.488	457.62
468.707	434.62
468.927	451.62
469.146	454.62
469.365	450.62
469.585	480.62
469.804	477.62
470.023	466.62
470.243	478.62
470.462	481.62
470.681	488.62
470.901	494.62
471.12	486.62
471.339	472.62
471.558	474.62
471.777	471.62
471.997	461.62
472.216	480.62
472.435	453.62
472.654	472.62
472.873	464.62
473.092	468.62
473.311	475.62
473.53	458.62
473.749	464.62
473.968	460.62
474.187	462.62
474.406	453.62
474.625	462.62
474.844	460.62
475.063	455.62
475.282	480.62
475.501	464.62
475.72	479.62
475.939	448.62
476.158	482.62
476.377	479.62
476.596	488.62
476.814	486.62
477.033	489.62
477.252	509.62
477.471	518.62
477.69	520.62
477.908	525.62
478.127	534.62
478.346	549.62
478.564	544.62
478.783	546.62
479.002	546.62
479.22	554.62
479.439	562.62
479.658	557.62
479.876	556.62
480.095	594.62
480.313	561.62
480.532	551.62
480.751	564.62
480.969	572.62
481.188	545.62
481.406	560.62
481.624	546.62
481.843	552.62
482.061	554.62
482.28	536.62
482.498	540.62
482.717	526.62
482.935	545.62
483.153	549.62
483.372	543.62
483.59	529.62
483.808	536.62
484.027	554.62
484.245	540.62
484.463	564.62
484.681	553.62
484.9	545.62
485.118	535.62
485.336	552.62
485.554	538.62
485.772	550.62
485.99	537.62
486.209	560.62
486.427	543.62
486.645	535.62
486.863	548.62
487.081	543.62
487.299	556.62
487.517	560.62
487.735	552.62
487.953	530.62
488.171	552.62
488.389	546.62
488.607	550.62
488.825	551.62
489.043	556.62
489.261	550.62
489.479	568.62
489.696	557.62
489.914	554.62
490.132	566.62
490.35	572.62
490.568	543.62
490.786	534.62
491.003	571.62
491.221	572.62
491.439	554.62
491.657	562.62
491.874	565.62
492.092	566.62
492.31	580.62
492.527	567.62
492.745	556.62
492.963	565.62
493.18	577.62
493.398	574.62
493.615	556.62
493.833	584.62
494.05	575.62
494.268	569.62
494.485	577.62
494.703	593.62
494.92	583.62
495.138	564.62
495.355	624.62
495.573	604.62
495.79	602.62
496.008	606.62
496.225	602.62
496.442	619.62
496.66	636.62
496.877	640.62
497.094	624.62
497.312	642.62
497.529	658.62
497.746	656.62
497.963	667.62
498.181	722.62
498.398	732.62
498.615	744.62
498.832	782.62
499.049	809.62
499.267	867.62
499.484	926.62
499.701	931.62
499.918	970.62
500.135	1064.62
500.352	1147.62
500.569	1128.62
500.786	1118.62
501.003	1076.62
501.22	1042.62
501.437	972.62
501.654	922.62
501.871	873.62
