Data from Fe(NO3)3@0.05M.TitratingCurve.Agarose3%dH2O.NegLispCup.LampEnergy10.LIBS07252019_HRD10591_16-47-04-334.txt Node
Date: Thu Jul 25 16:47:04 EDT 2019
User: cochatt
Spectrometer: HR+D1059
Trigger mode: 1
Integration Time (sec): 1.000000E-1
Scans to average: 1
Electric dark correction enabled: true
Nonlinearity correction enabled: false
Boxcar width: 0
XAxis mode: Wavelengths
Number of Pixels in Spectrum: 2048
>>>>>Begin Spectral Data<<<<<
223.165	-6.75
223.4	-6.75
223.635	-6.75
223.869	-16.75
224.104	-19.75
224.338	-28.75
224.573	-12.75
224.808	1.25
225.042	-19.75
225.277	-2.75
225.511	-12.75
225.746	-3.75
225.98	6.25
226.215	19.25
226.449	21.25
226.683	20.25
226.918	24.25
227.152	31.25
227.387	48.25
227.621	31.25
227.856	45.25
228.09	42.25
228.324	37.25
228.559	49.25
228.793	59.25
229.027	83.25
229.262	107.25
229.496	109.25
229.73	120.25
229.964	115.25
230.199	105.25
230.433	119.25
230.667	121.25
230.901	114.25
231.136	108.25
231.37	111.25
231.604	127.25
231.838	130.25
232.072	123.25
232.306	128.25
232.541	119.25
232.775	136.25
233.009	135.25
233.243	141.25
233.477	121.25
233.711	139.25
233.945	132.25
234.179	135.25
234.413	138.25
234.647	150.25
234.881	149.25
235.115	155.25
235.349	154.25
235.583	144.25
235.817	139.25
236.051	131.25
236.285	149.25
236.519	140.25
236.753	140.25
236.987	147.25
237.221	155.25
237.455	132.25
237.689	140.25
237.922	146.25
238.156	155.25
238.39	178.25
238.624	163.25
238.858	179.25
239.091	171.25
239.325	159.25
239.559	173.25
239.793	170.25
240.027	171.25
240.26	160.25
240.494	168.25
240.728	169.25
240.961	177.25
241.195	157.25
241.429	159.25
241.662	185.25
241.896	168.25
242.13	164.25
242.363	164.25
242.597	177.25
242.83	171.25
243.064	156.25
243.298	171.25
243.531	175.25
243.765	166.25
243.998	176.25
244.232	173.25
244.465	179.25
244.699	169.25
244.932	191.25
245.166	191.25
245.399	188.25
245.633	192.25
245.866	195.25
246.099	185.25
246.333	184.25
246.566	201.25
246.8	201.25
247.033	198.25
247.266	200.25
247.5	203.25
247.733	211.25
247.966	194.25
248.2	203.25
248.433	204.25
248.666	193.25
248.899	201.25
249.133	219.25
249.366	213.25
249.599	214.25
249.832	206.25
250.066	233.25
250.299	212.25
250.532	213.25
250.765	218.25
250.998	213.25
251.231	217.25
251.465	221.25
251.698	231.25
251.931	200.25
252.164	234.25
252.397	223.25
252.63	220.25
252.863	239.25
253.096	234.25
253.329	236.25
253.562	246.25
253.795	239.25
254.028	256.25
254.261	255.25
254.494	240.25
254.727	232.25
254.96	257.25
255.193	253.25
255.426	252.25
255.659	252.25
255.892	243.25
256.124	249.25
256.357	259.25
256.59	241.25
256.823	227.25
257.056	239.25
257.289	247.25
257.521	250.25
257.754	249.25
257.987	258.25
258.22	267.25
258.452	263.25
258.685	262.25
258.918	260.25
259.151	280.25
259.383	248.25
259.616	256.25
259.849	268.25
260.081	303.25
260.314	305.25
260.547	292.25
260.779	266.25
261.012	283.25
261.244	293.25
261.477	305.25
261.71	277.25
261.942	291.25
262.175	292.25
262.407	272.25
262.64	286.25
262.872	279.25
263.105	299.25
263.337	303.25
263.57	290.25
263.802	270.25
264.035	277.25
264.267	284.25
264.499	249.25
264.732	291.25
264.964	267.25
265.197	283.25
265.429	299.25
265.661	296.25
265.894	289.25
266.126	299.25
266.358	296.25
266.591	291.25
266.823	303.25
267.055	305.25
267.287	295.25
267.52	287.25
267.752	285.25
267.984	296.25
268.216	307.25
268.448	311.25
268.681	308.25
268.913	301.25
269.145	320.25
269.377	303.25
269.609	310.25
269.841	315.25
270.073	319.25
270.306	312.25
270.538	326.25
270.77	315.25
271.002	328.25
271.234	313.25
271.466	325.25
271.698	322.25
271.93	327.25
272.162	324.25
272.394	323.25
272.626	320.25
272.858	313.25
273.09	334.25
273.322	327.25
273.553	322.25
273.785	356.25
274.017	368.25
274.249	381.25
274.481	396.25
274.713	384.25
274.945	379.25
275.176	399.25
275.408	377.25
275.64	398.25
275.872	373.25
276.104	374.25
276.335	358.25
276.567	364.25
276.799	364.25
277.031	384.25
277.262	361.25
277.494	337.25
277.726	365.25
277.957	368.25
278.189	348.25
278.421	360.25
278.652	349.25
278.884	371.25
279.115	376.25
279.347	379.25
279.579	368.25
279.81	347.25
280.042	379.25
280.273	357.25
280.505	360.25
280.736	358.25
280.968	373.25
281.199	375.25
281.431	378.25
281.662	371.25
281.894	373.25
282.125	379.25
282.356	371.25
282.588	379.25
282.819	394.25
283.051	388.25
283.282	385.25
283.513	391.25
283.745	400.25
283.976	382.25
284.207	393.25
284.439	413.25
284.67	400.25
284.901	393.25
285.132	393.25
285.364	412.25
285.595	399.25
285.826	397.25
286.057	394.25
286.288	401.25
286.52	409.25
286.751	390.25
286.982	419.25
287.213	416.25
287.444	391.25
287.675	400.25
287.906	412.25
288.138	422.25
288.369	411.25
288.6	421.25
288.831	406.25
289.062	423.25
289.293	402.25
289.524	405.25
289.755	400.25
289.986	415.25
290.217	417.25
290.448	441.25
290.679	417.25
290.91	424.25
291.141	409.25
291.371	414.25
291.602	415.25
291.833	406.25
292.064	416.25
292.295	425.25
292.526	443.25
292.757	420.25
292.987	415.25
293.218	428.25
293.449	433.25
293.68	420.25
293.91	437.25
294.141	411.25
294.372	433.25
294.603	440.25
294.833	428.25
295.064	448.25
295.295	414.25
295.525	442.25
295.756	426.25
295.987	426.25
296.217	433.25
296.448	433.25
296.679	445.25
296.909	456.25
297.14	429.25
297.37	452.25
297.601	451.25
297.831	432.25
298.062	437.25
298.292	473.25
298.523	451.25
298.753	465.25
298.984	461.25
299.214	444.25
299.445	447.25
299.675	442.25
299.905	461.25
300.136	475.25
300.366	451.25
300.597	465.25
300.827	463.25
301.057	470.25
301.288	458.25
301.518	454.25
301.748	489.25
301.979	489.25
302.209	488.25
302.439	480.25
302.669	497.25
302.9	465.25
303.13	484.25
303.36	497.25
303.59	508.25
303.82	479.25
304.051	479.25
304.281	493.25
304.511	484.25
304.741	482.25
304.971	471.25
305.201	508.25
305.431	469.25
305.661	480.25
305.891	487.25
306.121	466.25
306.352	460.25
306.582	475.25
306.812	457.25
307.042	468.25
307.272	473.25
307.502	477.25
307.731	483.25
307.961	476.25
308.191	480.25
308.421	484.25
308.651	515.25
308.881	470.25
309.111	481.25
309.341	506.25
309.571	492.25
309.8	488.25
310.03	514.25
310.26	486.25
310.49	511.25
310.72	490.25
310.949	485.25
311.179	491.25
311.409	512.25
311.639	496.25
311.868	513.25
312.098	502.25
312.328	513.25
312.557	507.25
312.787	503.25
313.017	484.25
313.246	513.25
313.476	503.25
313.706	505.25
313.935	503.25
314.165	524.25
314.394	519.25
314.624	496.25
314.853	522.25
315.083	528.25
315.312	510.25
315.542	548.25
315.771	539.25
316.001	527.25
316.23	500.25
316.46	531.25
316.689	526.25
316.919	515.25
317.148	536.25
317.377	497.25
317.607	521.25
317.836	525.25
318.065	513.25
318.295	518.25
318.524	534.25
318.753	524.25
318.983	533.25
319.212	546.25
319.441	535.25
319.67	531.25
319.9	531.25
320.129	532.25
320.358	549.25
320.587	528.25
320.816	524.25
321.046	523.25
321.275	545.25
321.504	551.25
321.733	533.25
321.962	545.25
322.191	542.25
322.42	543.25
322.649	539.25
322.878	547.25
323.108	538.25
323.337	558.25
323.566	558.25
323.795	530.25
324.024	545.25
324.253	521.25
324.482	535.25
324.71	555.25
324.939	565.25
325.168	562.25
325.397	549.25
325.626	549.25
325.855	569.25
326.084	554.25
326.313	580.25
326.542	573.25
326.77	588.25
326.999	578.25
327.228	576.25
327.457	566.25
327.686	532.25
327.914	562.25
328.143	578.25
328.372	537.25
328.6	591.25
328.829	564.25
329.058	580.25
329.287	579.25
329.515	587.25
329.744	576.25
329.972	580.25
330.201	593.25
330.43	586.25
330.658	577.25
330.887	586.25
331.115	578.25
331.344	591.25
331.572	607.25
331.801	586.25
332.03	611.25
332.258	608.25
332.486	603.25
332.715	616.25
332.943	637.25
333.172	673.25
333.4	679.25
333.629	666.25
333.857	681.25
334.085	694.25
334.314	667.25
334.542	691.25
334.771	698.25
334.999	693.25
335.227	684.25
335.455	727.25
335.684	675.25
335.912	652.25
336.14	660.25
336.369	685.25
336.597	651.25
336.825	652.25
337.053	665.25
337.281	659.25
337.51	652.25
337.738	630.25
337.966	651.25
338.194	664.25
338.422	635.25
338.65	623.25
338.878	628.25
339.106	624.25
339.334	642.25
339.562	646.25
339.79	615.25
340.018	632.25
340.246	619.25
340.474	626.25
340.702	624.25
340.93	635.25
341.158	632.25
341.386	616.25
341.614	597.25
341.842	618.25
342.07	619.25
342.298	639.25
342.526	600.25
342.754	615.25
342.981	588.25
343.209	632.25
343.437	659.25
343.665	646.25
343.893	649.25
344.12	689.25
344.348	678.25
344.576	648.25
344.804	643.25
345.031	619.25
345.259	624.25
345.487	618.25
345.714	599.25
345.942	589.25
346.17	579.25
346.397	580.25
346.625	599.25
346.853	611.25
347.08	596.25
347.308	587.25
347.535	600.25
347.763	612.25
347.99	591.25
348.218	618.25
348.445	588.25
348.673	576.25
348.9	585.25
349.128	600.25
349.355	564.25
349.583	586.25
349.81	581.25
350.037	566.25
350.265	580.25
350.492	578.25
350.72	583.25
350.947	576.25
351.174	587.25
351.402	552.25
351.629	577.25
351.856	595.25
352.083	582.25
352.311	582.25
352.538	549.25
352.765	561.25
352.992	568.25
353.22	572.25
353.447	564.25
353.674	558.25
353.901	561.25
354.128	572.25
354.355	555.25
354.583	573.25
354.81	572.25
355.037	593.25
355.264	587.25
355.491	591.25
355.718	593.25
355.945	581.25
356.172	586.25
356.399	574.25
356.626	596.25
356.853	578.25
357.08	583.25
357.307	623.25
357.534	598.25
357.761	574.25
357.988	572.25
358.215	620.25
358.441	612.25
358.668	589.25
358.895	612.25
359.122	579.25
359.349	600.25
359.576	568.25
359.802	589.25
360.029	583.25
360.256	577.25
360.483	597.25
360.709	590.25
360.936	599.25
361.163	610.25
361.39	581.25
361.616	597.25
361.843	605.25
362.07	611.25
362.296	603.25
362.523	585.25
362.749	594.25
362.976	587.25
363.203	613.25
363.429	592.25
363.656	601.25
363.882	583.25
364.109	571.25
364.335	576.25
364.562	605.25
364.788	607.25
365.015	612.25
365.241	599.25
365.468	593.25
365.694	594.25
365.92	583.25
366.147	594.25
366.373	608.25
366.599	596.25
366.826	611.25
367.052	596.25
367.278	616.25
367.505	587.25
367.731	595.25
367.957	596.25
368.184	584.25
368.41	611.25
368.636	590.25
368.862	650.25
369.089	616.25
369.315	639.25
369.541	613.25
369.767	624.25
369.993	615.25
370.219	635.25
370.445	630.25
370.672	618.25
370.898	653.25
371.124	633.25
371.35	644.25
371.576	623.25
371.802	656.25
372.028	677.25
372.254	663.25
372.48	651.25
372.706	633.25
372.932	660.25
373.158	662.25
373.384	667.25
373.61	668.25
373.835	675.25
374.061	681.25
374.287	667.25
374.513	643.25
374.739	711.25
374.965	683.25
375.191	691.25
375.416	703.25
375.642	668.25
375.868	663.25
376.094	656.25
376.319	646.25
376.545	651.25
376.771	670.25
376.997	663.25
377.222	640.25
377.448	639.25
377.674	631.25
377.899	646.25
378.125	648.25
378.35	633.25
378.576	613.25
378.802	635.25
379.027	647.25
379.253	637.25
379.478	643.25
379.704	669.25
379.929	640.25
380.155	653.25
380.38	672.25
380.606	657.25
380.831	659.25
381.057	685.25
381.282	627.25
381.507	676.25
381.733	692.25
381.958	688.25
382.184	689.25
382.409	691.25
382.634	689.25
382.86	694.25
383.085	689.25
383.31	675.25
383.535	693.25
383.761	714.25
383.986	721.25
384.211	717.25
384.436	727.25
384.662	747.25
384.887	733.25
385.112	729.25
385.337	752.25
385.562	748.25
385.787	736.25
386.013	738.25
386.238	793.25
386.463	775.25
386.688	734.25
386.913	727.25
387.138	755.25
387.363	764.25
387.588	770.25
387.813	770.25
388.038	769.25
388.263	776.25
388.488	756.25
388.713	775.25
388.938	761.25
389.163	764.25
389.387	762.25
389.612	756.25
389.837	761.25
390.062	757.25
390.287	782.25
390.512	767.25
390.736	787.25
390.961	793.25
391.186	786.25
391.411	794.25
391.636	804.25
391.86	828.25
392.085	844.25
392.31	816.25
392.534	816.25
392.759	805.25
392.984	829.25
393.208	837.25
393.433	791.25
393.658	803.25
393.882	845.25
394.107	837.25
394.331	809.25
394.556	796.25
394.78	821.25
395.005	840.25
395.229	826.25
395.454	834.25
395.678	845.25
395.903	838.25
396.127	840.25
396.352	837.25
396.576	825.25
396.801	816.25
397.025	860.25
397.249	840.25
397.474	873.25
397.698	861.25
397.922	887.25
398.147	871.25
398.371	893.25
398.595	929.25
398.82	958.25
399.044	985.25
399.268	1016.25
399.492	1113.25
399.717	1149.25
399.941	1153.25
400.165	1132.25
400.389	1083.25
400.613	1037.25
400.837	1041.25
401.062	975.25
401.286	974.25
401.51	952.25
401.734	957.25
401.958	960.25
402.182	957.25
402.406	956.25
402.63	979.25
402.854	952.25
403.078	953.25
403.302	973.25
403.526	983.25
403.75	995.25
403.974	988.25
404.198	961.25
404.422	991.25
404.645	999.25
404.869	989.25
405.093	992.25
405.317	966.25
405.541	979.25
405.765	1001.25
405.988	987.25
406.212	1009.25
406.436	1012.25
406.66	1056.25
406.883	1057.25
407.107	1053.25
407.331	1105.25
407.555	1129.25
407.778	1089.25
408.002	1116.25
408.226	1097.25
408.449	1091.25
408.673	1072.25
408.896	1071.25
409.12	1059.25
409.344	1044.25
409.567	979.25
409.791	1019.25
410.014	1034.25
410.238	1010.25
410.461	1004.25
410.685	979.25
410.908	1027.25
411.132	1009.25
411.355	980.25
411.578	994.25
411.802	978.25
412.025	981.25
412.249	993.25
412.472	980.25
412.695	966.25
412.919	983.25
413.142	954.25
413.365	967.25
413.589	964.25
413.812	917.25
414.035	937.25
414.258	967.25
414.482	985.25
414.705	951.25
414.928	969.25
415.151	959.25
415.374	936.25
415.597	931.25
415.821	918.25
416.044	947.25
416.267	923.25
416.49	928.25
416.713	909.25
416.936	937.25
417.159	917.25
417.382	931.25
417.605	936.25
417.828	945.25
418.051	905.25
418.274	912.25
418.497	924.25
418.72	950.25
418.943	930.25
419.166	973.25
419.389	1037.25
419.611	1035.25
419.834	1024.25
420.057	951.25
420.28	917.25
420.503	933.25
420.726	919.25
420.948	883.25
421.171	929.25
421.394	929.25
421.617	921.25
421.839	914.25
422.062	918.25
422.285	895.25
422.507	926.25
422.73	945.25
422.953	916.25
423.175	885.25
423.398	891.25
423.621	920.25
423.843	930.25
424.066	930.25
424.288	939.25
424.511	920.25
424.733	916.25
424.956	937.25
425.178	935.25
425.401	921.25
425.623	892.25
425.846	881.25
426.068	905.25
426.291	877.25
426.513	880.25
426.735	889.25
426.958	874.25
427.18	883.25
427.402	899.25
427.625	873.25
427.847	824.25
428.069	867.25
428.292	860.25
428.514	853.25
428.736	868.25
428.958	880.25
429.181	849.25
429.403	834.25
429.625	845.25
429.847	839.25
430.069	829.25
430.292	881.25
430.514	844.25
430.736	861.25
430.958	844.25
431.18	881.25
431.402	866.25
431.624	863.25
431.846	845.25
432.068	851.25
432.29	867.25
432.512	874.25
432.734	894.25
432.956	865.25
433.178	892.25
433.4	867.25
433.622	874.25
433.844	859.25
434.066	895.25
434.287	868.25
434.509	895.25
434.731	911.25
434.953	897.25
435.175	906.25
435.397	928.25
435.618	877.25
435.84	895.25
436.062	863.25
436.284	878.25
436.505	857.25
436.727	860.25
436.949	858.25
437.17	852.25
437.392	856.25
437.614	856.25
437.835	829.25
438.057	837.25
438.278	818.25
438.5	823.25
438.721	809.25
438.943	837.25
439.165	811.25
439.386	826.25
439.608	846.25
439.829	859.25
440.05	822.25
440.272	841.25
440.493	859.25
440.715	881.25
440.936	889.25
441.158	865.25
441.379	877.25
441.6	893.25
441.822	884.25
442.043	927.25
442.264	920.25
442.486	881.25
442.707	905.25
442.928	892.25
443.149	893.25
443.371	906.25
443.592	939.25
443.813	925.25
444.034	925.25
444.255	920.25
444.476	955.25
444.698	953.25
444.919	969.25
445.14	1085.25
445.361	1014.25
445.582	949.25
445.803	938.25
446.024	891.25
446.245	901.25
446.466	883.25
446.687	868.25
446.908	858.25
447.129	865.25
447.35	867.25
447.571	835.25
447.792	837.25
448.013	813.25
448.234	820.25
448.455	812.25
448.675	781.25
448.896	822.25
449.117	814.25
449.338	799.25
449.559	801.25
449.779	779.25
450	776.25
450.221	773.25
450.442	812.25
450.662	787.25
450.883	761.25
451.104	807.25
451.324	791.25
451.545	805.25
451.766	793.25
451.986	780.25
452.207	769.25
452.428	762.25
452.648	776.25
452.869	761.25
453.089	770.25
453.31	753.25
453.53	771.25
453.751	792.25
453.971	743.25
454.192	779.25
454.412	747.25
454.633	763.25
454.853	756.25
455.073	757.25
455.294	757.25
455.514	756.25
455.734	737.25
455.955	732.25
456.175	757.25
456.395	751.25
456.616	725.25
456.836	737.25
457.056	753.25
457.276	739.25
457.497	747.25
457.717	744.25
457.937	758.25
458.157	771.25
458.377	777.25
458.598	800.25
458.818	819.25
459.038	826.25
459.258	820.25
459.478	846.25
459.698	891.25
459.918	882.25
460.138	892.25
460.358	935.25
460.578	901.25
460.798	936.25
461.018	947.25
461.238	981.25
461.458	944.25
461.678	952.25
461.898	927.25
462.118	934.25
462.338	1023.25
462.558	1005.25
462.777	1040.25
462.997	1047.25
463.217	1119.25
463.437	1105.25
463.657	1083.25
463.876	1085.25
464.096	1091.25
464.316	1032.25
464.536	1007.25
464.755	1020.25
464.975	976.25
465.195	952.25
465.414	944.25
465.634	915.25
465.854	897.25
466.073	878.25
466.293	881.25
466.512	845.25
466.732	858.25
466.951	845.25
467.171	856.25
467.391	844.25
467.61	827.25
467.829	837.25
468.049	827.25
468.268	822.25
468.488	804.25
468.707	784.25
468.927	795.25
469.146	835.25
469.365	837.25
469.585	823.25
469.804	835.25
470.023	857.25
470.243	832.25
470.462	838.25
470.681	864.25
470.901	837.25
471.12	850.25
471.339	828.25
471.558	841.25
471.777	824.25
471.997	844.25
472.216	832.25
472.435	822.25
472.654	797.25
472.873	803.25
473.092	820.25
473.311	797.25
473.53	846.25
473.749	802.25
473.968	815.25
474.187	804.25
474.406	822.25
474.625	807.25
474.844	828.25
475.063	811.25
475.282	829.25
475.501	827.25
475.72	859.25
475.939	821.25
476.158	852.25
476.377	848.25
476.596	865.25
476.814	867.25
477.033	853.25
477.252	860.25
477.471	890.25
477.69	895.25
477.908	907.25
478.127	923.25
478.346	903.25
478.564	948.25
478.783	943.25
479.002	969.25
479.22	987.25
479.439	1001.25
479.658	960.25
479.876	975.25
480.095	997.25
480.313	1003.25
480.532	1003.25
480.751	1009.25
480.969	944.25
481.188	981.25
481.406	977.25
481.624	960.25
481.843	960.25
482.061	948.25
482.28	969.25
482.498	944.25
482.717	943.25
482.935	955.25
483.153	945.25
483.372	913.25
483.59	939.25
483.808	938.25
484.027	932.25
484.245	942.25
484.463	963.25
484.681	968.25
484.9	947.25
485.118	975.25
485.336	959.25
485.554	913.25
485.772	996.25
485.99	963.25
486.209	936.25
486.427	977.25
486.645	991.25
486.863	991.25
487.081	953.25
487.299	953.25
487.517	960.25
487.735	976.25
487.953	999.25
488.171	992.25
488.389	939.25
488.607	976.25
488.825	979.25
489.043	956.25
489.261	955.25
489.479	959.25
489.696	964.25
489.914	987.25
490.132	959.25
490.35	963.25
490.568	970.25
490.786	990.25
491.003	982.25
491.221	980.25
491.439	1018.25
491.657	963.25
491.874	1012.25
492.092	1024.25
492.31	1051.25
492.527	1033.25
492.745	1029.25
492.963	1031.25
493.18	1031.25
493.398	1002.25
493.615	997.25
493.833	997.25
494.05	1035.25
494.268	1033.25
494.485	1010.25
494.703	1013.25
494.92	1042.25
495.138	1013.25
495.355	1041.25
495.573	1035.25
495.79	1023.25
496.008	1045.25
496.225	1079.25
496.442	1071.25
496.66	1072.25
496.877	1065.25
497.094	1112.25
497.312	1137.25
497.529	1135.25
497.746	1145.25
497.963	1199.25
498.181	1215.25
498.398	1260.25
498.615	1291.25
498.832	1347.25
499.049	1448.25
499.267	1531.25
499.484	1595.25
499.701	1692.25
499.918	1795.25
500.135	1874.25
500.352	2010.25
