Data from Fe(NO3)3@0.025M.TitratingCurve.Agarose3%dH2O.NegLispCup.LampEnergy10.LIBS07252019_HRD10591_16-55-38-335.txt Node
Date: Thu Jul 25 16:55:38 EDT 2019
User: cochatt
Spectrometer: HR+D1059
Trigger mode: 1
Integration Time (sec): 1.000000E-1
Scans to average: 1
Electric dark correction enabled: true
Nonlinearity correction enabled: false
Boxcar width: 0
XAxis mode: Wavelengths
Number of Pixels in Spectrum: 2048
>>>>>Begin Spectral Data<<<<<
223.165	-27.75
223.4	-27.75
223.635	-27.75
223.869	-9.75
224.104	-18.75
224.338	-3.75
224.573	-10.75
224.808	-14.75
225.042	-3.75
225.277	-6.75
225.511	-5.75
225.746	2.25
225.98	12.25
226.215	9.25
226.449	5.25
226.683	27.25
226.918	23.25
227.152	22.25
227.387	31.25
227.621	27.25
227.856	37.25
228.09	45.25
228.324	40.25
228.559	60.25
228.793	59.25
229.027	58.25
229.262	69.25
229.496	65.25
229.73	77.25
229.964	82.25
230.199	74.25
230.433	88.25
230.667	88.25
230.901	93.25
231.136	91.25
231.37	82.25
231.604	91.25
231.838	91.25
232.072	99.25
232.306	95.25
232.541	83.25
232.775	95.25
233.009	93.25
233.243	94.25
233.477	105.25
233.711	91.25
233.945	88.25
234.179	105.25
234.413	110.25
234.647	97.25
234.881	98.25
235.115	87.25
235.349	90.25
235.583	113.25
235.817	101.25
236.051	92.25
236.285	100.25
236.519	89.25
236.753	103.25
236.987	96.25
237.221	99.25
237.455	103.25
237.689	100.25
237.922	103.25
238.156	102.25
238.39	98.25
238.624	101.25
238.858	82.25
239.091	92.25
239.325	89.25
239.559	101.25
239.793	99.25
240.027	99.25
240.26	101.25
240.494	113.25
240.728	101.25
240.961	102.25
241.195	97.25
241.429	99.25
241.662	114.25
241.896	95.25
242.13	101.25
242.363	99.25
242.597	110.25
242.83	117.25
243.064	102.25
243.298	106.25
243.531	102.25
243.765	113.25
243.998	96.25
244.232	110.25
244.465	106.25
244.699	117.25
244.932	115.25
245.166	116.25
245.399	105.25
245.633	101.25
245.866	108.25
246.099	118.25
246.333	116.25
246.566	105.25
246.8	107.25
247.033	106.25
247.266	99.25
247.5	113.25
247.733	118.25
247.966	114.25
248.2	125.25
248.433	97.25
248.666	93.25
248.899	127.25
249.133	124.25
249.366	116.25
249.599	121.25
249.832	110.25
250.066	116.25
250.299	118.25
250.532	132.25
250.765	122.25
250.998	129.25
251.231	120.25
251.465	113.25
251.698	127.25
251.931	118.25
252.164	111.25
252.397	122.25
252.63	135.25
252.863	127.25
253.096	118.25
253.329	106.25
253.562	110.25
253.795	121.25
254.028	132.25
254.261	123.25
254.494	118.25
254.727	129.25
254.96	119.25
255.193	117.25
255.426	124.25
255.659	127.25
255.892	135.25
256.124	118.25
256.357	120.25
256.59	130.25
256.823	129.25
257.056	138.25
257.289	132.25
257.521	136.25
257.754	138.25
257.987	126.25
258.22	140.25
258.452	126.25
258.685	126.25
258.918	143.25
259.151	132.25
259.383	141.25
259.616	134.25
259.849	133.25
260.081	122.25
260.314	118.25
260.547	142.25
260.779	131.25
261.012	133.25
261.244	146.25
261.477	122.25
261.71	147.25
261.942	151.25
262.175	133.25
262.407	130.25
262.64	129.25
262.872	143.25
263.105	140.25
263.337	154.25
263.57	142.25
263.802	138.25
264.035	153.25
264.267	139.25
264.499	137.25
264.732	135.25
264.964	144.25
265.197	161.25
265.429	153.25
265.661	132.25
265.894	135.25
266.126	129.25
266.358	133.25
266.591	151.25
266.823	145.25
267.055	150.25
267.287	133.25
267.52	136.25
267.752	147.25
267.984	157.25
268.216	153.25
268.448	153.25
268.681	147.25
268.913	158.25
269.145	160.25
269.377	148.25
269.609	145.25
269.841	147.25
270.073	158.25
270.306	157.25
270.538	156.25
270.77	159.25
271.002	149.25
271.234	153.25
271.466	158.25
271.698	156.25
271.93	153.25
272.162	164.25
272.394	156.25
272.626	157.25
272.858	148.25
273.09	158.25
273.322	153.25
273.553	157.25
273.785	163.25
274.017	165.25
274.249	162.25
274.481	183.25
274.713	173.25
274.945	183.25
275.176	174.25
275.408	160.25
275.64	162.25
275.872	166.25
276.104	169.25
276.335	174.25
276.567	182.25
276.799	177.25
277.031	178.25
277.262	171.25
277.494	170.25
277.726	160.25
277.957	175.25
278.189	169.25
278.421	161.25
278.652	166.25
278.884	183.25
279.115	161.25
279.347	174.25
279.579	180.25
279.81	174.25
280.042	155.25
280.273	186.25
280.505	172.25
280.736	173.25
280.968	177.25
281.199	166.25
281.431	174.25
281.662	169.25
281.894	173.25
282.125	200.25
282.356	177.25
282.588	183.25
282.819	170.25
283.051	184.25
283.282	187.25
283.513	179.25
283.745	186.25
283.976	197.25
284.207	173.25
284.439	197.25
284.67	194.25
284.901	207.25
285.132	195.25
285.364	194.25
285.595	197.25
285.826	189.25
286.057	206.25
286.288	197.25
286.52	183.25
286.751	182.25
286.982	206.25
287.213	175.25
287.444	179.25
287.675	191.25
287.906	179.25
288.138	197.25
288.369	199.25
288.6	203.25
288.831	188.25
289.062	201.25
289.293	183.25
289.524	194.25
289.755	199.25
289.986	202.25
290.217	195.25
290.448	205.25
290.679	194.25
290.91	197.25
291.141	214.25
291.371	205.25
291.602	213.25
291.833	202.25
292.064	207.25
292.295	198.25
292.526	195.25
292.757	207.25
292.987	205.25
293.218	200.25
293.449	208.25
293.68	197.25
293.91	198.25
294.141	196.25
294.372	209.25
294.603	222.25
294.833	208.25
295.064	194.25
295.295	203.25
295.525	198.25
295.756	202.25
295.987	210.25
296.217	223.25
296.448	213.25
296.679	205.25
296.909	214.25
297.14	210.25
297.37	217.25
297.601	220.25
297.831	206.25
298.062	218.25
298.292	220.25
298.523	207.25
298.753	217.25
298.984	217.25
299.214	218.25
299.445	227.25
299.675	223.25
299.905	247.25
300.136	221.25
300.366	217.25
300.597	221.25
300.827	230.25
301.057	221.25
301.288	217.25
301.518	229.25
301.748	211.25
301.979	232.25
302.209	231.25
302.439	232.25
302.669	228.25
302.9	230.25
303.13	224.25
303.36	225.25
303.59	242.25
303.82	229.25
304.051	252.25
304.281	232.25
304.511	235.25
304.741	237.25
304.971	236.25
305.201	226.25
305.431	238.25
305.661	232.25
305.891	241.25
306.121	231.25
306.352	217.25
306.582	228.25
306.812	238.25
307.042	243.25
307.272	230.25
307.502	231.25
307.731	230.25
307.961	231.25
308.191	224.25
308.421	217.25
308.651	234.25
308.881	237.25
309.111	246.25
309.341	252.25
309.571	228.25
309.8	247.25
310.03	250.25
310.26	238.25
310.49	232.25
310.72	236.25
310.949	235.25
311.179	239.25
311.409	257.25
311.639	253.25
311.868	229.25
312.098	250.25
312.328	242.25
312.557	255.25
312.787	244.25
313.017	268.25
313.246	255.25
313.476	243.25
313.706	243.25
313.935	269.25
314.165	269.25
314.394	260.25
314.624	256.25
314.853	257.25
315.083	247.25
315.312	251.25
315.542	256.25
315.771	263.25
316.001	271.25
316.23	268.25
316.46	259.25
316.689	271.25
316.919	255.25
317.148	258.25
317.377	249.25
317.607	275.25
317.836	266.25
318.065	279.25
318.295	261.25
318.524	251.25
318.753	256.25
318.983	271.25
319.212	262.25
319.441	241.25
319.67	257.25
319.9	253.25
320.129	263.25
320.358	270.25
320.587	274.25
320.816	257.25
321.046	279.25
321.275	271.25
321.504	252.25
321.733	270.25
321.962	263.25
322.191	261.25
322.42	272.25
322.649	252.25
322.878	260.25
323.108	270.25
323.337	288.25
323.566	281.25
323.795	269.25
324.024	265.25
324.253	265.25
324.482	274.25
324.71	263.25
324.939	277.25
325.168	275.25
325.397	283.25
325.626	272.25
325.855	290.25
326.084	292.25
326.313	283.25
326.542	293.25
326.77	291.25
326.999	277.25
327.228	291.25
327.457	261.25
327.686	279.25
327.914	311.25
328.143	280.25
328.372	278.25
328.6	297.25
328.829	279.25
329.058	274.25
329.287	289.25
329.515	280.25
329.744	277.25
329.972	290.25
330.201	292.25
330.43	294.25
330.658	298.25
330.887	290.25
331.115	295.25
331.344	310.25
331.572	293.25
331.801	301.25
332.03	310.25
332.258	301.25
332.486	326.25
332.715	320.25
332.943	316.25
333.172	325.25
333.4	316.25
333.629	335.25
333.857	343.25
334.085	339.25
334.314	325.25
334.542	335.25
334.771	321.25
334.999	355.25
335.227	347.25
335.455	331.25
335.684	329.25
335.912	331.25
336.14	331.25
336.369	328.25
336.597	339.25
336.825	341.25
337.053	343.25
337.281	325.25
337.51	348.25
337.738	327.25
337.966	341.25
338.194	316.25
338.422	319.25
338.65	309.25
338.878	323.25
339.106	318.25
339.334	317.25
339.562	314.25
339.79	326.25
340.018	337.25
340.246	309.25
340.474	311.25
340.702	331.25
340.93	317.25
341.158	312.25
341.386	320.25
341.614	301.25
341.842	325.25
342.07	334.25
342.298	308.25
342.526	309.25
342.754	324.25
342.981	326.25
343.209	306.25
343.437	321.25
343.665	347.25
343.893	322.25
344.12	342.25
344.348	345.25
344.576	326.25
344.804	333.25
345.031	342.25
345.259	323.25
345.487	319.25
345.714	313.25
345.942	301.25
346.17	319.25
346.397	306.25
346.625	319.25
346.853	313.25
347.08	297.25
347.308	309.25
347.535	305.25
347.763	317.25
347.99	294.25
348.218	327.25
348.445	317.25
348.673	307.25
348.9	310.25
349.128	307.25
349.355	293.25
349.583	298.25
349.81	317.25
350.037	313.25
350.265	288.25
350.492	296.25
350.72	313.25
350.947	306.25
351.174	310.25
351.402	297.25
351.629	289.25
351.856	290.25
352.083	320.25
352.311	297.25
352.538	311.25
352.765	311.25
352.992	292.25
353.22	313.25
353.447	314.25
353.674	305.25
353.901	283.25
354.128	295.25
354.355	305.25
354.583	297.25
354.81	303.25
355.037	305.25
355.264	315.25
355.491	293.25
355.718	308.25
355.945	297.25
356.172	309.25
356.399	300.25
356.626	306.25
356.853	321.25
357.08	311.25
357.307	311.25
357.534	322.25
357.761	298.25
357.988	323.25
358.215	324.25
358.441	318.25
358.668	298.25
358.895	301.25
359.122	302.25
359.349	313.25
359.576	300.25
359.802	299.25
360.029	309.25
360.256	307.25
360.483	325.25
360.709	324.25
360.936	321.25
361.163	324.25
361.39	333.25
361.616	314.25
361.843	329.25
362.07	315.25
362.296	300.25
362.523	314.25
362.749	312.25
362.976	305.25
363.203	310.25
363.429	294.25
363.656	321.25
363.882	342.25
364.109	325.25
364.335	295.25
364.562	305.25
364.788	304.25
365.015	330.25
365.241	320.25
365.468	313.25
365.694	307.25
365.92	316.25
366.147	311.25
366.373	298.25
366.599	315.25
366.826	328.25
367.052	309.25
367.278	331.25
367.505	323.25
367.731	311.25
367.957	309.25
368.184	317.25
368.41	313.25
368.636	318.25
368.862	330.25
369.089	324.25
369.315	330.25
369.541	338.25
369.767	329.25
369.993	325.25
370.219	327.25
370.445	305.25
370.672	349.25
370.898	334.25
371.124	331.25
371.35	330.25
371.576	333.25
371.802	321.25
372.028	340.25
372.254	338.25
372.48	331.25
372.706	333.25
372.932	357.25
373.158	343.25
373.384	349.25
373.61	351.25
373.835	352.25
374.061	337.25
374.287	334.25
374.513	346.25
374.739	348.25
374.965	361.25
375.191	348.25
375.416	343.25
375.642	347.25
375.868	339.25
376.094	372.25
376.319	343.25
376.545	357.25
376.771	359.25
376.997	331.25
377.222	334.25
377.448	331.25
377.674	331.25
377.899	324.25
378.125	333.25
378.35	316.25
378.576	305.25
378.802	339.25
379.027	354.25
379.253	338.25
379.478	327.25
379.704	348.25
379.929	338.25
380.155	351.25
380.38	356.25
380.606	331.25
380.831	330.25
381.057	357.25
381.282	340.25
381.507	340.25
381.733	345.25
381.958	343.25
382.184	362.25
382.409	360.25
382.634	371.25
382.86	353.25
383.085	364.25
383.31	359.25
383.535	351.25
383.761	369.25
383.986	354.25
384.211	360.25
384.436	353.25
384.662	389.25
384.887	387.25
385.112	393.25
385.337	385.25
385.562	377.25
385.787	375.25
386.013	392.25
386.238	381.25
386.463	371.25
386.688	385.25
386.913	379.25
387.138	403.25
387.363	381.25
387.588	396.25
387.813	399.25
388.038	398.25
388.263	393.25
388.488	385.25
388.713	391.25
388.938	387.25
389.163	394.25
389.387	398.25
389.612	375.25
389.837	394.25
390.062	407.25
390.287	399.25
390.512	402.25
390.736	401.25
390.961	422.25
391.186	407.25
391.411	398.25
391.636	428.25
391.86	437.25
392.085	429.25
392.31	425.25
392.534	420.25
392.759	428.25
392.984	410.25
393.208	395.25
393.433	397.25
393.658	414.25
393.882	423.25
394.107	414.25
394.331	421.25
394.556	424.25
394.78	405.25
395.005	437.25
395.229	411.25
395.454	416.25
395.678	422.25
395.903	434.25
396.127	442.25
396.352	430.25
396.576	442.25
396.801	431.25
397.025	429.25
397.249	461.25
397.474	419.25
397.698	418.25
397.922	440.25
398.147	458.25
398.371	434.25
398.595	489.25
398.82	480.25
399.044	511.25
399.268	526.25
399.492	511.25
399.717	554.25
399.941	550.25
400.165	531.25
400.389	521.25
400.613	524.25
400.837	492.25
401.062	486.25
401.286	485.25
401.51	479.25
401.734	484.25
401.958	482.25
402.182	479.25
402.406	463.25
402.63	477.25
402.854	492.25
403.078	451.25
403.302	466.25
403.526	486.25
403.75	469.25
403.974	470.25
404.198	455.25
404.422	483.25
404.645	470.25
404.869	465.25
405.093	481.25
405.317	481.25
405.541	477.25
405.765	483.25
405.988	492.25
406.212	494.25
406.436	495.25
406.66	504.25
406.883	518.25
407.107	502.25
407.331	523.25
407.555	519.25
407.778	522.25
408.002	512.25
408.226	529.25
408.449	530.25
408.673	526.25
408.896	506.25
409.12	515.25
409.344	507.25
409.567	502.25
409.791	501.25
410.014	493.25
410.238	484.25
410.461	491.25
410.685	492.25
410.908	494.25
411.132	475.25
411.355	470.25
411.578	465.25
411.802	476.25
412.025	460.25
412.249	486.25
412.472	478.25
412.695	461.25
412.919	462.25
413.142	468.25
413.365	483.25
413.589	467.25
413.812	479.25
414.035	461.25
414.258	458.25
414.482	498.25
414.705	442.25
414.928	447.25
415.151	457.25
415.374	445.25
415.597	470.25
415.821	443.25
416.044	447.25
416.267	450.25
416.49	449.25
416.713	445.25
416.936	444.25
417.159	435.25
417.382	426.25
417.605	450.25
417.828	449.25
418.051	452.25
418.274	446.25
418.497	435.25
418.72	463.25
418.943	459.25
419.166	468.25
419.389	473.25
419.611	482.25
419.834	461.25
420.057	462.25
420.28	457.25
420.503	461.25
420.726	435.25
420.948	440.25
421.171	442.25
421.394	455.25
421.617	428.25
421.839	420.25
422.062	440.25
422.285	429.25
422.507	451.25
422.73	443.25
422.953	468.25
423.175	445.25
423.398	445.25
423.621	437.25
423.843	462.25
424.066	439.25
424.288	425.25
424.511	434.25
424.733	444.25
424.956	447.25
425.178	441.25
425.401	429.25
425.623	449.25
425.846	429.25
426.068	432.25
426.291	439.25
426.513	438.25
426.735	437.25
426.958	440.25
427.18	424.25
427.402	439.25
427.625	430.25
427.847	428.25
428.069	419.25
428.292	419.25
428.514	429.25
428.736	425.25
428.958	424.25
429.181	412.25
429.403	403.25
429.625	419.25
429.847	425.25
430.069	434.25
430.292	409.25
430.514	429.25
430.736	422.25
430.958	431.25
431.18	396.25
431.402	418.25
431.624	431.25
431.846	419.25
432.068	415.25
432.29	435.25
432.512	431.25
432.734	422.25
432.956	434.25
433.178	439.25
433.4	419.25
433.622	417.25
433.844	425.25
434.066	406.25
434.287	421.25
434.509	437.25
434.731	428.25
434.953	453.25
435.175	426.25
435.397	454.25
435.618	441.25
435.84	436.25
436.062	428.25
436.284	411.25
436.505	428.25
436.727	442.25
436.949	397.25
437.17	395.25
437.392	398.25
437.614	417.25
437.835	422.25
438.057	417.25
438.278	401.25
438.5	383.25
438.721	408.25
438.943	403.25
439.165	398.25
439.386	397.25
439.608	417.25
439.829	419.25
440.05	429.25
440.272	426.25
440.493	425.25
440.715	405.25
440.936	413.25
441.158	413.25
441.379	428.25
441.6	428.25
441.822	425.25
442.043	424.25
442.264	443.25
442.486	429.25
442.707	443.25
442.928	445.25
443.149	427.25
443.371	406.25
443.592	428.25
443.813	421.25
444.034	446.25
444.255	439.25
444.476	463.25
444.698	456.25
444.919	454.25
445.14	545.25
445.361	469.25
445.582	452.25
445.803	427.25
446.024	431.25
446.245	420.25
446.466	410.25
446.687	413.25
446.908	406.25
447.129	412.25
447.35	405.25
447.571	381.25
447.792	389.25
448.013	412.25
448.234	397.25
448.455	395.25
448.675	397.25
448.896	394.25
449.117	385.25
449.338	398.25
449.559	374.25
449.779	348.25
450	381.25
450.221	399.25
450.442	398.25
450.662	395.25
450.883	393.25
451.104	363.25
451.324	393.25
451.545	382.25
451.766	388.25
451.986	383.25
452.207	356.25
452.428	375.25
452.648	373.25
452.869	357.25
453.089	372.25
453.31	366.25
453.53	359.25
453.751	379.25
453.971	349.25
454.192	369.25
454.412	350.25
454.633	355.25
454.853	363.25
455.073	377.25
455.294	376.25
455.514	370.25
455.734	375.25
455.955	353.25
456.175	365.25
456.395	353.25
456.616	380.25
456.836	384.25
457.056	369.25
457.276	381.25
457.497	362.25
457.717	377.25
457.937	375.25
458.157	381.25
458.377	378.25
458.598	366.25
458.818	384.25
459.038	396.25
459.258	410.25
459.478	400.25
459.698	401.25
459.918	457.25
460.138	433.25
460.358	435.25
460.578	442.25
460.798	438.25
461.018	444.25
461.238	475.25
461.458	450.25
461.678	465.25
461.898	449.25
462.118	449.25
462.338	486.25
462.558	505.25
462.777	490.25
462.997	520.25
463.217	519.25
463.437	515.25
463.657	499.25
463.876	500.25
464.096	503.25
464.316	517.25
464.536	494.25
464.755	493.25
464.975	492.25
465.195	482.25
465.414	465.25
465.634	458.25
465.854	435.25
466.073	407.25
466.293	408.25
466.512	426.25
466.732	409.25
466.951	399.25
467.171	418.25
467.391	413.25
467.61	426.25
467.829	427.25
468.049	417.25
468.268	414.25
468.488	397.25
468.707	396.25
468.927	401.25
469.146	401.25
469.365	392.25
469.585	409.25
469.804	402.25
470.023	420.25
470.243	416.25
470.462	399.25
470.681	419.25
470.901	413.25
471.12	431.25
471.339	426.25
471.558	427.25
471.777	399.25
471.997	407.25
472.216	417.25
472.435	413.25
472.654	403.25
472.873	422.25
473.092	423.25
473.311	407.25
473.53	412.25
473.749	398.25
473.968	410.25
474.187	413.25
474.406	421.25
474.625	417.25
474.844	413.25
475.063	415.25
475.282	412.25
475.501	409.25
475.72	415.25
475.939	417.25
476.158	425.25
476.377	431.25
476.596	421.25
476.814	419.25
477.033	415.25
477.252	446.25
477.471	442.25
477.69	436.25
477.908	443.25
478.127	463.25
478.346	463.25
478.564	467.25
478.783	479.25
479.002	466.25
479.22	471.25
479.439	468.25
479.658	479.25
479.876	482.25
480.095	501.25
480.313	475.25
480.532	476.25
480.751	480.25
480.969	483.25
481.188	483.25
481.406	476.25
481.624	478.25
481.843	479.25
482.061	481.25
482.28	475.25
482.498	484.25
482.717	471.25
482.935	462.25
483.153	449.25
483.372	475.25
483.59	453.25
483.808	487.25
484.027	500.25
484.245	485.25
484.463	486.25
484.681	491.25
484.9	458.25
485.118	475.25
485.336	480.25
485.554	497.25
485.772	461.25
485.99	486.25
486.209	476.25
486.427	493.25
486.645	492.25
486.863	482.25
487.081	452.25
487.299	471.25
487.517	475.25
487.735	482.25
487.953	486.25
488.171	476.25
488.389	477.25
488.607	501.25
488.825	475.25
489.043	469.25
489.261	491.25
489.479	478.25
489.696	482.25
489.914	487.25
490.132	481.25
490.35	491.25
490.568	500.25
490.786	502.25
491.003	490.25
491.221	493.25
491.439	514.25
491.657	499.25
491.874	507.25
492.092	510.25
492.31	495.25
492.527	516.25
492.745	487.25
492.963	490.25
493.18	500.25
493.398	491.25
493.615	499.25
493.833	488.25
494.05	503.25
494.268	518.25
494.485	499.25
494.703	510.25
494.92	519.25
495.138	503.25
495.355	528.25
495.573	515.25
495.79	530.25
496.008	549.25
496.225	537.25
496.442	551.25
496.66	537.25
496.877	582.25
497.094	553.25
497.312	595.25
497.529	584.25
497.746	606.25
497.963	612.25
498.181	616.25
498.398	641.25
498.615	660.25
498.832	682.25
499.049	724.25
499.267	731.25
499.484	779.25
499.701	817.25
499.918	837.25
500.135	851.25
500.352	893.25
500.569	883.25
500.786	886.25
501.003	870.25
501.22	839.25
501.437	827.25
501.654	789.25
501.871	742.25
502.088	720.25
