Data from Fe(NO3)3@0.025M.TitratingCurve.Agarose3%dH2O.NegLispCup.LampEnergy10.LIBS07252019_HRD10591_16-56-09-335.txt Node
Date: Thu Jul 25 16:56:09 EDT 2019
User: cochatt
Spectrometer: HR+D1059
Trigger mode: 1
Integration Time (sec): 1.000000E-1
Scans to average: 1
Electric dark correction enabled: true
Nonlinearity correction enabled: false
Boxcar width: 0
XAxis mode: Wavelengths
Number of Pixels in Spectrum: 2048
>>>>>Begin Spectral Data<<<<<
223.165	-14.19
223.4	-14.19
223.635	-14.19
223.869	-21.19
224.104	-29.19
224.338	-26.19
224.573	-30.19
224.808	-1.19
225.042	0.81
225.277	0.81
225.511	-13.19
225.746	14.81
225.98	21.81
226.215	10.81
226.449	10.81
226.683	11.81
226.918	34.81
227.152	28.81
227.387	43.81
227.621	28.81
227.856	52.81
228.09	54.81
228.324	60.81
228.559	42.81
228.793	73.81
229.027	65.81
229.262	64.81
229.496	78.81
229.73	76.81
229.964	75.81
230.199	88.81
230.433	78.81
230.667	86.81
230.901	92.81
231.136	72.81
231.37	93.81
231.604	86.81
231.838	91.81
232.072	98.81
232.306	93.81
232.541	97.81
232.775	79.81
233.009	76.81
233.243	96.81
233.477	98.81
233.711	85.81
233.945	90.81
234.179	98.81
234.413	88.81
234.647	91.81
234.881	91.81
235.115	85.81
235.349	83.81
235.583	101.81
235.817	85.81
236.051	94.81
236.285	84.81
236.519	89.81
236.753	85.81
236.987	89.81
237.221	84.81
237.455	89.81
237.689	100.81
237.922	97.81
238.156	93.81
238.39	94.81
238.624	94.81
238.858	82.81
239.091	92.81
239.325	96.81
239.559	89.81
239.793	106.81
240.027	86.81
240.26	100.81
240.494	110.81
240.728	96.81
240.961	88.81
241.195	109.81
241.429	86.81
241.662	96.81
241.896	93.81
242.13	91.81
242.363	84.81
242.597	90.81
242.83	89.81
243.064	91.81
243.298	102.81
243.531	93.81
243.765	96.81
243.998	104.81
244.232	98.81
244.465	98.81
244.699	105.81
244.932	92.81
245.166	90.81
245.399	94.81
245.633	100.81
245.866	108.81
246.099	103.81
246.333	112.81
246.566	94.81
246.8	94.81
247.033	96.81
247.266	93.81
247.5	113.81
247.733	102.81
247.966	107.81
248.2	101.81
248.433	97.81
248.666	82.81
248.899	102.81
249.133	104.81
249.366	112.81
249.599	112.81
249.832	116.81
250.066	113.81
250.299	90.81
250.532	99.81
250.765	105.81
250.998	105.81
251.231	103.81
251.465	105.81
251.698	92.81
251.931	104.81
252.164	109.81
252.397	112.81
252.63	116.81
252.863	131.81
253.096	110.81
253.329	98.81
253.562	109.81
253.795	108.81
254.028	116.81
254.261	118.81
254.494	103.81
254.727	100.81
254.96	112.81
255.193	106.81
255.426	100.81
255.659	123.81
255.892	104.81
256.124	122.81
256.357	124.81
256.59	119.81
256.823	110.81
257.056	127.81
257.289	98.81
257.521	122.81
257.754	119.81
257.987	120.81
258.22	114.81
258.452	112.81
258.685	122.81
258.918	118.81
259.151	126.81
259.383	122.81
259.616	115.81
259.849	118.81
260.081	109.81
260.314	121.81
260.547	114.81
260.779	122.81
261.012	129.81
261.244	124.81
261.477	125.81
261.71	128.81
261.942	112.81
262.175	118.81
262.407	116.81
262.64	132.81
262.872	118.81
263.105	130.81
263.337	109.81
263.57	115.81
263.802	141.81
264.035	103.81
264.267	111.81
264.499	122.81
264.732	132.81
264.964	122.81
265.197	134.81
265.429	129.81
265.661	110.81
265.894	126.81
266.126	121.81
266.358	132.81
266.591	124.81
266.823	117.81
267.055	127.81
267.287	118.81
267.52	134.81
267.752	132.81
267.984	122.81
268.216	121.81
268.448	121.81
268.681	117.81
268.913	131.81
269.145	132.81
269.377	138.81
269.609	131.81
269.841	127.81
270.073	130.81
270.306	128.81
270.538	150.81
270.77	134.81
271.002	128.81
271.234	122.81
271.466	138.81
271.698	127.81
271.93	136.81
272.162	124.81
272.394	130.81
272.626	122.81
272.858	124.81
273.09	121.81
273.322	118.81
273.553	141.81
273.785	126.81
274.017	136.81
274.249	134.81
274.481	150.81
274.713	128.81
274.945	146.81
275.176	137.81
275.408	150.81
275.64	145.81
275.872	138.81
276.104	154.81
276.335	134.81
276.567	134.81
276.799	152.81
277.031	133.81
277.262	127.81
277.494	133.81
277.726	134.81
277.957	116.81
278.189	162.81
278.421	151.81
278.652	134.81
278.884	143.81
279.115	144.81
279.347	150.81
279.579	139.81
279.81	145.81
280.042	151.81
280.273	144.81
280.505	146.81
280.736	145.81
280.968	140.81
281.199	131.81
281.431	160.81
281.662	147.81
281.894	151.81
282.125	150.81
282.356	146.81
282.588	148.81
282.819	157.81
283.051	147.81
283.282	149.81
283.513	145.81
283.745	137.81
283.976	157.81
284.207	140.81
284.439	148.81
284.67	149.81
284.901	155.81
285.132	164.81
285.364	155.81
285.595	154.81
285.826	165.81
286.057	153.81
286.288	144.81
286.52	153.81
286.751	159.81
286.982	165.81
287.213	157.81
287.444	152.81
287.675	146.81
287.906	152.81
288.138	154.81
288.369	154.81
288.6	152.81
288.831	160.81
289.062	153.81
289.293	144.81
289.524	158.81
289.755	155.81
289.986	154.81
290.217	167.81
290.448	182.81
290.679	154.81
290.91	172.81
291.141	167.81
291.371	154.81
291.602	160.81
291.833	147.81
292.064	165.81
292.295	161.81
292.526	167.81
292.757	155.81
292.987	172.81
293.218	174.81
293.449	149.81
293.68	179.81
293.91	154.81
294.141	161.81
294.372	165.81
294.603	178.81
294.833	170.81
295.064	173.81
295.295	166.81
295.525	156.81
295.756	162.81
295.987	164.81
296.217	148.81
296.448	173.81
296.679	165.81
296.909	172.81
297.14	170.81
297.37	174.81
297.601	168.81
297.831	171.81
298.062	168.81
298.292	169.81
298.523	165.81
298.753	170.81
298.984	162.81
299.214	169.81
299.445	181.81
299.675	173.81
299.905	178.81
300.136	162.81
300.366	170.81
300.597	189.81
300.827	184.81
301.057	190.81
301.288	178.81
301.518	174.81
301.748	179.81
301.979	181.81
302.209	170.81
302.439	183.81
302.669	162.81
302.9	187.81
303.13	180.81
303.36	185.81
303.59	179.81
303.82	172.81
304.051	205.81
304.281	182.81
304.511	195.81
304.741	183.81
304.971	186.81
305.201	187.81
305.431	173.81
305.661	185.81
305.891	181.81
306.121	185.81
306.352	170.81
306.582	180.81
306.812	189.81
307.042	192.81
307.272	188.81
307.502	186.81
307.731	185.81
307.961	195.81
308.191	184.81
308.421	176.81
308.651	170.81
308.881	193.81
309.111	181.81
309.341	183.81
309.571	197.81
309.8	193.81
310.03	185.81
310.26	188.81
310.49	179.81
310.72	194.81
310.949	192.81
311.179	184.81
311.409	204.81
311.639	188.81
311.868	192.81
312.098	189.81
312.328	197.81
312.557	190.81
312.787	188.81
313.017	188.81
313.246	206.81
313.476	193.81
313.706	186.81
313.935	205.81
314.165	195.81
314.394	188.81
314.624	193.81
314.853	201.81
315.083	188.81
315.312	193.81
315.542	202.81
315.771	195.81
316.001	186.81
316.23	202.81
316.46	192.81
316.689	195.81
316.919	194.81
317.148	197.81
317.377	203.81
317.607	200.81
317.836	207.81
318.065	196.81
318.295	190.81
318.524	202.81
318.753	194.81
318.983	211.81
319.212	210.81
319.441	184.81
319.67	195.81
319.9	197.81
320.129	217.81
320.358	200.81
320.587	211.81
320.816	197.81
321.046	211.81
321.275	194.81
321.504	210.81
321.733	215.81
321.962	212.81
322.191	198.81
322.42	194.81
322.649	182.81
322.878	207.81
323.108	214.81
323.337	205.81
323.566	200.81
323.795	216.81
324.024	203.81
324.253	213.81
324.482	204.81
324.71	197.81
324.939	202.81
325.168	195.81
325.397	217.81
325.626	198.81
325.855	195.81
326.084	218.81
326.313	212.81
326.542	218.81
326.77	193.81
326.999	212.81
327.228	206.81
327.457	223.81
327.686	210.81
327.914	215.81
328.143	205.81
328.372	224.81
328.6	213.81
328.829	216.81
329.058	215.81
329.287	216.81
329.515	225.81
329.744	221.81
329.972	236.81
330.201	222.81
330.43	211.81
330.658	215.81
330.887	218.81
331.115	213.81
331.344	222.81
331.572	234.81
331.801	242.81
332.03	230.81
332.258	238.81
332.486	246.81
332.715	244.81
332.943	236.81
333.172	241.81
333.4	249.81
333.629	248.81
333.857	236.81
334.085	275.81
334.314	253.81
334.542	220.81
334.771	240.81
334.999	230.81
335.227	238.81
335.455	253.81
335.684	234.81
335.912	258.81
336.14	246.81
336.369	223.81
336.597	249.81
336.825	244.81
337.053	241.81
337.281	239.81
337.51	243.81
337.738	233.81
337.966	231.81
338.194	240.81
338.422	250.81
338.65	209.81
338.878	226.81
339.106	235.81
339.334	242.81
339.562	225.81
339.79	233.81
340.018	245.81
340.246	249.81
340.474	241.81
340.702	244.81
340.93	226.81
341.158	235.81
341.386	248.81
341.614	226.81
341.842	233.81
342.07	252.81
342.298	230.81
342.526	246.81
342.754	242.81
342.981	228.81
343.209	229.81
343.437	254.81
343.665	241.81
343.893	245.81
344.12	249.81
344.348	256.81
344.576	234.81
344.804	218.81
345.031	231.81
345.259	235.81
345.487	246.81
345.714	228.81
345.942	221.81
346.17	220.81
346.397	228.81
346.625	221.81
346.853	220.81
347.08	228.81
347.308	228.81
347.535	237.81
347.763	226.81
347.99	214.81
348.218	227.81
348.445	232.81
348.673	240.81
348.9	209.81
349.128	236.81
349.355	216.81
349.583	229.81
349.81	224.81
350.037	231.81
350.265	212.81
350.492	244.81
350.72	228.81
350.947	212.81
351.174	218.81
351.402	234.81
351.629	225.81
351.856	246.81
352.083	233.81
352.311	227.81
352.538	221.81
352.765	244.81
352.992	223.81
353.22	212.81
353.447	234.81
353.674	235.81
353.901	234.81
354.128	219.81
354.355	225.81
354.583	233.81
354.81	225.81
355.037	232.81
355.264	232.81
355.491	220.81
355.718	236.81
355.945	224.81
356.172	210.81
356.399	215.81
356.626	224.81
356.853	223.81
357.08	231.81
357.307	229.81
357.534	219.81
357.761	227.81
357.988	234.81
358.215	212.81
358.441	235.81
358.668	223.81
358.895	226.81
359.122	215.81
359.349	221.81
359.576	229.81
359.802	228.81
360.029	220.81
360.256	230.81
360.483	224.81
360.709	221.81
360.936	224.81
361.163	223.81
361.39	213.81
361.616	232.81
361.843	229.81
362.07	234.81
362.296	241.81
362.523	237.81
362.749	227.81
362.976	218.81
363.203	221.81
363.429	242.81
363.656	236.81
363.882	242.81
364.109	227.81
364.335	222.81
364.562	233.81
364.788	237.81
365.015	227.81
365.241	221.81
365.468	235.81
365.694	211.81
365.92	236.81
366.147	259.81
366.373	228.81
366.599	225.81
366.826	220.81
367.052	223.81
367.278	230.81
367.505	205.81
367.731	228.81
367.957	234.81
368.184	225.81
368.41	229.81
368.636	241.81
368.862	237.81
369.089	240.81
369.315	226.81
369.541	230.81
369.767	240.81
369.993	242.81
370.219	229.81
370.445	225.81
370.672	228.81
370.898	251.81
371.124	240.81
371.35	243.81
371.576	243.81
371.802	246.81
372.028	244.81
372.254	230.81
372.48	236.81
372.706	262.81
372.932	251.81
373.158	245.81
373.384	253.81
373.61	260.81
373.835	251.81
374.061	244.81
374.287	256.81
374.513	258.81
374.739	257.81
374.965	254.81
375.191	236.81
375.416	269.81
375.642	261.81
375.868	253.81
376.094	269.81
376.319	241.81
376.545	264.81
376.771	246.81
376.997	233.81
377.222	245.81
377.448	243.81
377.674	252.81
377.899	240.81
378.125	235.81
378.35	255.81
378.576	241.81
378.802	252.81
379.027	238.81
379.253	249.81
379.478	266.81
379.704	267.81
379.929	252.81
380.155	250.81
380.38	245.81
380.606	252.81
380.831	243.81
381.057	269.81
381.282	239.81
381.507	237.81
381.733	242.81
381.958	246.81
382.184	241.81
382.409	264.81
382.634	264.81
382.86	276.81
383.085	265.81
383.31	272.81
383.535	263.81
383.761	270.81
383.986	264.81
384.211	273.81
384.436	262.81
384.662	270.81
384.887	261.81
385.112	275.81
385.337	289.81
385.562	267.81
385.787	254.81
386.013	283.81
386.238	281.81
386.463	275.81
386.688	285.81
386.913	281.81
387.138	280.81
387.363	290.81
387.588	273.81
387.813	282.81
388.038	287.81
388.263	291.81
388.488	273.81
388.713	283.81
388.938	282.81
389.163	289.81
389.387	278.81
389.612	285.81
389.837	286.81
390.062	285.81
390.287	300.81
390.512	276.81
390.736	301.81
390.961	286.81
391.186	294.81
391.411	287.81
391.636	304.81
391.86	286.81
392.085	308.81
392.31	296.81
392.534	292.81
392.759	285.81
392.984	293.81
393.208	313.81
393.433	294.81
393.658	282.81
393.882	297.81
394.107	295.81
394.331	296.81
394.556	303.81
394.78	299.81
395.005	298.81
395.229	311.81
395.454	284.81
395.678	314.81
395.903	309.81
396.127	306.81
396.352	325.81
396.576	324.81
396.801	309.81
397.025	297.81
397.249	320.81
397.474	315.81
397.698	314.81
397.922	327.81
398.147	313.81
398.371	316.81
398.595	340.81
398.82	345.81
399.044	346.81
399.268	357.81
399.492	382.81
399.717	404.81
399.941	387.81
400.165	390.81
400.389	369.81
400.613	335.81
400.837	341.81
401.062	348.81
401.286	346.81
401.51	348.81
401.734	338.81
401.958	333.81
402.182	340.81
402.406	331.81
402.63	355.81
402.854	334.81
403.078	327.81
403.302	352.81
403.526	351.81
403.75	330.81
403.974	326.81
404.198	328.81
404.422	354.81
404.645	339.81
404.869	329.81
405.093	347.81
405.317	345.81
405.541	347.81
405.765	361.81
405.988	359.81
406.212	359.81
406.436	346.81
406.66	346.81
406.883	364.81
407.107	368.81
407.331	374.81
407.555	378.81
407.778	368.81
408.002	377.81
408.226	378.81
408.449	361.81
408.673	373.81
408.896	360.81
409.12	344.81
409.344	362.81
409.567	337.81
409.791	353.81
410.014	373.81
410.238	333.81
410.461	332.81
410.685	339.81
410.908	339.81
411.132	344.81
411.355	337.81
411.578	348.81
411.802	333.81
412.025	342.81
412.249	340.81
412.472	340.81
412.695	338.81
412.919	334.81
413.142	337.81
413.365	324.81
413.589	339.81
413.812	331.81
414.035	348.81
414.258	322.81
414.482	330.81
414.705	345.81
414.928	334.81
415.151	334.81
415.374	341.81
415.597	334.81
415.821	330.81
416.044	327.81
416.267	329.81
416.49	313.81
416.713	321.81
416.936	310.81
417.159	310.81
417.382	325.81
417.605	303.81
417.828	321.81
418.051	320.81
418.274	335.81
418.497	314.81
418.72	325.81
418.943	310.81
419.166	347.81
419.389	343.81
419.611	338.81
419.834	324.81
420.057	334.81
420.28	324.81
420.503	313.81
420.726	343.81
420.948	313.81
421.171	313.81
421.394	319.81
421.617	331.81
421.839	312.81
422.062	322.81
422.285	310.81
422.507	304.81
422.73	312.81
422.953	318.81
423.175	331.81
423.398	325.81
423.621	301.81
423.843	318.81
424.066	308.81
424.288	317.81
424.511	319.81
424.733	340.81
424.956	315.81
425.178	295.81
425.401	324.81
425.623	313.81
425.846	308.81
426.068	311.81
426.291	307.81
426.513	318.81
426.735	321.81
426.958	311.81
427.18	313.81
427.402	298.81
427.625	310.81
427.847	274.81
428.069	308.81
428.292	301.81
428.514	290.81
428.736	298.81
428.958	301.81
429.181	290.81
429.403	274.81
429.625	313.81
429.847	290.81
430.069	301.81
430.292	283.81
430.514	293.81
430.736	292.81
430.958	303.81
431.18	287.81
431.402	293.81
431.624	283.81
431.846	285.81
432.068	296.81
432.29	303.81
432.512	295.81
432.734	300.81
432.956	292.81
433.178	308.81
433.4	297.81
433.622	293.81
433.844	308.81
434.066	299.81
434.287	325.81
434.509	300.81
434.731	324.81
434.953	325.81
435.175	329.81
435.397	312.81
435.618	312.81
435.84	299.81
436.062	317.81
436.284	301.81
436.505	319.81
436.727	298.81
436.949	299.81
437.17	296.81
437.392	288.81
437.614	308.81
437.835	284.81
438.057	266.81
438.278	289.81
438.5	288.81
438.721	285.81
438.943	304.81
439.165	301.81
439.386	308.81
439.608	284.81
439.829	289.81
440.05	287.81
440.272	302.81
440.493	298.81
440.715	292.81
440.936	311.81
441.158	279.81
441.379	299.81
441.6	310.81
441.822	332.81
442.043	306.81
442.264	305.81
442.486	311.81
442.707	288.81
442.928	305.81
443.149	313.81
443.371	324.81
443.592	330.81
443.813	309.81
444.034	309.81
444.255	308.81
444.476	332.81
444.698	355.81
444.919	329.81
445.14	406.81
445.361	358.81
445.582	330.81
445.803	313.81
446.024	305.81
446.245	296.81
446.466	306.81
446.687	299.81
446.908	300.81
447.129	283.81
447.35	282.81
447.571	301.81
447.792	281.81
448.013	271.81
448.234	276.81
448.455	278.81
448.675	293.81
448.896	273.81
449.117	277.81
449.338	278.81
449.559	283.81
449.779	265.81
450	268.81
450.221	254.81
450.442	268.81
450.662	269.81
450.883	261.81
451.104	264.81
451.324	262.81
451.545	296.81
451.766	260.81
451.986	290.81
452.207	273.81
452.428	270.81
452.648	268.81
452.869	273.81
453.089	254.81
453.31	291.81
453.53	265.81
453.751	250.81
453.971	264.81
454.192	257.81
454.412	261.81
454.633	266.81
454.853	261.81
455.073	246.81
455.294	251.81
455.514	274.81
455.734	276.81
455.955	269.81
456.175	266.81
456.395	275.81
456.616	267.81
456.836	267.81
457.056	284.81
457.276	259.81
457.497	265.81
457.717	242.81
457.937	283.81
458.157	290.81
458.377	274.81
458.598	276.81
458.818	278.81
459.038	295.81
459.258	273.81
459.478	299.81
459.698	302.81
459.918	301.81
460.138	312.81
460.358	310.81
460.578	337.81
460.798	320.81
461.018	306.81
461.238	326.81
461.458	318.81
461.678	307.81
461.898	336.81
462.118	345.81
462.338	344.81
462.558	344.81
462.777	353.81
462.997	352.81
463.217	374.81
463.437	356.81
463.657	368.81
463.876	365.81
464.096	352.81
464.316	372.81
464.536	359.81
464.755	350.81
464.975	349.81
465.195	326.81
465.414	301.81
465.634	317.81
465.854	301.81
466.073	317.81
466.293	301.81
466.512	288.81
466.732	294.81
466.951	299.81
467.171	306.81
467.391	292.81
467.61	294.81
467.829	287.81
468.049	297.81
468.268	304.81
468.488	288.81
468.707	292.81
468.927	276.81
469.146	292.81
469.365	268.81
469.585	285.81
469.804	285.81
470.023	270.81
470.243	285.81
470.462	290.81
470.681	299.81
470.901	308.81
471.12	300.81
471.339	287.81
471.558	298.81
471.777	280.81
471.997	300.81
472.216	286.81
472.435	280.81
472.654	293.81
472.873	288.81
473.092	284.81
473.311	273.81
473.53	301.81
473.749	288.81
473.968	280.81
474.187	288.81
474.406	284.81
474.625	277.81
474.844	305.81
475.063	280.81
475.282	299.81
475.501	298.81
475.72	312.81
475.939	318.81
476.158	300.81
476.377	316.81
476.596	305.81
476.814	295.81
477.033	325.81
477.252	314.81
477.471	302.81
477.69	311.81
477.908	325.81
478.127	325.81
478.346	313.81
478.564	310.81
478.783	345.81
479.002	354.81
479.22	317.81
479.439	332.81
479.658	359.81
479.876	344.81
480.095	350.81
480.313	338.81
480.532	355.81
480.751	330.81
480.969	344.81
481.188	337.81
481.406	328.81
481.624	334.81
481.843	320.81
482.061	323.81
482.28	336.81
482.498	321.81
482.717	322.81
482.935	324.81
483.153	333.81
483.372	345.81
483.59	333.81
483.808	335.81
484.027	336.81
484.245	329.81
484.463	326.81
484.681	333.81
484.9	326.81
485.118	342.81
485.336	334.81
485.554	336.81
485.772	347.81
485.99	327.81
486.209	352.81
486.427	346.81
486.645	343.81
486.863	332.81
487.081	347.81
487.299	341.81
487.517	321.81
487.735	331.81
487.953	331.81
488.171	349.81
488.389	349.81
488.607	342.81
488.825	354.81
489.043	333.81
489.261	341.81
489.479	356.81
489.696	341.81
489.914	336.81
490.132	348.81
490.35	347.81
490.568	316.81
490.786	344.81
491.003	350.81
491.221	330.81
491.439	333.81
491.657	348.81
491.874	340.81
492.092	359.81
492.31	356.81
492.527	339.81
492.745	332.81
492.963	336.81
493.18	344.81
493.398	333.81
493.615	345.81
493.833	345.81
494.05	343.81
494.268	334.81
494.485	352.81
494.703	342.81
494.92	379.81
495.138	368.81
495.355	368.81
495.573	376.81
495.79	346.81
496.008	372.81
496.225	386.81
496.442	376.81
496.66	377.81
496.877	388.81
497.094	388.81
497.312	397.81
497.529	414.81
497.746	413.81
497.963	409.81
498.181	429.81
498.398	440.81
498.615	441.81
498.832	473.81
499.049	498.81
499.267	490.81
499.484	530.81
499.701	569.81
499.918	600.81
500.135	631.81
500.352	632.81
500.569	665.81
500.786	653.81
501.003	644.81
501.22	609.81
501.437	572.81
501.654	541.81
501.871	524.81
502.088	487.81
502.305	482.81
502.522	485.81
