Data from Fe(NO3)3@0.025M.TitratingCurve.Agarose3%dH2O.NegLispCup.LampEnergy10.LIBS07252019_HRD10591_16-53-39-335.txt Node
Date: Thu Jul 25 16:53:39 EDT 2019
User: cochatt
Spectrometer: HR+D1059
Trigger mode: 1
Integration Time (sec): 1.000000E-1
Scans to average: 1
Electric dark correction enabled: true
Nonlinearity correction enabled: false
Boxcar width: 0
XAxis mode: Wavelengths
Number of Pixels in Spectrum: 2048
>>>>>Begin Spectral Data<<<<<
223.165	-16.25
223.4	-16.25
223.635	-16.25
223.869	-24.25
224.104	-20.25
224.338	-14.25
224.573	-18.25
224.808	-3.25
225.042	-5.25
225.277	-11.25
225.511	-2.25
225.746	6.75
225.98	8.75
226.215	21.75
226.449	13.75
226.683	14.75
226.918	19.75
227.152	29.75
227.387	24.75
227.621	45.75
227.856	33.75
228.09	47.75
228.324	47.75
228.559	66.75
228.793	67.75
229.027	92.75
229.262	99.75
229.496	83.75
229.73	95.75
229.964	95.75
230.199	88.75
230.433	112.75
230.667	110.75
230.901	105.75
231.136	109.75
231.37	116.75
231.604	103.75
231.838	108.75
232.072	102.75
232.306	123.75
232.541	122.75
232.775	132.75
233.009	108.75
233.243	93.75
233.477	106.75
233.711	112.75
233.945	125.75
234.179	110.75
234.413	129.75
234.647	114.75
234.881	123.75
235.115	127.75
235.349	133.75
235.583	123.75
235.817	109.75
236.051	124.75
236.285	124.75
236.519	117.75
236.753	128.75
236.987	141.75
237.221	125.75
237.455	131.75
237.689	117.75
237.922	121.75
238.156	138.75
238.39	124.75
238.624	128.75
238.858	138.75
239.091	137.75
239.325	138.75
239.559	141.75
239.793	148.75
240.027	148.75
240.26	137.75
240.494	154.75
240.728	136.75
240.961	142.75
241.195	138.75
241.429	145.75
241.662	146.75
241.896	141.75
242.13	124.75
242.363	142.75
242.597	141.75
242.83	156.75
243.064	166.75
243.298	153.75
243.531	160.75
243.765	167.75
243.998	176.75
244.232	152.75
244.465	153.75
244.699	164.75
244.932	149.75
245.166	168.75
245.399	160.75
245.633	160.75
245.866	168.75
246.099	171.75
246.333	158.75
246.566	173.75
246.8	142.75
247.033	182.75
247.266	177.75
247.5	171.75
247.733	166.75
247.966	185.75
248.2	179.75
248.433	157.75
248.666	184.75
248.899	171.75
249.133	182.75
249.366	178.75
249.599	179.75
249.832	183.75
250.066	184.75
250.299	183.75
250.532	182.75
250.765	162.75
250.998	165.75
251.231	185.75
251.465	206.75
251.698	193.75
251.931	188.75
252.164	185.75
252.397	194.75
252.63	184.75
252.863	183.75
253.096	192.75
253.329	191.75
253.562	189.75
253.795	200.75
254.028	216.75
254.261	214.75
254.494	199.75
254.727	209.75
254.96	199.75
255.193	193.75
255.426	198.75
255.659	209.75
255.892	227.75
256.124	201.75
256.357	204.75
256.59	201.75
256.823	214.75
257.056	204.75
257.289	209.75
257.521	213.75
257.754	220.75
257.987	215.75
258.22	212.75
258.452	216.75
258.685	209.75
258.918	217.75
259.151	199.75
259.383	228.75
259.616	231.75
259.849	242.75
260.081	244.75
260.314	248.75
260.547	233.75
260.779	229.75
261.012	233.75
261.244	239.75
261.477	252.75
261.71	223.75
261.942	230.75
262.175	212.75
262.407	226.75
262.64	235.75
262.872	240.75
263.105	255.75
263.337	246.75
263.57	253.75
263.802	229.75
264.035	240.75
264.267	232.75
264.499	218.75
264.732	249.75
264.964	244.75
265.197	231.75
265.429	231.75
265.661	246.75
265.894	243.75
266.126	246.75
266.358	239.75
266.591	237.75
266.823	249.75
267.055	240.75
267.287	247.75
267.52	251.75
267.752	247.75
267.984	237.75
268.216	255.75
268.448	261.75
268.681	259.75
268.913	258.75
269.145	255.75
269.377	263.75
269.609	272.75
269.841	270.75
270.073	257.75
270.306	283.75
270.538	271.75
270.77	262.75
271.002	277.75
271.234	266.75
271.466	285.75
271.698	277.75
271.93	264.75
272.162	277.75
272.394	273.75
272.626	277.75
272.858	296.75
273.09	289.75
273.322	303.75
273.553	292.75
273.785	285.75
274.017	276.75
274.249	294.75
274.481	309.75
274.713	321.75
274.945	329.75
275.176	335.75
275.408	320.75
275.64	326.75
275.872	318.75
276.104	292.75
276.335	293.75
276.567	301.75
276.799	317.75
277.031	312.75
277.262	305.75
277.494	305.75
277.726	329.75
277.957	310.75
278.189	314.75
278.421	302.75
278.652	292.75
278.884	317.75
279.115	317.75
279.347	325.75
279.579	309.75
279.81	304.75
280.042	318.75
280.273	334.75
280.505	333.75
280.736	342.75
280.968	335.75
281.199	342.75
281.431	325.75
281.662	338.75
281.894	315.75
282.125	325.75
282.356	336.75
282.588	335.75
282.819	336.75
283.051	337.75
283.282	348.75
283.513	345.75
283.745	333.75
283.976	339.75
284.207	351.75
284.439	352.75
284.67	344.75
284.901	364.75
285.132	358.75
285.364	328.75
285.595	333.75
285.826	347.75
286.057	376.75
286.288	355.75
286.52	357.75
286.751	355.75
286.982	344.75
287.213	356.75
287.444	350.75
287.675	356.75
287.906	356.75
288.138	354.75
288.369	342.75
288.6	351.75
288.831	352.75
289.062	351.75
289.293	370.75
289.524	359.75
289.755	355.75
289.986	371.75
290.217	389.75
290.448	364.75
290.679	375.75
290.91	370.75
291.141	368.75
291.371	358.75
291.602	359.75
291.833	368.75
292.064	390.75
292.295	370.75
292.526	368.75
292.757	368.75
292.987	382.75
293.218	363.75
293.449	380.75
293.68	368.75
293.91	382.75
294.141	375.75
294.372	374.75
294.603	397.75
294.833	394.75
295.064	401.75
295.295	391.75
295.525	385.75
295.756	379.75
295.987	382.75
296.217	379.75
296.448	384.75
296.679	373.75
296.909	385.75
297.14	383.75
297.37	407.75
297.601	416.75
297.831	384.75
298.062	389.75
298.292	409.75
298.523	405.75
298.753	398.75
298.984	404.75
299.214	402.75
299.445	396.75
299.675	422.75
299.905	417.75
300.136	399.75
300.366	414.75
300.597	409.75
300.827	418.75
301.057	416.75
301.288	423.75
301.518	406.75
301.748	420.75
301.979	435.75
302.209	429.75
302.439	418.75
302.669	433.75
302.9	413.75
303.13	409.75
303.36	416.75
303.59	435.75
303.82	412.75
304.051	435.75
304.281	437.75
304.511	424.75
304.741	427.75
304.971	426.75
305.201	433.75
305.431	419.75
305.661	431.75
305.891	429.75
306.121	456.75
306.352	432.75
306.582	423.75
306.812	413.75
307.042	435.75
307.272	416.75
307.502	437.75
307.731	434.75
307.961	421.75
308.191	426.75
308.421	427.75
308.651	437.75
308.881	434.75
309.111	455.75
309.341	447.75
309.571	435.75
309.8	417.75
310.03	443.75
310.26	448.75
310.49	435.75
310.72	439.75
310.949	455.75
311.179	460.75
311.409	468.75
311.639	458.75
311.868	460.75
312.098	448.75
312.328	452.75
312.557	450.75
312.787	443.75
313.017	435.75
313.246	452.75
313.476	451.75
313.706	465.75
313.935	457.75
314.165	472.75
314.394	462.75
314.624	471.75
314.853	464.75
315.083	463.75
315.312	483.75
315.542	468.75
315.771	491.75
316.001	469.75
316.23	479.75
316.46	485.75
316.689	479.75
316.919	463.75
317.148	485.75
317.377	493.75
317.607	464.75
317.836	455.75
318.065	468.75
318.295	480.75
318.524	481.75
318.753	492.75
318.983	498.75
319.212	475.75
319.441	467.75
319.67	483.75
319.9	482.75
320.129	487.75
320.358	484.75
320.587	475.75
320.816	497.75
321.046	503.75
321.275	478.75
321.504	501.75
321.733	501.75
321.962	502.75
322.191	471.75
322.42	513.75
322.649	511.75
322.878	480.75
323.108	520.75
323.337	477.75
323.566	507.75
323.795	509.75
324.024	499.75
324.253	527.75
324.482	487.75
324.71	510.75
324.939	502.75
325.168	521.75
325.397	489.75
325.626	506.75
325.855	505.75
326.084	508.75
326.313	519.75
326.542	519.75
326.77	528.75
326.999	519.75
327.228	518.75
327.457	519.75
327.686	510.75
327.914	537.75
328.143	513.75
328.372	516.75
328.6	513.75
328.829	520.75
329.058	532.75
329.287	510.75
329.515	525.75
329.744	521.75
329.972	563.75
330.201	527.75
330.43	543.75
330.658	536.75
330.887	543.75
331.115	550.75
331.344	545.75
331.572	567.75
331.801	575.75
332.03	536.75
332.258	565.75
332.486	566.75
332.715	553.75
332.943	547.75
333.172	592.75
333.4	582.75
333.629	616.75
333.857	590.75
334.085	598.75
334.314	583.75
334.542	577.75
334.771	617.75
334.999	604.75
335.227	609.75
335.455	633.75
335.684	620.75
335.912	609.75
336.14	603.75
336.369	590.75
336.597	609.75
336.825	607.75
337.053	603.75
337.281	595.75
337.51	618.75
337.738	612.75
337.966	576.75
338.194	585.75
338.422	580.75
338.65	576.75
338.878	597.75
339.106	605.75
339.334	580.75
339.562	571.75
339.79	579.75
340.018	560.75
340.246	581.75
340.474	569.75
340.702	555.75
340.93	581.75
341.158	566.75
341.386	562.75
341.614	578.75
341.842	598.75
342.07	566.75
342.298	559.75
342.526	569.75
342.754	584.75
342.981	572.75
343.209	582.75
343.437	574.75
343.665	596.75
343.893	584.75
344.12	599.75
344.348	619.75
344.576	596.75
344.804	620.75
345.031	584.75
345.259	591.75
345.487	579.75
345.714	570.75
345.942	545.75
346.17	583.75
346.397	565.75
346.625	556.75
346.853	545.75
347.08	552.75
347.308	531.75
347.535	564.75
347.763	555.75
347.99	548.75
348.218	534.75
348.445	550.75
348.673	546.75
348.9	564.75
349.128	561.75
349.355	554.75
349.583	551.75
349.81	525.75
350.037	522.75
350.265	559.75
350.492	536.75
350.72	535.75
350.947	563.75
351.174	557.75
351.402	553.75
351.629	534.75
351.856	550.75
352.083	552.75
352.311	535.75
352.538	541.75
352.765	528.75
352.992	546.75
353.22	517.75
353.447	545.75
353.674	533.75
353.901	541.75
354.128	531.75
354.355	542.75
354.583	540.75
354.81	545.75
355.037	525.75
355.264	521.75
355.491	530.75
355.718	537.75
355.945	549.75
356.172	543.75
356.399	533.75
356.626	521.75
356.853	540.75
357.08	551.75
357.307	550.75
357.534	546.75
357.761	525.75
357.988	529.75
358.215	569.75
358.441	566.75
358.668	550.75
358.895	560.75
359.122	543.75
359.349	540.75
359.576	552.75
359.802	547.75
360.029	522.75
360.256	567.75
360.483	545.75
360.709	520.75
360.936	572.75
361.163	529.75
361.39	552.75
361.616	557.75
361.843	553.75
362.07	568.75
362.296	545.75
362.523	549.75
362.749	548.75
362.976	564.75
363.203	556.75
363.429	572.75
363.656	538.75
363.882	545.75
364.109	547.75
364.335	543.75
364.562	533.75
364.788	559.75
365.015	557.75
365.241	539.75
365.468	544.75
365.694	546.75
365.92	541.75
366.147	536.75
366.373	573.75
366.599	572.75
366.826	535.75
367.052	543.75
367.278	548.75
367.505	535.75
367.731	579.75
367.957	561.75
368.184	560.75
368.41	573.75
368.636	560.75
368.862	575.75
369.089	581.75
369.315	552.75
369.541	580.75
369.767	585.75
369.993	546.75
370.219	579.75
370.445	576.75
370.672	590.75
370.898	582.75
371.124	583.75
371.35	599.75
371.576	590.75
371.802	576.75
372.028	579.75
372.254	615.75
372.48	578.75
372.706	603.75
372.932	575.75
373.158	593.75
373.384	612.75
373.61	619.75
373.835	597.75
374.061	602.75
374.287	603.75
374.513	624.75
374.739	604.75
374.965	609.75
375.191	647.75
375.416	629.75
375.642	602.75
375.868	616.75
376.094	611.75
376.319	606.75
376.545	612.75
376.771	610.75
376.997	619.75
377.222	591.75
377.448	589.75
377.674	599.75
377.899	574.75
378.125	588.75
378.35	584.75
378.576	613.75
378.802	586.75
379.027	593.75
379.253	602.75
379.478	589.75
379.704	595.75
379.929	599.75
380.155	605.75
380.38	593.75
380.606	600.75
380.831	614.75
381.057	584.75
381.282	588.75
381.507	599.75
381.733	606.75
381.958	617.75
382.184	608.75
382.409	601.75
382.634	616.75
382.86	613.75
383.085	632.75
383.31	614.75
383.535	629.75
383.761	619.75
383.986	633.75
384.211	623.75
384.436	625.75
384.662	656.75
384.887	651.75
385.112	645.75
385.337	671.75
385.562	639.75
385.787	666.75
386.013	696.75
386.238	685.75
386.463	652.75
386.688	703.75
386.913	652.75
387.138	667.75
387.363	683.75
387.588	671.75
387.813	656.75
388.038	699.75
388.263	700.75
388.488	674.75
388.713	674.75
388.938	687.75
389.163	711.75
389.387	691.75
389.612	677.75
389.837	676.75
390.062	683.75
390.287	673.75
390.512	688.75
390.736	726.75
390.961	708.75
391.186	698.75
391.411	701.75
391.636	703.75
391.86	732.75
392.085	711.75
392.31	712.75
392.534	725.75
392.759	732.75
392.984	707.75
393.208	708.75
393.433	735.75
393.658	743.75
393.882	690.75
394.107	720.75
394.331	729.75
394.556	719.75
394.78	731.75
395.005	701.75
395.229	739.75
395.454	743.75
395.678	713.75
395.903	734.75
396.127	735.75
396.352	749.75
396.576	751.75
396.801	751.75
397.025	769.75
397.249	742.75
397.474	747.75
397.698	739.75
397.922	793.75
398.147	771.75
398.371	769.75
398.595	791.75
398.82	836.75
399.044	832.75
399.268	852.75
399.492	875.75
399.717	887.75
399.941	908.75
400.165	904.75
400.389	903.75
400.613	872.75
400.837	859.75
401.062	823.75
401.286	845.75
401.51	841.75
401.734	809.75
401.958	793.75
402.182	807.75
402.406	796.75
402.63	812.75
402.854	783.75
403.078	789.75
403.302	847.75
403.526	829.75
403.75	848.75
403.974	823.75
404.198	800.75
404.422	811.75
404.645	824.75
404.869	824.75
405.093	840.75
405.317	829.75
405.541	836.75
405.765	812.75
405.988	850.75
406.212	848.75
406.436	843.75
406.66	852.75
406.883	861.75
407.107	878.75
407.331	889.75
407.555	925.75
407.778	880.75
408.002	909.75
408.226	909.75
408.449	929.75
408.673	893.75
408.896	881.75
409.12	878.75
409.344	896.75
409.567	881.75
409.791	872.75
410.014	853.75
410.238	846.75
410.461	865.75
410.685	866.75
410.908	839.75
411.132	843.75
411.355	822.75
411.578	855.75
411.802	845.75
412.025	815.75
412.249	834.75
412.472	825.75
412.695	847.75
412.919	813.75
413.142	811.75
413.365	797.75
413.589	822.75
413.812	811.75
414.035	800.75
414.258	795.75
414.482	790.75
414.705	803.75
414.928	834.75
415.151	780.75
415.374	801.75
415.597	797.75
415.821	795.75
416.044	805.75
416.267	782.75
416.49	776.75
416.713	783.75
416.936	763.75
417.159	792.75
417.382	776.75
417.605	761.75
417.828	781.75
418.051	773.75
418.274	776.75
418.497	787.75
418.72	794.75
418.943	777.75
419.166	819.75
419.389	839.75
419.611	850.75
419.834	815.75
420.057	805.75
420.28	793.75
420.503	769.75
420.726	754.75
420.948	730.75
421.171	761.75
421.394	773.75
421.617	776.75
421.839	762.75
422.062	764.75
422.285	735.75
422.507	780.75
422.73	781.75
422.953	760.75
423.175	755.75
423.398	752.75
423.621	751.75
423.843	787.75
424.066	755.75
424.288	749.75
424.511	748.75
424.733	741.75
424.956	750.75
425.178	763.75
425.401	752.75
425.623	760.75
425.846	739.75
426.068	732.75
426.291	744.75
426.513	775.75
426.735	761.75
426.958	727.75
427.18	725.75
427.402	761.75
427.625	734.75
427.847	737.75
428.069	721.75
428.292	728.75
428.514	713.75
428.736	723.75
428.958	731.75
429.181	712.75
429.403	718.75
429.625	718.75
429.847	693.75
430.069	730.75
430.292	717.75
430.514	720.75
430.736	739.75
430.958	728.75
431.18	729.75
431.402	706.75
431.624	739.75
431.846	721.75
432.068	710.75
432.29	730.75
432.512	736.75
432.734	751.75
432.956	725.75
433.178	723.75
433.4	701.75
433.622	764.75
433.844	735.75
434.066	726.75
434.287	735.75
434.509	745.75
434.731	753.75
434.953	735.75
435.175	712.75
435.397	740.75
435.618	728.75
435.84	752.75
436.062	735.75
436.284	764.75
436.505	738.75
436.727	738.75
436.949	729.75
437.17	710.75
437.392	704.75
437.614	709.75
437.835	684.75
438.057	694.75
438.278	699.75
438.5	692.75
438.721	697.75
438.943	691.75
439.165	706.75
439.386	700.75
439.608	707.75
439.829	708.75
440.05	710.75
440.272	700.75
440.493	726.75
440.715	715.75
440.936	750.75
441.158	708.75
441.379	732.75
441.6	723.75
441.822	747.75
442.043	737.75
442.264	720.75
442.486	716.75
442.707	727.75
442.928	761.75
443.149	733.75
443.371	717.75
443.592	728.75
443.813	768.75
444.034	728.75
444.255	748.75
444.476	760.75
444.698	777.75
444.919	745.75
445.14	851.75
445.361	791.75
445.582	740.75
445.803	705.75
446.024	719.75
446.245	727.75
446.466	731.75
446.687	715.75
446.908	735.75
447.129	720.75
447.35	696.75
447.571	692.75
447.792	663.75
448.013	689.75
448.234	680.75
448.455	671.75
448.675	659.75
448.896	659.75
449.117	654.75
449.338	638.75
449.559	672.75
449.779	673.75
450	626.75
450.221	660.75
450.442	673.75
450.662	641.75
450.883	627.75
451.104	661.75
451.324	659.75
451.545	664.75
451.766	646.75
451.986	647.75
452.207	656.75
452.428	643.75
452.648	650.75
452.869	624.75
453.089	640.75
453.31	642.75
453.53	665.75
453.751	635.75
453.971	648.75
454.192	648.75
454.412	636.75
454.633	623.75
454.853	642.75
455.073	639.75
455.294	637.75
455.514	628.75
455.734	628.75
455.955	644.75
456.175	620.75
456.395	633.75
456.616	641.75
456.836	639.75
457.056	648.75
457.276	628.75
457.497	639.75
457.717	615.75
457.937	661.75
458.157	648.75
458.377	634.75
458.598	662.75
458.818	670.75
459.038	712.75
459.258	670.75
459.478	696.75
459.698	696.75
459.918	710.75
460.138	733.75
460.358	758.75
460.578	755.75
460.798	752.75
461.018	751.75
461.238	766.75
461.458	779.75
461.678	765.75
461.898	774.75
462.118	764.75
462.338	812.75
462.558	819.75
462.777	833.75
462.997	836.75
463.217	882.75
463.437	853.75
463.657	837.75
463.876	868.75
464.096	838.75
464.316	833.75
464.536	834.75
464.755	789.75
464.975	799.75
465.195	800.75
465.414	755.75
465.634	741.75
465.854	759.75
466.073	744.75
466.293	723.75
466.512	687.75
466.732	697.75
466.951	720.75
467.171	686.75
467.391	694.75
467.61	724.75
467.829	685.75
468.049	691.75
468.268	674.75
468.488	678.75
468.707	676.75
468.927	703.75
469.146	686.75
469.365	698.75
469.585	687.75
469.804	693.75
470.023	708.75
470.243	695.75
470.462	673.75
470.681	685.75
470.901	698.75
471.12	679.75
471.339	722.75
471.558	694.75
471.777	690.75
471.997	658.75
472.216	678.75
472.435	701.75
472.654	705.75
472.873	687.75
473.092	694.75
473.311	676.75
473.53	660.75
473.749	687.75
473.968	683.75
474.187	710.75
474.406	695.75
474.625	692.75
474.844	716.75
475.063	699.75
475.282	693.75
475.501	711.75
475.72	714.75
475.939	693.75
476.158	688.75
476.377	689.75
476.596	735.75
476.814	727.75
477.033	750.75
477.252	730.75
477.471	760.75
477.69	757.75
477.908	738.75
478.127	767.75
478.346	781.75
478.564	781.75
478.783	804.75
479.002	820.75
479.22	806.75
479.439	819.75
479.658	810.75
479.876	792.75
480.095	808.75
480.313	841.75
480.532	828.75
480.751	831.75
480.969	822.75
481.188	841.75
481.406	844.75
481.624	809.75
481.843	808.75
482.061	790.75
482.28	804.75
482.498	807.75
482.717	769.75
482.935	800.75
483.153	802.75
483.372	804.75
483.59	814.75
483.808	803.75
484.027	819.75
484.245	815.75
484.463	829.75
484.681	808.75
484.9	808.75
485.118	816.75
485.336	816.75
485.554	841.75
485.772	794.75
485.99	807.75
486.209	816.75
486.427	831.75
486.645	820.75
486.863	825.75
487.081	835.75
487.299	820.75
487.517	829.75
487.735	832.75
487.953	848.75
488.171	854.75
488.389	821.75
488.607	825.75
488.825	831.75
489.043	805.75
489.261	820.75
489.479	835.75
489.696	848.75
489.914	843.75
490.132	840.75
490.35	843.75
490.568	831.75
490.786	864.75
491.003	848.75
491.221	825.75
491.439	840.75
491.657	857.75
491.874	841.75
492.092	880.75
492.31	858.75
492.527	850.75
492.745	837.75
492.963	887.75
493.18	887.75
493.398	875.75
493.615	883.75
493.833	856.75
494.05	876.75
494.268	863.75
494.485	889.75
494.703	843.75
494.92	890.75
495.138	918.75
495.355	873.75
495.573	888.75
495.79	899.75
496.008	905.75
496.225	928.75
496.442	929.75
496.66	948.75
496.877	956.75
497.094	958.75
497.312	971.75
497.529	975.75
497.746	995.75
497.963	1013.75
498.181	1057.75
498.398	1049.75
498.615	1081.75
498.832	1134.75
499.049	1159.75
499.267	1175.75
499.484	1237.75
499.701	1288.75
499.918	1333.75
500.135	1373.75
500.352	1435.75
500.569	1467.75
500.786	1454.75
501.003	1374.75
501.22	1376.75
501.437	1337.75
