Data from Fe(NO3)3@0.1M.TitratingCurve.Agarose3%dH2O.NegLispCup.LampEnergy10.LIBS07252019_HRD10591_16-42-11-333.txt Node
Date: Thu Jul 25 16:42:11 EDT 2019
User: cochatt
Spectrometer: HR+D1059
Trigger mode: 1
Integration Time (sec): 1.000000E-1
Scans to average: 1
Electric dark correction enabled: true
Nonlinearity correction enabled: false
Boxcar width: 0
XAxis mode: Wavelengths
Number of Pixels in Spectrum: 2048
>>>>>Begin Spectral Data<<<<<
223.165	-20.06
223.4	-20.06
223.635	-20.06
223.869	-15.06
224.104	-26.06
224.338	-12.06
224.573	-15.06
224.808	-15.06
225.042	-10.06
225.277	-2.06
225.511	8.94
225.746	-7.06
225.98	-3.06
226.215	10.94
226.449	20.94
226.683	26.94
226.918	32.94
227.152	24.94
227.387	36.94
227.621	45.94
227.856	49.94
228.09	45.94
228.324	43.94
228.559	48.94
228.793	77.94
229.027	77.94
229.262	71.94
229.496	81.94
229.73	66.94
229.964	74.94
230.199	73.94
230.433	80.94
230.667	82.94
230.901	98.94
231.136	88.94
231.37	96.94
231.604	81.94
231.838	96.94
232.072	93.94
232.306	71.94
232.541	86.94
232.775	79.94
233.009	90.94
233.243	93.94
233.477	100.94
233.711	84.94
233.945	88.94
234.179	90.94
234.413	87.94
234.647	84.94
234.881	89.94
235.115	79.94
235.349	84.94
235.583	89.94
235.817	85.94
236.051	101.94
236.285	90.94
236.519	89.94
236.753	102.94
236.987	93.94
237.221	94.94
237.455	82.94
237.689	68.94
237.922	69.94
238.156	77.94
238.39	80.94
238.624	95.94
238.858	96.94
239.091	91.94
239.325	78.94
239.559	80.94
239.793	76.94
240.027	81.94
240.26	84.94
240.494	94.94
240.728	79.94
240.961	98.94
241.195	81.94
241.429	96.94
241.662	78.94
241.896	95.94
242.13	79.94
242.363	88.94
242.597	88.94
242.83	94.94
243.064	82.94
243.298	97.94
243.531	80.94
243.765	84.94
243.998	93.94
244.232	98.94
244.465	100.94
244.699	95.94
244.932	97.94
245.166	87.94
245.399	96.94
245.633	95.94
245.866	75.94
246.099	87.94
246.333	92.94
246.566	82.94
246.8	92.94
247.033	100.94
247.266	96.94
247.5	92.94
247.733	91.94
247.966	87.94
248.2	96.94
248.433	84.94
248.666	91.94
248.899	101.94
249.133	91.94
249.366	119.94
249.599	87.94
249.832	99.94
250.066	101.94
250.299	97.94
250.532	88.94
250.765	92.94
250.998	88.94
251.231	102.94
251.465	109.94
251.698	90.94
251.931	93.94
252.164	85.94
252.397	85.94
252.63	111.94
252.863	111.94
253.096	86.94
253.329	99.94
253.562	93.94
253.795	115.94
254.028	115.94
254.261	99.94
254.494	103.94
254.727	101.94
254.96	93.94
255.193	90.94
255.426	88.94
255.659	97.94
255.892	112.94
256.124	101.94
256.357	93.94
256.59	94.94
256.823	90.94
257.056	92.94
257.289	99.94
257.521	99.94
257.754	98.94
257.987	111.94
258.22	102.94
258.452	85.94
258.685	97.94
258.918	92.94
259.151	104.94
259.383	117.94
259.616	101.94
259.849	110.94
260.081	104.94
260.314	108.94
260.547	101.94
260.779	90.94
261.012	104.94
261.244	110.94
261.477	108.94
261.71	101.94
261.942	108.94
262.175	106.94
262.407	104.94
262.64	112.94
262.872	100.94
263.105	119.94
263.337	114.94
263.57	108.94
263.802	95.94
264.035	103.94
264.267	98.94
264.499	98.94
264.732	102.94
264.964	100.94
265.197	114.94
265.429	112.94
265.661	104.94
265.894	123.94
266.126	104.94
266.358	99.94
266.591	121.94
266.823	104.94
267.055	104.94
267.287	106.94
267.52	116.94
267.752	116.94
267.984	105.94
268.216	101.94
268.448	102.94
268.681	113.94
268.913	86.94
269.145	107.94
269.377	102.94
269.609	96.94
269.841	103.94
270.073	112.94
270.306	107.94
270.538	98.94
270.77	114.94
271.002	114.94
271.234	98.94
271.466	127.94
271.698	106.94
271.93	117.94
272.162	122.94
272.394	121.94
272.626	107.94
272.858	123.94
273.09	121.94
273.322	123.94
273.553	101.94
273.785	125.94
274.017	104.94
274.249	124.94
274.481	123.94
274.713	118.94
274.945	122.94
275.176	114.94
275.408	114.94
275.64	111.94
275.872	118.94
276.104	130.94
276.335	125.94
276.567	122.94
276.799	115.94
277.031	121.94
277.262	116.94
277.494	125.94
277.726	114.94
277.957	114.94
278.189	124.94
278.421	116.94
278.652	121.94
278.884	123.94
279.115	124.94
279.347	117.94
279.579	106.94
279.81	122.94
280.042	118.94
280.273	117.94
280.505	107.94
280.736	124.94
280.968	125.94
281.199	126.94
281.431	123.94
281.662	108.94
281.894	114.94
282.125	123.94
282.356	124.94
282.588	113.94
282.819	116.94
283.051	109.94
283.282	114.94
283.513	128.94
283.745	127.94
283.976	133.94
284.207	118.94
284.439	121.94
284.67	132.94
284.901	137.94
285.132	130.94
285.364	133.94
285.595	129.94
285.826	107.94
286.057	126.94
286.288	124.94
286.52	131.94
286.751	128.94
286.982	133.94
287.213	114.94
287.444	118.94
287.675	136.94
287.906	125.94
288.138	129.94
288.369	135.94
288.6	125.94
288.831	150.94
289.062	137.94
289.293	132.94
289.524	128.94
289.755	123.94
289.986	114.94
290.217	132.94
290.448	125.94
290.679	128.94
290.91	132.94
291.141	129.94
291.371	116.94
291.602	110.94
291.833	127.94
292.064	116.94
292.295	129.94
292.526	130.94
292.757	126.94
292.987	130.94
293.218	132.94
293.449	132.94
293.68	133.94
293.91	128.94
294.141	136.94
294.372	131.94
294.603	121.94
294.833	146.94
295.064	137.94
295.295	122.94
295.525	134.94
295.756	146.94
295.987	121.94
296.217	130.94
296.448	142.94
296.679	125.94
296.909	121.94
297.14	126.94
297.37	128.94
297.601	129.94
297.831	124.94
298.062	136.94
298.292	131.94
298.523	136.94
298.753	132.94
298.984	134.94
299.214	121.94
299.445	119.94
299.675	143.94
299.905	132.94
300.136	126.94
300.366	134.94
300.597	144.94
300.827	151.94
301.057	150.94
301.288	148.94
301.518	134.94
301.748	131.94
301.979	133.94
302.209	127.94
302.439	140.94
302.669	133.94
302.9	139.94
303.13	137.94
303.36	139.94
303.59	152.94
303.82	134.94
304.051	138.94
304.281	134.94
304.511	134.94
304.741	151.94
304.971	141.94
305.201	132.94
305.431	145.94
305.661	146.94
305.891	134.94
306.121	148.94
306.352	132.94
306.582	132.94
306.812	149.94
307.042	134.94
307.272	126.94
307.502	138.94
307.731	141.94
307.961	146.94
308.191	140.94
308.421	131.94
308.651	137.94
308.881	142.94
309.111	154.94
309.341	140.94
309.571	147.94
309.8	148.94
310.03	142.94
310.26	152.94
310.49	153.94
310.72	136.94
310.949	154.94
311.179	145.94
311.409	141.94
311.639	160.94
311.868	144.94
312.098	155.94
312.328	139.94
312.557	152.94
312.787	160.94
313.017	138.94
313.246	146.94
313.476	145.94
313.706	140.94
313.935	133.94
314.165	157.94
314.394	141.94
314.624	149.94
314.853	153.94
315.083	141.94
315.312	145.94
315.542	151.94
315.771	146.94
316.001	150.94
316.23	158.94
316.46	160.94
316.689	156.94
316.919	160.94
317.148	171.94
317.377	160.94
317.607	166.94
317.836	143.94
318.065	138.94
318.295	144.94
318.524	142.94
318.753	139.94
318.983	145.94
319.212	162.94
319.441	142.94
319.67	153.94
319.9	139.94
320.129	167.94
320.358	153.94
320.587	150.94
320.816	149.94
321.046	149.94
321.275	149.94
321.504	138.94
321.733	179.94
321.962	146.94
322.191	157.94
322.42	145.94
322.649	140.94
322.878	166.94
323.108	158.94
323.337	149.94
323.566	135.94
323.795	137.94
324.024	153.94
324.253	154.94
324.482	145.94
324.71	152.94
324.939	147.94
325.168	146.94
325.397	165.94
325.626	157.94
325.855	158.94
326.084	157.94
326.313	172.94
326.542	158.94
326.77	162.94
326.999	157.94
327.228	160.94
327.457	150.94
327.686	152.94
327.914	152.94
328.143	166.94
328.372	164.94
328.6	156.94
328.829	168.94
329.058	152.94
329.287	154.94
329.515	156.94
329.744	153.94
329.972	151.94
330.201	161.94
330.43	174.94
330.658	146.94
330.887	165.94
331.115	166.94
331.344	157.94
331.572	168.94
331.801	170.94
332.03	170.94
332.258	163.94
332.486	172.94
332.715	169.94
332.943	165.94
333.172	181.94
333.4	194.94
333.629	183.94
333.857	196.94
334.085	183.94
334.314	172.94
334.542	171.94
334.771	183.94
334.999	179.94
335.227	183.94
335.455	184.94
335.684	182.94
335.912	178.94
336.14	207.94
336.369	182.94
336.597	181.94
336.825	168.94
337.053	170.94
337.281	169.94
337.51	177.94
337.738	188.94
337.966	188.94
338.194	155.94
338.422	180.94
338.65	169.94
338.878	174.94
339.106	170.94
339.334	179.94
339.562	162.94
339.79	153.94
340.018	149.94
340.246	177.94
340.474	157.94
340.702	172.94
340.93	147.94
341.158	152.94
341.386	154.94
341.614	156.94
341.842	169.94
342.07	159.94
342.298	156.94
342.526	156.94
342.754	164.94
342.981	193.94
343.209	166.94
343.437	192.94
343.665	168.94
343.893	191.94
344.12	180.94
344.348	173.94
344.576	169.94
344.804	174.94
345.031	188.94
345.259	162.94
345.487	167.94
345.714	170.94
345.942	178.94
346.17	165.94
346.397	177.94
346.625	157.94
346.853	162.94
347.08	160.94
347.308	167.94
347.535	182.94
347.763	156.94
347.99	152.94
348.218	173.94
348.445	160.94
348.673	158.94
348.9	173.94
349.128	187.94
349.355	168.94
349.583	173.94
349.81	168.94
350.037	158.94
350.265	170.94
350.492	179.94
350.72	169.94
350.947	164.94
351.174	151.94
351.402	170.94
351.629	176.94
351.856	162.94
352.083	144.94
352.311	162.94
352.538	182.94
352.765	164.94
352.992	168.94
353.22	162.94
353.447	167.94
353.674	165.94
353.901	177.94
354.128	150.94
354.355	166.94
354.583	159.94
354.81	166.94
355.037	168.94
355.264	152.94
355.491	162.94
355.718	176.94
355.945	168.94
356.172	168.94
356.399	160.94
356.626	156.94
356.853	163.94
357.08	176.94
357.307	174.94
357.534	166.94
357.761	171.94
357.988	174.94
358.215	165.94
358.441	167.94
358.668	150.94
358.895	164.94
359.122	169.94
359.349	160.94
359.576	160.94
359.802	169.94
360.029	150.94
360.256	177.94
360.483	168.94
360.709	180.94
360.936	174.94
361.163	179.94
361.39	164.94
361.616	162.94
361.843	181.94
362.07	179.94
362.296	172.94
362.523	167.94
362.749	170.94
362.976	180.94
363.203	162.94
363.429	155.94
363.656	171.94
363.882	174.94
364.109	166.94
364.335	158.94
364.562	160.94
364.788	171.94
365.015	164.94
365.241	166.94
365.468	189.94
365.694	166.94
365.92	166.94
366.147	171.94
366.373	157.94
366.599	159.94
366.826	160.94
367.052	179.94
367.278	152.94
367.505	168.94
367.731	152.94
367.957	171.94
368.184	164.94
368.41	187.94
368.636	168.94
368.862	169.94
369.089	166.94
369.315	156.94
369.541	183.94
369.767	159.94
369.993	174.94
370.219	180.94
370.445	164.94
370.672	177.94
370.898	169.94
371.124	190.94
371.35	178.94
371.576	164.94
371.802	168.94
372.028	179.94
372.254	171.94
372.48	184.94
372.706	172.94
372.932	190.94
373.158	183.94
373.384	195.94
373.61	185.94
373.835	184.94
374.061	178.94
374.287	194.94
374.513	189.94
374.739	175.94
374.965	178.94
375.191	183.94
375.416	187.94
375.642	178.94
375.868	187.94
376.094	183.94
376.319	184.94
376.545	179.94
376.771	186.94
376.997	188.94
377.222	172.94
377.448	167.94
377.674	170.94
377.899	180.94
378.125	184.94
378.35	182.94
378.576	163.94
378.802	165.94
379.027	181.94
379.253	194.94
379.478	200.94
379.704	191.94
379.929	170.94
380.155	187.94
380.38	188.94
380.606	180.94
380.831	183.94
381.057	174.94
381.282	173.94
381.507	180.94
381.733	195.94
381.958	188.94
382.184	186.94
382.409	191.94
382.634	178.94
382.86	182.94
383.085	177.94
383.31	203.94
383.535	192.94
383.761	196.94
383.986	197.94
384.211	195.94
384.436	202.94
384.662	204.94
384.887	199.94
385.112	196.94
385.337	201.94
385.562	196.94
385.787	193.94
386.013	213.94
386.238	204.94
386.463	209.94
386.688	211.94
386.913	212.94
387.138	196.94
387.363	197.94
387.588	198.94
387.813	209.94
388.038	189.94
388.263	192.94
388.488	211.94
388.713	203.94
388.938	200.94
389.163	206.94
389.387	200.94
389.612	205.94
389.837	200.94
390.062	212.94
390.287	190.94
390.512	199.94
390.736	190.94
390.961	204.94
391.186	197.94
391.411	200.94
391.636	206.94
391.86	215.94
392.085	214.94
392.31	206.94
392.534	192.94
392.759	216.94
392.984	225.94
393.208	214.94
393.433	203.94
393.658	225.94
393.882	220.94
394.107	213.94
394.331	197.94
394.556	211.94
394.78	206.94
395.005	216.94
395.229	209.94
395.454	226.94
395.678	227.94
395.903	213.94
396.127	201.94
396.352	214.94
396.576	214.94
396.801	202.94
397.025	222.94
397.249	220.94
397.474	201.94
397.698	223.94
397.922	231.94
398.147	241.94
398.371	226.94
398.595	220.94
398.82	219.94
399.044	235.94
399.268	267.94
399.492	294.94
399.717	283.94
399.941	286.94
400.165	277.94
400.389	258.94
400.613	264.94
400.837	241.94
401.062	242.94
401.286	258.94
401.51	230.94
401.734	222.94
401.958	242.94
402.182	244.94
402.406	240.94
402.63	259.94
402.854	243.94
403.078	244.94
403.302	233.94
403.526	242.94
403.75	238.94
403.974	244.94
404.198	260.94
404.422	262.94
404.645	233.94
404.869	241.94
405.093	248.94
405.317	255.94
405.541	244.94
405.765	259.94
405.988	240.94
406.212	260.94
406.436	256.94
406.66	266.94
406.883	274.94
407.107	264.94
407.331	251.94
407.555	270.94
407.778	258.94
408.002	264.94
408.226	251.94
408.449	270.94
408.673	252.94
408.896	264.94
409.12	265.94
409.344	245.94
409.567	257.94
409.791	248.94
410.014	262.94
410.238	257.94
410.461	249.94
410.685	261.94
410.908	242.94
411.132	251.94
411.355	249.94
411.578	240.94
411.802	237.94
412.025	264.94
412.249	256.94
412.472	236.94
412.695	222.94
412.919	252.94
413.142	247.94
413.365	237.94
413.589	243.94
413.812	244.94
414.035	260.94
414.258	233.94
414.482	246.94
414.705	249.94
414.928	244.94
415.151	241.94
415.374	244.94
415.597	240.94
415.821	231.94
416.044	217.94
416.267	238.94
416.49	254.94
416.713	234.94
416.936	252.94
417.159	227.94
417.382	252.94
417.605	235.94
417.828	257.94
418.051	251.94
418.274	238.94
418.497	232.94
418.72	247.94
418.943	233.94
419.166	240.94
419.389	280.94
419.611	254.94
419.834	257.94
420.057	260.94
420.28	261.94
420.503	251.94
420.726	229.94
420.948	251.94
421.171	242.94
421.394	252.94
421.617	241.94
421.839	246.94
422.062	251.94
422.285	272.94
422.507	230.94
422.73	242.94
422.953	242.94
423.175	255.94
423.398	225.94
423.621	274.94
423.843	258.94
424.066	259.94
424.288	250.94
424.511	240.94
424.733	245.94
424.956	251.94
425.178	249.94
425.401	251.94
425.623	238.94
425.846	233.94
426.068	255.94
426.291	231.94
426.513	242.94
426.735	231.94
426.958	237.94
427.18	243.94
427.402	243.94
427.625	238.94
427.847	220.94
428.069	231.94
428.292	216.94
428.514	219.94
428.736	241.94
428.958	232.94
429.181	229.94
429.403	228.94
429.625	227.94
429.847	253.94
430.069	237.94
430.292	221.94
430.514	235.94
430.736	234.94
430.958	230.94
431.18	222.94
431.402	237.94
431.624	238.94
431.846	218.94
432.068	219.94
432.29	223.94
432.512	220.94
432.734	239.94
432.956	241.94
433.178	240.94
433.4	252.94
433.622	246.94
433.844	264.94
434.066	247.94
434.287	236.94
434.509	237.94
434.731	253.94
434.953	226.94
435.175	268.94
435.397	262.94
435.618	265.94
435.84	233.94
436.062	232.94
436.284	242.94
436.505	242.94
436.727	242.94
436.949	243.94
437.17	249.94
437.392	241.94
437.614	247.94
437.835	227.94
438.057	216.94
438.278	225.94
438.5	227.94
438.721	233.94
438.943	247.94
439.165	252.94
439.386	229.94
439.608	247.94
439.829	252.94
440.05	246.94
440.272	258.94
440.493	253.94
440.715	250.94
440.936	250.94
441.158	263.94
441.379	264.94
441.6	263.94
441.822	265.94
442.043	272.94
442.264	264.94
442.486	258.94
442.707	268.94
442.928	267.94
443.149	265.94
443.371	246.94
443.592	273.94
443.813	277.94
444.034	292.94
444.255	263.94
444.476	297.94
444.698	266.94
444.919	278.94
445.14	361.94
445.361	307.94
445.582	272.94
445.803	270.94
446.024	264.94
446.245	269.94
446.466	269.94
446.687	256.94
446.908	262.94
447.129	251.94
447.35	254.94
447.571	246.94
447.792	228.94
448.013	242.94
448.234	235.94
448.455	244.94
448.675	264.94
448.896	249.94
449.117	250.94
449.338	242.94
449.559	243.94
449.779	246.94
450	250.94
450.221	235.94
450.442	244.94
450.662	244.94
450.883	258.94
451.104	234.94
451.324	228.94
451.545	228.94
451.766	250.94
451.986	234.94
452.207	227.94
452.428	225.94
452.648	242.94
452.869	222.94
453.089	235.94
453.31	214.94
453.53	222.94
453.751	226.94
453.971	218.94
454.192	232.94
454.412	222.94
454.633	237.94
454.853	221.94
455.073	235.94
455.294	224.94
455.514	222.94
455.734	219.94
455.955	208.94
456.175	226.94
456.395	212.94
456.616	211.94
456.836	211.94
457.056	216.94
457.276	218.94
457.497	218.94
457.717	212.94
457.937	212.94
458.157	234.94
458.377	220.94
458.598	220.94
458.818	218.94
459.038	241.94
459.258	234.94
459.478	235.94
459.698	236.94
459.918	237.94
460.138	231.94
460.358	246.94
460.578	252.94
460.798	280.94
461.018	276.94
461.238	265.94
461.458	269.94
461.678	282.94
461.898	256.94
462.118	274.94
462.338	284.94
462.558	294.94
462.777	297.94
462.997	330.94
463.217	324.94
463.437	302.94
463.657	299.94
463.876	292.94
464.096	288.94
464.316	291.94
464.536	285.94
464.755	262.94
464.975	264.94
465.195	271.94
465.414	261.94
465.634	254.94
465.854	253.94
466.073	221.94
466.293	246.94
466.512	255.94
466.732	236.94
466.951	251.94
467.171	218.94
467.391	260.94
467.61	240.94
467.829	236.94
468.049	256.94
468.268	229.94
468.488	225.94
468.707	241.94
468.927	239.94
469.146	221.94
469.365	236.94
469.585	258.94
469.804	248.94
470.023	268.94
470.243	257.94
470.462	240.94
470.681	246.94
470.901	252.94
471.12	257.94
471.339	256.94
471.558	248.94
471.777	258.94
471.997	234.94
472.216	233.94
472.435	228.94
472.654	225.94
472.873	227.94
473.092	237.94
473.311	230.94
473.53	228.94
473.749	219.94
473.968	232.94
474.187	232.94
474.406	231.94
474.625	221.94
474.844	233.94
475.063	224.94
475.282	235.94
475.501	236.94
475.72	228.94
475.939	210.94
476.158	236.94
476.377	249.94
476.596	225.94
476.814	255.94
477.033	233.94
477.252	248.94
477.471	238.94
477.69	282.94
477.908	259.94
478.127	247.94
478.346	280.94
478.564	262.94
478.783	245.94
479.002	253.94
479.22	268.94
479.439	269.94
479.658	281.94
479.876	267.94
480.095	269.94
480.313	292.94
480.532	266.94
480.751	285.94
480.969	271.94
481.188	267.94
481.406	265.94
481.624	259.94
481.843	240.94
482.061	252.94
482.28	259.94
482.498	245.94
482.717	250.94
482.935	248.94
483.153	248.94
483.372	268.94
483.59	271.94
483.808	256.94
484.027	264.94
484.245	259.94
484.463	266.94
484.681	273.94
484.9	269.94
485.118	280.94
485.336	286.94
485.554	262.94
485.772	267.94
485.99	249.94
486.209	268.94
486.427	256.94
486.645	269.94
486.863	260.94
487.081	263.94
487.299	267.94
487.517	257.94
487.735	280.94
487.953	281.94
488.171	267.94
488.389	281.94
488.607	266.94
488.825	262.94
489.043	282.94
489.261	271.94
489.479	258.94
489.696	269.94
489.914	243.94
490.132	269.94
490.35	246.94
490.568	276.94
490.786	268.94
491.003	256.94
491.221	253.94
491.439	278.94
491.657	300.94
491.874	304.94
492.092	304.94
492.31	293.94
492.527	299.94
492.745	267.94
492.963	259.94
493.18	282.94
493.398	290.94
493.615	289.94
493.833	271.94
494.05	270.94
494.268	294.94
494.485	271.94
494.703	285.94
494.92	283.94
495.138	281.94
495.355	292.94
495.573	269.94
495.79	279.94
496.008	278.94
496.225	275.94
496.442	264.94
496.66	264.94
496.877	293.94
497.094	303.94
497.312	301.94
497.529	308.94
497.746	321.94
497.963	316.94
498.181	311.94
498.398	329.94
498.615	331.94
498.832	364.94
499.049	350.94
499.267	380.94
499.484	392.94
499.701	404.94
499.918	465.94
500.135	485.94
500.352	525.94
500.569	526.94
500.786	524.94
501.003	482.94
501.22	463.94
501.437	433.94
501.654	418.94
501.871	375.94
502.088	359.94
502.305	360.94
502.522	348.94
502.739	315.94
502.956	310.94
503.172	298.94
