Data from Fe(NO3)3@0.0125M.TitratingCurve.Agarose3%dH2O.NegLispCup.LampEnergy10.LIBS07252019_HRD10591_16-58-56-336.txt Node
Date: Thu Jul 25 16:58:56 EDT 2019
User: cochatt
Spectrometer: HR+D1059
Trigger mode: 1
Integration Time (sec): 1.000000E-1
Scans to average: 1
Electric dark correction enabled: true
Nonlinearity correction enabled: false
Boxcar width: 0
XAxis mode: Wavelengths
Number of Pixels in Spectrum: 2048
>>>>>Begin Spectral Data<<<<<
223.165	-21.88
223.4	-21.88
223.635	-21.88
223.869	-6.88
224.104	-25.88
224.338	-1.88
224.573	-18.88
224.808	-10.88
225.042	-28.88
225.277	0.12
225.511	-12.88
225.746	6.12
225.98	16.12
226.215	6.12
226.449	20.12
226.683	25.12
226.918	36.12
227.152	18.12
227.387	39.12
227.621	42.12
227.856	40.12
228.09	43.12
228.324	58.12
228.559	44.12
228.793	68.12
229.027	102.12
229.262	92.12
229.496	102.12
229.73	124.12
229.964	114.12
230.199	119.12
230.433	139.12
230.667	113.12
230.901	118.12
231.136	125.12
231.37	113.12
231.604	135.12
231.838	115.12
232.072	124.12
232.306	135.12
232.541	125.12
232.775	136.12
233.009	126.12
233.243	148.12
233.477	140.12
233.711	132.12
233.945	137.12
234.179	145.12
234.413	133.12
234.647	161.12
234.881	152.12
235.115	141.12
235.349	136.12
235.583	129.12
235.817	136.12
236.051	128.12
236.285	142.12
236.519	145.12
236.753	148.12
236.987	146.12
237.221	142.12
237.455	160.12
237.689	138.12
237.922	156.12
238.156	149.12
238.39	155.12
238.624	153.12
238.858	160.12
239.091	162.12
239.325	161.12
239.559	158.12
239.793	169.12
240.027	173.12
240.26	166.12
240.494	182.12
240.728	148.12
240.961	173.12
241.195	155.12
241.429	157.12
241.662	153.12
241.896	160.12
242.13	172.12
242.363	164.12
242.597	169.12
242.83	167.12
243.064	174.12
243.298	166.12
243.531	189.12
243.765	179.12
243.998	185.12
244.232	200.12
244.465	175.12
244.699	186.12
244.932	186.12
245.166	183.12
245.399	189.12
245.633	199.12
245.866	183.12
246.099	185.12
246.333	190.12
246.566	205.12
246.8	193.12
247.033	200.12
247.266	188.12
247.5	193.12
247.733	208.12
247.966	207.12
248.2	225.12
248.433	219.12
248.666	206.12
248.899	217.12
249.133	223.12
249.366	229.12
249.599	225.12
249.832	193.12
250.066	210.12
250.299	211.12
250.532	211.12
250.765	233.12
250.998	223.12
251.231	219.12
251.465	232.12
251.698	229.12
251.931	229.12
252.164	236.12
252.397	214.12
252.63	248.12
252.863	248.12
253.096	238.12
253.329	237.12
253.562	258.12
253.795	237.12
254.028	246.12
254.261	272.12
254.494	245.12
254.727	248.12
254.96	235.12
255.193	264.12
255.426	271.12
255.659	253.12
255.892	250.12
256.124	258.12
256.357	270.12
256.59	269.12
256.823	256.12
257.056	284.12
257.289	263.12
257.521	261.12
257.754	276.12
257.987	263.12
258.22	262.12
258.452	259.12
258.685	278.12
258.918	260.12
259.151	274.12
259.383	279.12
259.616	281.12
259.849	294.12
260.081	302.12
260.314	309.12
260.547	290.12
260.779	276.12
261.012	284.12
261.244	292.12
261.477	309.12
261.71	276.12
261.942	308.12
262.175	292.12
262.407	299.12
262.64	289.12
262.872	280.12
263.105	308.12
263.337	310.12
263.57	323.12
263.802	291.12
264.035	296.12
264.267	298.12
264.499	297.12
264.732	305.12
264.964	305.12
265.197	313.12
265.429	300.12
265.661	294.12
265.894	322.12
266.126	307.12
266.358	309.12
266.591	320.12
266.823	301.12
267.055	321.12
267.287	312.12
267.52	321.12
267.752	335.12
267.984	335.12
268.216	333.12
268.448	317.12
268.681	332.12
268.913	335.12
269.145	322.12
269.377	336.12
269.609	327.12
269.841	346.12
270.073	329.12
270.306	328.12
270.538	337.12
270.77	319.12
271.002	345.12
271.234	339.12
271.466	342.12
271.698	340.12
271.93	358.12
272.162	343.12
272.394	344.12
272.626	338.12
272.858	355.12
273.09	353.12
273.322	375.12
273.553	380.12
273.785	347.12
274.017	374.12
274.249	395.12
274.481	385.12
274.713	398.12
274.945	396.12
275.176	434.12
275.408	371.12
275.64	410.12
275.872	408.12
276.104	380.12
276.335	387.12
276.567	398.12
276.799	381.12
277.031	393.12
277.262	390.12
277.494	381.12
277.726	392.12
277.957	389.12
278.189	396.12
278.421	382.12
278.652	416.12
278.884	384.12
279.115	377.12
279.347	393.12
279.579	386.12
279.81	392.12
280.042	408.12
280.273	399.12
280.505	425.12
280.736	412.12
280.968	393.12
281.199	413.12
281.431	416.12
281.662	432.12
281.894	446.12
282.125	422.12
282.356	429.12
282.588	428.12
282.819	413.12
283.051	441.12
283.282	436.12
283.513	451.12
283.745	433.12
283.976	429.12
284.207	434.12
284.439	440.12
284.67	426.12
284.901	439.12
285.132	434.12
285.364	424.12
285.595	443.12
285.826	440.12
286.057	465.12
286.288	448.12
286.52	439.12
286.751	452.12
286.982	434.12
287.213	446.12
287.444	466.12
287.675	456.12
287.906	481.12
288.138	468.12
288.369	452.12
288.6	454.12
288.831	459.12
289.062	441.12
289.293	467.12
289.524	480.12
289.755	477.12
289.986	464.12
290.217	461.12
290.448	479.12
290.679	438.12
290.91	490.12
291.141	480.12
291.371	468.12
291.602	485.12
291.833	486.12
292.064	482.12
292.295	488.12
292.526	476.12
292.757	462.12
292.987	470.12
293.218	489.12
293.449	474.12
293.68	488.12
293.91	485.12
294.141	506.12
294.372	468.12
294.603	466.12
294.833	494.12
295.064	483.12
295.295	483.12
295.525	484.12
295.756	502.12
295.987	512.12
296.217	481.12
296.448	481.12
296.679	478.12
296.909	504.12
297.14	483.12
297.37	503.12
297.601	530.12
297.831	497.12
298.062	496.12
298.292	523.12
298.523	528.12
298.753	505.12
298.984	522.12
299.214	527.12
299.445	506.12
299.675	515.12
299.905	513.12
300.136	530.12
300.366	507.12
300.597	522.12
300.827	535.12
301.057	515.12
301.288	523.12
301.518	538.12
301.748	544.12
301.979	532.12
302.209	557.12
302.439	547.12
302.669	533.12
302.9	535.12
303.13	530.12
303.36	546.12
303.59	537.12
303.82	574.12
304.051	568.12
304.281	533.12
304.511	537.12
304.741	550.12
304.971	572.12
305.201	566.12
305.431	553.12
305.661	594.12
305.891	564.12
306.121	578.12
306.352	564.12
306.582	566.12
306.812	558.12
307.042	577.12
307.272	564.12
307.502	540.12
307.731	590.12
307.961	563.12
308.191	578.12
308.421	587.12
308.651	557.12
308.881	546.12
309.111	576.12
309.341	585.12
309.571	587.12
309.8	576.12
310.03	584.12
310.26	596.12
310.49	574.12
310.72	573.12
310.949	582.12
311.179	590.12
311.409	594.12
311.639	589.12
311.868	598.12
312.098	611.12
312.328	574.12
312.557	617.12
312.787	582.12
313.017	608.12
313.246	586.12
313.476	601.12
313.706	614.12
313.935	614.12
314.165	614.12
314.394	617.12
314.624	597.12
314.853	615.12
315.083	612.12
315.312	604.12
315.542	616.12
315.771	616.12
316.001	604.12
316.23	618.12
316.46	630.12
316.689	640.12
316.919	643.12
317.148	636.12
317.377	656.12
317.607	625.12
317.836	636.12
318.065	634.12
318.295	645.12
318.524	652.12
318.753	643.12
318.983	650.12
319.212	644.12
319.441	640.12
319.67	637.12
319.9	652.12
320.129	635.12
320.358	636.12
320.587	650.12
320.816	643.12
321.046	637.12
321.275	646.12
321.504	669.12
321.733	658.12
321.962	658.12
322.191	664.12
322.42	650.12
322.649	650.12
322.878	653.12
323.108	662.12
323.337	676.12
323.566	652.12
323.795	658.12
324.024	679.12
324.253	676.12
324.482	668.12
324.71	654.12
324.939	668.12
325.168	669.12
325.397	682.12
325.626	671.12
325.855	678.12
326.084	688.12
326.313	693.12
326.542	702.12
326.77	717.12
326.999	680.12
327.228	681.12
327.457	680.12
327.686	697.12
327.914	683.12
328.143	722.12
328.372	688.12
328.6	704.12
328.829	697.12
329.058	674.12
329.287	725.12
329.515	704.12
329.744	698.12
329.972	728.12
330.201	706.12
330.43	706.12
330.658	672.12
330.887	682.12
331.115	701.12
331.344	696.12
331.572	690.12
331.801	715.12
332.03	703.12
332.258	705.12
332.486	719.12
332.715	724.12
332.943	737.12
333.172	731.12
333.4	725.12
333.629	738.12
333.857	778.12
334.085	757.12
334.314	732.12
334.542	728.12
334.771	779.12
334.999	756.12
335.227	780.12
335.455	769.12
335.684	788.12
335.912	783.12
336.14	744.12
336.369	773.12
336.597	769.12
336.825	763.12
337.053	804.12
337.281	774.12
337.51	770.12
337.738	745.12
337.966	742.12
338.194	757.12
338.422	743.12
338.65	742.12
338.878	776.12
339.106	743.12
339.334	766.12
339.562	761.12
339.79	738.12
340.018	736.12
340.246	744.12
340.474	725.12
340.702	742.12
340.93	767.12
341.158	736.12
341.386	718.12
341.614	737.12
341.842	695.12
342.07	784.12
342.298	760.12
342.526	753.12
342.754	717.12
342.981	779.12
343.209	744.12
343.437	753.12
343.665	754.12
343.893	762.12
344.12	788.12
344.348	772.12
344.576	770.12
344.804	750.12
345.031	731.12
345.259	752.12
345.487	757.12
345.714	749.12
345.942	757.12
346.17	768.12
346.397	739.12
346.625	718.12
346.853	725.12
347.08	714.12
347.308	712.12
347.535	739.12
347.763	714.12
347.99	733.12
348.218	733.12
348.445	722.12
348.673	729.12
348.9	717.12
349.128	709.12
349.355	726.12
349.583	700.12
349.81	728.12
350.037	723.12
350.265	706.12
350.492	730.12
350.72	716.12
350.947	717.12
351.174	699.12
351.402	717.12
351.629	732.12
351.856	752.12
352.083	705.12
352.311	712.12
352.538	699.12
352.765	710.12
352.992	752.12
353.22	723.12
353.447	720.12
353.674	706.12
353.901	725.12
354.128	725.12
354.355	725.12
354.583	702.12
354.81	716.12
355.037	740.12
355.264	712.12
355.491	715.12
355.718	709.12
355.945	725.12
356.172	718.12
356.399	728.12
356.626	730.12
356.853	708.12
357.08	732.12
357.307	722.12
357.534	715.12
357.761	697.12
357.988	739.12
358.215	738.12
358.441	725.12
358.668	718.12
358.895	715.12
359.122	736.12
359.349	751.12
359.576	739.12
359.802	728.12
360.029	731.12
360.256	745.12
360.483	732.12
360.709	744.12
360.936	738.12
361.163	740.12
361.39	734.12
361.616	750.12
361.843	717.12
362.07	717.12
362.296	734.12
362.523	746.12
362.749	742.12
362.976	747.12
363.203	749.12
363.429	736.12
363.656	733.12
363.882	733.12
364.109	741.12
364.335	745.12
364.562	749.12
364.788	761.12
365.015	770.12
365.241	757.12
365.468	754.12
365.694	733.12
365.92	740.12
366.147	744.12
366.373	747.12
366.599	741.12
366.826	742.12
367.052	705.12
367.278	761.12
367.505	749.12
367.731	765.12
367.957	744.12
368.184	755.12
368.41	760.12
368.636	759.12
368.862	762.12
369.089	765.12
369.315	760.12
369.541	771.12
369.767	771.12
369.993	755.12
370.219	765.12
370.445	774.12
370.672	760.12
370.898	773.12
371.124	804.12
371.35	800.12
371.576	746.12
371.802	797.12
372.028	773.12
372.254	782.12
372.48	769.12
372.706	774.12
372.932	780.12
373.158	768.12
373.384	789.12
373.61	803.12
373.835	786.12
374.061	795.12
374.287	823.12
374.513	797.12
374.739	787.12
374.965	789.12
375.191	811.12
375.416	813.12
375.642	790.12
375.868	792.12
376.094	818.12
376.319	786.12
376.545	758.12
376.771	773.12
376.997	747.12
377.222	798.12
377.448	773.12
377.674	786.12
377.899	783.12
378.125	774.12
378.35	746.12
378.576	752.12
378.802	768.12
379.027	796.12
379.253	773.12
379.478	793.12
379.704	758.12
379.929	804.12
380.155	776.12
380.38	769.12
380.606	779.12
380.831	776.12
381.057	801.12
381.282	767.12
381.507	786.12
381.733	773.12
381.958	795.12
382.184	788.12
382.409	804.12
382.634	814.12
382.86	808.12
383.085	808.12
383.31	830.12
383.535	797.12
383.761	819.12
383.986	821.12
384.211	801.12
384.436	832.12
384.662	810.12
384.887	832.12
385.112	824.12
385.337	843.12
385.562	843.12
385.787	817.12
386.013	846.12
386.238	860.12
386.463	878.12
386.688	837.12
386.913	842.12
387.138	827.12
387.363	852.12
387.588	842.12
387.813	871.12
388.038	834.12
388.263	849.12
388.488	841.12
388.713	835.12
388.938	853.12
389.163	878.12
389.387	873.12
389.612	849.12
389.837	849.12
390.062	858.12
390.287	874.12
390.512	860.12
390.736	826.12
390.961	832.12
391.186	883.12
391.411	872.12
391.636	874.12
391.86	874.12
392.085	883.12
392.31	871.12
392.534	871.12
392.759	869.12
392.984	873.12
393.208	891.12
393.433	864.12
393.658	884.12
393.882	858.12
394.107	865.12
394.331	868.12
394.556	876.12
394.78	902.12
395.005	881.12
395.229	864.12
395.454	892.12
395.678	902.12
395.903	900.12
396.127	886.12
396.352	905.12
396.576	882.12
396.801	913.12
397.025	898.12
397.249	919.12
397.474	899.12
397.698	916.12
397.922	913.12
398.147	912.12
398.371	937.12
398.595	938.12
398.82	953.12
399.044	980.12
399.268	962.12
399.492	991.12
399.717	998.12
399.941	1011.12
400.165	1022.12
400.389	972.12
400.613	993.12
400.837	978.12
401.062	984.12
401.286	977.12
401.51	980.12
401.734	969.12
401.958	970.12
402.182	961.12
402.406	931.12
402.63	934.12
402.854	961.12
403.078	932.12
403.302	940.12
403.526	967.12
403.75	943.12
403.974	925.12
404.198	946.12
404.422	934.12
404.645	913.12
404.869	965.12
405.093	981.12
405.317	953.12
405.541	968.12
405.765	986.12
405.988	964.12
406.212	974.12
406.436	971.12
406.66	1020.12
406.883	975.12
407.107	1022.12
407.331	1015.12
407.555	1041.12
407.778	1003.12
408.002	1044.12
408.226	1020.12
408.449	1050.12
408.673	993.12
408.896	1021.12
409.12	990.12
409.344	1024.12
409.567	991.12
409.791	985.12
410.014	961.12
410.238	974.12
410.461	979.12
410.685	974.12
410.908	953.12
411.132	990.12
411.355	971.12
411.578	947.12
411.802	990.12
412.025	953.12
412.249	973.12
412.472	975.12
412.695	954.12
412.919	969.12
413.142	950.12
413.365	949.12
413.589	956.12
413.812	953.12
414.035	964.12
414.258	965.12
414.482	960.12
414.705	956.12
414.928	930.12
415.151	916.12
415.374	935.12
415.597	916.12
415.821	896.12
416.044	901.12
416.267	901.12
416.49	931.12
416.713	912.12
416.936	900.12
417.159	873.12
417.382	911.12
417.605	912.12
417.828	932.12
418.051	901.12
418.274	884.12
418.497	885.12
418.72	891.12
418.943	900.12
419.166	917.12
419.389	945.12
419.611	967.12
419.834	927.12
420.057	934.12
420.28	893.12
420.503	904.12
420.726	880.12
420.948	874.12
421.171	887.12
421.394	894.12
421.617	896.12
421.839	884.12
422.062	892.12
422.285	871.12
422.507	899.12
422.73	889.12
422.953	861.12
423.175	870.12
423.398	910.12
423.621	878.12
423.843	868.12
424.066	906.12
424.288	888.12
424.511	894.12
424.733	896.12
424.956	875.12
425.178	891.12
425.401	882.12
425.623	890.12
425.846	874.12
426.068	874.12
426.291	908.12
426.513	882.12
426.735	856.12
426.958	892.12
427.18	866.12
427.402	876.12
427.625	872.12
427.847	890.12
428.069	903.12
428.292	881.12
428.514	858.12
428.736	899.12
428.958	860.12
429.181	868.12
429.403	877.12
429.625	890.12
429.847	881.12
430.069	854.12
430.292	867.12
430.514	846.12
430.736	887.12
430.958	854.12
431.18	847.12
431.402	838.12
431.624	874.12
431.846	841.12
432.068	858.12
432.29	864.12
432.512	887.12
432.734	904.12
432.956	863.12
433.178	867.12
433.4	876.12
433.622	881.12
433.844	880.12
434.066	866.12
434.287	876.12
434.509	862.12
434.731	883.12
434.953	864.12
435.175	884.12
435.397	875.12
435.618	839.12
435.84	873.12
436.062	876.12
436.284	857.12
436.505	842.12
436.727	850.12
436.949	862.12
437.17	848.12
437.392	839.12
437.614	841.12
437.835	837.12
438.057	835.12
438.278	830.12
438.5	846.12
438.721	829.12
438.943	825.12
439.165	811.12
439.386	868.12
439.608	854.12
439.829	849.12
440.05	842.12
440.272	835.12
440.493	829.12
440.715	835.12
440.936	846.12
441.158	840.12
441.379	867.12
441.6	869.12
441.822	869.12
442.043	845.12
442.264	875.12
442.486	837.12
442.707	874.12
442.928	861.12
443.149	848.12
443.371	867.12
443.592	861.12
443.813	871.12
444.034	865.12
444.255	849.12
444.476	882.12
444.698	885.12
444.919	871.12
445.14	983.12
445.361	895.12
445.582	862.12
445.803	861.12
446.024	851.12
446.245	868.12
446.466	813.12
446.687	833.12
446.908	857.12
447.129	817.12
447.35	840.12
447.571	825.12
447.792	819.12
448.013	837.12
448.234	810.12
448.455	803.12
448.675	806.12
448.896	804.12
449.117	799.12
449.338	808.12
449.559	791.12
449.779	801.12
450	782.12
450.221	760.12
450.442	792.12
450.662	775.12
450.883	802.12
451.104	760.12
451.324	787.12
451.545	787.12
451.766	778.12
451.986	773.12
452.207	782.12
452.428	794.12
452.648	786.12
452.869	756.12
453.089	780.12
453.31	781.12
453.53	774.12
453.751	783.12
453.971	779.12
454.192	796.12
454.412	782.12
454.633	774.12
454.853	759.12
455.073	761.12
455.294	760.12
455.514	748.12
455.734	749.12
455.955	754.12
456.175	777.12
456.395	759.12
456.616	781.12
456.836	737.12
457.056	763.12
457.276	757.12
457.497	802.12
457.717	790.12
457.937	771.12
458.157	762.12
458.377	772.12
458.598	765.12
458.818	781.12
459.038	776.12
459.258	808.12
459.478	843.12
459.698	821.12
459.918	828.12
460.138	817.12
460.358	858.12
460.578	845.12
460.798	861.12
461.018	844.12
461.238	834.12
461.458	849.12
461.678	859.12
461.898	860.12
462.118	858.12
462.338	884.12
462.558	892.12
462.777	899.12
462.997	928.12
463.217	942.12
463.437	932.12
463.657	910.12
463.876	913.12
464.096	924.12
464.316	897.12
464.536	890.12
464.755	906.12
464.975	891.12
465.195	877.12
465.414	889.12
465.634	829.12
465.854	844.12
466.073	852.12
466.293	853.12
466.512	859.12
466.732	827.12
466.951	797.12
467.171	811.12
467.391	821.12
467.61	826.12
467.829	797.12
468.049	844.12
468.268	821.12
468.488	788.12
468.707	830.12
468.927	813.12
469.146	801.12
469.365	824.12
469.585	820.12
469.804	821.12
470.023	806.12
470.243	822.12
470.462	824.12
470.681	820.12
470.901	854.12
471.12	832.12
471.339	839.12
471.558	854.12
471.777	852.12
471.997	841.12
472.216	845.12
472.435	829.12
472.654	871.12
472.873	845.12
473.092	867.12
473.311	855.12
473.53	852.12
473.749	851.12
473.968	864.12
474.187	867.12
474.406	848.12
474.625	853.12
474.844	851.12
475.063	868.12
475.282	856.12
475.501	893.12
475.72	866.12
475.939	874.12
476.158	902.12
476.377	889.12
476.596	906.12
476.814	892.12
477.033	899.12
477.252	911.12
477.471	904.12
477.69	936.12
477.908	938.12
478.127	963.12
478.346	929.12
478.564	956.12
478.783	939.12
479.002	974.12
479.22	974.12
479.439	975.12
479.658	1009.12
479.876	984.12
480.095	982.12
480.313	981.12
480.532	997.12
480.751	1004.12
480.969	1003.12
481.188	992.12
481.406	1016.12
481.624	996.12
481.843	1004.12
482.061	1007.12
482.28	1007.12
482.498	997.12
482.717	998.12
482.935	1020.12
483.153	1024.12
483.372	999.12
483.59	1019.12
483.808	992.12
484.027	987.12
484.245	1015.12
484.463	1056.12
484.681	1050.12
484.9	1050.12
485.118	1036.12
485.336	1014.12
485.554	1029.12
485.772	1028.12
485.99	990.12
486.209	1032.12
486.427	1019.12
486.645	1041.12
486.863	1052.12
487.081	1036.12
487.299	1030.12
487.517	1078.12
487.735	1040.12
487.953	1050.12
488.171	1066.12
488.389	1044.12
488.607	1046.12
488.825	1031.12
489.043	1049.12
489.261	1059.12
489.479	1074.12
489.696	1042.12
489.914	1033.12
490.132	1036.12
490.35	1034.12
490.568	1043.12
490.786	1078.12
491.003	1063.12
491.221	1034.12
491.439	1040.12
491.657	1045.12
491.874	1070.12
492.092	1061.12
492.31	1074.12
492.527	1055.12
492.745	1024.12
492.963	1066.12
493.18	1086.12
493.398	1066.12
493.615	1083.12
493.833	1073.12
494.05	1082.12
494.268	1095.12
494.485	1104.12
494.703	1078.12
494.92	1099.12
495.138	1092.12
495.355	1083.12
495.573	1097.12
495.79	1089.12
496.008	1160.12
496.225	1117.12
496.442	1100.12
496.66	1108.12
496.877	1112.12
497.094	1129.12
497.312	1151.12
497.529	1122.12
497.746	1171.12
497.963	1182.12
498.181	1214.12
498.398	1217.12
498.615	1242.12
498.832	1247.12
499.049	1240.12
499.267	1276.12
499.484	1314.12
499.701	1308.12
499.918	1341.12
500.135	1404.12
500.352	1409.12
