Data from Fe(NO3)3@0.025M.TitratingCurve.Agarose3%dH2O.NegLispCup.LampEnergy10.LIBS07252019_HRD10591_16-54-18-335.txt Node
Date: Thu Jul 25 16:54:18 EDT 2019
User: cochatt
Spectrometer: HR+D1059
Trigger mode: 1
Integration Time (sec): 1.000000E-1
Scans to average: 1
Electric dark correction enabled: true
Nonlinearity correction enabled: false
Boxcar width: 0
XAxis mode: Wavelengths
Number of Pixels in Spectrum: 2048
>>>>>Begin Spectral Data<<<<<
223.165	-8.44
223.4	-8.44
223.635	-8.44
223.869	-19.44
224.104	-19.44
224.338	-19.44
224.573	-21.44
224.808	-10.44
225.042	-1.44
225.277	-5.44
225.511	-11.44
225.746	6.56
225.98	14.56
226.215	8.56
226.449	18.56
226.683	15.56
226.918	23.56
227.152	29.56
227.387	29.56
227.621	22.56
227.856	43.56
228.09	46.56
228.324	44.56
228.559	58.56
228.793	60.56
229.027	72.56
229.262	84.56
229.496	98.56
229.73	78.56
229.964	106.56
230.199	113.56
230.433	99.56
230.667	93.56
230.901	93.56
231.136	109.56
231.37	106.56
231.604	110.56
231.838	110.56
232.072	102.56
232.306	107.56
232.541	115.56
232.775	118.56
233.009	117.56
233.243	114.56
233.477	125.56
233.711	105.56
233.945	98.56
234.179	107.56
234.413	129.56
234.647	112.56
234.881	120.56
235.115	112.56
235.349	122.56
235.583	116.56
235.817	111.56
236.051	112.56
236.285	123.56
236.519	122.56
236.753	124.56
236.987	108.56
237.221	97.56
237.455	107.56
237.689	119.56
237.922	127.56
238.156	120.56
238.39	131.56
238.624	126.56
238.858	122.56
239.091	110.56
239.325	132.56
239.559	143.56
239.793	116.56
240.027	132.56
240.26	120.56
240.494	126.56
240.728	136.56
240.961	137.56
241.195	128.56
241.429	138.56
241.662	141.56
241.896	138.56
242.13	142.56
242.363	128.56
242.597	140.56
242.83	143.56
243.064	148.56
243.298	152.56
243.531	144.56
243.765	140.56
243.998	142.56
244.232	131.56
244.465	139.56
244.699	140.56
244.932	148.56
245.166	159.56
245.399	147.56
245.633	160.56
245.866	148.56
246.099	130.56
246.333	155.56
246.566	149.56
246.8	146.56
247.033	142.56
247.266	144.56
247.5	133.56
247.733	151.56
247.966	164.56
248.2	145.56
248.433	160.56
248.666	146.56
248.899	177.56
249.133	139.56
249.366	162.56
249.599	157.56
249.832	167.56
250.066	170.56
250.299	162.56
250.532	176.56
250.765	160.56
250.998	152.56
251.231	176.56
251.465	159.56
251.698	168.56
251.931	168.56
252.164	171.56
252.397	167.56
252.63	177.56
252.863	182.56
253.096	182.56
253.329	174.56
253.562	166.56
253.795	181.56
254.028	173.56
254.261	182.56
254.494	165.56
254.727	173.56
254.96	158.56
255.193	181.56
255.426	177.56
255.659	174.56
255.892	170.56
256.124	174.56
256.357	188.56
256.59	184.56
256.823	180.56
257.056	178.56
257.289	177.56
257.521	182.56
257.754	195.56
257.987	172.56
258.22	190.56
258.452	188.56
258.685	199.56
258.918	189.56
259.151	181.56
259.383	202.56
259.616	205.56
259.849	201.56
260.081	211.56
260.314	196.56
260.547	209.56
260.779	200.56
261.012	195.56
261.244	191.56
261.477	204.56
261.71	209.56
261.942	185.56
262.175	200.56
262.407	211.56
262.64	202.56
262.872	207.56
263.105	210.56
263.337	210.56
263.57	215.56
263.802	222.56
264.035	206.56
264.267	204.56
264.499	217.56
264.732	209.56
264.964	216.56
265.197	214.56
265.429	208.56
265.661	204.56
265.894	201.56
266.126	211.56
266.358	206.56
266.591	198.56
266.823	227.56
267.055	206.56
267.287	212.56
267.52	212.56
267.752	230.56
267.984	219.56
268.216	198.56
268.448	233.56
268.681	220.56
268.913	227.56
269.145	225.56
269.377	220.56
269.609	212.56
269.841	215.56
270.073	215.56
270.306	227.56
270.538	233.56
270.77	212.56
271.002	226.56
271.234	237.56
271.466	244.56
271.698	236.56
271.93	249.56
272.162	242.56
272.394	227.56
272.626	229.56
272.858	236.56
273.09	235.56
273.322	232.56
273.553	248.56
273.785	253.56
274.017	261.56
274.249	258.56
274.481	260.56
274.713	259.56
274.945	264.56
275.176	279.56
275.408	265.56
275.64	266.56
275.872	272.56
276.104	257.56
276.335	247.56
276.567	246.56
276.799	252.56
277.031	258.56
277.262	248.56
277.494	251.56
277.726	257.56
277.957	261.56
278.189	246.56
278.421	253.56
278.652	265.56
278.884	263.56
279.115	250.56
279.347	262.56
279.579	252.56
279.81	251.56
280.042	255.56
280.273	276.56
280.505	264.56
280.736	260.56
280.968	267.56
281.199	251.56
281.431	259.56
281.662	258.56
281.894	266.56
282.125	264.56
282.356	262.56
282.588	285.56
282.819	280.56
283.051	260.56
283.282	253.56
283.513	282.56
283.745	262.56
283.976	283.56
284.207	267.56
284.439	284.56
284.67	304.56
284.901	276.56
285.132	293.56
285.364	273.56
285.595	283.56
285.826	293.56
286.057	281.56
286.288	289.56
286.52	289.56
286.751	288.56
286.982	284.56
287.213	286.56
287.444	273.56
287.675	277.56
287.906	275.56
288.138	290.56
288.369	282.56
288.6	297.56
288.831	286.56
289.062	281.56
289.293	315.56
289.524	276.56
289.755	291.56
289.986	291.56
290.217	294.56
290.448	296.56
290.679	272.56
290.91	277.56
291.141	290.56
291.371	291.56
291.602	300.56
291.833	306.56
292.064	294.56
292.295	300.56
292.526	289.56
292.757	291.56
292.987	297.56
293.218	298.56
293.449	296.56
293.68	290.56
293.91	283.56
294.141	289.56
294.372	288.56
294.603	302.56
294.833	294.56
295.064	293.56
295.295	285.56
295.525	282.56
295.756	285.56
295.987	314.56
296.217	319.56
296.448	304.56
296.679	308.56
296.909	308.56
297.14	321.56
297.37	318.56
297.601	306.56
297.831	306.56
298.062	323.56
298.292	317.56
298.523	333.56
298.753	325.56
298.984	320.56
299.214	309.56
299.445	314.56
299.675	307.56
299.905	325.56
300.136	328.56
300.366	300.56
300.597	306.56
300.827	334.56
301.057	320.56
301.288	325.56
301.518	341.56
301.748	318.56
301.979	341.56
302.209	341.56
302.439	341.56
302.669	332.56
302.9	340.56
303.13	313.56
303.36	335.56
303.59	332.56
303.82	322.56
304.051	334.56
304.281	324.56
304.511	338.56
304.741	323.56
304.971	334.56
305.201	343.56
305.431	329.56
305.661	340.56
305.891	335.56
306.121	324.56
306.352	341.56
306.582	332.56
306.812	347.56
307.042	342.56
307.272	339.56
307.502	320.56
307.731	334.56
307.961	347.56
308.191	332.56
308.421	338.56
308.651	332.56
308.881	315.56
309.111	327.56
309.341	326.56
309.571	338.56
309.8	352.56
310.03	334.56
310.26	323.56
310.49	321.56
310.72	337.56
310.949	353.56
311.179	335.56
311.409	339.56
311.639	349.56
311.868	352.56
312.098	369.56
312.328	350.56
312.557	341.56
312.787	354.56
313.017	347.56
313.246	352.56
313.476	338.56
313.706	338.56
313.935	343.56
314.165	358.56
314.394	359.56
314.624	352.56
314.853	365.56
315.083	378.56
315.312	354.56
315.542	365.56
315.771	362.56
316.001	364.56
316.23	372.56
316.46	354.56
316.689	376.56
316.919	357.56
317.148	364.56
317.377	360.56
317.607	343.56
317.836	362.56
318.065	342.56
318.295	365.56
318.524	379.56
318.753	348.56
318.983	360.56
319.212	366.56
319.441	360.56
319.67	362.56
319.9	353.56
320.129	365.56
320.358	351.56
320.587	356.56
320.816	372.56
321.046	349.56
321.275	376.56
321.504	352.56
321.733	376.56
321.962	372.56
322.191	386.56
322.42	376.56
322.649	377.56
322.878	356.56
323.108	366.56
323.337	386.56
323.566	369.56
323.795	382.56
324.024	379.56
324.253	374.56
324.482	375.56
324.71	378.56
324.939	378.56
325.168	394.56
325.397	387.56
325.626	382.56
325.855	373.56
326.084	401.56
326.313	399.56
326.542	376.56
326.77	403.56
326.999	393.56
327.228	386.56
327.457	408.56
327.686	371.56
327.914	410.56
328.143	412.56
328.372	418.56
328.6	386.56
328.829	394.56
329.058	396.56
329.287	379.56
329.515	396.56
329.744	402.56
329.972	412.56
330.201	388.56
330.43	397.56
330.658	426.56
330.887	407.56
331.115	395.56
331.344	403.56
331.572	412.56
331.801	408.56
332.03	413.56
332.258	424.56
332.486	432.56
332.715	416.56
332.943	449.56
333.172	459.56
333.4	467.56
333.629	461.56
333.857	462.56
334.085	475.56
334.314	470.56
334.542	478.56
334.771	479.56
334.999	442.56
335.227	465.56
335.455	454.56
335.684	457.56
335.912	474.56
336.14	453.56
336.369	470.56
336.597	441.56
336.825	463.56
337.053	453.56
337.281	456.56
337.51	450.56
337.738	451.56
337.966	426.56
338.194	438.56
338.422	462.56
338.65	443.56
338.878	429.56
339.106	435.56
339.334	432.56
339.562	439.56
339.79	425.56
340.018	409.56
340.246	406.56
340.474	419.56
340.702	418.56
340.93	410.56
341.158	404.56
341.386	395.56
341.614	423.56
341.842	418.56
342.07	414.56
342.298	415.56
342.526	398.56
342.754	411.56
342.981	416.56
343.209	414.56
343.437	437.56
343.665	447.56
343.893	469.56
344.12	471.56
344.348	467.56
344.576	432.56
344.804	423.56
345.031	431.56
345.259	428.56
345.487	415.56
345.714	432.56
345.942	416.56
346.17	405.56
346.397	413.56
346.625	414.56
346.853	411.56
347.08	387.56
347.308	408.56
347.535	419.56
347.763	408.56
347.99	408.56
348.218	409.56
348.445	400.56
348.673	390.56
348.9	408.56
349.128	397.56
349.355	414.56
349.583	403.56
349.81	405.56
350.037	403.56
350.265	406.56
350.492	404.56
350.72	381.56
350.947	405.56
351.174	390.56
351.402	396.56
351.629	390.56
351.856	399.56
352.083	390.56
352.311	394.56
352.538	408.56
352.765	385.56
352.992	388.56
353.22	389.56
353.447	383.56
353.674	399.56
353.901	417.56
354.128	394.56
354.355	379.56
354.583	388.56
354.81	365.56
355.037	385.56
355.264	392.56
355.491	381.56
355.718	402.56
355.945	402.56
356.172	406.56
356.399	406.56
356.626	394.56
356.853	403.56
357.08	425.56
357.307	389.56
357.534	400.56
357.761	422.56
357.988	409.56
358.215	425.56
358.441	412.56
358.668	397.56
358.895	381.56
359.122	400.56
359.349	397.56
359.576	384.56
359.802	382.56
360.029	393.56
360.256	408.56
360.483	404.56
360.709	402.56
360.936	417.56
361.163	396.56
361.39	387.56
361.616	394.56
361.843	408.56
362.07	417.56
362.296	398.56
362.523	404.56
362.749	400.56
362.976	401.56
363.203	418.56
363.429	408.56
363.656	414.56
363.882	408.56
364.109	410.56
364.335	421.56
364.562	392.56
364.788	399.56
365.015	394.56
365.241	398.56
365.468	395.56
365.694	386.56
365.92	406.56
366.147	410.56
366.373	417.56
366.599	394.56
366.826	392.56
367.052	409.56
367.278	408.56
367.505	413.56
367.731	428.56
367.957	393.56
368.184	424.56
368.41	412.56
368.636	409.56
368.862	427.56
369.089	408.56
369.315	444.56
369.541	421.56
369.767	427.56
369.993	428.56
370.219	413.56
370.445	438.56
370.672	426.56
370.898	426.56
371.124	418.56
371.35	429.56
371.576	446.56
371.802	439.56
372.028	429.56
372.254	461.56
372.48	436.56
372.706	436.56
372.932	433.56
373.158	468.56
373.384	457.56
373.61	444.56
373.835	460.56
374.061	432.56
374.287	445.56
374.513	445.56
374.739	449.56
374.965	458.56
375.191	473.56
375.416	460.56
375.642	446.56
375.868	468.56
376.094	444.56
376.319	457.56
376.545	438.56
376.771	445.56
376.997	430.56
377.222	434.56
377.448	442.56
377.674	433.56
377.899	427.56
378.125	434.56
378.35	424.56
378.576	418.56
378.802	441.56
379.027	445.56
379.253	429.56
379.478	433.56
379.704	430.56
379.929	424.56
380.155	429.56
380.38	429.56
380.606	421.56
380.831	432.56
381.057	458.56
381.282	421.56
381.507	444.56
381.733	436.56
381.958	459.56
382.184	426.56
382.409	472.56
382.634	454.56
382.86	469.56
383.085	473.56
383.31	470.56
383.535	482.56
383.761	474.56
383.986	483.56
384.211	485.56
384.436	472.56
384.662	481.56
384.887	483.56
385.112	474.56
385.337	505.56
385.562	508.56
385.787	486.56
386.013	504.56
386.238	528.56
386.463	504.56
386.688	496.56
386.913	497.56
387.138	520.56
387.363	522.56
387.588	493.56
387.813	496.56
388.038	515.56
388.263	499.56
388.488	508.56
388.713	513.56
388.938	508.56
389.163	496.56
389.387	520.56
389.612	514.56
389.837	492.56
390.062	516.56
390.287	501.56
390.512	495.56
390.736	503.56
390.961	496.56
391.186	512.56
391.411	525.56
391.636	516.56
391.86	547.56
392.085	554.56
392.31	540.56
392.534	529.56
392.759	544.56
392.984	514.56
393.208	526.56
393.433	548.56
393.658	548.56
393.882	533.56
394.107	538.56
394.331	561.56
394.556	527.56
394.78	545.56
395.005	529.56
395.229	540.56
395.454	553.56
395.678	549.56
395.903	568.56
396.127	562.56
396.352	551.56
396.576	551.56
396.801	561.56
397.025	571.56
397.249	556.56
397.474	561.56
397.698	564.56
397.922	583.56
398.147	565.56
398.371	584.56
398.595	596.56
398.82	601.56
399.044	629.56
399.268	677.56
399.492	680.56
399.717	754.56
399.941	752.56
400.165	712.56
400.389	686.56
400.613	676.56
400.837	654.56
401.062	621.56
401.286	611.56
401.51	608.56
401.734	610.56
401.958	592.56
402.182	622.56
402.406	591.56
402.63	621.56
402.854	615.56
403.078	635.56
403.302	608.56
403.526	640.56
403.75	648.56
403.974	645.56
404.198	642.56
404.422	642.56
404.645	631.56
404.869	647.56
405.093	658.56
405.317	627.56
405.541	638.56
405.765	660.56
405.988	637.56
406.212	652.56
406.436	671.56
406.66	675.56
406.883	687.56
407.107	685.56
407.331	710.56
407.555	752.56
407.778	737.56
408.002	699.56
408.226	707.56
408.449	714.56
408.673	684.56
408.896	674.56
409.12	683.56
409.344	658.56
409.567	669.56
409.791	685.56
410.014	670.56
410.238	656.56
410.461	674.56
410.685	654.56
410.908	651.56
411.132	660.56
411.355	631.56
411.578	656.56
411.802	654.56
412.025	634.56
412.249	642.56
412.472	638.56
412.695	651.56
412.919	628.56
413.142	632.56
413.365	628.56
413.589	595.56
413.812	628.56
414.035	642.56
414.258	643.56
414.482	629.56
414.705	619.56
414.928	608.56
415.151	601.56
415.374	608.56
415.597	624.56
415.821	594.56
416.044	599.56
416.267	602.56
416.49	588.56
416.713	605.56
416.936	594.56
417.159	596.56
417.382	579.56
417.605	579.56
417.828	582.56
418.051	595.56
418.274	608.56
418.497	604.56
418.72	610.56
418.943	596.56
419.166	639.56
419.389	625.56
419.611	658.56
419.834	633.56
420.057	612.56
420.28	600.56
420.503	582.56
420.726	592.56
420.948	595.56
421.171	594.56
421.394	594.56
421.617	594.56
421.839	594.56
422.062	590.56
422.285	573.56
422.507	599.56
422.73	595.56
422.953	575.56
423.175	584.56
423.398	580.56
423.621	589.56
423.843	582.56
424.066	594.56
424.288	614.56
424.511	616.56
424.733	608.56
424.956	587.56
425.178	592.56
425.401	576.56
425.623	576.56
425.846	586.56
426.068	567.56
426.291	576.56
426.513	560.56
426.735	562.56
426.958	590.56
427.18	543.56
427.402	564.56
427.625	568.56
427.847	568.56
428.069	544.56
428.292	553.56
428.514	550.56
428.736	545.56
428.958	553.56
429.181	534.56
429.403	532.56
429.625	582.56
429.847	554.56
430.069	533.56
430.292	545.56
430.514	550.56
430.736	548.56
430.958	546.56
431.18	540.56
431.402	568.56
431.624	548.56
431.846	547.56
432.068	552.56
432.29	577.56
432.512	545.56
432.734	555.56
432.956	566.56
433.178	571.56
433.4	568.56
433.622	552.56
433.844	553.56
434.066	578.56
434.287	545.56
434.509	602.56
434.731	574.56
434.953	570.56
435.175	589.56
435.397	560.56
435.618	566.56
435.84	577.56
436.062	584.56
436.284	564.56
436.505	572.56
436.727	557.56
436.949	576.56
437.17	541.56
437.392	546.56
437.614	542.56
437.835	545.56
438.057	540.56
438.278	528.56
438.5	530.56
438.721	546.56
438.943	531.56
439.165	522.56
439.386	538.56
439.608	560.56
439.829	537.56
440.05	540.56
440.272	532.56
440.493	537.56
440.715	534.56
440.936	536.56
441.158	545.56
441.379	552.56
441.6	590.56
441.822	571.56
442.043	589.56
442.264	561.56
442.486	546.56
442.707	564.56
442.928	574.56
443.149	583.56
443.371	550.56
443.592	541.56
443.813	571.56
444.034	588.56
444.255	593.56
444.476	613.56
444.698	628.56
444.919	632.56
445.14	748.56
445.361	674.56
445.582	604.56
445.803	570.56
446.024	576.56
446.245	579.56
446.466	551.56
446.687	549.56
446.908	545.56
447.129	564.56
447.35	543.56
447.571	537.56
447.792	508.56
448.013	522.56
448.234	499.56
448.455	501.56
448.675	496.56
448.896	488.56
449.117	493.56
449.338	508.56
449.559	498.56
449.779	508.56
450	506.56
450.221	528.56
450.442	493.56
450.662	489.56
450.883	524.56
451.104	523.56
451.324	491.56
451.545	500.56
451.766	514.56
451.986	500.56
452.207	494.56
452.428	512.56
452.648	493.56
452.869	461.56
453.089	469.56
453.31	503.56
453.53	484.56
453.751	507.56
453.971	497.56
454.192	508.56
454.412	486.56
454.633	492.56
454.853	481.56
455.073	470.56
455.294	495.56
455.514	470.56
455.734	496.56
455.955	496.56
456.175	490.56
456.395	477.56
456.616	484.56
456.836	470.56
457.056	481.56
457.276	482.56
457.497	476.56
457.717	479.56
457.937	470.56
458.157	496.56
458.377	509.56
458.598	516.56
458.818	513.56
459.038	540.56
459.258	534.56
459.478	539.56
459.698	521.56
459.918	569.56
460.138	588.56
460.358	600.56
460.578	603.56
460.798	585.56
461.018	586.56
461.238	603.56
461.458	599.56
461.678	618.56
461.898	632.56
462.118	606.56
462.338	618.56
462.558	631.56
462.777	655.56
462.997	697.56
463.217	681.56
463.437	709.56
463.657	673.56
463.876	676.56
464.096	692.56
464.316	642.56
464.536	661.56
464.755	659.56
464.975	638.56
465.195	607.56
465.414	608.56
465.634	594.56
465.854	564.56
466.073	553.56
466.293	568.56
466.512	561.56
466.732	539.56
466.951	521.56
467.171	523.56
467.391	514.56
467.61	527.56
467.829	493.56
468.049	498.56
468.268	516.56
468.488	500.56
468.707	522.56
468.927	523.56
469.146	522.56
469.365	520.56
469.585	516.56
469.804	518.56
470.023	523.56
470.243	509.56
470.462	542.56
470.681	533.56
470.901	546.56
471.12	545.56
471.339	534.56
471.558	533.56
471.777	552.56
471.997	524.56
472.216	493.56
472.435	503.56
472.654	535.56
472.873	508.56
473.092	517.56
473.311	496.56
473.53	527.56
473.749	514.56
473.968	496.56
474.187	499.56
474.406	507.56
474.625	504.56
474.844	508.56
475.063	493.56
475.282	528.56
475.501	537.56
475.72	514.56
475.939	526.56
476.158	544.56
476.377	533.56
476.596	556.56
476.814	564.56
477.033	551.56
477.252	544.56
477.471	560.56
477.69	561.56
477.908	557.56
478.127	586.56
478.346	607.56
478.564	611.56
478.783	595.56
479.002	609.56
479.22	605.56
479.439	598.56
479.658	622.56
479.876	628.56
480.095	612.56
480.313	625.56
480.532	642.56
480.751	629.56
480.969	621.56
481.188	615.56
481.406	588.56
481.624	596.56
481.843	580.56
482.061	609.56
482.28	612.56
482.498	583.56
482.717	583.56
482.935	606.56
483.153	595.56
483.372	616.56
483.59	584.56
483.808	580.56
484.027	592.56
484.245	581.56
484.463	594.56
484.681	621.56
484.9	568.56
485.118	612.56
485.336	597.56
485.554	609.56
485.772	604.56
485.99	605.56
486.209	602.56
486.427	596.56
486.645	607.56
486.863	600.56
487.081	614.56
487.299	608.56
487.517	632.56
487.735	582.56
487.953	600.56
488.171	605.56
488.389	598.56
488.607	614.56
488.825	605.56
489.043	614.56
489.261	618.56
489.479	603.56
489.696	598.56
489.914	592.56
490.132	613.56
490.35	618.56
490.568	630.56
490.786	612.56
491.003	598.56
491.221	597.56
491.439	614.56
491.657	604.56
491.874	621.56
492.092	620.56
492.31	613.56
492.527	626.56
492.745	624.56
492.963	616.56
493.18	630.56
493.398	642.56
493.615	637.56
493.833	640.56
494.05	640.56
494.268	645.56
494.485	662.56
494.703	640.56
494.92	659.56
495.138	637.56
495.355	647.56
495.573	651.56
495.79	645.56
496.008	682.56
496.225	679.56
496.442	684.56
496.66	677.56
496.877	681.56
497.094	692.56
497.312	707.56
497.529	728.56
497.746	720.56
497.963	740.56
498.181	775.56
498.398	774.56
498.615	832.56
498.832	849.56
499.049	905.56
499.267	934.56
499.484	958.56
499.701	1040.56
499.918	1126.56
500.135	1196.56
500.352	1259.56
500.569	1322.56
500.786	1304.56
501.003	1244.56
501.22	1189.56
501.437	1095.56
501.654	1004.56
