Data from Fe(NO3)3@0.1M.TitratingCurve.Agarose3%dH2O.NegLispCup.LampEnergy10.LIBS07252019_HRD10591_16-41-49-333.txt Node
Date: Thu Jul 25 16:41:49 EDT 2019
User: cochatt
Spectrometer: HR+D1059
Trigger mode: 1
Integration Time (sec): 1.000000E-1
Scans to average: 1
Electric dark correction enabled: true
Nonlinearity correction enabled: false
Boxcar width: 0
XAxis mode: Wavelengths
Number of Pixels in Spectrum: 2048
>>>>>Begin Spectral Data<<<<<
223.165	-22.12
223.4	-22.12
223.635	-22.12
223.869	-9.12
224.104	-22.12
224.338	-24.12
224.573	-1.12
224.808	-5.12
225.042	-10.12
225.277	-13.12
225.511	-13.12
225.746	-0.12
225.98	10.88
226.215	4.88
226.449	19.88
226.683	31.88
226.918	12.88
227.152	39.88
227.387	25.88
227.621	30.88
227.856	40.88
228.09	54.88
228.324	39.88
228.559	52.88
228.793	55.88
229.027	72.88
229.262	86.88
229.496	79.88
229.73	86.88
229.964	88.88
230.199	86.88
230.433	82.88
230.667	87.88
230.901	84.88
231.136	90.88
231.37	102.88
231.604	106.88
231.838	95.88
232.072	93.88
232.306	100.88
232.541	80.88
232.775	112.88
233.009	85.88
233.243	98.88
233.477	100.88
233.711	101.88
233.945	104.88
234.179	92.88
234.413	98.88
234.647	77.88
234.881	92.88
235.115	116.88
235.349	94.88
235.583	106.88
235.817	98.88
236.051	100.88
236.285	106.88
236.519	91.88
236.753	88.88
236.987	103.88
237.221	102.88
237.455	103.88
237.689	98.88
237.922	96.88
238.156	98.88
238.39	93.88
238.624	107.88
238.858	100.88
239.091	102.88
239.325	101.88
239.559	106.88
239.793	99.88
240.027	106.88
240.26	91.88
240.494	105.88
240.728	93.88
240.961	98.88
241.195	107.88
241.429	100.88
241.662	110.88
241.896	96.88
242.13	111.88
242.363	110.88
242.597	88.88
242.83	104.88
243.064	112.88
243.298	110.88
243.531	104.88
243.765	98.88
243.998	119.88
244.232	120.88
244.465	111.88
244.699	114.88
244.932	114.88
245.166	127.88
245.399	105.88
245.633	106.88
245.866	108.88
246.099	108.88
246.333	111.88
246.566	111.88
246.8	109.88
247.033	118.88
247.266	101.88
247.5	124.88
247.733	119.88
247.966	116.88
248.2	119.88
248.433	107.88
248.666	122.88
248.899	108.88
249.133	134.88
249.366	121.88
249.599	121.88
249.832	122.88
250.066	126.88
250.299	121.88
250.532	121.88
250.765	131.88
250.998	107.88
251.231	109.88
251.465	116.88
251.698	128.88
251.931	125.88
252.164	133.88
252.397	121.88
252.63	120.88
252.863	126.88
253.096	114.88
253.329	120.88
253.562	111.88
253.795	103.88
254.028	118.88
254.261	129.88
254.494	128.88
254.727	126.88
254.96	137.88
255.193	115.88
255.426	134.88
255.659	121.88
255.892	122.88
256.124	118.88
256.357	138.88
256.59	142.88
256.823	131.88
257.056	126.88
257.289	127.88
257.521	128.88
257.754	135.88
257.987	137.88
258.22	138.88
258.452	135.88
258.685	130.88
258.918	142.88
259.151	155.88
259.383	115.88
259.616	134.88
259.849	128.88
260.081	130.88
260.314	140.88
260.547	135.88
260.779	143.88
261.012	128.88
261.244	134.88
261.477	142.88
261.71	126.88
261.942	125.88
262.175	142.88
262.407	135.88
262.64	134.88
262.872	154.88
263.105	152.88
263.337	144.88
263.57	148.88
263.802	164.88
264.035	140.88
264.267	145.88
264.499	137.88
264.732	140.88
264.964	144.88
265.197	140.88
265.429	149.88
265.661	135.88
265.894	147.88
266.126	141.88
266.358	156.88
266.591	149.88
266.823	149.88
267.055	134.88
267.287	155.88
267.52	132.88
267.752	158.88
267.984	159.88
268.216	156.88
268.448	142.88
268.681	158.88
268.913	151.88
269.145	156.88
269.377	165.88
269.609	149.88
269.841	168.88
270.073	142.88
270.306	138.88
270.538	151.88
270.77	142.88
271.002	139.88
271.234	140.88
271.466	146.88
271.698	154.88
271.93	153.88
272.162	150.88
272.394	165.88
272.626	158.88
272.858	162.88
273.09	158.88
273.322	150.88
273.553	159.88
273.785	174.88
274.017	155.88
274.249	163.88
274.481	167.88
274.713	147.88
274.945	157.88
275.176	164.88
275.408	167.88
275.64	163.88
275.872	151.88
276.104	188.88
276.335	164.88
276.567	150.88
276.799	168.88
277.031	157.88
277.262	157.88
277.494	168.88
277.726	168.88
277.957	177.88
278.189	177.88
278.421	166.88
278.652	165.88
278.884	159.88
279.115	170.88
279.347	174.88
279.579	184.88
279.81	164.88
280.042	169.88
280.273	172.88
280.505	171.88
280.736	171.88
280.968	161.88
281.199	182.88
281.431	172.88
281.662	184.88
281.894	186.88
282.125	163.88
282.356	171.88
282.588	179.88
282.819	178.88
283.051	194.88
283.282	185.88
283.513	178.88
283.745	184.88
283.976	168.88
284.207	204.88
284.439	186.88
284.67	168.88
284.901	168.88
285.132	186.88
285.364	194.88
285.595	170.88
285.826	190.88
286.057	175.88
286.288	199.88
286.52	190.88
286.751	187.88
286.982	202.88
287.213	183.88
287.444	207.88
287.675	187.88
287.906	185.88
288.138	180.88
288.369	206.88
288.6	180.88
288.831	195.88
289.062	197.88
289.293	177.88
289.524	165.88
289.755	185.88
289.986	174.88
290.217	204.88
290.448	182.88
290.679	191.88
290.91	189.88
291.141	195.88
291.371	192.88
291.602	188.88
291.833	186.88
292.064	197.88
292.295	200.88
292.526	187.88
292.757	194.88
292.987	183.88
293.218	203.88
293.449	183.88
293.68	201.88
293.91	199.88
294.141	183.88
294.372	185.88
294.603	195.88
294.833	207.88
295.064	185.88
295.295	190.88
295.525	204.88
295.756	188.88
295.987	190.88
296.217	193.88
296.448	208.88
296.679	208.88
296.909	197.88
297.14	194.88
297.37	193.88
297.601	212.88
297.831	202.88
298.062	212.88
298.292	205.88
298.523	204.88
298.753	200.88
298.984	206.88
299.214	204.88
299.445	221.88
299.675	212.88
299.905	207.88
300.136	215.88
300.366	210.88
300.597	210.88
300.827	221.88
301.057	222.88
301.288	229.88
301.518	220.88
301.748	223.88
301.979	213.88
302.209	221.88
302.439	197.88
302.669	209.88
302.9	213.88
303.13	209.88
303.36	219.88
303.59	207.88
303.82	214.88
304.051	214.88
304.281	210.88
304.511	220.88
304.741	215.88
304.971	213.88
305.201	204.88
305.431	216.88
305.661	212.88
305.891	223.88
306.121	216.88
306.352	204.88
306.582	208.88
306.812	221.88
307.042	220.88
307.272	228.88
307.502	211.88
307.731	230.88
307.961	230.88
308.191	229.88
308.421	199.88
308.651	211.88
308.881	204.88
309.111	208.88
309.341	210.88
309.571	202.88
309.8	211.88
310.03	207.88
310.26	208.88
310.49	217.88
310.72	207.88
310.949	216.88
311.179	233.88
311.409	226.88
311.639	214.88
311.868	227.88
312.098	215.88
312.328	232.88
312.557	220.88
312.787	234.88
313.017	230.88
313.246	248.88
313.476	242.88
313.706	239.88
313.935	226.88
314.165	229.88
314.394	228.88
314.624	233.88
314.853	231.88
315.083	221.88
315.312	214.88
315.542	221.88
315.771	255.88
316.001	234.88
316.23	220.88
316.46	222.88
316.689	233.88
316.919	225.88
317.148	247.88
317.377	239.88
317.607	224.88
317.836	223.88
318.065	235.88
318.295	224.88
318.524	220.88
318.753	225.88
318.983	228.88
319.212	247.88
319.441	233.88
319.67	229.88
319.9	233.88
320.129	231.88
320.358	212.88
320.587	218.88
320.816	227.88
321.046	220.88
321.275	223.88
321.504	229.88
321.733	220.88
321.962	235.88
322.191	242.88
322.42	235.88
322.649	216.88
322.878	246.88
323.108	229.88
323.337	246.88
323.566	234.88
323.795	235.88
324.024	234.88
324.253	242.88
324.482	244.88
324.71	246.88
324.939	238.88
325.168	255.88
325.397	260.88
325.626	269.88
325.855	241.88
326.084	247.88
326.313	253.88
326.542	246.88
326.77	259.88
326.999	245.88
327.228	246.88
327.457	271.88
327.686	254.88
327.914	260.88
328.143	251.88
328.372	237.88
328.6	247.88
328.829	229.88
329.058	251.88
329.287	256.88
329.515	251.88
329.744	261.88
329.972	272.88
330.201	257.88
330.43	243.88
330.658	261.88
330.887	260.88
331.115	281.88
331.344	254.88
331.572	276.88
331.801	276.88
332.03	284.88
332.258	272.88
332.486	286.88
332.715	298.88
332.943	298.88
333.172	298.88
333.4	318.88
333.629	328.88
333.857	307.88
334.085	326.88
334.314	317.88
334.542	312.88
334.771	320.88
334.999	299.88
335.227	306.88
335.455	292.88
335.684	290.88
335.912	297.88
336.14	298.88
336.369	307.88
336.597	291.88
336.825	269.88
337.053	293.88
337.281	298.88
337.51	281.88
337.738	310.88
337.966	280.88
338.194	264.88
338.422	273.88
338.65	267.88
338.878	266.88
339.106	264.88
339.334	287.88
339.562	268.88
339.79	261.88
340.018	274.88
340.246	264.88
340.474	270.88
340.702	246.88
340.93	250.88
341.158	254.88
341.386	271.88
341.614	275.88
341.842	264.88
342.07	251.88
342.298	261.88
342.526	257.88
342.754	252.88
342.981	254.88
343.209	267.88
343.437	287.88
343.665	302.88
343.893	292.88
344.12	310.88
344.348	287.88
344.576	278.88
344.804	282.88
345.031	271.88
345.259	298.88
345.487	276.88
345.714	275.88
345.942	263.88
346.17	267.88
346.397	242.88
346.625	258.88
346.853	246.88
347.08	266.88
347.308	240.88
347.535	266.88
347.763	264.88
347.99	269.88
348.218	251.88
348.445	248.88
348.673	260.88
348.9	266.88
349.128	250.88
349.355	258.88
349.583	243.88
349.81	247.88
350.037	243.88
350.265	243.88
350.492	248.88
350.72	252.88
350.947	258.88
351.174	265.88
351.402	261.88
351.629	268.88
351.856	260.88
352.083	250.88
352.311	262.88
352.538	261.88
352.765	259.88
352.992	252.88
353.22	252.88
353.447	245.88
353.674	258.88
353.901	254.88
354.128	246.88
354.355	279.88
354.583	258.88
354.81	247.88
355.037	241.88
355.264	247.88
355.491	237.88
355.718	260.88
355.945	249.88
356.172	260.88
356.399	261.88
356.626	260.88
356.853	258.88
357.08	254.88
357.307	276.88
357.534	246.88
357.761	280.88
357.988	259.88
358.215	251.88
358.441	270.88
358.668	261.88
358.895	262.88
359.122	250.88
359.349	249.88
359.576	262.88
359.802	240.88
360.029	263.88
360.256	270.88
360.483	258.88
360.709	243.88
360.936	242.88
361.163	253.88
361.39	265.88
361.616	268.88
361.843	262.88
362.07	259.88
362.296	264.88
362.523	248.88
362.749	252.88
362.976	242.88
363.203	258.88
363.429	257.88
363.656	261.88
363.882	262.88
364.109	250.88
364.335	261.88
364.562	266.88
364.788	260.88
365.015	240.88
365.241	266.88
365.468	271.88
365.694	262.88
365.92	261.88
366.147	256.88
366.373	277.88
366.599	262.88
366.826	276.88
367.052	253.88
367.278	264.88
367.505	265.88
367.731	260.88
367.957	259.88
368.184	272.88
368.41	276.88
368.636	257.88
368.862	272.88
369.089	262.88
369.315	258.88
369.541	266.88
369.767	269.88
369.993	268.88
370.219	265.88
370.445	272.88
370.672	270.88
370.898	263.88
371.124	292.88
371.35	263.88
371.576	264.88
371.802	273.88
372.028	299.88
372.254	272.88
372.48	297.88
372.706	276.88
372.932	294.88
373.158	290.88
373.384	293.88
373.61	292.88
373.835	288.88
374.061	281.88
374.287	279.88
374.513	293.88
374.739	307.88
374.965	299.88
375.191	298.88
375.416	301.88
375.642	290.88
375.868	302.88
376.094	300.88
376.319	285.88
376.545	279.88
376.771	277.88
376.997	274.88
377.222	277.88
377.448	268.88
377.674	278.88
377.899	281.88
378.125	291.88
378.35	287.88
378.576	261.88
378.802	283.88
379.027	284.88
379.253	278.88
379.478	272.88
379.704	286.88
379.929	287.88
380.155	293.88
380.38	294.88
380.606	286.88
380.831	274.88
381.057	292.88
381.282	282.88
381.507	303.88
381.733	306.88
381.958	283.88
382.184	280.88
382.409	291.88
382.634	310.88
382.86	279.88
383.085	293.88
383.31	307.88
383.535	299.88
383.761	301.88
383.986	316.88
384.211	320.88
384.436	308.88
384.662	333.88
384.887	329.88
385.112	319.88
385.337	322.88
385.562	320.88
385.787	333.88
386.013	344.88
386.238	334.88
386.463	327.88
386.688	327.88
386.913	295.88
387.138	325.88
387.363	308.88
387.588	326.88
387.813	344.88
388.038	324.88
388.263	315.88
388.488	333.88
388.713	299.88
388.938	321.88
389.163	325.88
389.387	328.88
389.612	330.88
389.837	313.88
390.062	331.88
390.287	317.88
390.512	323.88
390.736	322.88
390.961	343.88
391.186	336.88
391.411	331.88
391.636	344.88
391.86	354.88
392.085	352.88
392.31	370.88
392.534	356.88
392.759	346.88
392.984	365.88
393.208	347.88
393.433	340.88
393.658	352.88
393.882	345.88
394.107	327.88
394.331	336.88
394.556	345.88
394.78	359.88
395.005	357.88
395.229	372.88
395.454	355.88
395.678	361.88
395.903	348.88
396.127	356.88
396.352	354.88
396.576	342.88
396.801	341.88
397.025	342.88
397.249	356.88
397.474	372.88
397.698	373.88
397.922	362.88
398.147	353.88
398.371	372.88
398.595	374.88
398.82	395.88
399.044	454.88
399.268	460.88
399.492	523.88
399.717	536.88
399.941	531.88
400.165	479.88
400.389	442.88
400.613	424.88
400.837	401.88
401.062	413.88
401.286	416.88
401.51	397.88
401.734	365.88
401.958	420.88
402.182	414.88
402.406	408.88
402.63	393.88
402.854	404.88
403.078	410.88
403.302	406.88
403.526	416.88
403.75	424.88
403.974	434.88
404.198	455.88
404.422	418.88
404.645	445.88
404.869	460.88
405.093	441.88
405.317	426.88
405.541	425.88
405.765	427.88
405.988	426.88
406.212	429.88
406.436	425.88
406.66	429.88
406.883	439.88
407.107	471.88
407.331	467.88
407.555	465.88
407.778	500.88
408.002	454.88
408.226	458.88
408.449	456.88
408.673	439.88
408.896	443.88
409.12	434.88
409.344	446.88
409.567	450.88
409.791	463.88
410.014	454.88
410.238	438.88
410.461	431.88
410.685	410.88
410.908	408.88
411.132	400.88
411.355	409.88
411.578	429.88
411.802	400.88
412.025	404.88
412.249	448.88
412.472	413.88
412.695	389.88
412.919	395.88
413.142	396.88
413.365	399.88
413.589	415.88
413.812	377.88
414.035	427.88
414.258	403.88
414.482	442.88
414.705	414.88
414.928	417.88
415.151	410.88
415.374	402.88
415.597	420.88
415.821	400.88
416.044	397.88
416.267	392.88
416.49	411.88
416.713	386.88
416.936	398.88
417.159	398.88
417.382	376.88
417.605	367.88
417.828	404.88
418.051	391.88
418.274	408.88
418.497	395.88
418.72	396.88
418.943	402.88
419.166	408.88
419.389	422.88
419.611	446.88
419.834	430.88
420.057	421.88
420.28	407.88
420.503	384.88
420.726	394.88
420.948	399.88
421.171	394.88
421.394	405.88
421.617	409.88
421.839	400.88
422.062	418.88
422.285	400.88
422.507	419.88
422.73	404.88
422.953	420.88
423.175	401.88
423.398	410.88
423.621	403.88
423.843	413.88
424.066	442.88
424.288	423.88
424.511	413.88
424.733	396.88
424.956	399.88
425.178	390.88
425.401	383.88
425.623	384.88
425.846	404.88
426.068	406.88
426.291	380.88
426.513	384.88
426.735	362.88
426.958	367.88
427.18	362.88
427.402	379.88
427.625	360.88
427.847	375.88
428.069	371.88
428.292	382.88
428.514	354.88
428.736	379.88
428.958	361.88
429.181	376.88
429.403	377.88
429.625	373.88
429.847	351.88
430.069	365.88
430.292	380.88
430.514	360.88
430.736	376.88
430.958	371.88
431.18	363.88
431.402	373.88
431.624	360.88
431.846	366.88
432.068	359.88
432.29	359.88
432.512	355.88
432.734	364.88
432.956	365.88
433.178	372.88
433.4	390.88
433.622	383.88
433.844	354.88
434.066	370.88
434.287	382.88
434.509	373.88
434.731	408.88
434.953	391.88
435.175	412.88
435.397	409.88
435.618	383.88
435.84	390.88
436.062	384.88
436.284	371.88
436.505	377.88
436.727	372.88
436.949	370.88
437.17	363.88
437.392	356.88
437.614	343.88
437.835	349.88
438.057	372.88
438.278	372.88
438.5	371.88
438.721	373.88
438.943	367.88
439.165	352.88
439.386	382.88
439.608	392.88
439.829	381.88
440.05	378.88
440.272	367.88
440.493	376.88
440.715	378.88
440.936	388.88
441.158	404.88
441.379	400.88
441.6	395.88
441.822	433.88
442.043	407.88
442.264	413.88
442.486	410.88
442.707	410.88
442.928	395.88
443.149	400.88
443.371	408.88
443.592	418.88
443.813	419.88
444.034	404.88
444.255	438.88
444.476	430.88
444.698	455.88
444.919	463.88
445.14	570.88
445.361	472.88
445.582	424.88
445.803	414.88
446.024	402.88
446.245	415.88
446.466	405.88
446.687	384.88
446.908	399.88
447.129	385.88
447.35	378.88
447.571	383.88
447.792	377.88
448.013	375.88
448.234	364.88
448.455	339.88
448.675	351.88
448.896	349.88
449.117	361.88
449.338	346.88
449.559	342.88
449.779	340.88
450	341.88
450.221	340.88
450.442	352.88
450.662	351.88
450.883	362.88
451.104	355.88
451.324	348.88
451.545	363.88
451.766	363.88
451.986	352.88
452.207	357.88
452.428	358.88
452.648	363.88
452.869	341.88
453.089	326.88
453.31	318.88
453.53	318.88
453.751	313.88
453.971	331.88
454.192	338.88
454.412	334.88
454.633	345.88
454.853	340.88
455.073	330.88
455.294	348.88
455.514	333.88
455.734	329.88
455.955	324.88
456.175	329.88
456.395	328.88
456.616	320.88
456.836	321.88
457.056	326.88
457.276	307.88
457.497	322.88
457.717	326.88
457.937	343.88
458.157	330.88
458.377	336.88
458.598	344.88
458.818	351.88
459.038	351.88
459.258	341.88
459.478	343.88
459.698	351.88
459.918	392.88
460.138	398.88
460.358	400.88
460.578	411.88
460.798	450.88
461.018	423.88
461.238	418.88
461.458	437.88
461.678	409.88
461.898	414.88
462.118	421.88
462.338	454.88
462.558	471.88
462.777	504.88
462.997	508.88
463.217	518.88
463.437	528.88
463.657	488.88
463.876	450.88
464.096	461.88
464.316	473.88
464.536	448.88
464.755	451.88
464.975	425.88
465.195	440.88
465.414	414.88
465.634	406.88
465.854	386.88
466.073	390.88
466.293	366.88
466.512	358.88
466.732	359.88
466.951	368.88
467.171	364.88
467.391	364.88
467.61	348.88
467.829	347.88
468.049	348.88
468.268	351.88
468.488	354.88
468.707	364.88
468.927	358.88
469.146	345.88
469.365	370.88
469.585	359.88
469.804	372.88
470.023	362.88
470.243	366.88
470.462	365.88
470.681	374.88
470.901	375.88
471.12	364.88
471.339	356.88
471.558	352.88
471.777	345.88
471.997	349.88
472.216	341.88
472.435	342.88
472.654	331.88
472.873	346.88
473.092	335.88
473.311	331.88
473.53	315.88
473.749	345.88
473.968	329.88
474.187	338.88
474.406	336.88
474.625	335.88
474.844	333.88
475.063	337.88
475.282	351.88
475.501	343.88
475.72	336.88
475.939	341.88
476.158	351.88
476.377	347.88
476.596	354.88
476.814	346.88
477.033	350.88
477.252	365.88
477.471	367.88
477.69	377.88
477.908	366.88
478.127	380.88
478.346	382.88
478.564	397.88
478.783	394.88
479.002	412.88
479.22	391.88
479.439	387.88
479.658	384.88
479.876	395.88
480.095	394.88
480.313	420.88
480.532	416.88
480.751	415.88
480.969	395.88
481.188	370.88
481.406	381.88
481.624	355.88
481.843	375.88
482.061	366.88
482.28	374.88
482.498	373.88
482.717	396.88
482.935	356.88
483.153	376.88
483.372	401.88
483.59	384.88
483.808	370.88
484.027	373.88
484.245	384.88
484.463	388.88
484.681	385.88
484.9	392.88
485.118	379.88
485.336	370.88
485.554	372.88
485.772	398.88
485.99	377.88
486.209	378.88
486.427	395.88
486.645	392.88
486.863	372.88
487.081	378.88
487.299	372.88
487.517	384.88
487.735	381.88
487.953	381.88
488.171	386.88
488.389	391.88
488.607	382.88
488.825	373.88
489.043	382.88
489.261	399.88
489.479	391.88
489.696	379.88
489.914	392.88
490.132	375.88
490.35	391.88
490.568	387.88
490.786	388.88
491.003	397.88
491.221	402.88
491.439	401.88
491.657	382.88
491.874	397.88
492.092	401.88
492.31	415.88
492.527	406.88
492.745	399.88
492.963	407.88
493.18	397.88
493.398	404.88
493.615	414.88
493.833	444.88
494.05	414.88
494.268	409.88
494.485	421.88
494.703	421.88
494.92	405.88
495.138	416.88
495.355	425.88
495.573	418.88
495.79	412.88
496.008	426.88
496.225	425.88
496.442	403.88
496.66	395.88
496.877	438.88
497.094	444.88
497.312	446.88
497.529	438.88
497.746	456.88
497.963	473.88
498.181	484.88
498.398	485.88
498.615	507.88
498.832	547.88
499.049	594.88
499.267	638.88
499.484	690.88
499.701	761.88
499.918	806.88
500.135	884.88
500.352	959.88
500.569	981.88
500.786	950.88
501.003	903.88
501.22	822.88
501.437	734.88
501.654	668.88
501.871	619.88
502.088	595.88
