Data from Fe(NO3)3@0.025M.TitratingCurve.Agarose3%dH2O.NegLispCup.LampEnergy10.LIBS07252019_HRD10591_16-56-19-335.txt Node
Date: Thu Jul 25 16:56:19 EDT 2019
User: cochatt
Spectrometer: HR+D1059
Trigger mode: 1
Integration Time (sec): 1.000000E-1
Scans to average: 1
Electric dark correction enabled: true
Nonlinearity correction enabled: false
Boxcar width: 0
XAxis mode: Wavelengths
Number of Pixels in Spectrum: 2048
>>>>>Begin Spectral Data<<<<<
223.165	-8.75
223.4	-8.75
223.635	-8.75
223.869	-22.75
224.104	-28.75
224.338	-9.75
224.573	-17.75
224.808	-12.75
225.042	-13.75
225.277	-1.75
225.511	-12.75
225.746	2.25
225.98	11.25
226.215	26.25
226.449	11.25
226.683	22.25
226.918	22.25
227.152	33.25
227.387	26.25
227.621	36.25
227.856	51.25
228.09	26.25
228.324	48.25
228.559	64.25
228.793	73.25
229.027	81.25
229.262	70.25
229.496	70.25
229.73	83.25
229.964	78.25
230.199	79.25
230.433	84.25
230.667	92.25
230.901	80.25
231.136	75.25
231.37	79.25
231.604	86.25
231.838	100.25
232.072	111.25
232.306	97.25
232.541	96.25
232.775	101.25
233.009	102.25
233.243	86.25
233.477	82.25
233.711	87.25
233.945	78.25
234.179	98.25
234.413	75.25
234.647	104.25
234.881	89.25
235.115	96.25
235.349	82.25
235.583	83.25
235.817	92.25
236.051	75.25
236.285	82.25
236.519	97.25
236.753	92.25
236.987	88.25
237.221	90.25
237.455	79.25
237.689	92.25
237.922	86.25
238.156	97.25
238.39	114.25
238.624	106.25
238.858	104.25
239.091	107.25
239.325	111.25
239.559	92.25
239.793	91.25
240.027	90.25
240.26	76.25
240.494	90.25
240.728	90.25
240.961	91.25
241.195	111.25
241.429	88.25
241.662	95.25
241.896	110.25
242.13	91.25
242.363	105.25
242.597	111.25
242.83	105.25
243.064	112.25
243.298	102.25
243.531	105.25
243.765	101.25
243.998	113.25
244.232	104.25
244.465	102.25
244.699	96.25
244.932	111.25
245.166	101.25
245.399	100.25
245.633	97.25
245.866	96.25
246.099	111.25
246.333	95.25
246.566	112.25
246.8	115.25
247.033	102.25
247.266	110.25
247.5	96.25
247.733	105.25
247.966	99.25
248.2	101.25
248.433	99.25
248.666	118.25
248.899	109.25
249.133	105.25
249.366	101.25
249.599	105.25
249.832	114.25
250.066	116.25
250.299	129.25
250.532	105.25
250.765	115.25
250.998	110.25
251.231	121.25
251.465	104.25
251.698	112.25
251.931	107.25
252.164	108.25
252.397	119.25
252.63	120.25
252.863	122.25
253.096	117.25
253.329	127.25
253.562	112.25
253.795	119.25
254.028	119.25
254.261	119.25
254.494	113.25
254.727	116.25
254.96	115.25
255.193	118.25
255.426	112.25
255.659	124.25
255.892	122.25
256.124	120.25
256.357	116.25
256.59	123.25
256.823	114.25
257.056	119.25
257.289	116.25
257.521	114.25
257.754	129.25
257.987	126.25
258.22	117.25
258.452	129.25
258.685	113.25
258.918	124.25
259.151	118.25
259.383	123.25
259.616	135.25
259.849	133.25
260.081	119.25
260.314	129.25
260.547	118.25
260.779	120.25
261.012	136.25
261.244	124.25
261.477	121.25
261.71	137.25
261.942	131.25
262.175	125.25
262.407	118.25
262.64	139.25
262.872	122.25
263.105	132.25
263.337	132.25
263.57	133.25
263.802	127.25
264.035	149.25
264.267	134.25
264.499	122.25
264.732	128.25
264.964	134.25
265.197	134.25
265.429	138.25
265.661	134.25
265.894	131.25
266.126	128.25
266.358	134.25
266.591	136.25
266.823	130.25
267.055	146.25
267.287	148.25
267.52	139.25
267.752	131.25
267.984	147.25
268.216	137.25
268.448	128.25
268.681	130.25
268.913	133.25
269.145	145.25
269.377	141.25
269.609	144.25
269.841	139.25
270.073	135.25
270.306	117.25
270.538	137.25
270.77	142.25
271.002	160.25
271.234	140.25
271.466	127.25
271.698	146.25
271.93	153.25
272.162	156.25
272.394	138.25
272.626	141.25
272.858	134.25
273.09	151.25
273.322	152.25
273.553	146.25
273.785	146.25
274.017	153.25
274.249	145.25
274.481	150.25
274.713	151.25
274.945	152.25
275.176	137.25
275.408	146.25
275.64	156.25
275.872	152.25
276.104	151.25
276.335	143.25
276.567	151.25
276.799	148.25
277.031	158.25
277.262	151.25
277.494	146.25
277.726	163.25
277.957	146.25
278.189	163.25
278.421	162.25
278.652	141.25
278.884	149.25
279.115	151.25
279.347	146.25
279.579	167.25
279.81	152.25
280.042	160.25
280.273	161.25
280.505	156.25
280.736	160.25
280.968	163.25
281.199	164.25
281.431	154.25
281.662	153.25
281.894	175.25
282.125	153.25
282.356	172.25
282.588	161.25
282.819	152.25
283.051	146.25
283.282	176.25
283.513	172.25
283.745	153.25
283.976	174.25
284.207	159.25
284.439	182.25
284.67	176.25
284.901	167.25
285.132	171.25
285.364	167.25
285.595	156.25
285.826	163.25
286.057	161.25
286.288	178.25
286.52	187.25
286.751	181.25
286.982	169.25
287.213	148.25
287.444	172.25
287.675	157.25
287.906	172.25
288.138	163.25
288.369	175.25
288.6	176.25
288.831	170.25
289.062	174.25
289.293	170.25
289.524	163.25
289.755	188.25
289.986	173.25
290.217	168.25
290.448	184.25
290.679	185.25
290.91	179.25
291.141	183.25
291.371	190.25
291.602	184.25
291.833	194.25
292.064	187.25
292.295	177.25
292.526	179.25
292.757	154.25
292.987	182.25
293.218	181.25
293.449	188.25
293.68	182.25
293.91	186.25
294.141	172.25
294.372	174.25
294.603	184.25
294.833	184.25
295.064	181.25
295.295	180.25
295.525	169.25
295.756	193.25
295.987	177.25
296.217	201.25
296.448	186.25
296.679	191.25
296.909	182.25
297.14	172.25
297.37	183.25
297.601	183.25
297.831	186.25
298.062	187.25
298.292	188.25
298.523	200.25
298.753	176.25
298.984	200.25
299.214	192.25
299.445	209.25
299.675	188.25
299.905	176.25
300.136	186.25
300.366	181.25
300.597	200.25
300.827	196.25
301.057	190.25
301.288	183.25
301.518	191.25
301.748	205.25
301.979	191.25
302.209	193.25
302.439	188.25
302.669	192.25
302.9	201.25
303.13	211.25
303.36	192.25
303.59	212.25
303.82	199.25
304.051	188.25
304.281	211.25
304.511	209.25
304.741	202.25
304.971	211.25
305.201	202.25
305.431	204.25
305.661	215.25
305.891	208.25
306.121	190.25
306.352	212.25
306.582	183.25
306.812	196.25
307.042	205.25
307.272	203.25
307.502	201.25
307.731	193.25
307.961	201.25
308.191	211.25
308.421	203.25
308.651	198.25
308.881	184.25
309.111	194.25
309.341	206.25
309.571	167.25
309.8	210.25
310.03	192.25
310.26	200.25
310.49	195.25
310.72	190.25
310.949	217.25
311.179	213.25
311.409	214.25
311.639	217.25
311.868	215.25
312.098	202.25
312.328	203.25
312.557	222.25
312.787	208.25
313.017	215.25
313.246	226.25
313.476	212.25
313.706	216.25
313.935	213.25
314.165	207.25
314.394	213.25
314.624	209.25
314.853	231.25
315.083	204.25
315.312	222.25
315.542	221.25
315.771	220.25
316.001	211.25
316.23	239.25
316.46	226.25
316.689	231.25
316.919	218.25
317.148	224.25
317.377	229.25
317.607	219.25
317.836	224.25
318.065	238.25
318.295	240.25
318.524	238.25
318.753	211.25
318.983	228.25
319.212	232.25
319.441	217.25
319.67	228.25
319.9	225.25
320.129	229.25
320.358	227.25
320.587	228.25
320.816	228.25
321.046	226.25
321.275	219.25
321.504	225.25
321.733	234.25
321.962	222.25
322.191	230.25
322.42	237.25
322.649	235.25
322.878	233.25
323.108	231.25
323.337	229.25
323.566	221.25
323.795	233.25
324.024	233.25
324.253	225.25
324.482	242.25
324.71	249.25
324.939	246.25
325.168	242.25
325.397	219.25
325.626	217.25
325.855	236.25
326.084	239.25
326.313	232.25
326.542	227.25
326.77	247.25
326.999	234.25
327.228	228.25
327.457	240.25
327.686	224.25
327.914	236.25
328.143	241.25
328.372	239.25
328.6	250.25
328.829	230.25
329.058	238.25
329.287	247.25
329.515	250.25
329.744	238.25
329.972	232.25
330.201	248.25
330.43	254.25
330.658	265.25
330.887	248.25
331.115	256.25
331.344	254.25
331.572	245.25
331.801	244.25
332.03	244.25
332.258	257.25
332.486	255.25
332.715	249.25
332.943	283.25
333.172	281.25
333.4	269.25
333.629	272.25
333.857	295.25
334.085	296.25
334.314	306.25
334.542	278.25
334.771	298.25
334.999	287.25
335.227	272.25
335.455	277.25
335.684	278.25
335.912	286.25
336.14	281.25
336.369	266.25
336.597	266.25
336.825	267.25
337.053	274.25
337.281	291.25
337.51	262.25
337.738	282.25
337.966	259.25
338.194	266.25
338.422	263.25
338.65	271.25
338.878	286.25
339.106	283.25
339.334	275.25
339.562	257.25
339.79	242.25
340.018	266.25
340.246	260.25
340.474	265.25
340.702	262.25
340.93	262.25
341.158	278.25
341.386	261.25
341.614	249.25
341.842	256.25
342.07	238.25
342.298	273.25
342.526	267.25
342.754	271.25
342.981	270.25
343.209	277.25
343.437	265.25
343.665	271.25
343.893	283.25
344.12	286.25
344.348	293.25
344.576	286.25
344.804	299.25
345.031	264.25
345.259	254.25
345.487	272.25
345.714	254.25
345.942	247.25
346.17	256.25
346.397	274.25
346.625	252.25
346.853	252.25
347.08	242.25
347.308	261.25
347.535	272.25
347.763	256.25
347.99	255.25
348.218	261.25
348.445	261.25
348.673	264.25
348.9	260.25
349.128	254.25
349.355	253.25
349.583	269.25
349.81	235.25
350.037	259.25
350.265	261.25
350.492	269.25
350.72	263.25
350.947	249.25
351.174	263.25
351.402	257.25
351.629	261.25
351.856	268.25
352.083	269.25
352.311	263.25
352.538	267.25
352.765	280.25
352.992	260.25
353.22	266.25
353.447	280.25
353.674	246.25
353.901	231.25
354.128	258.25
354.355	244.25
354.583	264.25
354.81	274.25
355.037	240.25
355.264	257.25
355.491	247.25
355.718	246.25
355.945	256.25
356.172	249.25
356.399	267.25
356.626	260.25
356.853	275.25
357.08	262.25
357.307	258.25
357.534	264.25
357.761	254.25
357.988	262.25
358.215	263.25
358.441	244.25
358.668	256.25
358.895	248.25
359.122	273.25
359.349	246.25
359.576	255.25
359.802	252.25
360.029	237.25
360.256	256.25
360.483	263.25
360.709	246.25
360.936	268.25
361.163	267.25
361.39	261.25
361.616	244.25
361.843	268.25
362.07	256.25
362.296	268.25
362.523	256.25
362.749	244.25
362.976	265.25
363.203	260.25
363.429	255.25
363.656	237.25
363.882	267.25
364.109	265.25
364.335	264.25
364.562	245.25
364.788	265.25
365.015	252.25
365.241	254.25
365.468	256.25
365.694	259.25
365.92	267.25
366.147	263.25
366.373	268.25
366.599	265.25
366.826	252.25
367.052	249.25
367.278	273.25
367.505	266.25
367.731	263.25
367.957	259.25
368.184	248.25
368.41	257.25
368.636	269.25
368.862	250.25
369.089	273.25
369.315	266.25
369.541	263.25
369.767	282.25
369.993	256.25
370.219	280.25
370.445	276.25
370.672	258.25
370.898	258.25
371.124	275.25
371.35	280.25
371.576	276.25
371.802	268.25
372.028	291.25
372.254	275.25
372.48	271.25
372.706	257.25
372.932	297.25
373.158	278.25
373.384	273.25
373.61	281.25
373.835	288.25
374.061	281.25
374.287	289.25
374.513	292.25
374.739	306.25
374.965	295.25
375.191	284.25
375.416	287.25
375.642	283.25
375.868	300.25
376.094	286.25
376.319	289.25
376.545	271.25
376.771	284.25
376.997	277.25
377.222	265.25
377.448	278.25
377.674	280.25
377.899	279.25
378.125	287.25
378.35	278.25
378.576	263.25
378.802	271.25
379.027	270.25
379.253	297.25
379.478	280.25
379.704	284.25
379.929	270.25
380.155	275.25
380.38	272.25
380.606	279.25
380.831	286.25
381.057	270.25
381.282	290.25
381.507	300.25
381.733	299.25
381.958	291.25
382.184	289.25
382.409	290.25
382.634	285.25
382.86	302.25
383.085	281.25
383.31	291.25
383.535	287.25
383.761	299.25
383.986	303.25
384.211	306.25
384.436	292.25
384.662	303.25
384.887	320.25
385.112	300.25
385.337	304.25
385.562	313.25
385.787	311.25
386.013	322.25
386.238	319.25
386.463	307.25
386.688	318.25
386.913	310.25
387.138	302.25
387.363	314.25
387.588	338.25
387.813	305.25
388.038	309.25
388.263	306.25
388.488	313.25
388.713	306.25
388.938	325.25
389.163	333.25
389.387	322.25
389.612	318.25
389.837	326.25
390.062	314.25
390.287	336.25
390.512	335.25
390.736	318.25
390.961	320.25
391.186	329.25
391.411	330.25
391.636	335.25
391.86	344.25
392.085	354.25
392.31	342.25
392.534	328.25
392.759	336.25
392.984	348.25
393.208	326.25
393.433	327.25
393.658	341.25
393.882	338.25
394.107	318.25
394.331	314.25
394.556	338.25
394.78	339.25
395.005	351.25
395.229	343.25
395.454	346.25
395.678	355.25
395.903	343.25
396.127	352.25
396.352	338.25
396.576	344.25
396.801	347.25
397.025	344.25
397.249	359.25
397.474	352.25
397.698	355.25
397.922	368.25
398.147	360.25
398.371	374.25
398.595	368.25
398.82	382.25
399.044	408.25
399.268	415.25
399.492	443.25
399.717	437.25
399.941	450.25
400.165	434.25
400.389	420.25
400.613	408.25
400.837	392.25
401.062	375.25
401.286	364.25
401.51	366.25
401.734	372.25
401.958	360.25
402.182	388.25
402.406	383.25
402.63	366.25
402.854	376.25
403.078	390.25
403.302	385.25
403.526	389.25
403.75	401.25
403.974	405.25
404.198	390.25
404.422	399.25
404.645	392.25
404.869	397.25
405.093	380.25
405.317	378.25
405.541	393.25
405.765	373.25
405.988	402.25
406.212	392.25
406.436	381.25
406.66	416.25
406.883	394.25
407.107	406.25
407.331	422.25
407.555	438.25
407.778	423.25
408.002	439.25
408.226	430.25
408.449	428.25
408.673	395.25
408.896	399.25
409.12	413.25
409.344	410.25
409.567	390.25
409.791	405.25
410.014	408.25
410.238	388.25
410.461	398.25
410.685	370.25
410.908	391.25
411.132	377.25
411.355	401.25
411.578	377.25
411.802	343.25
412.025	366.25
412.249	384.25
412.472	382.25
412.695	381.25
412.919	366.25
413.142	369.25
413.365	386.25
413.589	375.25
413.812	370.25
414.035	381.25
414.258	375.25
414.482	374.25
414.705	384.25
414.928	356.25
415.151	359.25
415.374	363.25
415.597	366.25
415.821	356.25
416.044	374.25
416.267	359.25
416.49	376.25
416.713	368.25
416.936	380.25
417.159	362.25
417.382	362.25
417.605	376.25
417.828	362.25
418.051	374.25
418.274	360.25
418.497	368.25
418.72	376.25
418.943	369.25
419.166	369.25
419.389	381.25
419.611	368.25
419.834	390.25
420.057	375.25
420.28	369.25
420.503	357.25
420.726	353.25
420.948	351.25
421.171	371.25
421.394	361.25
421.617	370.25
421.839	368.25
422.062	366.25
422.285	352.25
422.507	367.25
422.73	380.25
422.953	343.25
423.175	357.25
423.398	343.25
423.621	352.25
423.843	370.25
424.066	358.25
424.288	355.25
424.511	360.25
424.733	362.25
424.956	375.25
425.178	357.25
425.401	366.25
425.623	350.25
425.846	351.25
426.068	370.25
426.291	340.25
426.513	340.25
426.735	369.25
426.958	357.25
427.18	357.25
427.402	334.25
427.625	335.25
427.847	346.25
428.069	352.25
428.292	330.25
428.514	346.25
428.736	339.25
428.958	325.25
429.181	306.25
429.403	322.25
429.625	329.25
429.847	332.25
430.069	352.25
430.292	328.25
430.514	324.25
430.736	353.25
430.958	332.25
431.18	344.25
431.402	330.25
431.624	349.25
431.846	346.25
432.068	344.25
432.29	331.25
432.512	332.25
432.734	324.25
432.956	321.25
433.178	345.25
433.4	350.25
433.622	347.25
433.844	362.25
434.066	336.25
434.287	330.25
434.509	350.25
434.731	349.25
434.953	354.25
435.175	341.25
435.397	367.25
435.618	344.25
435.84	345.25
436.062	344.25
436.284	338.25
436.505	342.25
436.727	341.25
436.949	329.25
437.17	328.25
437.392	322.25
437.614	337.25
437.835	327.25
438.057	328.25
438.278	323.25
438.5	320.25
438.721	315.25
438.943	335.25
439.165	318.25
439.386	326.25
439.608	316.25
439.829	326.25
440.05	331.25
440.272	329.25
440.493	313.25
440.715	349.25
440.936	332.25
441.158	327.25
441.379	346.25
441.6	348.25
441.822	360.25
442.043	332.25
442.264	331.25
442.486	354.25
442.707	366.25
442.928	368.25
443.149	348.25
443.371	344.25
443.592	353.25
443.813	361.25
444.034	341.25
444.255	351.25
444.476	383.25
444.698	367.25
444.919	369.25
445.14	458.25
445.361	418.25
445.582	355.25
445.803	344.25
446.024	340.25
446.245	345.25
446.466	344.25
446.687	349.25
446.908	336.25
447.129	325.25
447.35	320.25
447.571	306.25
447.792	325.25
448.013	334.25
448.234	305.25
448.455	309.25
448.675	326.25
448.896	332.25
449.117	316.25
449.338	327.25
449.559	308.25
449.779	309.25
450	321.25
450.221	314.25
450.442	307.25
450.662	306.25
450.883	312.25
451.104	312.25
451.324	315.25
451.545	312.25
451.766	306.25
451.986	294.25
452.207	302.25
452.428	302.25
452.648	308.25
452.869	292.25
453.089	292.25
453.31	314.25
453.53	309.25
453.751	305.25
453.971	294.25
454.192	295.25
454.412	302.25
454.633	305.25
454.853	303.25
455.073	299.25
455.294	305.25
455.514	296.25
455.734	281.25
455.955	292.25
456.175	292.25
456.395	304.25
456.616	277.25
456.836	290.25
457.056	293.25
457.276	298.25
457.497	297.25
457.717	288.25
457.937	315.25
458.157	308.25
458.377	306.25
458.598	305.25
458.818	297.25
459.038	315.25
459.258	339.25
459.478	352.25
459.698	332.25
459.918	347.25
460.138	348.25
460.358	368.25
460.578	356.25
460.798	358.25
461.018	372.25
461.238	351.25
461.458	351.25
461.678	369.25
461.898	361.25
462.118	362.25
462.338	376.25
462.558	400.25
462.777	416.25
462.997	424.25
463.217	418.25
463.437	423.25
463.657	433.25
463.876	427.25
464.096	429.25
464.316	388.25
464.536	396.25
464.755	382.25
464.975	370.25
465.195	378.25
465.414	370.25
465.634	344.25
465.854	353.25
466.073	347.25
466.293	339.25
466.512	327.25
466.732	348.25
466.951	325.25
467.171	335.25
467.391	326.25
467.61	326.25
467.829	280.25
468.049	306.25
468.268	309.25
468.488	324.25
468.707	320.25
468.927	319.25
469.146	310.25
469.365	316.25
469.585	334.25
469.804	327.25
470.023	324.25
470.243	323.25
470.462	329.25
470.681	327.25
470.901	319.25
471.12	323.25
471.339	319.25
471.558	324.25
471.777	323.25
471.997	333.25
472.216	316.25
472.435	340.25
472.654	313.25
472.873	340.25
473.092	340.25
473.311	325.25
473.53	328.25
473.749	312.25
473.968	326.25
474.187	310.25
474.406	305.25
474.625	318.25
474.844	320.25
475.063	313.25
475.282	320.25
475.501	307.25
475.72	327.25
475.939	354.25
476.158	352.25
476.377	334.25
476.596	362.25
476.814	333.25
477.033	345.25
477.252	344.25
477.471	344.25
477.69	367.25
477.908	360.25
478.127	370.25
478.346	335.25
478.564	374.25
478.783	368.25
479.002	393.25
479.22	385.25
479.439	386.25
479.658	367.25
479.876	406.25
480.095	366.25
480.313	399.25
480.532	404.25
480.751	382.25
480.969	367.25
481.188	394.25
481.406	393.25
481.624	388.25
481.843	376.25
482.061	363.25
482.28	360.25
482.498	368.25
482.717	383.25
482.935	375.25
483.153	382.25
483.372	361.25
483.59	368.25
483.808	371.25
484.027	385.25
484.245	374.25
484.463	376.25
484.681	377.25
484.9	359.25
485.118	380.25
485.336	372.25
485.554	391.25
485.772	403.25
485.99	386.25
486.209	363.25
486.427	370.25
486.645	373.25
486.863	368.25
487.081	393.25
487.299	388.25
487.517	381.25
487.735	392.25
487.953	382.25
488.171	378.25
488.389	406.25
488.607	388.25
488.825	376.25
489.043	361.25
489.261	372.25
489.479	392.25
489.696	394.25
489.914	386.25
490.132	374.25
490.35	376.25
490.568	384.25
490.786	407.25
491.003	393.25
491.221	395.25
491.439	395.25
491.657	379.25
491.874	417.25
492.092	382.25
492.31	392.25
492.527	398.25
492.745	392.25
492.963	404.25
493.18	395.25
493.398	390.25
493.615	390.25
493.833	403.25
494.05	397.25
494.268	381.25
494.485	412.25
494.703	405.25
494.92	417.25
495.138	389.25
495.355	394.25
495.573	409.25
495.79	394.25
496.008	415.25
496.225	401.25
496.442	427.25
496.66	409.25
496.877	444.25
497.094	425.25
497.312	441.25
497.529	454.25
497.746	461.25
497.963	472.25
498.181	481.25
498.398	468.25
498.615	529.25
498.832	535.25
499.049	538.25
499.267	576.25
499.484	611.25
499.701	641.25
499.918	680.25
500.135	731.25
500.352	762.25
500.569	744.25
500.786	744.25
501.003	725.25
501.22	688.25
501.437	672.25
501.654	610.25
501.871	567.25
502.088	551.25
502.305	548.25
