Data from Fe(NO3)3@0.05M.TitratingCurve.Agarose3%dH2O.NegLispCup.LampEnergy10.LIBS07252019_HRD10591_16-48-34-334.txt Node
Date: Thu Jul 25 16:48:34 EDT 2019
User: cochatt
Spectrometer: HR+D1059
Trigger mode: 1
Integration Time (sec): 1.000000E-1
Scans to average: 1
Electric dark correction enabled: true
Nonlinearity correction enabled: false
Boxcar width: 0
XAxis mode: Wavelengths
Number of Pixels in Spectrum: 2048
>>>>>Begin Spectral Data<<<<<
223.165	-18
223.4	-18
223.635	-18
223.869	-12
224.104	-24
224.338	-17
224.573	-36
224.808	-9
225.042	-5
225.277	3
225.511	7
225.746	5
225.98	23
226.215	16
226.449	12
226.683	15
226.918	15
227.152	25
227.387	38
227.621	25
227.856	56
228.09	49
228.324	61
228.559	52
228.793	73
229.027	78
229.262	85
229.496	90
229.73	96
229.964	99
230.199	97
230.433	93
230.667	96
230.901	93
231.136	115
231.37	96
231.604	109
231.838	108
232.072	98
232.306	82
232.541	112
232.775	107
233.009	116
233.243	107
233.477	110
233.711	100
233.945	120
234.179	111
234.413	111
234.647	105
234.881	111
235.115	111
235.349	121
235.583	109
235.817	111
236.051	101
236.285	119
236.519	117
236.753	129
236.987	104
237.221	118
237.455	116
237.689	111
237.922	104
238.156	112
238.39	121
238.624	118
238.858	114
239.091	107
239.325	123
239.559	111
239.793	124
240.027	109
240.26	123
240.494	112
240.728	132
240.961	114
241.195	127
241.429	109
241.662	102
241.896	130
242.13	122
242.363	120
242.597	118
242.83	124
243.064	125
243.298	126
243.531	142
243.765	130
243.998	138
244.232	127
244.465	125
244.699	136
244.932	136
245.166	133
245.399	136
245.633	121
245.866	131
246.099	135
246.333	120
246.566	135
246.8	138
247.033	122
247.266	142
247.5	136
247.733	124
247.966	121
248.2	141
248.433	138
248.666	134
248.899	138
249.133	145
249.366	152
249.599	164
249.832	143
250.066	145
250.299	148
250.532	145
250.765	140
250.998	140
251.231	143
251.465	136
251.698	147
251.931	143
252.164	150
252.397	167
252.63	159
252.863	150
253.096	162
253.329	145
253.562	144
253.795	156
254.028	130
254.261	141
254.494	153
254.727	152
254.96	138
255.193	160
255.426	162
255.659	144
255.892	152
256.124	163
256.357	147
256.59	159
256.823	163
257.056	160
257.289	169
257.521	171
257.754	159
257.987	155
258.22	173
258.452	171
258.685	169
258.918	173
259.151	156
259.383	169
259.616	184
259.849	170
260.081	181
260.314	182
260.547	171
260.779	162
261.012	164
261.244	177
261.477	175
261.71	185
261.942	185
262.175	169
262.407	178
262.64	178
262.872	187
263.105	173
263.337	178
263.57	159
263.802	173
264.035	173
264.267	177
264.499	172
264.732	173
264.964	174
265.197	176
265.429	175
265.661	184
265.894	192
266.126	173
266.358	194
266.591	187
266.823	191
267.055	183
267.287	192
267.52	180
267.752	199
267.984	180
268.216	169
268.448	182
268.681	185
268.913	201
269.145	189
269.377	191
269.609	187
269.841	196
270.073	188
270.306	200
270.538	187
270.77	184
271.002	195
271.234	204
271.466	188
271.698	190
271.93	186
272.162	182
272.394	201
272.626	190
272.858	227
273.09	196
273.322	207
273.553	218
273.785	208
274.017	195
274.249	214
274.481	215
274.713	199
274.945	216
275.176	210
275.408	223
275.64	206
275.872	204
276.104	223
276.335	204
276.567	208
276.799	205
277.031	201
277.262	194
277.494	196
277.726	221
277.957	225
278.189	238
278.421	215
278.652	208
278.884	215
279.115	212
279.347	225
279.579	228
279.81	232
280.042	235
280.273	189
280.505	224
280.736	231
280.968	228
281.199	232
281.431	228
281.662	212
281.894	217
282.125	228
282.356	214
282.588	230
282.819	235
283.051	236
283.282	210
283.513	242
283.745	211
283.976	242
284.207	234
284.439	221
284.67	228
284.901	232
285.132	229
285.364	232
285.595	235
285.826	236
286.057	233
286.288	225
286.52	224
286.751	237
286.982	248
287.213	229
287.444	249
287.675	237
287.906	260
288.138	262
288.369	251
288.6	244
288.831	246
289.062	250
289.293	239
289.524	233
289.755	239
289.986	240
290.217	231
290.448	242
290.679	231
290.91	247
291.141	257
291.371	231
291.602	238
291.833	241
292.064	236
292.295	254
292.526	250
292.757	246
292.987	245
293.218	254
293.449	253
293.68	253
293.91	241
294.141	221
294.372	256
294.603	248
294.833	240
295.064	263
295.295	254
295.525	272
295.756	241
295.987	243
296.217	246
296.448	252
296.679	257
296.909	267
297.14	264
297.37	262
297.601	254
297.831	248
298.062	266
298.292	249
298.523	261
298.753	259
298.984	266
299.214	275
299.445	274
299.675	270
299.905	273
300.136	268
300.366	264
300.597	273
300.827	267
301.057	289
301.288	277
301.518	281
301.748	294
301.979	282
302.209	284
302.439	286
302.669	280
302.9	273
303.13	277
303.36	299
303.59	294
303.82	283
304.051	271
304.281	273
304.511	288
304.741	280
304.971	276
305.201	279
305.431	274
305.661	290
305.891	267
306.121	282
306.352	269
306.582	280
306.812	278
307.042	273
307.272	288
307.502	283
307.731	273
307.961	270
308.191	272
308.421	272
308.651	278
308.881	260
309.111	286
309.341	292
309.571	277
309.8	265
310.03	278
310.26	287
310.49	275
310.72	284
310.949	274
311.179	278
311.409	280
311.639	289
311.868	287
312.098	287
312.328	292
312.557	290
312.787	283
313.017	300
313.246	282
313.476	303
313.706	290
313.935	304
314.165	308
314.394	297
314.624	302
314.853	300
315.083	295
315.312	291
315.542	321
315.771	305
316.001	283
316.23	301
316.46	304
316.689	268
316.919	297
317.148	290
317.377	302
317.607	278
317.836	302
318.065	320
318.295	314
318.524	294
318.753	290
318.983	308
319.212	288
319.441	310
319.67	286
319.9	286
320.129	302
320.358	283
320.587	306
320.816	295
321.046	303
321.275	303
321.504	301
321.733	296
321.962	296
322.191	299
322.42	310
322.649	316
322.878	310
323.108	322
323.337	305
323.566	303
323.795	292
324.024	300
324.253	302
324.482	311
324.71	302
324.939	312
325.168	331
325.397	309
325.626	319
325.855	333
326.084	319
326.313	310
326.542	318
326.77	322
326.999	311
327.228	306
327.457	333
327.686	308
327.914	320
328.143	337
328.372	320
328.6	314
328.829	333
329.058	346
329.287	315
329.515	319
329.744	328
329.972	334
330.201	342
330.43	335
330.658	335
330.887	319
331.115	327
331.344	344
331.572	330
331.801	338
332.03	344
332.258	353
332.486	360
332.715	362
332.943	372
333.172	372
333.4	384
333.629	395
333.857	397
334.085	380
334.314	385
334.542	374
334.771	381
334.999	388
335.227	371
335.455	392
335.684	367
335.912	380
336.14	367
336.369	376
336.597	360
336.825	375
337.053	365
337.281	378
337.51	358
337.738	369
337.966	369
338.194	349
338.422	348
338.65	351
338.878	350
339.106	338
339.334	349
339.562	333
339.79	342
340.018	334
340.246	335
340.474	352
340.702	349
340.93	342
341.158	333
341.386	319
341.614	321
341.842	328
342.07	335
342.298	342
342.526	330
342.754	345
342.981	329
343.209	346
343.437	355
343.665	366
343.893	384
344.12	384
344.348	369
344.576	368
344.804	354
345.031	361
345.259	362
345.487	345
345.714	316
345.942	321
346.17	330
346.397	356
346.625	332
346.853	337
347.08	336
347.308	342
347.535	329
347.763	320
347.99	328
348.218	329
348.445	334
348.673	331
348.9	340
349.128	340
349.355	336
349.583	327
349.81	332
350.037	312
350.265	327
350.492	324
350.72	340
350.947	316
351.174	335
351.402	329
351.629	315
351.856	318
352.083	349
352.311	332
352.538	324
352.765	324
352.992	321
353.22	319
353.447	321
353.674	330
353.901	325
354.128	323
354.355	313
354.583	328
354.81	325
355.037	324
355.264	321
355.491	312
355.718	332
355.945	338
356.172	312
356.399	335
356.626	352
356.853	305
357.08	318
357.307	335
357.534	327
357.761	325
357.988	336
358.215	335
358.441	326
358.668	332
358.895	327
359.122	324
359.349	318
359.576	338
359.802	345
360.029	328
360.256	330
360.483	328
360.709	343
360.936	329
361.163	328
361.39	313
361.616	319
361.843	319
362.07	341
362.296	329
362.523	326
362.749	316
362.976	320
363.203	331
363.429	323
363.656	338
363.882	342
364.109	324
364.335	338
364.562	330
364.788	302
365.015	326
365.241	323
365.468	335
365.694	335
365.92	324
366.147	334
366.373	328
366.599	334
366.826	329
367.052	331
367.278	343
367.505	340
367.731	337
367.957	314
368.184	321
368.41	329
368.636	314
368.862	329
369.089	333
369.315	332
369.541	322
369.767	330
369.993	350
370.219	321
370.445	357
370.672	344
370.898	342
371.124	360
371.35	348
371.576	361
371.802	358
372.028	352
372.254	372
372.48	382
372.706	350
372.932	358
373.158	345
373.384	375
373.61	364
373.835	364
374.061	361
374.287	365
374.513	375
374.739	382
374.965	377
375.191	380
375.416	387
375.642	361
375.868	360
376.094	350
376.319	367
376.545	377
376.771	356
376.997	346
377.222	367
377.448	342
377.674	374
377.899	353
378.125	366
378.35	346
378.576	346
378.802	354
379.027	379
379.253	353
379.478	356
379.704	357
379.929	346
380.155	355
380.38	353
380.606	363
380.831	350
381.057	365
381.282	366
381.507	385
381.733	369
381.958	378
382.184	369
382.409	367
382.634	372
382.86	380
383.085	361
383.31	380
383.535	394
383.761	408
383.986	407
384.211	398
384.436	412
384.662	388
384.887	407
385.112	417
385.337	408
385.562	406
385.787	449
386.013	418
386.238	422
386.463	423
386.688	427
386.913	408
387.138	411
387.363	410
387.588	424
387.813	408
388.038	422
388.263	402
388.488	413
388.713	417
388.938	439
389.163	423
389.387	405
389.612	416
389.837	418
390.062	422
390.287	428
390.512	420
390.736	425
390.961	425
391.186	455
391.411	428
391.636	434
391.86	465
392.085	452
392.31	452
392.534	450
392.759	453
392.984	442
393.208	453
393.433	438
393.658	437
393.882	450
394.107	445
394.331	455
394.556	447
394.78	443
395.005	441
395.229	476
395.454	460
395.678	491
395.903	466
396.127	454
396.352	461
396.576	450
396.801	443
397.025	464
397.249	454
397.474	477
397.698	458
397.922	474
398.147	489
398.371	474
398.595	494
398.82	524
399.044	528
399.268	586
399.492	646
399.717	700
399.941	684
400.165	614
400.389	594
400.613	543
400.837	514
401.062	530
401.286	496
401.51	534
401.734	518
401.958	514
402.182	528
402.406	522
402.63	518
402.854	527
403.078	560
403.302	536
403.526	584
403.75	542
403.974	574
404.198	576
404.422	569
404.645	545
404.869	560
405.093	552
405.317	557
405.541	549
405.765	543
405.988	550
406.212	550
406.436	552
406.66	554
406.883	583
407.107	592
407.331	615
407.555	610
407.778	610
408.002	603
408.226	585
408.449	602
408.673	589
408.896	569
409.12	561
409.344	577
409.567	546
409.791	562
410.014	540
410.238	550
410.461	567
410.685	573
410.908	543
411.132	540
411.355	520
411.578	560
411.802	540
412.025	570
412.249	554
412.472	565
412.695	506
412.919	520
413.142	520
413.365	527
413.589	527
413.812	510
414.035	521
414.258	520
414.482	513
414.705	533
414.928	528
415.151	530
415.374	520
415.597	509
415.821	510
416.044	522
416.267	525
416.49	489
416.713	514
416.936	509
417.159	509
417.382	508
417.605	498
417.828	505
418.051	489
418.274	524
418.497	509
418.72	508
418.943	522
419.166	540
419.389	549
419.611	556
419.834	557
420.057	520
420.28	487
420.503	513
420.726	510
420.948	508
421.171	505
421.394	519
421.617	505
421.839	503
422.062	520
422.285	522
422.507	510
422.73	512
422.953	516
423.175	495
423.398	537
423.621	554
423.843	550
424.066	545
424.288	531
424.511	542
424.733	529
424.956	515
425.178	534
425.401	528
425.623	516
425.846	496
426.068	480
426.291	484
426.513	485
426.735	488
426.958	498
427.18	491
427.402	496
427.625	496
427.847	496
428.069	455
428.292	490
428.514	486
428.736	460
428.958	463
429.181	469
429.403	459
429.625	462
429.847	465
430.069	458
430.292	453
430.514	449
430.736	464
430.958	472
431.18	461
431.402	455
431.624	446
431.846	475
432.068	443
432.29	470
432.512	479
432.734	486
432.956	473
433.178	500
433.4	468
433.622	484
433.844	482
434.066	484
434.287	475
434.509	494
434.731	521
434.953	504
435.175	520
435.397	514
435.618	487
435.84	481
436.062	473
436.284	477
436.505	489
436.727	478
436.949	480
437.17	455
437.392	462
437.614	458
437.835	444
438.057	449
438.278	426
438.5	457
438.721	466
438.943	477
439.165	466
439.386	469
439.608	485
439.829	463
440.05	489
440.272	477
440.493	488
440.715	482
440.936	486
441.158	506
441.379	491
441.6	520
441.822	508
442.043	550
442.264	519
442.486	506
442.707	520
442.928	500
443.149	491
443.371	491
443.592	517
443.813	513
444.034	541
444.255	533
444.476	544
444.698	588
444.919	588
445.14	658
445.361	609
445.582	552
445.803	520
446.024	503
446.245	505
446.466	507
446.687	519
446.908	520
447.129	493
447.35	486
447.571	480
447.792	482
448.013	463
448.234	450
448.455	477
448.675	462
448.896	454
449.117	449
449.338	452
449.559	449
449.779	442
450	467
450.221	464
450.442	463
450.662	446
450.883	473
451.104	459
451.324	451
451.545	449
451.766	452
451.986	444
452.207	437
452.428	418
452.648	438
452.869	437
453.089	445
453.31	438
453.53	427
453.751	436
453.971	413
454.192	400
454.412	414
454.633	409
454.853	402
455.073	409
455.294	431
455.514	433
455.734	408
455.955	428
456.175	410
456.395	413
456.616	403
456.836	421
457.056	428
457.276	401
457.497	416
457.717	420
457.937	411
458.157	423
458.377	424
458.598	431
458.818	447
459.038	450
459.258	467
459.478	481
459.698	476
459.918	494
460.138	495
460.358	568
460.578	528
460.798	546
461.018	552
461.238	534
461.458	529
461.678	548
461.898	547
462.118	558
462.338	569
462.558	579
462.777	610
462.997	635
463.217	671
463.437	664
463.657	617
463.876	617
464.096	595
464.316	588
464.536	601
464.755	583
464.975	574
465.195	541
465.414	534
465.634	507
465.854	522
466.073	516
466.293	482
466.512	458
466.732	460
466.951	463
467.171	466
467.391	456
467.61	455
467.829	463
468.049	488
468.268	451
468.488	454
468.707	463
468.927	453
469.146	423
469.365	458
469.585	461
469.804	472
470.023	490
470.243	482
470.462	471
470.681	467
470.901	473
471.12	477
471.339	468
471.558	442
471.777	445
471.997	433
472.216	461
472.435	438
472.654	434
472.873	457
473.092	444
473.311	438
473.53	436
473.749	440
473.968	441
474.187	430
474.406	436
474.625	439
474.844	430
475.063	439
475.282	452
475.501	457
475.72	457
475.939	445
476.158	440
476.377	466
476.596	462
476.814	484
477.033	464
477.252	466
477.471	459
477.69	472
477.908	495
478.127	514
478.346	516
478.564	505
478.783	521
479.002	534
479.22	550
479.439	531
479.658	504
479.876	527
480.095	535
480.313	557
480.532	556
480.751	538
480.969	520
481.188	509
481.406	491
481.624	517
481.843	514
482.061	493
482.28	496
482.498	504
482.717	492
482.935	506
483.153	503
483.372	505
483.59	490
483.808	488
484.027	526
484.245	516
484.463	487
484.681	509
484.9	509
485.118	509
485.336	509
485.554	496
485.772	497
485.99	495
486.209	520
486.427	525
486.645	530
486.863	508
487.081	494
487.299	492
487.517	502
487.735	502
487.953	534
488.171	551
488.389	521
488.607	514
488.825	500
489.043	503
489.261	505
489.479	536
489.696	510
489.914	514
490.132	530
490.35	508
490.568	510
490.786	507
491.003	529
491.221	528
491.439	533
491.657	526
491.874	534
492.092	545
492.31	540
492.527	542
492.745	538
492.963	544
493.18	541
493.398	552
493.615	540
493.833	544
494.05	545
494.268	548
494.485	525
494.703	560
494.92	530
495.138	569
495.355	555
495.573	577
495.79	541
496.008	562
496.225	541
496.442	569
496.66	574
496.877	581
497.094	586
497.312	589
497.529	611
497.746	617
497.963	635
498.181	654
498.398	664
498.615	669
498.832	714
499.049	789
499.267	800
499.484	857
499.701	953
499.918	1030
500.135	1132
500.352	1224
500.569	1232
500.786	1266
501.003	1193
501.22	1080
501.437	970
501.654	888
501.871	849
502.088	779
502.305	752
502.522	701
502.739	699
502.956	678
503.172	648
503.389	624
503.606	600
503.823	612
504.04	608
504.256	607
504.473	601
504.69	621
504.907	620
505.123	577
505.34	556
505.557	537
505.773	537
505.99	502
506.207	499
506.423	535
506.64	500
506.856	478
507.073	506
507.289	493
507.506	490
507.722	510
507.939	474
508.155	477
508.372	469
508.588	455
508.805	468
509.021	449
509.238	464
509.454	466
509.67	461
509.887	441
510.103	447
510.319	468
510.536	458
510.752	440
510.968	444
511.184	441
511.401	443
511.617	448
511.833	454
512.049	432
512.265	449
512.481	454
512.698	450
512.914	467
513.13	453
513.346	447
513.562	458
513.778	436
513.994	464
514.21	438
514.426	446
514.642	464
514.858	451
515.074	464
515.29	472
515.506	466
515.721	474
515.937	458
516.153	457
516.369	488
516.585	503
516.801	496
517.016	536
517.232	536
517.448	554
517.664	573
517.879	571
518.095	561
518.311	562
518.527	530
518.742	518
518.958	509
519.173	526
519.389	479
519.605	476
519.82	461
520.036	461
520.251	472
520.467	454
520.682	472
520.898	480
521.113	444
521.329	453
521.544	439
521.76	436
521.975	428
522.19	423
522.406	424
522.621	422
522.836	434
523.052	437
523.267	425
523.482	449
523.698	442
523.913	406
524.128	418
524.343	409
524.559	396
524.774	405
524.989	434
525.204	412
525.419	425
525.634	421
525.849	444
526.064	415
526.28	417
526.495	415
526.71	408
526.925	426
527.14	419
527.355	408
527.57	421
527.785	417
527.999	389
528.214	412
528.429	398
528.644	415
528.859	402
529.074	421
529.289	415
529.503	413
529.718	402
529.933	404
530.148	398
530.363	402
530.577	388
530.792	382
531.007	390
531.221	406
531.436	399
531.651	408
531.865	396
532.08	408
532.295	403
532.509	396
532.724	397
532.938	380
533.153	403
533.367	405
533.582	399
533.796	412
534.011	400
534.225	397
534.44	392
534.654	398
534.868	392
535.083	413
535.297	416
535.511	384
535.726	377
535.94	383
536.154	380
536.369	386
536.583	369
536.797	390
537.011	380
537.225	378
537.44	369
537.654	384
537.868	352
538.082	394
538.296	382
538.51	380
538.724	388
538.938	390
539.153	361
539.367	408
539.581	360
539.795	372
540.009	357
540.222	388
540.436	369
540.65	352
540.864	390
541.078	383
541.292	372
541.506	399
541.72	392
541.934	377
542.147	402
542.361	364
542.575	376
542.789	362
543.002	361
543.216	393
543.43	363
543.644	378
543.857	352
544.071	376
544.285	365
544.498	380
544.712	380
544.925	370
545.139	395
545.352	385
545.566	378
545.779	363
545.993	384
546.206	392
546.42	397
546.633	372
546.847	385
547.06	392
547.274	373
547.487	366
547.7	372
547.914	386
548.127	374
548.34	376
548.554	380
548.767	384
548.98	378
549.193	406
549.407	382
549.62	383
549.833	405
550.046	390
550.259	374
550.473	398
550.686	389
550.899	390
551.112	371
551.325	375
551.538	383
551.751	383
551.964	368
552.177	378
552.39	375
552.603	396
552.816	374
553.029	392
553.242	403
553.455	392
553.667	418
553.88	388
554.093	388
554.306	394
554.519	367
554.732	382
554.944	380
555.157	358
555.37	355
555.583	346
555.795	350
556.008	361
556.221	361
556.433	347
556.646	342
556.859	349
557.071	350
557.284	337
557.496	337
557.709	342
557.921	341
558.134	342
558.346	336
558.559	320
558.771	342
558.984	337
559.196	336
559.409	337
559.621	338
559.833	329
560.046	329
560.258	330
560.47	320
560.683	330
560.895	326
561.107	330
561.32	316
561.532	314
561.744	329
561.956	316
562.168	337
562.381	313
562.593	336
562.805	348
563.017	324
563.229	328
