Data from Fe(NO3)3@0.025M.TitratingCurve.Agarose3%dH2O.NegLispCup.LampEnergy10.LIBS07252019_HRD10591_16-55-45-336.txt Node
Date: Thu Jul 25 16:55:45 EDT 2019
User: cochatt
Spectrometer: HR+D1059
Trigger mode: 1
Integration Time (sec): 1.000000E-1
Scans to average: 1
Electric dark correction enabled: true
Nonlinearity correction enabled: false
Boxcar width: 0
XAxis mode: Wavelengths
Number of Pixels in Spectrum: 2048
>>>>>Begin Spectral Data<<<<<
223.165	-12.88
223.4	-12.88
223.635	-12.88
223.869	-22.88
224.104	-13.88
224.338	-23.88
224.573	-12.88
224.808	2.12
225.042	-12.88
225.277	-6.88
225.511	-0.88
225.746	1.12
225.98	1.12
226.215	14.12
226.449	25.12
226.683	14.12
226.918	33.12
227.152	16.12
227.387	31.12
227.621	37.12
227.856	60.12
228.09	39.12
228.324	56.12
228.559	54.12
228.793	67.12
229.027	73.12
229.262	78.12
229.496	72.12
229.73	80.12
229.964	87.12
230.199	85.12
230.433	92.12
230.667	78.12
230.901	93.12
231.136	78.12
231.37	76.12
231.604	99.12
231.838	102.12
232.072	112.12
232.306	99.12
232.541	91.12
232.775	96.12
233.009	92.12
233.243	92.12
233.477	87.12
233.711	103.12
233.945	112.12
234.179	98.12
234.413	105.12
234.647	104.12
234.881	112.12
235.115	116.12
235.349	91.12
235.583	116.12
235.817	100.12
236.051	85.12
236.285	98.12
236.519	99.12
236.753	96.12
236.987	103.12
237.221	117.12
237.455	93.12
237.689	123.12
237.922	115.12
238.156	114.12
238.39	101.12
238.624	113.12
238.858	111.12
239.091	105.12
239.325	95.12
239.559	108.12
239.793	103.12
240.027	117.12
240.26	110.12
240.494	105.12
240.728	95.12
240.961	114.12
241.195	104.12
241.429	97.12
241.662	114.12
241.896	106.12
242.13	105.12
242.363	107.12
242.597	104.12
242.83	108.12
243.064	108.12
243.298	122.12
243.531	111.12
243.765	116.12
243.998	109.12
244.232	109.12
244.465	111.12
244.699	116.12
244.932	123.12
245.166	104.12
245.399	133.12
245.633	115.12
245.866	116.12
246.099	131.12
246.333	135.12
246.566	115.12
246.8	117.12
247.033	115.12
247.266	111.12
247.5	121.12
247.733	117.12
247.966	123.12
248.2	116.12
248.433	125.12
248.666	133.12
248.899	132.12
249.133	137.12
249.366	125.12
249.599	122.12
249.832	127.12
250.066	130.12
250.299	117.12
250.532	132.12
250.765	129.12
250.998	128.12
251.231	123.12
251.465	144.12
251.698	133.12
251.931	121.12
252.164	119.12
252.397	119.12
252.63	148.12
252.863	141.12
253.096	127.12
253.329	133.12
253.562	124.12
253.795	129.12
254.028	139.12
254.261	141.12
254.494	137.12
254.727	149.12
254.96	135.12
255.193	141.12
255.426	147.12
255.659	137.12
255.892	135.12
256.124	120.12
256.357	133.12
256.59	145.12
256.823	137.12
257.056	143.12
257.289	148.12
257.521	143.12
257.754	143.12
257.987	152.12
258.22	146.12
258.452	132.12
258.685	144.12
258.918	165.12
259.151	153.12
259.383	140.12
259.616	139.12
259.849	151.12
260.081	140.12
260.314	156.12
260.547	163.12
260.779	151.12
261.012	155.12
261.244	167.12
261.477	177.12
261.71	164.12
261.942	137.12
262.175	151.12
262.407	138.12
262.64	150.12
262.872	155.12
263.105	156.12
263.337	161.12
263.57	163.12
263.802	164.12
264.035	164.12
264.267	163.12
264.499	138.12
264.732	162.12
264.964	145.12
265.197	161.12
265.429	166.12
265.661	177.12
265.894	159.12
266.126	169.12
266.358	155.12
266.591	171.12
266.823	162.12
267.055	164.12
267.287	168.12
267.52	157.12
267.752	157.12
267.984	172.12
268.216	168.12
268.448	160.12
268.681	168.12
268.913	160.12
269.145	176.12
269.377	183.12
269.609	183.12
269.841	183.12
270.073	167.12
270.306	162.12
270.538	173.12
270.77	154.12
271.002	167.12
271.234	166.12
271.466	199.12
271.698	187.12
271.93	174.12
272.162	168.12
272.394	166.12
272.626	153.12
272.858	183.12
273.09	172.12
273.322	192.12
273.553	188.12
273.785	204.12
274.017	197.12
274.249	196.12
274.481	188.12
274.713	192.12
274.945	197.12
275.176	191.12
275.408	185.12
275.64	190.12
275.872	181.12
276.104	193.12
276.335	186.12
276.567	179.12
276.799	182.12
277.031	208.12
277.262	193.12
277.494	200.12
277.726	198.12
277.957	190.12
278.189	199.12
278.421	175.12
278.652	202.12
278.884	216.12
279.115	205.12
279.347	189.12
279.579	200.12
279.81	203.12
280.042	202.12
280.273	191.12
280.505	217.12
280.736	205.12
280.968	205.12
281.199	210.12
281.431	217.12
281.662	203.12
281.894	191.12
282.125	209.12
282.356	192.12
282.588	198.12
282.819	204.12
283.051	214.12
283.282	239.12
283.513	224.12
283.745	228.12
283.976	211.12
284.207	216.12
284.439	212.12
284.67	214.12
284.901	216.12
285.132	215.12
285.364	222.12
285.595	234.12
285.826	209.12
286.057	228.12
286.288	221.12
286.52	222.12
286.751	223.12
286.982	239.12
287.213	216.12
287.444	224.12
287.675	233.12
287.906	233.12
288.138	223.12
288.369	216.12
288.6	223.12
288.831	224.12
289.062	228.12
289.293	228.12
289.524	240.12
289.755	234.12
289.986	229.12
290.217	256.12
290.448	225.12
290.679	220.12
290.91	224.12
291.141	236.12
291.371	243.12
291.602	242.12
291.833	241.12
292.064	241.12
292.295	229.12
292.526	241.12
292.757	248.12
292.987	243.12
293.218	236.12
293.449	244.12
293.68	264.12
293.91	239.12
294.141	241.12
294.372	231.12
294.603	239.12
294.833	239.12
295.064	238.12
295.295	236.12
295.525	227.12
295.756	241.12
295.987	239.12
296.217	248.12
296.448	258.12
296.679	263.12
296.909	236.12
297.14	265.12
297.37	255.12
297.601	228.12
297.831	239.12
298.062	259.12
298.292	241.12
298.523	252.12
298.753	274.12
298.984	267.12
299.214	257.12
299.445	274.12
299.675	252.12
299.905	245.12
300.136	247.12
300.366	265.12
300.597	263.12
300.827	265.12
301.057	271.12
301.288	252.12
301.518	267.12
301.748	250.12
301.979	271.12
302.209	281.12
302.439	260.12
302.669	276.12
302.9	293.12
303.13	268.12
303.36	260.12
303.59	288.12
303.82	268.12
304.051	290.12
304.281	275.12
304.511	275.12
304.741	267.12
304.971	264.12
305.201	281.12
305.431	264.12
305.661	274.12
305.891	275.12
306.121	263.12
306.352	289.12
306.582	268.12
306.812	265.12
307.042	276.12
307.272	249.12
307.502	292.12
307.731	291.12
307.961	270.12
308.191	281.12
308.421	291.12
308.651	285.12
308.881	297.12
309.111	277.12
309.341	278.12
309.571	275.12
309.8	282.12
310.03	295.12
310.26	282.12
310.49	290.12
310.72	277.12
310.949	298.12
311.179	293.12
311.409	284.12
311.639	293.12
311.868	276.12
312.098	284.12
312.328	291.12
312.557	295.12
312.787	311.12
313.017	293.12
313.246	289.12
313.476	287.12
313.706	307.12
313.935	291.12
314.165	296.12
314.394	295.12
314.624	303.12
314.853	307.12
315.083	282.12
315.312	301.12
315.542	300.12
315.771	301.12
316.001	300.12
316.23	326.12
316.46	325.12
316.689	311.12
316.919	327.12
317.148	293.12
317.377	314.12
317.607	293.12
317.836	321.12
318.065	307.12
318.295	307.12
318.524	312.12
318.753	306.12
318.983	306.12
319.212	310.12
319.441	300.12
319.67	333.12
319.9	321.12
320.129	314.12
320.358	304.12
320.587	307.12
320.816	314.12
321.046	307.12
321.275	335.12
321.504	317.12
321.733	320.12
321.962	315.12
322.191	329.12
322.42	319.12
322.649	316.12
322.878	330.12
323.108	339.12
323.337	327.12
323.566	319.12
323.795	324.12
324.024	307.12
324.253	316.12
324.482	334.12
324.71	331.12
324.939	304.12
325.168	302.12
325.397	307.12
325.626	318.12
325.855	328.12
326.084	324.12
326.313	359.12
326.542	323.12
326.77	327.12
326.999	332.12
327.228	346.12
327.457	312.12
327.686	338.12
327.914	324.12
328.143	335.12
328.372	339.12
328.6	343.12
328.829	321.12
329.058	313.12
329.287	345.12
329.515	347.12
329.744	331.12
329.972	346.12
330.201	359.12
330.43	355.12
330.658	347.12
330.887	362.12
331.115	361.12
331.344	353.12
331.572	355.12
331.801	354.12
332.03	364.12
332.258	365.12
332.486	372.12
332.715	391.12
332.943	376.12
333.172	382.12
333.4	376.12
333.629	359.12
333.857	394.12
334.085	379.12
334.314	411.12
334.542	407.12
334.771	412.12
334.999	387.12
335.227	413.12
335.455	381.12
335.684	402.12
335.912	399.12
336.14	418.12
336.369	383.12
336.597	397.12
336.825	413.12
337.053	395.12
337.281	378.12
337.51	372.12
337.738	389.12
337.966	387.12
338.194	376.12
338.422	376.12
338.65	374.12
338.878	382.12
339.106	385.12
339.334	376.12
339.562	387.12
339.79	385.12
340.018	384.12
340.246	366.12
340.474	361.12
340.702	369.12
340.93	360.12
341.158	365.12
341.386	372.12
341.614	354.12
341.842	369.12
342.07	383.12
342.298	361.12
342.526	373.12
342.754	383.12
342.981	391.12
343.209	373.12
343.437	381.12
343.665	397.12
343.893	400.12
344.12	386.12
344.348	405.12
344.576	385.12
344.804	388.12
345.031	377.12
345.259	403.12
345.487	397.12
345.714	373.12
345.942	370.12
346.17	367.12
346.397	372.12
346.625	373.12
346.853	354.12
347.08	369.12
347.308	346.12
347.535	355.12
347.763	351.12
347.99	356.12
348.218	370.12
348.445	361.12
348.673	354.12
348.9	371.12
349.128	354.12
349.355	344.12
349.583	372.12
349.81	345.12
350.037	346.12
350.265	346.12
350.492	360.12
350.72	356.12
350.947	361.12
351.174	355.12
351.402	351.12
351.629	358.12
351.856	356.12
352.083	367.12
352.311	360.12
352.538	363.12
352.765	347.12
352.992	351.12
353.22	349.12
353.447	380.12
353.674	359.12
353.901	367.12
354.128	348.12
354.355	362.12
354.583	360.12
354.81	361.12
355.037	351.12
355.264	364.12
355.491	363.12
355.718	373.12
355.945	357.12
356.172	346.12
356.399	346.12
356.626	340.12
356.853	379.12
357.08	371.12
357.307	360.12
357.534	374.12
357.761	372.12
357.988	379.12
358.215	386.12
358.441	370.12
358.668	401.12
358.895	365.12
359.122	358.12
359.349	384.12
359.576	360.12
359.802	357.12
360.029	372.12
360.256	362.12
360.483	359.12
360.709	386.12
360.936	365.12
361.163	357.12
361.39	361.12
361.616	380.12
361.843	367.12
362.07	367.12
362.296	371.12
362.523	358.12
362.749	371.12
362.976	379.12
363.203	374.12
363.429	370.12
363.656	383.12
363.882	371.12
364.109	349.12
364.335	370.12
364.562	383.12
364.788	386.12
365.015	379.12
365.241	395.12
365.468	361.12
365.694	372.12
365.92	374.12
366.147	352.12
366.373	373.12
366.599	379.12
366.826	376.12
367.052	377.12
367.278	383.12
367.505	370.12
367.731	385.12
367.957	380.12
368.184	367.12
368.41	381.12
368.636	376.12
368.862	375.12
369.089	391.12
369.315	374.12
369.541	369.12
369.767	387.12
369.993	385.12
370.219	405.12
370.445	381.12
370.672	371.12
370.898	402.12
371.124	383.12
371.35	406.12
371.576	396.12
371.802	410.12
372.028	401.12
372.254	399.12
372.48	388.12
372.706	413.12
372.932	400.12
373.158	388.12
373.384	397.12
373.61	403.12
373.835	435.12
374.061	421.12
374.287	396.12
374.513	424.12
374.739	435.12
374.965	416.12
375.191	435.12
375.416	435.12
375.642	415.12
375.868	423.12
376.094	399.12
376.319	396.12
376.545	413.12
376.771	405.12
376.997	400.12
377.222	399.12
377.448	400.12
377.674	398.12
377.899	392.12
378.125	393.12
378.35	398.12
378.576	402.12
378.802	405.12
379.027	424.12
379.253	393.12
379.478	406.12
379.704	394.12
379.929	391.12
380.155	395.12
380.38	397.12
380.606	388.12
380.831	412.12
381.057	386.12
381.282	397.12
381.507	438.12
381.733	401.12
381.958	407.12
382.184	395.12
382.409	426.12
382.634	426.12
382.86	422.12
383.085	425.12
383.31	429.12
383.535	426.12
383.761	443.12
383.986	433.12
384.211	449.12
384.436	426.12
384.662	450.12
384.887	456.12
385.112	417.12
385.337	451.12
385.562	458.12
385.787	470.12
386.013	457.12
386.238	454.12
386.463	448.12
386.688	465.12
386.913	472.12
387.138	458.12
387.363	449.12
387.588	457.12
387.813	462.12
388.038	479.12
388.263	456.12
388.488	461.12
388.713	457.12
388.938	469.12
389.163	452.12
389.387	441.12
389.612	459.12
389.837	478.12
390.062	452.12
390.287	471.12
390.512	456.12
390.736	465.12
390.961	463.12
391.186	477.12
391.411	488.12
391.636	485.12
391.86	491.12
392.085	480.12
392.31	496.12
392.534	501.12
392.759	505.12
392.984	495.12
393.208	473.12
393.433	466.12
393.658	477.12
393.882	468.12
394.107	480.12
394.331	508.12
394.556	487.12
394.78	474.12
395.005	475.12
395.229	501.12
395.454	489.12
395.678	488.12
395.903	512.12
396.127	499.12
396.352	514.12
396.576	515.12
396.801	492.12
397.025	512.12
397.249	507.12
397.474	517.12
397.698	508.12
397.922	546.12
398.147	533.12
398.371	552.12
398.595	556.12
398.82	540.12
399.044	587.12
399.268	614.12
399.492	652.12
399.717	641.12
399.941	652.12
400.165	659.12
400.389	633.12
400.613	612.12
400.837	593.12
401.062	587.12
401.286	562.12
401.51	585.12
401.734	543.12
401.958	555.12
402.182	565.12
402.406	560.12
402.63	565.12
402.854	571.12
403.078	549.12
403.302	550.12
403.526	560.12
403.75	570.12
403.974	559.12
404.198	548.12
404.422	559.12
404.645	563.12
404.869	573.12
405.093	576.12
405.317	556.12
405.541	583.12
405.765	577.12
405.988	583.12
406.212	569.12
406.436	573.12
406.66	606.12
406.883	605.12
407.107	616.12
407.331	616.12
407.555	627.12
407.778	640.12
408.002	617.12
408.226	610.12
408.449	624.12
408.673	627.12
408.896	596.12
409.12	581.12
409.344	595.12
409.567	588.12
409.791	601.12
410.014	587.12
410.238	573.12
410.461	573.12
410.685	561.12
410.908	569.12
411.132	567.12
411.355	548.12
411.578	569.12
411.802	559.12
412.025	547.12
412.249	547.12
412.472	555.12
412.695	554.12
412.919	549.12
413.142	547.12
413.365	550.12
413.589	558.12
413.812	515.12
414.035	551.12
414.258	549.12
414.482	548.12
414.705	556.12
414.928	552.12
415.151	535.12
415.374	512.12
415.597	547.12
415.821	542.12
416.044	540.12
416.267	536.12
416.49	532.12
416.713	521.12
416.936	528.12
417.159	529.12
417.382	529.12
417.605	505.12
417.828	513.12
418.051	515.12
418.274	544.12
418.497	532.12
418.72	521.12
418.943	535.12
419.166	541.12
419.389	557.12
419.611	566.12
419.834	554.12
420.057	555.12
420.28	532.12
420.503	516.12
420.726	505.12
420.948	517.12
421.171	516.12
421.394	529.12
421.617	530.12
421.839	535.12
422.062	523.12
422.285	507.12
422.507	525.12
422.73	520.12
422.953	510.12
423.175	516.12
423.398	525.12
423.621	511.12
423.843	531.12
424.066	539.12
424.288	532.12
424.511	514.12
424.733	519.12
424.956	516.12
425.178	531.12
425.401	520.12
425.623	519.12
425.846	497.12
426.068	497.12
426.291	497.12
426.513	505.12
426.735	529.12
426.958	502.12
427.18	495.12
427.402	505.12
427.625	483.12
427.847	511.12
428.069	505.12
428.292	495.12
428.514	488.12
428.736	483.12
428.958	511.12
429.181	485.12
429.403	470.12
429.625	487.12
429.847	501.12
430.069	491.12
430.292	498.12
430.514	464.12
430.736	474.12
430.958	495.12
431.18	507.12
431.402	491.12
431.624	475.12
431.846	484.12
432.068	484.12
432.29	496.12
432.512	487.12
432.734	489.12
432.956	486.12
433.178	479.12
433.4	485.12
433.622	508.12
433.844	506.12
434.066	522.12
434.287	503.12
434.509	535.12
434.731	526.12
434.953	514.12
435.175	514.12
435.397	521.12
435.618	505.12
435.84	503.12
436.062	471.12
436.284	508.12
436.505	475.12
436.727	500.12
436.949	476.12
437.17	482.12
437.392	467.12
437.614	489.12
437.835	495.12
438.057	474.12
438.278	488.12
438.5	483.12
438.721	467.12
438.943	455.12
439.165	487.12
439.386	472.12
439.608	482.12
439.829	488.12
440.05	482.12
440.272	496.12
440.493	498.12
440.715	484.12
440.936	513.12
441.158	490.12
441.379	497.12
441.6	521.12
441.822	509.12
442.043	513.12
442.264	504.12
442.486	506.12
442.707	491.12
442.928	501.12
443.149	514.12
443.371	518.12
443.592	507.12
443.813	526.12
444.034	528.12
444.255	516.12
444.476	530.12
444.698	520.12
444.919	549.12
445.14	627.12
445.361	544.12
445.582	516.12
445.803	529.12
446.024	494.12
446.245	513.12
446.466	489.12
446.687	480.12
446.908	487.12
447.129	459.12
447.35	468.12
447.571	467.12
447.792	460.12
448.013	477.12
448.234	468.12
448.455	450.12
448.675	452.12
448.896	447.12
449.117	426.12
449.338	459.12
449.559	452.12
449.779	443.12
450	409.12
450.221	443.12
450.442	447.12
450.662	426.12
450.883	440.12
451.104	459.12
451.324	430.12
451.545	428.12
451.766	444.12
451.986	421.12
452.207	428.12
452.428	437.12
452.648	437.12
452.869	436.12
453.089	432.12
453.31	426.12
453.53	417.12
453.751	440.12
453.971	426.12
454.192	449.12
454.412	417.12
454.633	427.12
454.853	437.12
455.073	423.12
455.294	433.12
455.514	433.12
455.734	432.12
455.955	412.12
456.175	417.12
456.395	438.12
456.616	441.12
456.836	444.12
457.056	423.12
457.276	415.12
457.497	442.12
457.717	461.12
457.937	460.12
458.157	445.12
458.377	449.12
458.598	451.12
458.818	448.12
459.038	476.12
459.258	466.12
459.478	500.12
459.698	498.12
459.918	513.12
460.138	501.12
460.358	523.12
460.578	520.12
460.798	537.12
461.018	522.12
461.238	532.12
461.458	546.12
461.678	553.12
461.898	563.12
462.118	557.12
462.338	578.12
462.558	589.12
462.777	587.12
462.997	589.12
463.217	592.12
463.437	618.12
463.657	611.12
463.876	599.12
464.096	577.12
464.316	583.12
464.536	575.12
464.755	578.12
464.975	572.12
465.195	554.12
465.414	555.12
465.634	538.12
465.854	511.12
466.073	492.12
466.293	486.12
466.512	496.12
466.732	495.12
466.951	481.12
467.171	488.12
467.391	474.12
467.61	471.12
467.829	492.12
468.049	469.12
468.268	465.12
468.488	481.12
468.707	488.12
468.927	498.12
469.146	458.12
469.365	482.12
469.585	479.12
469.804	469.12
470.023	491.12
470.243	472.12
470.462	482.12
470.681	477.12
470.901	473.12
471.12	496.12
471.339	486.12
471.558	475.12
471.777	501.12
471.997	469.12
472.216	484.12
472.435	460.12
472.654	485.12
472.873	461.12
473.092	479.12
473.311	463.12
473.53	460.12
473.749	461.12
473.968	454.12
474.187	462.12
474.406	470.12
474.625	473.12
474.844	481.12
475.063	472.12
475.282	473.12
475.501	482.12
475.72	497.12
475.939	495.12
476.158	498.12
476.377	512.12
476.596	518.12
476.814	489.12
477.033	497.12
477.252	516.12
477.471	517.12
477.69	512.12
477.908	520.12
478.127	534.12
478.346	553.12
478.564	543.12
478.783	550.12
479.002	568.12
479.22	574.12
479.439	572.12
479.658	562.12
479.876	579.12
480.095	581.12
480.313	552.12
480.532	582.12
480.751	571.12
480.969	569.12
481.188	563.12
481.406	576.12
481.624	594.12
481.843	547.12
482.061	563.12
482.28	562.12
482.498	551.12
482.717	567.12
482.935	567.12
483.153	550.12
483.372	546.12
483.59	564.12
483.808	559.12
484.027	563.12
484.245	581.12
484.463	565.12
484.681	571.12
484.9	574.12
485.118	583.12
485.336	579.12
485.554	580.12
485.772	577.12
485.99	596.12
486.209	585.12
486.427	566.12
486.645	621.12
486.863	572.12
487.081	580.12
487.299	564.12
487.517	563.12
487.735	564.12
487.953	592.12
488.171	562.12
488.389	582.12
488.607	573.12
488.825	546.12
489.043	549.12
489.261	580.12
489.479	588.12
489.696	587.12
489.914	586.12
490.132	585.12
490.35	584.12
490.568	568.12
490.786	577.12
491.003	583.12
491.221	580.12
491.439	573.12
491.657	577.12
491.874	573.12
492.092	607.12
492.31	578.12
492.527	591.12
492.745	610.12
492.963	598.12
493.18	595.12
493.398	585.12
493.615	601.12
493.833	593.12
494.05	611.12
494.268	613.12
494.485	600.12
494.703	605.12
494.92	603.12
495.138	623.12
495.355	602.12
495.573	615.12
495.79	637.12
496.008	636.12
496.225	635.12
496.442	635.12
496.66	648.12
496.877	644.12
497.094	676.12
497.312	685.12
497.529	685.12
497.746	674.12
497.963	719.12
498.181	730.12
498.398	752.12
498.615	812.12
498.832	822.12
499.049	820.12
499.267	845.12
499.484	937.12
499.701	949.12
499.918	973.12
500.135	1030.12
500.352	1057.12
500.569	1071.12
500.786	1061.12
501.003	1036.12
501.22	1024.12
501.437	961.12
501.654	898.12
501.871	892.12
