Data from Fe(NO3)3@0.1M.TitratingCurve.Agarose3%dH2O.NegLispCup.LampEnergy10.LIBS07252019_HRD10591_16-40-38-333.txt Node
Date: Thu Jul 25 16:40:38 EDT 2019
User: cochatt
Spectrometer: HR+D1059
Trigger mode: 1
Integration Time (sec): 1.000000E-1
Scans to average: 1
Electric dark correction enabled: true
Nonlinearity correction enabled: false
Boxcar width: 0
XAxis mode: Wavelengths
Number of Pixels in Spectrum: 2048
>>>>>Begin Spectral Data<<<<<
223.165	-24.44
223.4	-24.44
223.635	-24.44
223.869	-11.44
224.104	-29.44
224.338	-22.44
224.573	-12.44
224.808	-1.44
225.042	-15.44
225.277	-9.44
225.511	-0.44
225.746	7.56
225.98	0.56
226.215	10.56
226.449	18.56
226.683	29.56
226.918	29.56
227.152	30.56
227.387	40.56
227.621	37.56
227.856	46.56
228.09	40.56
228.324	60.56
228.559	54.56
228.793	66.56
229.027	86.56
229.262	101.56
229.496	84.56
229.73	79.56
229.964	85.56
230.199	89.56
230.433	94.56
230.667	94.56
230.901	101.56
231.136	93.56
231.37	91.56
231.604	98.56
231.838	118.56
232.072	88.56
232.306	103.56
232.541	93.56
232.775	97.56
233.009	107.56
233.243	115.56
233.477	116.56
233.711	96.56
233.945	84.56
234.179	99.56
234.413	98.56
234.647	102.56
234.881	90.56
235.115	103.56
235.349	109.56
235.583	110.56
235.817	99.56
236.051	105.56
236.285	118.56
236.519	108.56
236.753	104.56
236.987	95.56
237.221	92.56
237.455	103.56
237.689	109.56
237.922	102.56
238.156	115.56
238.39	111.56
238.624	98.56
238.858	109.56
239.091	100.56
239.325	90.56
239.559	104.56
239.793	119.56
240.027	125.56
240.26	119.56
240.494	105.56
240.728	100.56
240.961	102.56
241.195	108.56
241.429	118.56
241.662	116.56
241.896	128.56
242.13	108.56
242.363	119.56
242.597	132.56
242.83	116.56
243.064	115.56
243.298	113.56
243.531	115.56
243.765	112.56
243.998	123.56
244.232	127.56
244.465	141.56
244.699	123.56
244.932	90.56
245.166	119.56
245.399	133.56
245.633	127.56
245.866	125.56
246.099	116.56
246.333	117.56
246.566	125.56
246.8	124.56
247.033	117.56
247.266	125.56
247.5	120.56
247.733	123.56
247.966	122.56
248.2	147.56
248.433	125.56
248.666	131.56
248.899	126.56
249.133	134.56
249.366	126.56
249.599	126.56
249.832	135.56
250.066	135.56
250.299	129.56
250.532	138.56
250.765	139.56
250.998	137.56
251.231	131.56
251.465	140.56
251.698	123.56
251.931	126.56
252.164	131.56
252.397	147.56
252.63	136.56
252.863	132.56
253.096	150.56
253.329	146.56
253.562	142.56
253.795	143.56
254.028	144.56
254.261	138.56
254.494	126.56
254.727	145.56
254.96	151.56
255.193	153.56
255.426	128.56
255.659	142.56
255.892	164.56
256.124	148.56
256.357	140.56
256.59	144.56
256.823	149.56
257.056	147.56
257.289	149.56
257.521	139.56
257.754	151.56
257.987	144.56
258.22	152.56
258.452	154.56
258.685	143.56
258.918	150.56
259.151	156.56
259.383	149.56
259.616	149.56
259.849	158.56
260.081	156.56
260.314	167.56
260.547	151.56
260.779	157.56
261.012	148.56
261.244	150.56
261.477	171.56
261.71	164.56
261.942	169.56
262.175	142.56
262.407	163.56
262.64	155.56
262.872	164.56
263.105	173.56
263.337	165.56
263.57	159.56
263.802	157.56
264.035	177.56
264.267	175.56
264.499	174.56
264.732	167.56
264.964	161.56
265.197	147.56
265.429	162.56
265.661	171.56
265.894	172.56
266.126	175.56
266.358	176.56
266.591	160.56
266.823	172.56
267.055	178.56
267.287	172.56
267.52	172.56
267.752	175.56
267.984	163.56
268.216	171.56
268.448	180.56
268.681	178.56
268.913	189.56
269.145	170.56
269.377	174.56
269.609	174.56
269.841	178.56
270.073	182.56
270.306	160.56
270.538	162.56
270.77	173.56
271.002	189.56
271.234	191.56
271.466	208.56
271.698	160.56
271.93	188.56
272.162	182.56
272.394	204.56
272.626	183.56
272.858	173.56
273.09	174.56
273.322	190.56
273.553	196.56
273.785	189.56
274.017	172.56
274.249	199.56
274.481	186.56
274.713	182.56
274.945	196.56
275.176	187.56
275.408	185.56
275.64	201.56
275.872	194.56
276.104	209.56
276.335	203.56
276.567	192.56
276.799	195.56
277.031	211.56
277.262	204.56
277.494	195.56
277.726	206.56
277.957	198.56
278.189	194.56
278.421	200.56
278.652	186.56
278.884	193.56
279.115	209.56
279.347	218.56
279.579	203.56
279.81	203.56
280.042	195.56
280.273	203.56
280.505	181.56
280.736	210.56
280.968	204.56
281.199	209.56
281.431	210.56
281.662	218.56
281.894	204.56
282.125	214.56
282.356	209.56
282.588	212.56
282.819	222.56
283.051	213.56
283.282	230.56
283.513	225.56
283.745	228.56
283.976	221.56
284.207	211.56
284.439	227.56
284.67	220.56
284.901	235.56
285.132	212.56
285.364	229.56
285.595	226.56
285.826	222.56
286.057	231.56
286.288	222.56
286.52	234.56
286.751	213.56
286.982	238.56
287.213	219.56
287.444	217.56
287.675	245.56
287.906	223.56
288.138	223.56
288.369	225.56
288.6	215.56
288.831	240.56
289.062	202.56
289.293	227.56
289.524	213.56
289.755	229.56
289.986	242.56
290.217	236.56
290.448	229.56
290.679	228.56
290.91	224.56
291.141	252.56
291.371	231.56
291.602	215.56
291.833	233.56
292.064	239.56
292.295	245.56
292.526	216.56
292.757	229.56
292.987	236.56
293.218	238.56
293.449	236.56
293.68	230.56
293.91	246.56
294.141	217.56
294.372	234.56
294.603	261.56
294.833	246.56
295.064	234.56
295.295	237.56
295.525	244.56
295.756	246.56
295.987	220.56
296.217	238.56
296.448	240.56
296.679	251.56
296.909	247.56
297.14	231.56
297.37	250.56
297.601	245.56
297.831	229.56
298.062	265.56
298.292	249.56
298.523	255.56
298.753	242.56
298.984	248.56
299.214	259.56
299.445	240.56
299.675	251.56
299.905	266.56
300.136	244.56
300.366	271.56
300.597	249.56
300.827	260.56
301.057	286.56
301.288	285.56
301.518	274.56
301.748	279.56
301.979	267.56
302.209	273.56
302.439	264.56
302.669	267.56
302.9	253.56
303.13	266.56
303.36	279.56
303.59	267.56
303.82	268.56
304.051	274.56
304.281	264.56
304.511	271.56
304.741	266.56
304.971	267.56
305.201	252.56
305.431	264.56
305.661	270.56
305.891	272.56
306.121	278.56
306.352	266.56
306.582	268.56
306.812	259.56
307.042	252.56
307.272	278.56
307.502	255.56
307.731	271.56
307.961	267.56
308.191	266.56
308.421	256.56
308.651	264.56
308.881	276.56
309.111	279.56
309.341	259.56
309.571	234.56
309.8	256.56
310.03	265.56
310.26	242.56
310.49	280.56
310.72	257.56
310.949	278.56
311.179	264.56
311.409	242.56
311.639	260.56
311.868	255.56
312.098	264.56
312.328	283.56
312.557	266.56
312.787	274.56
313.017	262.56
313.246	281.56
313.476	286.56
313.706	283.56
313.935	269.56
314.165	265.56
314.394	291.56
314.624	270.56
314.853	283.56
315.083	292.56
315.312	294.56
315.542	295.56
315.771	284.56
316.001	280.56
316.23	287.56
316.46	269.56
316.689	282.56
316.919	278.56
317.148	284.56
317.377	297.56
317.607	278.56
317.836	275.56
318.065	280.56
318.295	280.56
318.524	299.56
318.753	284.56
318.983	266.56
319.212	301.56
319.441	299.56
319.67	288.56
319.9	292.56
320.129	291.56
320.358	301.56
320.587	270.56
320.816	288.56
321.046	282.56
321.275	292.56
321.504	288.56
321.733	280.56
321.962	285.56
322.191	284.56
322.42	283.56
322.649	293.56
322.878	278.56
323.108	305.56
323.337	284.56
323.566	290.56
323.795	285.56
324.024	297.56
324.253	297.56
324.482	306.56
324.71	300.56
324.939	279.56
325.168	292.56
325.397	324.56
325.626	297.56
325.855	322.56
326.084	318.56
326.313	319.56
326.542	292.56
326.77	300.56
326.999	303.56
327.228	312.56
327.457	306.56
327.686	303.56
327.914	301.56
328.143	316.56
328.372	305.56
328.6	291.56
328.829	315.56
329.058	316.56
329.287	311.56
329.515	309.56
329.744	313.56
329.972	320.56
330.201	322.56
330.43	310.56
330.658	330.56
330.887	315.56
331.115	318.56
331.344	324.56
331.572	313.56
331.801	329.56
332.03	338.56
332.258	336.56
332.486	346.56
332.715	361.56
332.943	356.56
333.172	387.56
333.4	380.56
333.629	377.56
333.857	392.56
334.085	387.56
334.314	394.56
334.542	367.56
334.771	374.56
334.999	371.56
335.227	388.56
335.455	383.56
335.684	384.56
335.912	370.56
336.14	358.56
336.369	374.56
336.597	359.56
336.825	356.56
337.053	364.56
337.281	367.56
337.51	363.56
337.738	355.56
337.966	326.56
338.194	342.56
338.422	314.56
338.65	346.56
338.878	341.56
339.106	340.56
339.334	354.56
339.562	320.56
339.79	330.56
340.018	333.56
340.246	332.56
340.474	318.56
340.702	322.56
340.93	336.56
341.158	331.56
341.386	307.56
341.614	322.56
341.842	316.56
342.07	330.56
342.298	324.56
342.526	315.56
342.754	310.56
342.981	316.56
343.209	332.56
343.437	344.56
343.665	375.56
343.893	376.56
344.12	366.56
344.348	372.56
344.576	356.56
344.804	342.56
345.031	343.56
345.259	323.56
345.487	328.56
345.714	312.56
345.942	304.56
346.17	319.56
346.397	318.56
346.625	308.56
346.853	317.56
347.08	324.56
347.308	302.56
347.535	301.56
347.763	318.56
347.99	301.56
348.218	315.56
348.445	332.56
348.673	303.56
348.9	301.56
349.128	329.56
349.355	313.56
349.583	319.56
349.81	318.56
350.037	312.56
350.265	306.56
350.492	319.56
350.72	293.56
350.947	293.56
351.174	314.56
351.402	311.56
351.629	303.56
351.856	302.56
352.083	317.56
352.311	310.56
352.538	318.56
352.765	305.56
352.992	288.56
353.22	312.56
353.447	314.56
353.674	316.56
353.901	298.56
354.128	307.56
354.355	304.56
354.583	312.56
354.81	314.56
355.037	313.56
355.264	310.56
355.491	315.56
355.718	297.56
355.945	325.56
356.172	312.56
356.399	315.56
356.626	314.56
356.853	322.56
357.08	309.56
357.307	291.56
357.534	301.56
357.761	326.56
357.988	315.56
358.215	306.56
358.441	302.56
358.668	308.56
358.895	314.56
359.122	307.56
359.349	314.56
359.576	312.56
359.802	299.56
360.029	307.56
360.256	311.56
360.483	308.56
360.709	303.56
360.936	312.56
361.163	319.56
361.39	306.56
361.616	319.56
361.843	308.56
362.07	322.56
362.296	335.56
362.523	299.56
362.749	306.56
362.976	315.56
363.203	332.56
363.429	315.56
363.656	332.56
363.882	293.56
364.109	324.56
364.335	328.56
364.562	319.56
364.788	310.56
365.015	319.56
365.241	324.56
365.468	303.56
365.694	294.56
365.92	306.56
366.147	301.56
366.373	302.56
366.599	325.56
366.826	297.56
367.052	317.56
367.278	327.56
367.505	316.56
367.731	318.56
367.957	331.56
368.184	322.56
368.41	327.56
368.636	309.56
368.862	298.56
369.089	315.56
369.315	308.56
369.541	335.56
369.767	342.56
369.993	335.56
370.219	330.56
370.445	336.56
370.672	337.56
370.898	340.56
371.124	351.56
371.35	346.56
371.576	370.56
371.802	329.56
372.028	336.56
372.254	343.56
372.48	356.56
372.706	362.56
372.932	354.56
373.158	327.56
373.384	329.56
373.61	328.56
373.835	336.56
374.061	327.56
374.287	329.56
374.513	335.56
374.739	365.56
374.965	365.56
375.191	365.56
375.416	354.56
375.642	359.56
375.868	348.56
376.094	362.56
376.319	351.56
376.545	340.56
376.771	326.56
376.997	351.56
377.222	342.56
377.448	358.56
377.674	348.56
377.899	331.56
378.125	350.56
378.35	350.56
378.576	341.56
378.802	336.56
379.027	340.56
379.253	320.56
379.478	341.56
379.704	349.56
379.929	322.56
380.155	327.56
380.38	344.56
380.606	345.56
380.831	351.56
381.057	336.56
381.282	340.56
381.507	351.56
381.733	354.56
381.958	330.56
382.184	355.56
382.409	352.56
382.634	364.56
382.86	370.56
383.085	361.56
383.31	374.56
383.535	364.56
383.761	359.56
383.986	358.56
384.211	382.56
384.436	364.56
384.662	401.56
384.887	394.56
385.112	391.56
385.337	414.56
385.562	403.56
385.787	400.56
386.013	409.56
386.238	384.56
386.463	404.56
386.688	383.56
386.913	394.56
387.138	382.56
387.363	392.56
387.588	398.56
387.813	409.56
388.038	374.56
388.263	392.56
388.488	380.56
388.713	387.56
388.938	389.56
389.163	389.56
389.387	398.56
389.612	394.56
389.837	402.56
390.062	382.56
390.287	405.56
390.512	407.56
390.736	400.56
390.961	404.56
391.186	424.56
391.411	423.56
391.636	437.56
391.86	445.56
392.085	442.56
392.31	428.56
392.534	425.56
392.759	413.56
392.984	417.56
393.208	398.56
393.433	426.56
393.658	424.56
393.882	422.56
394.107	460.56
394.331	423.56
394.556	423.56
394.78	417.56
395.005	440.56
395.229	441.56
395.454	450.56
395.678	449.56
395.903	449.56
396.127	436.56
396.352	418.56
396.576	435.56
396.801	404.56
397.025	423.56
397.249	427.56
397.474	451.56
397.698	443.56
397.922	451.56
398.147	453.56
398.371	461.56
398.595	472.56
398.82	485.56
399.044	525.56
399.268	568.56
399.492	612.56
399.717	678.56
399.941	672.56
400.165	598.56
400.389	573.56
400.613	520.56
400.837	504.56
401.062	504.56
401.286	476.56
401.51	482.56
401.734	479.56
401.958	480.56
402.182	484.56
402.406	499.56
402.63	518.56
402.854	522.56
403.078	546.56
403.302	543.56
403.526	536.56
403.75	528.56
403.974	539.56
404.198	534.56
404.422	539.56
404.645	543.56
404.869	497.56
405.093	539.56
405.317	543.56
405.541	531.56
405.765	538.56
405.988	546.56
406.212	525.56
406.436	526.56
406.66	556.56
406.883	552.56
407.107	580.56
407.331	591.56
407.555	601.56
407.778	610.56
408.002	592.56
408.226	587.56
408.449	546.56
408.673	587.56
408.896	546.56
409.12	550.56
409.344	538.56
409.567	557.56
409.791	558.56
410.014	517.56
410.238	531.56
410.461	538.56
410.685	543.56
410.908	527.56
411.132	521.56
411.355	522.56
411.578	520.56
411.802	520.56
412.025	524.56
412.249	525.56
412.472	516.56
412.695	502.56
412.919	495.56
413.142	504.56
413.365	477.56
413.589	488.56
413.812	493.56
414.035	478.56
414.258	501.56
414.482	508.56
414.705	486.56
414.928	509.56
415.151	512.56
415.374	490.56
415.597	514.56
415.821	494.56
416.044	503.56
416.267	483.56
416.49	464.56
416.713	472.56
416.936	493.56
417.159	473.56
417.382	482.56
417.605	491.56
417.828	482.56
418.051	483.56
418.274	495.56
418.497	473.56
418.72	488.56
418.943	507.56
419.166	524.56
419.389	555.56
419.611	533.56
419.834	533.56
420.057	492.56
420.28	490.56
420.503	468.56
420.726	504.56
420.948	519.56
421.171	478.56
421.394	498.56
421.617	475.56
421.839	495.56
422.062	479.56
422.285	479.56
422.507	501.56
422.73	516.56
422.953	520.56
423.175	487.56
423.398	498.56
423.621	499.56
423.843	503.56
424.066	499.56
424.288	493.56
424.511	495.56
424.733	519.56
424.956	504.56
425.178	494.56
425.401	491.56
425.623	475.56
425.846	486.56
426.068	476.56
426.291	479.56
426.513	468.56
426.735	474.56
426.958	465.56
427.18	455.56
427.402	450.56
427.625	460.56
427.847	444.56
428.069	426.56
428.292	457.56
428.514	472.56
428.736	471.56
428.958	453.56
429.181	453.56
429.403	455.56
429.625	450.56
429.847	435.56
430.069	443.56
430.292	441.56
430.514	442.56
430.736	434.56
430.958	470.56
431.18	453.56
431.402	445.56
431.624	439.56
431.846	450.56
432.068	459.56
432.29	449.56
432.512	451.56
432.734	462.56
432.956	472.56
433.178	470.56
433.4	451.56
433.622	469.56
433.844	453.56
434.066	447.56
434.287	456.56
434.509	461.56
434.731	465.56
434.953	474.56
435.175	494.56
435.397	496.56
435.618	464.56
435.84	445.56
436.062	444.56
436.284	463.56
436.505	428.56
436.727	447.56
436.949	464.56
437.17	480.56
437.392	444.56
437.614	439.56
437.835	441.56
438.057	429.56
438.278	429.56
438.5	454.56
438.721	434.56
438.943	469.56
439.165	453.56
439.386	425.56
439.608	432.56
439.829	449.56
440.05	473.56
440.272	446.56
440.493	459.56
440.715	479.56
440.936	479.56
441.158	480.56
441.379	468.56
441.6	494.56
441.822	514.56
442.043	486.56
442.264	483.56
442.486	470.56
442.707	480.56
442.928	506.56
443.149	488.56
443.371	494.56
443.592	478.56
443.813	505.56
444.034	525.56
444.255	519.56
444.476	540.56
444.698	547.56
444.919	609.56
445.14	645.56
445.361	558.56
445.582	524.56
445.803	490.56
446.024	490.56
446.245	483.56
446.466	485.56
446.687	451.56
446.908	466.56
447.129	473.56
447.35	443.56
447.571	482.56
447.792	444.56
448.013	459.56
448.234	439.56
448.455	419.56
448.675	442.56
448.896	426.56
449.117	431.56
449.338	436.56
449.559	442.56
449.779	427.56
450	446.56
450.221	416.56
450.442	446.56
450.662	423.56
450.883	434.56
451.104	454.56
451.324	408.56
451.545	419.56
451.766	426.56
451.986	429.56
452.207	423.56
452.428	421.56
452.648	414.56
452.869	423.56
453.089	409.56
453.31	403.56
453.53	405.56
453.751	392.56
453.971	399.56
454.192	415.56
454.412	396.56
454.633	400.56
454.853	398.56
455.073	391.56
455.294	383.56
455.514	387.56
455.734	412.56
455.955	392.56
456.175	404.56
456.395	394.56
456.616	408.56
456.836	383.56
457.056	396.56
457.276	383.56
457.497	392.56
457.717	397.56
457.937	387.56
458.157	416.56
458.377	415.56
458.598	416.56
458.818	429.56
459.038	430.56
459.258	447.56
459.478	442.56
459.698	461.56
459.918	471.56
460.138	456.56
460.358	487.56
460.578	508.56
460.798	514.56
461.018	520.56
461.238	522.56
461.458	514.56
461.678	505.56
461.898	501.56
462.118	538.56
462.338	550.56
462.558	567.56
462.777	578.56
462.997	598.56
463.217	666.56
463.437	636.56
463.657	602.56
463.876	588.56
464.096	575.56
464.316	570.56
464.536	572.56
464.755	556.56
464.975	512.56
465.195	543.56
465.414	493.56
465.634	466.56
465.854	494.56
466.073	482.56
466.293	458.56
466.512	440.56
466.732	453.56
466.951	436.56
467.171	420.56
467.391	436.56
467.61	453.56
467.829	447.56
468.049	443.56
468.268	416.56
468.488	421.56
468.707	434.56
468.927	412.56
469.146	446.56
469.365	415.56
469.585	447.56
469.804	459.56
470.023	450.56
470.243	449.56
470.462	441.56
470.681	448.56
470.901	455.56
471.12	446.56
471.339	426.56
471.558	429.56
471.777	423.56
471.997	427.56
472.216	426.56
472.435	415.56
472.654	419.56
472.873	415.56
473.092	405.56
473.311	409.56
473.53	415.56
473.749	416.56
473.968	411.56
474.187	381.56
474.406	434.56
474.625	398.56
474.844	417.56
475.063	422.56
475.282	400.56
475.501	412.56
475.72	424.56
475.939	440.56
476.158	422.56
476.377	404.56
476.596	420.56
476.814	405.56
477.033	445.56
477.252	427.56
477.471	435.56
477.69	454.56
477.908	453.56
478.127	477.56
478.346	487.56
478.564	476.56
478.783	499.56
479.002	494.56
479.22	503.56
479.439	502.56
479.658	514.56
479.876	488.56
480.095	497.56
480.313	509.56
480.532	504.56
480.751	510.56
480.969	510.56
481.188	475.56
481.406	461.56
481.624	473.56
481.843	458.56
482.061	461.56
482.28	457.56
482.498	463.56
482.717	442.56
482.935	471.56
483.153	458.56
483.372	456.56
483.59	477.56
483.808	460.56
484.027	465.56
484.245	452.56
484.463	463.56
484.681	465.56
484.9	467.56
485.118	462.56
485.336	468.56
485.554	474.56
485.772	468.56
485.99	468.56
486.209	476.56
486.427	463.56
486.645	458.56
486.863	466.56
487.081	486.56
487.299	471.56
487.517	474.56
487.735	475.56
487.953	491.56
488.171	487.56
488.389	462.56
488.607	450.56
488.825	442.56
489.043	459.56
489.261	464.56
489.479	469.56
489.696	495.56
489.914	495.56
490.132	490.56
490.35	478.56
490.568	473.56
490.786	490.56
491.003	478.56
491.221	463.56
491.439	479.56
491.657	471.56
491.874	477.56
492.092	480.56
492.31	489.56
492.527	505.56
492.745	494.56
492.963	513.56
493.18	498.56
493.398	529.56
493.615	504.56
493.833	511.56
494.05	470.56
494.268	507.56
494.485	512.56
494.703	505.56
494.92	506.56
495.138	507.56
495.355	486.56
495.573	511.56
495.79	526.56
496.008	516.56
496.225	505.56
496.442	524.56
496.66	540.56
496.877	487.56
497.094	532.56
497.312	544.56
497.529	546.56
497.746	553.56
497.963	581.56
498.181	584.56
498.398	631.56
498.615	642.56
498.832	693.56
499.049	725.56
499.267	795.56
499.484	836.56
499.701	929.56
499.918	1019.56
500.135	1100.56
500.352	1189.56
500.569	1215.56
500.786	1211.56
501.003	1139.56
501.22	1017.56
501.437	946.56
501.654	849.56
501.871	806.56
