Data from Fe(NO3)3@0.0125M.TitratingCurve.Agarose3%dH2O.NegLispCup.LampEnergy10.LIBS07252019_HRD10591_17-01-19-337.txt Node
Date: Thu Jul 25 17:01:19 EDT 2019
User: cochatt
Spectrometer: HR+D1059
Trigger mode: 1
Integration Time (sec): 1.000000E-1
Scans to average: 1
Electric dark correction enabled: true
Nonlinearity correction enabled: false
Boxcar width: 0
XAxis mode: Wavelengths
Number of Pixels in Spectrum: 2048
>>>>>Begin Spectral Data<<<<<
223.165	-6.81
223.4	-6.81
223.635	-6.81
223.869	-20.81
224.104	-37.81
224.338	-26.81
224.573	-2.81
224.808	-13.81
225.042	0.19
225.277	-16.81
225.511	-4.81
225.746	4.19
225.98	13.19
226.215	15.19
226.449	17.19
226.683	23.19
226.918	25.19
227.152	32.19
227.387	28.19
227.621	29.19
227.856	41.19
228.09	37.19
228.324	37.19
228.559	62.19
228.793	70.19
229.027	89.19
229.262	84.19
229.496	86.19
229.73	84.19
229.964	90.19
230.199	100.19
230.433	105.19
230.667	92.19
230.901	98.19
231.136	90.19
231.37	84.19
231.604	95.19
231.838	104.19
232.072	110.19
232.306	95.19
232.541	99.19
232.775	97.19
233.009	104.19
233.243	102.19
233.477	97.19
233.711	106.19
233.945	103.19
234.179	108.19
234.413	113.19
234.647	98.19
234.881	105.19
235.115	113.19
235.349	106.19
235.583	83.19
235.817	103.19
236.051	124.19
236.285	120.19
236.519	102.19
236.753	118.19
236.987	111.19
237.221	108.19
237.455	99.19
237.689	91.19
237.922	107.19
238.156	110.19
238.39	112.19
238.624	120.19
238.858	118.19
239.091	117.19
239.325	108.19
239.559	92.19
239.793	119.19
240.027	107.19
240.26	113.19
240.494	120.19
240.728	111.19
240.961	119.19
241.195	123.19
241.429	120.19
241.662	118.19
241.896	109.19
242.13	115.19
242.363	120.19
242.597	127.19
242.83	124.19
243.064	124.19
243.298	113.19
243.531	124.19
243.765	131.19
243.998	122.19
244.232	125.19
244.465	113.19
244.699	120.19
244.932	138.19
245.166	139.19
245.399	112.19
245.633	123.19
245.866	120.19
246.099	112.19
246.333	120.19
246.566	127.19
246.8	128.19
247.033	134.19
247.266	117.19
247.5	131.19
247.733	128.19
247.966	138.19
248.2	137.19
248.433	128.19
248.666	126.19
248.899	141.19
249.133	134.19
249.366	139.19
249.599	136.19
249.832	123.19
250.066	147.19
250.299	130.19
250.532	126.19
250.765	136.19
250.998	133.19
251.231	149.19
251.465	147.19
251.698	141.19
251.931	143.19
252.164	140.19
252.397	139.19
252.63	149.19
252.863	153.19
253.096	132.19
253.329	150.19
253.562	154.19
253.795	138.19
254.028	157.19
254.261	134.19
254.494	130.19
254.727	144.19
254.96	158.19
255.193	146.19
255.426	144.19
255.659	157.19
255.892	158.19
256.124	145.19
256.357	162.19
256.59	140.19
256.823	146.19
257.056	164.19
257.289	155.19
257.521	152.19
257.754	151.19
257.987	152.19
258.22	157.19
258.452	152.19
258.685	148.19
258.918	164.19
259.151	166.19
259.383	162.19
259.616	160.19
259.849	171.19
260.081	172.19
260.314	168.19
260.547	175.19
260.779	170.19
261.012	187.19
261.244	172.19
261.477	167.19
261.71	165.19
261.942	162.19
262.175	165.19
262.407	176.19
262.64	161.19
262.872	141.19
263.105	167.19
263.337	181.19
263.57	186.19
263.802	172.19
264.035	170.19
264.267	169.19
264.499	159.19
264.732	168.19
264.964	175.19
265.197	168.19
265.429	178.19
265.661	170.19
265.894	168.19
266.126	190.19
266.358	169.19
266.591	184.19
266.823	187.19
267.055	193.19
267.287	162.19
267.52	180.19
267.752	172.19
267.984	187.19
268.216	162.19
268.448	180.19
268.681	179.19
268.913	203.19
269.145	186.19
269.377	187.19
269.609	194.19
269.841	189.19
270.073	187.19
270.306	191.19
270.538	193.19
270.77	189.19
271.002	184.19
271.234	196.19
271.466	188.19
271.698	188.19
271.93	194.19
272.162	187.19
272.394	178.19
272.626	195.19
272.858	201.19
273.09	207.19
273.322	194.19
273.553	201.19
273.785	212.19
274.017	208.19
274.249	222.19
274.481	206.19
274.713	232.19
274.945	222.19
275.176	213.19
275.408	218.19
275.64	210.19
275.872	208.19
276.104	200.19
276.335	200.19
276.567	200.19
276.799	195.19
277.031	206.19
277.262	222.19
277.494	209.19
277.726	212.19
277.957	202.19
278.189	208.19
278.421	216.19
278.652	209.19
278.884	204.19
279.115	214.19
279.347	216.19
279.579	220.19
279.81	215.19
280.042	210.19
280.273	200.19
280.505	219.19
280.736	216.19
280.968	224.19
281.199	222.19
281.431	228.19
281.662	232.19
281.894	225.19
282.125	203.19
282.356	238.19
282.588	237.19
282.819	214.19
283.051	216.19
283.282	219.19
283.513	214.19
283.745	221.19
283.976	234.19
284.207	243.19
284.439	227.19
284.67	223.19
284.901	231.19
285.132	215.19
285.364	228.19
285.595	223.19
285.826	215.19
286.057	233.19
286.288	246.19
286.52	229.19
286.751	219.19
286.982	241.19
287.213	255.19
287.444	246.19
287.675	245.19
287.906	235.19
288.138	239.19
288.369	242.19
288.6	233.19
288.831	239.19
289.062	230.19
289.293	250.19
289.524	259.19
289.755	252.19
289.986	247.19
290.217	259.19
290.448	245.19
290.679	243.19
290.91	272.19
291.141	224.19
291.371	252.19
291.602	251.19
291.833	264.19
292.064	265.19
292.295	253.19
292.526	257.19
292.757	263.19
292.987	240.19
293.218	245.19
293.449	241.19
293.68	241.19
293.91	256.19
294.141	254.19
294.372	256.19
294.603	267.19
294.833	260.19
295.064	267.19
295.295	248.19
295.525	265.19
295.756	259.19
295.987	250.19
296.217	270.19
296.448	263.19
296.679	266.19
296.909	269.19
297.14	251.19
297.37	280.19
297.601	263.19
297.831	283.19
298.062	275.19
298.292	250.19
298.523	279.19
298.753	279.19
298.984	266.19
299.214	274.19
299.445	273.19
299.675	268.19
299.905	277.19
300.136	274.19
300.366	271.19
300.597	280.19
300.827	275.19
301.057	277.19
301.288	285.19
301.518	255.19
301.748	278.19
301.979	290.19
302.209	292.19
302.439	306.19
302.669	286.19
302.9	301.19
303.13	284.19
303.36	281.19
303.59	278.19
303.82	272.19
304.051	296.19
304.281	297.19
304.511	311.19
304.741	299.19
304.971	283.19
305.201	287.19
305.431	296.19
305.661	290.19
305.891	288.19
306.121	298.19
306.352	312.19
306.582	279.19
306.812	291.19
307.042	292.19
307.272	294.19
307.502	304.19
307.731	297.19
307.961	310.19
308.191	305.19
308.421	292.19
308.651	296.19
308.881	296.19
309.111	288.19
309.341	281.19
309.571	298.19
309.8	292.19
310.03	277.19
310.26	285.19
310.49	286.19
310.72	297.19
310.949	299.19
311.179	290.19
311.409	305.19
311.639	294.19
311.868	318.19
312.098	298.19
312.328	333.19
312.557	310.19
312.787	318.19
313.017	298.19
313.246	331.19
313.476	316.19
313.706	324.19
313.935	320.19
314.165	298.19
314.394	302.19
314.624	318.19
314.853	318.19
315.083	316.19
315.312	304.19
315.542	320.19
315.771	316.19
316.001	319.19
316.23	304.19
316.46	322.19
316.689	334.19
316.919	311.19
317.148	320.19
317.377	324.19
317.607	328.19
317.836	316.19
318.065	319.19
318.295	330.19
318.524	331.19
318.753	328.19
318.983	316.19
319.212	313.19
319.441	328.19
319.67	300.19
319.9	348.19
320.129	327.19
320.358	337.19
320.587	341.19
320.816	336.19
321.046	323.19
321.275	330.19
321.504	336.19
321.733	327.19
321.962	329.19
322.191	328.19
322.42	346.19
322.649	351.19
322.878	330.19
323.108	343.19
323.337	340.19
323.566	323.19
323.795	332.19
324.024	332.19
324.253	324.19
324.482	351.19
324.71	352.19
324.939	330.19
325.168	348.19
325.397	345.19
325.626	345.19
325.855	351.19
326.084	363.19
326.313	358.19
326.542	329.19
326.77	367.19
326.999	345.19
327.228	340.19
327.457	336.19
327.686	352.19
327.914	346.19
328.143	344.19
328.372	336.19
328.6	336.19
328.829	340.19
329.058	366.19
329.287	345.19
329.515	361.19
329.744	353.19
329.972	359.19
330.201	348.19
330.43	367.19
330.658	356.19
330.887	368.19
331.115	378.19
331.344	379.19
331.572	359.19
331.801	374.19
332.03	378.19
332.258	371.19
332.486	382.19
332.715	385.19
332.943	380.19
333.172	394.19
333.4	378.19
333.629	396.19
333.857	387.19
334.085	386.19
334.314	423.19
334.542	390.19
334.771	424.19
334.999	412.19
335.227	416.19
335.455	386.19
335.684	396.19
335.912	415.19
336.14	397.19
336.369	400.19
336.597	405.19
336.825	407.19
337.053	382.19
337.281	376.19
337.51	375.19
337.738	382.19
337.966	385.19
338.194	384.19
338.422	384.19
338.65	379.19
338.878	409.19
339.106	387.19
339.334	384.19
339.562	384.19
339.79	379.19
340.018	383.19
340.246	394.19
340.474	383.19
340.702	386.19
340.93	382.19
341.158	371.19
341.386	362.19
341.614	390.19
341.842	390.19
342.07	375.19
342.298	386.19
342.526	375.19
342.754	370.19
342.981	384.19
343.209	379.19
343.437	397.19
343.665	384.19
343.893	405.19
344.12	410.19
344.348	401.19
344.576	419.19
344.804	400.19
345.031	396.19
345.259	399.19
345.487	388.19
345.714	371.19
345.942	371.19
346.17	376.19
346.397	373.19
346.625	383.19
346.853	375.19
347.08	369.19
347.308	360.19
347.535	363.19
347.763	374.19
347.99	388.19
348.218	389.19
348.445	386.19
348.673	374.19
348.9	358.19
349.128	377.19
349.355	372.19
349.583	360.19
349.81	370.19
350.037	358.19
350.265	372.19
350.492	367.19
350.72	354.19
350.947	371.19
351.174	376.19
351.402	343.19
351.629	354.19
351.856	351.19
352.083	359.19
352.311	378.19
352.538	356.19
352.765	382.19
352.992	372.19
353.22	359.19
353.447	370.19
353.674	370.19
353.901	376.19
354.128	368.19
354.355	382.19
354.583	352.19
354.81	364.19
355.037	364.19
355.264	360.19
355.491	371.19
355.718	361.19
355.945	372.19
356.172	363.19
356.399	378.19
356.626	370.19
356.853	395.19
357.08	369.19
357.307	366.19
357.534	388.19
357.761	358.19
357.988	370.19
358.215	382.19
358.441	387.19
358.668	368.19
358.895	374.19
359.122	377.19
359.349	377.19
359.576	369.19
359.802	382.19
360.029	380.19
360.256	378.19
360.483	364.19
360.709	367.19
360.936	388.19
361.163	380.19
361.39	368.19
361.616	368.19
361.843	388.19
362.07	378.19
362.296	388.19
362.523	368.19
362.749	391.19
362.976	370.19
363.203	392.19
363.429	379.19
363.656	367.19
363.882	370.19
364.109	407.19
364.335	379.19
364.562	385.19
364.788	363.19
365.015	384.19
365.241	379.19
365.468	376.19
365.694	370.19
365.92	375.19
366.147	368.19
366.373	400.19
366.599	376.19
366.826	389.19
367.052	375.19
367.278	378.19
367.505	379.19
367.731	366.19
367.957	386.19
368.184	377.19
368.41	408.19
368.636	395.19
368.862	399.19
369.089	385.19
369.315	404.19
369.541	373.19
369.767	404.19
369.993	389.19
370.219	392.19
370.445	412.19
370.672	389.19
370.898	408.19
371.124	410.19
371.35	388.19
371.576	391.19
371.802	409.19
372.028	396.19
372.254	396.19
372.48	402.19
372.706	424.19
372.932	406.19
373.158	398.19
373.384	419.19
373.61	386.19
373.835	407.19
374.061	412.19
374.287	430.19
374.513	417.19
374.739	443.19
374.965	421.19
375.191	412.19
375.416	442.19
375.642	448.19
375.868	418.19
376.094	423.19
376.319	417.19
376.545	401.19
376.771	405.19
376.997	399.19
377.222	390.19
377.448	410.19
377.674	401.19
377.899	394.19
378.125	395.19
378.35	406.19
378.576	387.19
378.802	388.19
379.027	391.19
379.253	406.19
379.478	424.19
379.704	401.19
379.929	416.19
380.155	427.19
380.38	407.19
380.606	394.19
380.831	394.19
381.057	406.19
381.282	424.19
381.507	410.19
381.733	410.19
381.958	418.19
382.184	423.19
382.409	414.19
382.634	428.19
382.86	423.19
383.085	426.19
383.31	424.19
383.535	450.19
383.761	432.19
383.986	441.19
384.211	424.19
384.436	440.19
384.662	452.19
384.887	454.19
385.112	467.19
385.337	452.19
385.562	461.19
385.787	456.19
386.013	472.19
386.238	448.19
386.463	473.19
386.688	464.19
386.913	458.19
387.138	452.19
387.363	458.19
387.588	472.19
387.813	475.19
388.038	461.19
388.263	467.19
388.488	469.19
388.713	440.19
388.938	469.19
389.163	463.19
389.387	472.19
389.612	447.19
389.837	452.19
390.062	458.19
390.287	472.19
390.512	474.19
390.736	479.19
390.961	467.19
391.186	482.19
391.411	473.19
391.636	496.19
391.86	486.19
392.085	489.19
392.31	494.19
392.534	466.19
392.759	503.19
392.984	496.19
393.208	490.19
393.433	500.19
393.658	488.19
393.882	467.19
394.107	488.19
394.331	475.19
394.556	464.19
394.78	478.19
395.005	488.19
395.229	497.19
395.454	475.19
395.678	481.19
395.903	498.19
396.127	500.19
396.352	485.19
396.576	522.19
396.801	490.19
397.025	516.19
397.249	520.19
397.474	513.19
397.698	515.19
397.922	529.19
398.147	522.19
398.371	539.19
398.595	536.19
398.82	547.19
399.044	573.19
399.268	585.19
399.492	609.19
399.717	630.19
399.941	623.19
400.165	594.19
400.389	587.19
400.613	583.19
400.837	568.19
401.062	568.19
401.286	549.19
401.51	537.19
401.734	549.19
401.958	541.19
402.182	542.19
402.406	548.19
402.63	531.19
402.854	545.19
403.078	561.19
403.302	553.19
403.526	573.19
403.75	572.19
403.974	559.19
404.198	555.19
404.422	555.19
404.645	553.19
404.869	535.19
405.093	559.19
405.317	572.19
405.541	556.19
405.765	543.19
405.988	587.19
406.212	585.19
406.436	567.19
406.66	584.19
406.883	590.19
407.107	580.19
407.331	589.19
407.555	631.19
407.778	609.19
408.002	603.19
408.226	615.19
408.449	636.19
408.673	599.19
408.896	582.19
409.12	581.19
409.344	581.19
409.567	580.19
409.791	572.19
410.014	599.19
410.238	591.19
410.461	578.19
410.685	579.19
410.908	555.19
411.132	552.19
411.355	577.19
411.578	562.19
411.802	565.19
412.025	564.19
412.249	555.19
412.472	545.19
412.695	554.19
412.919	544.19
413.142	552.19
413.365	553.19
413.589	560.19
413.812	540.19
414.035	548.19
414.258	539.19
414.482	544.19
414.705	558.19
414.928	569.19
415.151	546.19
415.374	535.19
415.597	530.19
415.821	520.19
416.044	532.19
416.267	550.19
416.49	543.19
416.713	512.19
416.936	524.19
417.159	520.19
417.382	506.19
417.605	515.19
417.828	530.19
418.051	510.19
418.274	538.19
418.497	518.19
418.72	521.19
418.943	513.19
419.166	533.19
419.389	578.19
419.611	560.19
419.834	553.19
420.057	538.19
420.28	529.19
420.503	518.19
420.726	521.19
420.948	501.19
421.171	508.19
421.394	524.19
421.617	540.19
421.839	511.19
422.062	514.19
422.285	516.19
422.507	488.19
422.73	516.19
422.953	530.19
423.175	507.19
423.398	534.19
423.621	529.19
423.843	523.19
424.066	515.19
424.288	490.19
424.511	504.19
424.733	503.19
424.956	494.19
425.178	497.19
425.401	497.19
425.623	484.19
425.846	516.19
426.068	509.19
426.291	531.19
426.513	488.19
426.735	528.19
426.958	496.19
427.18	520.19
427.402	505.19
427.625	512.19
427.847	535.19
428.069	477.19
428.292	474.19
428.514	480.19
428.736	475.19
428.958	478.19
429.181	477.19
429.403	494.19
429.625	471.19
429.847	484.19
430.069	488.19
430.292	489.19
430.514	490.19
430.736	491.19
430.958	486.19
431.18	479.19
431.402	487.19
431.624	508.19
431.846	491.19
432.068	490.19
432.29	491.19
432.512	484.19
432.734	490.19
432.956	483.19
433.178	477.19
433.4	513.19
433.622	506.19
433.844	504.19
434.066	477.19
434.287	481.19
434.509	500.19
434.731	519.19
434.953	497.19
435.175	495.19
435.397	507.19
435.618	495.19
435.84	518.19
436.062	505.19
436.284	492.19
436.505	471.19
436.727	489.19
436.949	486.19
437.17	486.19
437.392	479.19
437.614	473.19
437.835	478.19
438.057	483.19
438.278	464.19
438.5	484.19
438.721	452.19
438.943	503.19
439.165	482.19
439.386	480.19
439.608	472.19
439.829	498.19
440.05	486.19
440.272	467.19
440.493	484.19
440.715	484.19
440.936	474.19
441.158	487.19
441.379	512.19
441.6	520.19
441.822	528.19
442.043	494.19
442.264	499.19
442.486	519.19
442.707	507.19
442.928	492.19
443.149	506.19
443.371	488.19
443.592	493.19
443.813	507.19
444.034	516.19
444.255	504.19
444.476	521.19
444.698	528.19
444.919	521.19
445.14	618.19
445.361	552.19
445.582	512.19
445.803	504.19
446.024	487.19
446.245	491.19
446.466	490.19
446.687	489.19
446.908	499.19
447.129	452.19
447.35	470.19
447.571	468.19
447.792	467.19
448.013	476.19
448.234	463.19
448.455	460.19
448.675	446.19
448.896	462.19
449.117	462.19
449.338	447.19
449.559	470.19
449.779	459.19
450	429.19
450.221	442.19
450.442	435.19
450.662	437.19
450.883	457.19
451.104	468.19
451.324	448.19
451.545	446.19
451.766	439.19
451.986	447.19
452.207	411.19
452.428	431.19
452.648	455.19
452.869	463.19
453.089	420.19
453.31	438.19
453.53	440.19
453.751	442.19
453.971	428.19
454.192	427.19
454.412	422.19
454.633	430.19
454.853	451.19
455.073	436.19
455.294	427.19
455.514	447.19
455.734	432.19
455.955	431.19
456.175	428.19
456.395	425.19
456.616	438.19
456.836	433.19
457.056	423.19
457.276	421.19
457.497	449.19
457.717	444.19
457.937	436.19
458.157	434.19
458.377	445.19
458.598	456.19
458.818	459.19
459.038	465.19
459.258	487.19
459.478	481.19
459.698	467.19
459.918	503.19
460.138	500.19
460.358	504.19
460.578	525.19
460.798	529.19
461.018	500.19
461.238	538.19
461.458	514.19
461.678	527.19
461.898	526.19
462.118	544.19
462.338	550.19
462.558	556.19
462.777	568.19
462.997	579.19
463.217	590.19
463.437	608.19
463.657	563.19
463.876	582.19
464.096	593.19
464.316	571.19
464.536	549.19
464.755	554.19
464.975	565.19
465.195	536.19
465.414	510.19
465.634	490.19
465.854	505.19
466.073	495.19
466.293	474.19
466.512	492.19
466.732	465.19
466.951	492.19
467.171	483.19
467.391	488.19
467.61	465.19
467.829	462.19
468.049	452.19
468.268	464.19
468.488	464.19
468.707	465.19
468.927	486.19
469.146	453.19
469.365	460.19
469.585	468.19
469.804	469.19
470.023	468.19
470.243	488.19
470.462	458.19
470.681	500.19
470.901	496.19
471.12	468.19
471.339	480.19
471.558	491.19
471.777	476.19
471.997	478.19
472.216	478.19
472.435	477.19
472.654	474.19
472.873	463.19
473.092	492.19
473.311	471.19
473.53	468.19
473.749	478.19
473.968	475.19
474.187	475.19
474.406	470.19
474.625	474.19
474.844	498.19
475.063	491.19
475.282	491.19
475.501	467.19
475.72	475.19
475.939	481.19
476.158	489.19
476.377	507.19
476.596	510.19
476.814	504.19
477.033	511.19
477.252	519.19
477.471	498.19
477.69	540.19
477.908	544.19
478.127	520.19
478.346	538.19
478.564	538.19
478.783	538.19
479.002	553.19
479.22	547.19
479.439	554.19
479.658	568.19
479.876	560.19
480.095	582.19
480.313	572.19
480.532	576.19
480.751	578.19
480.969	552.19
481.188	574.19
481.406	571.19
481.624	573.19
481.843	572.19
482.061	553.19
482.28	571.19
482.498	582.19
482.717	551.19
482.935	570.19
483.153	573.19
483.372	551.19
483.59	554.19
483.808	592.19
484.027	595.19
484.245	594.19
484.463	593.19
484.681	601.19
484.9	570.19
485.118	588.19
485.336	572.19
485.554	577.19
485.772	599.19
485.99	579.19
486.209	609.19
486.427	565.19
486.645	587.19
486.863	580.19
487.081	591.19
487.299	612.19
487.517	601.19
487.735	594.19
487.953	601.19
488.171	606.19
488.389	583.19
488.607	584.19
488.825	580.19
489.043	604.19
489.261	590.19
489.479	590.19
489.696	588.19
489.914	594.19
490.132	596.19
490.35	585.19
490.568	589.19
490.786	574.19
491.003	589.19
491.221	600.19
491.439	585.19
491.657	588.19
491.874	591.19
492.092	593.19
492.31	580.19
492.527	609.19
492.745	600.19
492.963	586.19
493.18	579.19
493.398	609.19
493.615	596.19
493.833	600.19
494.05	617.19
494.268	599.19
494.485	605.19
494.703	622.19
494.92	635.19
495.138	638.19
495.355	617.19
495.573	610.19
495.79	634.19
496.008	648.19
496.225	631.19
496.442	629.19
496.66	626.19
496.877	655.19
497.094	659.19
497.312	668.19
497.529	647.19
497.746	693.19
497.963	689.19
498.181	718.19
498.398	722.19
498.615	763.19
498.832	758.19
499.049	810.19
499.267	849.19
499.484	871.19
499.701	864.19
499.918	928.19
500.135	974.19
500.352	1036.19
500.569	1056.19
500.786	1004.19
501.003	1017.19
501.22	975.19
501.437	924.19
501.654	849.19
501.871	841.19
