Data from Fe(NO3)3@0.0125M.TitratingCurve.Agarose3%dH2O.NegLispCup.LampEnergy10.LIBS07252019_HRD10591_17-01-35-337.txt Node
Date: Thu Jul 25 17:01:35 EDT 2019
User: cochatt
Spectrometer: HR+D1059
Trigger mode: 1
Integration Time (sec): 1.000000E-1
Scans to average: 1
Electric dark correction enabled: true
Nonlinearity correction enabled: false
Boxcar width: 0
XAxis mode: Wavelengths
Number of Pixels in Spectrum: 2048
>>>>>Begin Spectral Data<<<<<
223.165	-24.56
223.4	-24.56
223.635	-24.56
223.869	-31.56
224.104	-20.56
224.338	-6.56
224.573	-34.56
224.808	-18.56
225.042	-6.56
225.277	4.44
225.511	-12.56
225.746	3.44
225.98	14.44
226.215	15.44
226.449	28.44
226.683	24.44
226.918	40.44
227.152	24.44
227.387	40.44
227.621	51.44
227.856	44.44
228.09	50.44
228.324	54.44
228.559	64.44
228.793	70.44
229.027	86.44
229.262	77.44
229.496	84.44
229.73	99.44
229.964	88.44
230.199	99.44
230.433	88.44
230.667	86.44
230.901	94.44
231.136	102.44
231.37	90.44
231.604	96.44
231.838	113.44
232.072	107.44
232.306	106.44
232.541	103.44
232.775	112.44
233.009	106.44
233.243	110.44
233.477	113.44
233.711	94.44
233.945	107.44
234.179	96.44
234.413	109.44
234.647	102.44
234.881	103.44
235.115	113.44
235.349	102.44
235.583	98.44
235.817	97.44
236.051	101.44
236.285	118.44
236.519	97.44
236.753	116.44
236.987	93.44
237.221	116.44
237.455	108.44
237.689	108.44
237.922	101.44
238.156	112.44
238.39	99.44
238.624	102.44
238.858	108.44
239.091	113.44
239.325	117.44
239.559	118.44
239.793	127.44
240.027	109.44
240.26	112.44
240.494	116.44
240.728	108.44
240.961	126.44
241.195	117.44
241.429	117.44
241.662	113.44
241.896	118.44
242.13	121.44
242.363	116.44
242.597	122.44
242.83	130.44
243.064	123.44
243.298	118.44
243.531	112.44
243.765	120.44
243.998	134.44
244.232	124.44
244.465	136.44
244.699	128.44
244.932	126.44
245.166	124.44
245.399	118.44
245.633	129.44
245.866	119.44
246.099	132.44
246.333	120.44
246.566	120.44
246.8	144.44
247.033	128.44
247.266	150.44
247.5	134.44
247.733	138.44
247.966	145.44
248.2	127.44
248.433	139.44
248.666	120.44
248.899	137.44
249.133	140.44
249.366	143.44
249.599	150.44
249.832	161.44
250.066	144.44
250.299	141.44
250.532	137.44
250.765	136.44
250.998	140.44
251.231	160.44
251.465	141.44
251.698	154.44
251.931	159.44
252.164	118.44
252.397	140.44
252.63	146.44
252.863	142.44
253.096	157.44
253.329	158.44
253.562	149.44
253.795	153.44
254.028	160.44
254.261	138.44
254.494	153.44
254.727	153.44
254.96	146.44
255.193	150.44
255.426	161.44
255.659	154.44
255.892	163.44
256.124	151.44
256.357	153.44
256.59	153.44
256.823	153.44
257.056	151.44
257.289	167.44
257.521	161.44
257.754	169.44
257.987	149.44
258.22	169.44
258.452	164.44
258.685	176.44
258.918	168.44
259.151	171.44
259.383	172.44
259.616	174.44
259.849	165.44
260.081	166.44
260.314	179.44
260.547	184.44
260.779	177.44
261.012	174.44
261.244	160.44
261.477	178.44
261.71	190.44
261.942	171.44
262.175	172.44
262.407	173.44
262.64	181.44
262.872	178.44
263.105	172.44
263.337	170.44
263.57	173.44
263.802	187.44
264.035	177.44
264.267	170.44
264.499	164.44
264.732	170.44
264.964	170.44
265.197	184.44
265.429	187.44
265.661	190.44
265.894	193.44
266.126	188.44
266.358	176.44
266.591	166.44
266.823	178.44
267.055	188.44
267.287	188.44
267.52	187.44
267.752	174.44
267.984	196.44
268.216	188.44
268.448	179.44
268.681	187.44
268.913	199.44
269.145	204.44
269.377	196.44
269.609	214.44
269.841	195.44
270.073	193.44
270.306	189.44
270.538	201.44
270.77	200.44
271.002	205.44
271.234	193.44
271.466	214.44
271.698	226.44
271.93	198.44
272.162	200.44
272.394	202.44
272.626	206.44
272.858	203.44
273.09	212.44
273.322	211.44
273.553	203.44
273.785	208.44
274.017	216.44
274.249	207.44
274.481	219.44
274.713	208.44
274.945	221.44
275.176	224.44
275.408	224.44
275.64	224.44
275.872	218.44
276.104	210.44
276.335	219.44
276.567	208.44
276.799	222.44
277.031	222.44
277.262	206.44
277.494	224.44
277.726	205.44
277.957	232.44
278.189	202.44
278.421	222.44
278.652	206.44
278.884	226.44
279.115	225.44
279.347	238.44
279.579	234.44
279.81	222.44
280.042	218.44
280.273	217.44
280.505	243.44
280.736	246.44
280.968	234.44
281.199	234.44
281.431	222.44
281.662	228.44
281.894	230.44
282.125	240.44
282.356	233.44
282.588	233.44
282.819	235.44
283.051	234.44
283.282	241.44
283.513	234.44
283.745	242.44
283.976	232.44
284.207	235.44
284.439	244.44
284.67	233.44
284.901	229.44
285.132	238.44
285.364	256.44
285.595	266.44
285.826	238.44
286.057	256.44
286.288	266.44
286.52	237.44
286.751	243.44
286.982	260.44
287.213	240.44
287.444	245.44
287.675	243.44
287.906	254.44
288.138	249.44
288.369	241.44
288.6	252.44
288.831	253.44
289.062	262.44
289.293	264.44
289.524	262.44
289.755	250.44
289.986	256.44
290.217	264.44
290.448	281.44
290.679	272.44
290.91	250.44
291.141	264.44
291.371	263.44
291.602	269.44
291.833	246.44
292.064	252.44
292.295	247.44
292.526	259.44
292.757	260.44
292.987	257.44
293.218	267.44
293.449	269.44
293.68	258.44
293.91	265.44
294.141	271.44
294.372	268.44
294.603	274.44
294.833	259.44
295.064	258.44
295.295	260.44
295.525	282.44
295.756	262.44
295.987	280.44
296.217	281.44
296.448	270.44
296.679	273.44
296.909	264.44
297.14	269.44
297.37	287.44
297.601	270.44
297.831	270.44
298.062	267.44
298.292	281.44
298.523	276.44
298.753	299.44
298.984	277.44
299.214	286.44
299.445	275.44
299.675	286.44
299.905	256.44
300.136	297.44
300.366	281.44
300.597	296.44
300.827	289.44
301.057	285.44
301.288	295.44
301.518	302.44
301.748	284.44
301.979	294.44
302.209	302.44
302.439	288.44
302.669	276.44
302.9	294.44
303.13	297.44
303.36	312.44
303.59	291.44
303.82	294.44
304.051	300.44
304.281	296.44
304.511	294.44
304.741	300.44
304.971	288.44
305.201	310.44
305.431	305.44
305.661	298.44
305.891	295.44
306.121	311.44
306.352	311.44
306.582	328.44
306.812	305.44
307.042	310.44
307.272	298.44
307.502	292.44
307.731	313.44
307.961	304.44
308.191	295.44
308.421	286.44
308.651	307.44
308.881	317.44
309.111	300.44
309.341	282.44
309.571	308.44
309.8	332.44
310.03	332.44
310.26	325.44
310.49	316.44
310.72	321.44
310.949	331.44
311.179	319.44
311.409	316.44
311.639	306.44
311.868	303.44
312.098	328.44
312.328	319.44
312.557	323.44
312.787	330.44
313.017	306.44
313.246	309.44
313.476	342.44
313.706	341.44
313.935	324.44
314.165	326.44
314.394	332.44
314.624	326.44
314.853	311.44
315.083	331.44
315.312	325.44
315.542	336.44
315.771	338.44
316.001	330.44
316.23	338.44
316.46	331.44
316.689	338.44
316.919	333.44
317.148	324.44
317.377	328.44
317.607	341.44
317.836	333.44
318.065	324.44
318.295	326.44
318.524	324.44
318.753	317.44
318.983	334.44
319.212	334.44
319.441	326.44
319.67	327.44
319.9	337.44
320.129	327.44
320.358	343.44
320.587	345.44
320.816	358.44
321.046	346.44
321.275	351.44
321.504	340.44
321.733	322.44
321.962	334.44
322.191	329.44
322.42	356.44
322.649	342.44
322.878	327.44
323.108	341.44
323.337	349.44
323.566	335.44
323.795	338.44
324.024	334.44
324.253	352.44
324.482	349.44
324.71	354.44
324.939	357.44
325.168	367.44
325.397	345.44
325.626	372.44
325.855	372.44
326.084	362.44
326.313	376.44
326.542	335.44
326.77	346.44
326.999	377.44
327.228	344.44
327.457	361.44
327.686	350.44
327.914	352.44
328.143	371.44
328.372	372.44
328.6	373.44
328.829	346.44
329.058	376.44
329.287	353.44
329.515	362.44
329.744	373.44
329.972	371.44
330.201	382.44
330.43	373.44
330.658	376.44
330.887	381.44
331.115	384.44
331.344	372.44
331.572	402.44
331.801	371.44
332.03	377.44
332.258	398.44
332.486	398.44
332.715	408.44
332.943	418.44
333.172	409.44
333.4	398.44
333.629	407.44
333.857	405.44
334.085	416.44
334.314	440.44
334.542	435.44
334.771	419.44
334.999	427.44
335.227	433.44
335.455	418.44
335.684	430.44
335.912	425.44
336.14	411.44
336.369	416.44
336.597	436.44
336.825	395.44
337.053	429.44
337.281	421.44
337.51	410.44
337.738	404.44
337.966	405.44
338.194	411.44
338.422	411.44
338.65	397.44
338.878	393.44
339.106	403.44
339.334	408.44
339.562	384.44
339.79	402.44
340.018	408.44
340.246	381.44
340.474	394.44
340.702	390.44
340.93	378.44
341.158	385.44
341.386	387.44
341.614	376.44
341.842	374.44
342.07	392.44
342.298	395.44
342.526	390.44
342.754	390.44
342.981	403.44
343.209	420.44
343.437	430.44
343.665	412.44
343.893	425.44
344.12	438.44
344.348	427.44
344.576	410.44
344.804	416.44
345.031	411.44
345.259	399.44
345.487	364.44
345.714	388.44
345.942	388.44
346.17	380.44
346.397	372.44
346.625	388.44
346.853	382.44
347.08	401.44
347.308	392.44
347.535	372.44
347.763	370.44
347.99	393.44
348.218	386.44
348.445	384.44
348.673	376.44
348.9	384.44
349.128	397.44
349.355	388.44
349.583	372.44
349.81	375.44
350.037	371.44
350.265	384.44
350.492	373.44
350.72	379.44
350.947	381.44
351.174	375.44
351.402	400.44
351.629	355.44
351.856	380.44
352.083	376.44
352.311	365.44
352.538	367.44
352.765	378.44
352.992	380.44
353.22	369.44
353.447	374.44
353.674	369.44
353.901	355.44
354.128	366.44
354.355	371.44
354.583	379.44
354.81	368.44
355.037	379.44
355.264	357.44
355.491	372.44
355.718	378.44
355.945	361.44
356.172	368.44
356.399	396.44
356.626	380.44
356.853	389.44
357.08	414.44
357.307	374.44
357.534	374.44
357.761	386.44
357.988	388.44
358.215	380.44
358.441	373.44
358.668	386.44
358.895	389.44
359.122	382.44
359.349	379.44
359.576	389.44
359.802	394.44
360.029	388.44
360.256	398.44
360.483	392.44
360.709	379.44
360.936	372.44
361.163	378.44
361.39	370.44
361.616	376.44
361.843	380.44
362.07	397.44
362.296	386.44
362.523	365.44
362.749	380.44
362.976	386.44
363.203	395.44
363.429	390.44
363.656	376.44
363.882	376.44
364.109	370.44
364.335	376.44
364.562	372.44
364.788	380.44
365.015	388.44
365.241	394.44
365.468	386.44
365.694	391.44
365.92	386.44
366.147	389.44
366.373	391.44
366.599	380.44
366.826	397.44
367.052	383.44
367.278	378.44
367.505	411.44
367.731	376.44
367.957	380.44
368.184	392.44
368.41	407.44
368.636	392.44
368.862	394.44
369.089	394.44
369.315	381.44
369.541	388.44
369.767	383.44
369.993	414.44
370.219	408.44
370.445	395.44
370.672	414.44
370.898	426.44
371.124	406.44
371.35	412.44
371.576	421.44
371.802	411.44
372.028	417.44
372.254	434.44
372.48	418.44
372.706	424.44
372.932	427.44
373.158	440.44
373.384	414.44
373.61	444.44
373.835	412.44
374.061	441.44
374.287	447.44
374.513	420.44
374.739	431.44
374.965	460.44
375.191	450.44
375.416	420.44
375.642	434.44
375.868	458.44
376.094	415.44
376.319	436.44
376.545	418.44
376.771	404.44
376.997	407.44
377.222	402.44
377.448	397.44
377.674	420.44
377.899	420.44
378.125	431.44
378.35	396.44
378.576	421.44
378.802	425.44
379.027	404.44
379.253	408.44
379.478	423.44
379.704	418.44
379.929	438.44
380.155	408.44
380.38	419.44
380.606	408.44
380.831	444.44
381.057	429.44
381.282	416.44
381.507	416.44
381.733	427.44
381.958	425.44
382.184	428.44
382.409	445.44
382.634	429.44
382.86	428.44
383.085	414.44
383.31	443.44
383.535	446.44
383.761	454.44
383.986	430.44
384.211	437.44
384.436	458.44
384.662	443.44
384.887	454.44
385.112	468.44
385.337	464.44
385.562	475.44
385.787	455.44
386.013	480.44
386.238	478.44
386.463	476.44
386.688	479.44
386.913	475.44
387.138	475.44
387.363	475.44
387.588	486.44
387.813	477.44
388.038	461.44
388.263	486.44
388.488	475.44
388.713	471.44
388.938	479.44
389.163	472.44
389.387	474.44
389.612	458.44
389.837	501.44
390.062	505.44
390.287	476.44
390.512	468.44
390.736	452.44
390.961	483.44
391.186	484.44
391.411	499.44
391.636	496.44
391.86	501.44
392.085	496.44
392.31	506.44
392.534	498.44
392.759	508.44
392.984	484.44
393.208	485.44
393.433	502.44
393.658	485.44
393.882	484.44
394.107	500.44
394.331	507.44
394.556	492.44
394.78	506.44
395.005	498.44
395.229	506.44
395.454	523.44
395.678	518.44
395.903	508.44
396.127	532.44
396.352	533.44
396.576	504.44
396.801	532.44
397.025	502.44
397.249	545.44
397.474	536.44
397.698	521.44
397.922	538.44
398.147	527.44
398.371	548.44
398.595	540.44
398.82	547.44
399.044	573.44
399.268	582.44
399.492	631.44
399.717	650.44
399.941	668.44
400.165	641.44
400.389	635.44
400.613	580.44
400.837	564.44
401.062	579.44
401.286	583.44
401.51	601.44
401.734	547.44
401.958	557.44
402.182	572.44
402.406	567.44
402.63	588.44
402.854	564.44
403.078	573.44
403.302	572.44
403.526	591.44
403.75	579.44
403.974	567.44
404.198	562.44
404.422	585.44
404.645	586.44
404.869	587.44
405.093	570.44
405.317	567.44
405.541	587.44
405.765	586.44
405.988	597.44
406.212	578.44
406.436	604.44
406.66	601.44
406.883	632.44
407.107	640.44
407.331	641.44
407.555	631.44
407.778	639.44
408.002	620.44
408.226	658.44
408.449	648.44
408.673	609.44
408.896	618.44
409.12	628.44
409.344	635.44
409.567	605.44
409.791	606.44
410.014	606.44
410.238	608.44
410.461	590.44
410.685	611.44
410.908	590.44
411.132	597.44
411.355	574.44
411.578	578.44
411.802	594.44
412.025	590.44
412.249	602.44
412.472	575.44
412.695	563.44
412.919	568.44
413.142	552.44
413.365	567.44
413.589	573.44
413.812	578.44
414.035	547.44
414.258	560.44
414.482	568.44
414.705	585.44
414.928	574.44
415.151	573.44
415.374	548.44
415.597	540.44
415.821	550.44
416.044	548.44
416.267	533.44
416.49	562.44
416.713	562.44
416.936	550.44
417.159	552.44
417.382	531.44
417.605	545.44
417.828	533.44
418.051	550.44
418.274	549.44
418.497	550.44
418.72	553.44
418.943	554.44
419.166	568.44
419.389	599.44
419.611	592.44
419.834	576.44
420.057	584.44
420.28	561.44
420.503	536.44
420.726	529.44
420.948	521.44
421.171	545.44
421.394	539.44
421.617	530.44
421.839	528.44
422.062	531.44
422.285	552.44
422.507	541.44
422.73	521.44
422.953	564.44
423.175	530.44
423.398	546.44
423.621	530.44
423.843	547.44
424.066	549.44
424.288	535.44
424.511	546.44
424.733	545.44
424.956	538.44
425.178	536.44
425.401	549.44
425.623	531.44
425.846	537.44
426.068	522.44
426.291	523.44
426.513	513.44
426.735	540.44
426.958	528.44
427.18	505.44
427.402	498.44
427.625	524.44
427.847	510.44
428.069	510.44
428.292	490.44
428.514	508.44
428.736	514.44
428.958	520.44
429.181	515.44
429.403	514.44
429.625	516.44
429.847	512.44
430.069	503.44
430.292	512.44
430.514	517.44
430.736	507.44
430.958	514.44
431.18	503.44
431.402	509.44
431.624	505.44
431.846	496.44
432.068	515.44
432.29	494.44
432.512	497.44
432.734	531.44
432.956	498.44
433.178	518.44
433.4	510.44
433.622	499.44
433.844	541.44
434.066	528.44
434.287	510.44
434.509	524.44
434.731	536.44
434.953	552.44
435.175	517.44
435.397	527.44
435.618	534.44
435.84	522.44
436.062	513.44
436.284	516.44
436.505	508.44
436.727	522.44
436.949	514.44
437.17	511.44
437.392	507.44
437.614	527.44
437.835	489.44
438.057	487.44
438.278	514.44
438.5	484.44
438.721	512.44
438.943	514.44
439.165	489.44
439.386	498.44
439.608	514.44
439.829	501.44
440.05	484.44
440.272	513.44
440.493	493.44
440.715	517.44
440.936	518.44
441.158	516.44
441.379	520.44
441.6	530.44
441.822	493.44
442.043	516.44
442.264	549.44
442.486	548.44
442.707	528.44
442.928	518.44
443.149	542.44
443.371	536.44
443.592	533.44
443.813	533.44
444.034	546.44
444.255	536.44
444.476	549.44
444.698	569.44
444.919	567.44
445.14	640.44
445.361	582.44
445.582	522.44
445.803	516.44
446.024	526.44
446.245	512.44
446.466	521.44
446.687	514.44
446.908	517.44
447.129	480.44
447.35	488.44
447.571	463.44
447.792	487.44
448.013	476.44
448.234	468.44
448.455	469.44
448.675	472.44
448.896	483.44
449.117	480.44
449.338	452.44
449.559	478.44
449.779	468.44
450	453.44
450.221	461.44
450.442	474.44
450.662	464.44
450.883	468.44
451.104	478.44
451.324	484.44
451.545	444.44
451.766	452.44
451.986	462.44
452.207	466.44
452.428	452.44
452.648	457.44
452.869	458.44
453.089	448.44
453.31	476.44
453.53	446.44
453.751	470.44
453.971	445.44
454.192	464.44
454.412	470.44
454.633	445.44
454.853	460.44
455.073	449.44
455.294	466.44
455.514	444.44
455.734	464.44
455.955	460.44
456.175	438.44
456.395	432.44
456.616	457.44
456.836	446.44
457.056	460.44
457.276	429.44
457.497	461.44
457.717	449.44
457.937	443.44
458.157	463.44
458.377	453.44
458.598	488.44
458.818	482.44
459.038	484.44
459.258	480.44
459.478	468.44
459.698	491.44
459.918	505.44
460.138	502.44
460.358	510.44
460.578	525.44
460.798	538.44
461.018	537.44
461.238	544.44
461.458	548.44
461.678	572.44
461.898	556.44
462.118	568.44
462.338	566.44
462.558	587.44
462.777	599.44
462.997	607.44
463.217	629.44
463.437	610.44
463.657	636.44
463.876	589.44
464.096	613.44
464.316	598.44
464.536	584.44
464.755	602.44
464.975	581.44
465.195	542.44
465.414	532.44
465.634	538.44
465.854	519.44
466.073	523.44
466.293	505.44
466.512	533.44
466.732	494.44
466.951	510.44
467.171	498.44
467.391	506.44
467.61	515.44
467.829	501.44
468.049	498.44
468.268	492.44
468.488	490.44
468.707	492.44
468.927	482.44
469.146	478.44
469.365	480.44
469.585	476.44
469.804	499.44
470.023	506.44
470.243	508.44
470.462	496.44
470.681	514.44
470.901	501.44
471.12	496.44
471.339	469.44
471.558	479.44
471.777	498.44
471.997	505.44
472.216	493.44
472.435	487.44
472.654	504.44
472.873	493.44
473.092	472.44
473.311	503.44
473.53	480.44
473.749	478.44
473.968	494.44
474.187	517.44
474.406	506.44
474.625	496.44
474.844	508.44
475.063	514.44
475.282	489.44
475.501	476.44
475.72	505.44
475.939	488.44
476.158	513.44
476.377	524.44
476.596	526.44
476.814	500.44
477.033	536.44
477.252	535.44
477.471	536.44
477.69	539.44
477.908	587.44
478.127	579.44
478.346	552.44
478.564	547.44
478.783	564.44
479.002	580.44
479.22	567.44
479.439	589.44
479.658	587.44
479.876	585.44
480.095	578.44
480.313	589.44
480.532	587.44
480.751	590.44
480.969	599.44
481.188	591.44
481.406	594.44
481.624	580.44
481.843	568.44
482.061	576.44
482.28	572.44
482.498	568.44
482.717	548.44
482.935	569.44
483.153	595.44
483.372	576.44
483.59	584.44
483.808	578.44
484.027	594.44
484.245	587.44
484.463	579.44
484.681	589.44
484.9	590.44
485.118	572.44
485.336	579.44
485.554	626.44
485.772	602.44
485.99	596.44
486.209	593.44
486.427	565.44
486.645	582.44
486.863	592.44
487.081	587.44
487.299	598.44
487.517	597.44
487.735	603.44
487.953	589.44
488.171	570.44
488.389	613.44
488.607	585.44
488.825	611.44
489.043	593.44
489.261	589.44
489.479	615.44
489.696	581.44
489.914	586.44
490.132	594.44
490.35	595.44
490.568	590.44
490.786	610.44
491.003	608.44
491.221	596.44
491.439	594.44
491.657	612.44
491.874	592.44
492.092	603.44
492.31	607.44
492.527	596.44
492.745	602.44
492.963	613.44
493.18	624.44
493.398	612.44
493.615	610.44
493.833	606.44
494.05	614.44
494.268	614.44
494.485	595.44
494.703	613.44
494.92	631.44
495.138	640.44
495.355	627.44
495.573	646.44
495.79	646.44
496.008	638.44
496.225	643.44
496.442	658.44
496.66	676.44
496.877	680.44
497.094	676.44
497.312	677.44
497.529	718.44
497.746	701.44
497.963	715.44
498.181	761.44
498.398	739.44
498.615	762.44
498.832	824.44
499.049	854.44
499.267	853.44
499.484	878.44
499.701	941.44
499.918	982.44
500.135	1033.44
500.352	1078.44
500.569	1104.44
500.786	1106.44
501.003	1058.44
501.22	1000.44
501.437	988.44
501.654	927.44
