Data from Fe(NO3)3@0.0125M.TitratingCurve.Agarose3%dH2O.NegLispCup.LampEnergy10.LIBS07252019_HRD10591_17-00-23-337.txt Node
Date: Thu Jul 25 17:00:23 EDT 2019
User: cochatt
Spectrometer: HR+D1059
Trigger mode: 1
Integration Time (sec): 1.000000E-1
Scans to average: 1
Electric dark correction enabled: true
Nonlinearity correction enabled: false
Boxcar width: 0
XAxis mode: Wavelengths
Number of Pixels in Spectrum: 2048
>>>>>Begin Spectral Data<<<<<
223.165	-23.81
223.4	-23.81
223.635	-23.81
223.869	-19.81
224.104	-21.81
224.338	-17.81
224.573	-15.81
224.808	-10.81
225.042	-13.81
225.277	5.19
225.511	-1.81
225.746	2.19
225.98	5.19
226.215	18.19
226.449	13.19
226.683	23.19
226.918	33.19
227.152	25.19
227.387	33.19
227.621	34.19
227.856	64.19
228.09	66.19
228.324	42.19
228.559	60.19
228.793	61.19
229.027	76.19
229.262	78.19
229.496	95.19
229.73	98.19
229.964	97.19
230.199	91.19
230.433	85.19
230.667	103.19
230.901	101.19
231.136	92.19
231.37	103.19
231.604	109.19
231.838	116.19
232.072	104.19
232.306	91.19
232.541	87.19
232.775	102.19
233.009	114.19
233.243	118.19
233.477	102.19
233.711	108.19
233.945	102.19
234.179	106.19
234.413	110.19
234.647	122.19
234.881	106.19
235.115	113.19
235.349	105.19
235.583	102.19
235.817	110.19
236.051	119.19
236.285	115.19
236.519	107.19
236.753	110.19
236.987	111.19
237.221	110.19
237.455	106.19
237.689	113.19
237.922	107.19
238.156	119.19
238.39	124.19
238.624	101.19
238.858	118.19
239.091	125.19
239.325	131.19
239.559	118.19
239.793	111.19
240.027	131.19
240.26	110.19
240.494	117.19
240.728	122.19
240.961	106.19
241.195	129.19
241.429	108.19
241.662	127.19
241.896	123.19
242.13	122.19
242.363	126.19
242.597	137.19
242.83	128.19
243.064	111.19
243.298	110.19
243.531	130.19
243.765	129.19
243.998	117.19
244.232	114.19
244.465	116.19
244.699	127.19
244.932	123.19
245.166	133.19
245.399	126.19
245.633	141.19
245.866	124.19
246.099	136.19
246.333	129.19
246.566	135.19
246.8	129.19
247.033	145.19
247.266	125.19
247.5	129.19
247.733	127.19
247.966	127.19
248.2	126.19
248.433	129.19
248.666	133.19
248.899	130.19
249.133	139.19
249.366	142.19
249.599	141.19
249.832	150.19
250.066	142.19
250.299	129.19
250.532	146.19
250.765	147.19
250.998	150.19
251.231	135.19
251.465	153.19
251.698	153.19
251.931	147.19
252.164	135.19
252.397	150.19
252.63	157.19
252.863	153.19
253.096	142.19
253.329	143.19
253.562	157.19
253.795	141.19
254.028	155.19
254.261	148.19
254.494	156.19
254.727	147.19
254.96	163.19
255.193	154.19
255.426	165.19
255.659	158.19
255.892	159.19
256.124	140.19
256.357	168.19
256.59	165.19
256.823	147.19
257.056	157.19
257.289	156.19
257.521	158.19
257.754	141.19
257.987	172.19
258.22	163.19
258.452	174.19
258.685	170.19
258.918	172.19
259.151	171.19
259.383	165.19
259.616	157.19
259.849	170.19
260.081	173.19
260.314	189.19
260.547	181.19
260.779	174.19
261.012	179.19
261.244	187.19
261.477	193.19
261.71	182.19
261.942	164.19
262.175	163.19
262.407	184.19
262.64	164.19
262.872	171.19
263.105	186.19
263.337	186.19
263.57	210.19
263.802	168.19
264.035	174.19
264.267	174.19
264.499	164.19
264.732	170.19
264.964	177.19
265.197	175.19
265.429	194.19
265.661	185.19
265.894	193.19
266.126	181.19
266.358	180.19
266.591	187.19
266.823	181.19
267.055	171.19
267.287	177.19
267.52	187.19
267.752	186.19
267.984	174.19
268.216	170.19
268.448	190.19
268.681	190.19
268.913	188.19
269.145	191.19
269.377	181.19
269.609	202.19
269.841	207.19
270.073	187.19
270.306	205.19
270.538	183.19
270.77	186.19
271.002	196.19
271.234	188.19
271.466	205.19
271.698	195.19
271.93	218.19
272.162	198.19
272.394	214.19
272.626	205.19
272.858	209.19
273.09	216.19
273.322	212.19
273.553	194.19
273.785	214.19
274.017	205.19
274.249	222.19
274.481	215.19
274.713	216.19
274.945	226.19
275.176	241.19
275.408	212.19
275.64	246.19
275.872	221.19
276.104	237.19
276.335	207.19
276.567	216.19
276.799	212.19
277.031	213.19
277.262	213.19
277.494	202.19
277.726	205.19
277.957	200.19
278.189	220.19
278.421	216.19
278.652	237.19
278.884	204.19
279.115	227.19
279.347	234.19
279.579	225.19
279.81	226.19
280.042	221.19
280.273	228.19
280.505	235.19
280.736	221.19
280.968	229.19
281.199	229.19
281.431	219.19
281.662	237.19
281.894	232.19
282.125	224.19
282.356	246.19
282.588	246.19
282.819	245.19
283.051	233.19
283.282	232.19
283.513	234.19
283.745	252.19
283.976	241.19
284.207	235.19
284.439	234.19
284.67	220.19
284.901	245.19
285.132	261.19
285.364	237.19
285.595	255.19
285.826	247.19
286.057	265.19
286.288	242.19
286.52	255.19
286.751	229.19
286.982	254.19
287.213	259.19
287.444	237.19
287.675	234.19
287.906	239.19
288.138	237.19
288.369	283.19
288.6	260.19
288.831	254.19
289.062	273.19
289.293	259.19
289.524	260.19
289.755	261.19
289.986	262.19
290.217	249.19
290.448	235.19
290.679	257.19
290.91	236.19
291.141	263.19
291.371	275.19
291.602	271.19
291.833	271.19
292.064	263.19
292.295	258.19
292.526	263.19
292.757	243.19
292.987	260.19
293.218	261.19
293.449	267.19
293.68	285.19
293.91	272.19
294.141	277.19
294.372	261.19
294.603	273.19
294.833	257.19
295.064	275.19
295.295	267.19
295.525	278.19
295.756	277.19
295.987	271.19
296.217	273.19
296.448	280.19
296.679	282.19
296.909	287.19
297.14	281.19
297.37	260.19
297.601	289.19
297.831	290.19
298.062	288.19
298.292	290.19
298.523	290.19
298.753	290.19
298.984	291.19
299.214	289.19
299.445	278.19
299.675	281.19
299.905	293.19
300.136	289.19
300.366	285.19
300.597	301.19
300.827	302.19
301.057	289.19
301.288	292.19
301.518	271.19
301.748	300.19
301.979	315.19
302.209	309.19
302.439	305.19
302.669	295.19
302.9	289.19
303.13	303.19
303.36	305.19
303.59	308.19
303.82	308.19
304.051	315.19
304.281	311.19
304.511	319.19
304.741	297.19
304.971	301.19
305.201	303.19
305.431	317.19
305.661	305.19
305.891	310.19
306.121	302.19
306.352	299.19
306.582	303.19
306.812	286.19
307.042	305.19
307.272	311.19
307.502	310.19
307.731	309.19
307.961	314.19
308.191	303.19
308.421	302.19
308.651	305.19
308.881	309.19
309.111	318.19
309.341	319.19
309.571	319.19
309.8	321.19
310.03	302.19
310.26	316.19
310.49	311.19
310.72	297.19
310.949	290.19
311.179	322.19
311.409	310.19
311.639	337.19
311.868	326.19
312.098	322.19
312.328	319.19
312.557	321.19
312.787	324.19
313.017	333.19
313.246	324.19
313.476	335.19
313.706	329.19
313.935	321.19
314.165	331.19
314.394	339.19
314.624	319.19
314.853	338.19
315.083	335.19
315.312	328.19
315.542	321.19
315.771	335.19
316.001	336.19
316.23	337.19
316.46	348.19
316.689	326.19
316.919	323.19
317.148	344.19
317.377	324.19
317.607	330.19
317.836	364.19
318.065	347.19
318.295	325.19
318.524	333.19
318.753	326.19
318.983	349.19
319.212	351.19
319.441	369.19
319.67	353.19
319.9	339.19
320.129	334.19
320.358	350.19
320.587	348.19
320.816	338.19
321.046	336.19
321.275	339.19
321.504	334.19
321.733	334.19
321.962	341.19
322.191	349.19
322.42	347.19
322.649	359.19
322.878	350.19
323.108	340.19
323.337	341.19
323.566	361.19
323.795	363.19
324.024	341.19
324.253	357.19
324.482	358.19
324.71	354.19
324.939	373.19
325.168	359.19
325.397	352.19
325.626	355.19
325.855	364.19
326.084	364.19
326.313	378.19
326.542	366.19
326.77	383.19
326.999	372.19
327.228	371.19
327.457	374.19
327.686	380.19
327.914	360.19
328.143	379.19
328.372	383.19
328.6	390.19
328.829	382.19
329.058	375.19
329.287	387.19
329.515	378.19
329.744	389.19
329.972	389.19
330.201	387.19
330.43	378.19
330.658	384.19
330.887	379.19
331.115	383.19
331.344	396.19
331.572	385.19
331.801	385.19
332.03	386.19
332.258	390.19
332.486	406.19
332.715	387.19
332.943	401.19
333.172	401.19
333.4	396.19
333.629	407.19
333.857	428.19
334.085	396.19
334.314	418.19
334.542	408.19
334.771	418.19
334.999	415.19
335.227	438.19
335.455	399.19
335.684	416.19
335.912	431.19
336.14	429.19
336.369	399.19
336.597	420.19
336.825	417.19
337.053	422.19
337.281	425.19
337.51	425.19
337.738	410.19
337.966	414.19
338.194	411.19
338.422	426.19
338.65	410.19
338.878	415.19
339.106	398.19
339.334	411.19
339.562	413.19
339.79	414.19
340.018	415.19
340.246	401.19
340.474	411.19
340.702	408.19
340.93	401.19
341.158	400.19
341.386	404.19
341.614	399.19
341.842	408.19
342.07	402.19
342.298	396.19
342.526	407.19
342.754	398.19
342.981	385.19
343.209	414.19
343.437	408.19
343.665	413.19
343.893	436.19
344.12	439.19
344.348	425.19
344.576	438.19
344.804	401.19
345.031	412.19
345.259	400.19
345.487	429.19
345.714	407.19
345.942	410.19
346.17	403.19
346.397	409.19
346.625	401.19
346.853	405.19
347.08	404.19
347.308	403.19
347.535	370.19
347.763	390.19
347.99	399.19
348.218	384.19
348.445	387.19
348.673	395.19
348.9	383.19
349.128	420.19
349.355	385.19
349.583	401.19
349.81	381.19
350.037	389.19
350.265	386.19
350.492	384.19
350.72	395.19
350.947	389.19
351.174	378.19
351.402	387.19
351.629	383.19
351.856	402.19
352.083	403.19
352.311	395.19
352.538	393.19
352.765	392.19
352.992	381.19
353.22	387.19
353.447	377.19
353.674	382.19
353.901	381.19
354.128	403.19
354.355	411.19
354.583	358.19
354.81	381.19
355.037	391.19
355.264	409.19
355.491	392.19
355.718	403.19
355.945	397.19
356.172	393.19
356.399	397.19
356.626	415.19
356.853	411.19
357.08	383.19
357.307	388.19
357.534	380.19
357.761	407.19
357.988	413.19
358.215	395.19
358.441	410.19
358.668	414.19
358.895	403.19
359.122	401.19
359.349	398.19
359.576	381.19
359.802	398.19
360.029	408.19
360.256	400.19
360.483	396.19
360.709	409.19
360.936	403.19
361.163	402.19
361.39	400.19
361.616	395.19
361.843	409.19
362.07	407.19
362.296	427.19
362.523	405.19
362.749	416.19
362.976	405.19
363.203	413.19
363.429	408.19
363.656	388.19
363.882	413.19
364.109	407.19
364.335	418.19
364.562	427.19
364.788	390.19
365.015	417.19
365.241	414.19
365.468	383.19
365.694	395.19
365.92	410.19
366.147	409.19
366.373	394.19
366.599	421.19
366.826	400.19
367.052	405.19
367.278	412.19
367.505	421.19
367.731	398.19
367.957	422.19
368.184	402.19
368.41	415.19
368.636	423.19
368.862	422.19
369.089	418.19
369.315	398.19
369.541	418.19
369.767	439.19
369.993	421.19
370.219	418.19
370.445	435.19
370.672	445.19
370.898	439.19
371.124	433.19
371.35	435.19
371.576	428.19
371.802	427.19
372.028	440.19
372.254	437.19
372.48	451.19
372.706	437.19
372.932	441.19
373.158	450.19
373.384	457.19
373.61	444.19
373.835	471.19
374.061	447.19
374.287	441.19
374.513	448.19
374.739	469.19
374.965	461.19
375.191	475.19
375.416	463.19
375.642	450.19
375.868	468.19
376.094	471.19
376.319	446.19
376.545	440.19
376.771	437.19
376.997	435.19
377.222	442.19
377.448	427.19
377.674	453.19
377.899	416.19
378.125	438.19
378.35	428.19
378.576	422.19
378.802	437.19
379.027	440.19
379.253	419.19
379.478	438.19
379.704	444.19
379.929	434.19
380.155	434.19
380.38	442.19
380.606	455.19
380.831	452.19
381.057	439.19
381.282	446.19
381.507	442.19
381.733	446.19
381.958	446.19
382.184	457.19
382.409	463.19
382.634	457.19
382.86	473.19
383.085	462.19
383.31	465.19
383.535	477.19
383.761	441.19
383.986	459.19
384.211	464.19
384.436	455.19
384.662	450.19
384.887	491.19
385.112	489.19
385.337	477.19
385.562	453.19
385.787	489.19
386.013	491.19
386.238	513.19
386.463	497.19
386.688	470.19
386.913	507.19
387.138	490.19
387.363	516.19
387.588	500.19
387.813	487.19
388.038	492.19
388.263	490.19
388.488	480.19
388.713	490.19
388.938	491.19
389.163	476.19
389.387	476.19
389.612	523.19
389.837	511.19
390.062	508.19
390.287	507.19
390.512	509.19
390.736	493.19
390.961	522.19
391.186	495.19
391.411	507.19
391.636	523.19
391.86	523.19
392.085	532.19
392.31	519.19
392.534	513.19
392.759	525.19
392.984	519.19
393.208	542.19
393.433	580.19
393.658	547.19
393.882	527.19
394.107	539.19
394.331	497.19
394.556	531.19
394.78	507.19
395.005	517.19
395.229	524.19
395.454	526.19
395.678	533.19
395.903	521.19
396.127	521.19
396.352	541.19
396.576	516.19
396.801	549.19
397.025	572.19
397.249	573.19
397.474	557.19
397.698	545.19
397.922	562.19
398.147	544.19
398.371	562.19
398.595	577.19
398.82	591.19
399.044	611.19
399.268	613.19
399.492	618.19
399.717	636.19
399.941	621.19
400.165	626.19
400.389	644.19
400.613	620.19
400.837	597.19
401.062	594.19
401.286	579.19
401.51	594.19
401.734	588.19
401.958	571.19
402.182	585.19
402.406	582.19
402.63	579.19
402.854	558.19
403.078	587.19
403.302	591.19
403.526	585.19
403.75	558.19
403.974	584.19
404.198	590.19
404.422	586.19
404.645	610.19
404.869	605.19
405.093	600.19
405.317	591.19
405.541	621.19
405.765	606.19
405.988	617.19
406.212	598.19
406.436	625.19
406.66	640.19
406.883	617.19
407.107	657.19
407.331	639.19
407.555	655.19
407.778	661.19
408.002	661.19
408.226	647.19
408.449	638.19
408.673	636.19
408.896	626.19
409.12	643.19
409.344	633.19
409.567	611.19
409.791	634.19
410.014	633.19
410.238	603.19
410.461	598.19
410.685	588.19
410.908	609.19
411.132	630.19
411.355	605.19
411.578	630.19
411.802	593.19
412.025	608.19
412.249	613.19
412.472	591.19
412.695	612.19
412.919	611.19
413.142	594.19
413.365	603.19
413.589	603.19
413.812	618.19
414.035	593.19
414.258	582.19
414.482	579.19
414.705	585.19
414.928	580.19
415.151	593.19
415.374	589.19
415.597	584.19
415.821	585.19
416.044	573.19
416.267	570.19
416.49	586.19
416.713	580.19
416.936	563.19
417.159	563.19
417.382	578.19
417.605	554.19
417.828	564.19
418.051	577.19
418.274	569.19
418.497	570.19
418.72	564.19
418.943	555.19
419.166	601.19
419.389	626.19
419.611	614.19
419.834	605.19
420.057	594.19
420.28	578.19
420.503	533.19
420.726	577.19
420.948	574.19
421.171	546.19
421.394	573.19
421.617	580.19
421.839	566.19
422.062	561.19
422.285	561.19
422.507	577.19
422.73	561.19
422.953	569.19
423.175	576.19
423.398	552.19
423.621	556.19
423.843	563.19
424.066	567.19
424.288	541.19
424.511	551.19
424.733	570.19
424.956	563.19
425.178	546.19
425.401	538.19
425.623	562.19
425.846	547.19
426.068	559.19
426.291	562.19
426.513	554.19
426.735	553.19
426.958	547.19
427.18	525.19
427.402	557.19
427.625	563.19
427.847	563.19
428.069	544.19
428.292	527.19
428.514	546.19
428.736	537.19
428.958	561.19
429.181	544.19
429.403	544.19
429.625	536.19
429.847	523.19
430.069	569.19
430.292	544.19
430.514	550.19
430.736	546.19
430.958	533.19
431.18	547.19
431.402	544.19
431.624	548.19
431.846	541.19
432.068	543.19
432.29	550.19
432.512	568.19
432.734	564.19
432.956	565.19
433.178	563.19
433.4	546.19
433.622	562.19
433.844	575.19
434.066	548.19
434.287	584.19
434.509	567.19
434.731	545.19
434.953	574.19
435.175	594.19
435.397	564.19
435.618	547.19
435.84	550.19
436.062	543.19
436.284	540.19
436.505	569.19
436.727	531.19
436.949	530.19
437.17	548.19
437.392	529.19
437.614	548.19
437.835	521.19
438.057	526.19
438.278	512.19
438.5	555.19
438.721	554.19
438.943	535.19
439.165	524.19
439.386	535.19
439.608	527.19
439.829	525.19
440.05	527.19
440.272	555.19
440.493	536.19
440.715	562.19
440.936	539.19
441.158	544.19
441.379	543.19
441.6	571.19
441.822	573.19
442.043	576.19
442.264	571.19
442.486	564.19
442.707	570.19
442.928	573.19
443.149	552.19
443.371	547.19
443.592	545.19
443.813	554.19
444.034	544.19
444.255	551.19
444.476	572.19
444.698	587.19
444.919	563.19
445.14	656.19
445.361	620.19
445.582	552.19
445.803	555.19
446.024	555.19
446.245	585.19
446.466	581.19
446.687	540.19
446.908	535.19
447.129	533.19
447.35	538.19
447.571	551.19
447.792	518.19
448.013	527.19
448.234	500.19
448.455	521.19
448.675	531.19
448.896	533.19
449.117	515.19
449.338	504.19
449.559	525.19
449.779	511.19
450	524.19
450.221	508.19
450.442	527.19
450.662	516.19
450.883	511.19
451.104	515.19
451.324	513.19
451.545	500.19
451.766	520.19
451.986	498.19
452.207	491.19
452.428	509.19
452.648	529.19
452.869	506.19
453.089	498.19
453.31	490.19
453.53	493.19
453.751	509.19
453.971	487.19
454.192	498.19
454.412	517.19
454.633	498.19
454.853	490.19
455.073	502.19
455.294	477.19
455.514	507.19
455.734	476.19
455.955	476.19
456.175	495.19
456.395	506.19
456.616	507.19
456.836	476.19
457.056	506.19
457.276	492.19
457.497	503.19
457.717	529.19
457.937	513.19
458.157	520.19
458.377	511.19
458.598	509.19
458.818	514.19
459.038	542.19
459.258	515.19
459.478	545.19
459.698	552.19
459.918	548.19
460.138	553.19
460.358	570.19
460.578	570.19
460.798	571.19
461.018	579.19
461.238	589.19
461.458	586.19
461.678	588.19
461.898	586.19
462.118	579.19
462.338	620.19
462.558	611.19
462.777	606.19
462.997	613.19
463.217	638.19
463.437	659.19
463.657	627.19
463.876	622.19
464.096	632.19
464.316	607.19
464.536	606.19
464.755	616.19
464.975	612.19
465.195	594.19
465.414	601.19
465.634	574.19
465.854	573.19
466.073	563.19
466.293	544.19
466.512	551.19
466.732	551.19
466.951	569.19
467.171	569.19
467.391	532.19
467.61	535.19
467.829	547.19
468.049	532.19
468.268	567.19
468.488	561.19
468.707	544.19
468.927	546.19
469.146	531.19
469.365	533.19
469.585	538.19
469.804	547.19
470.023	557.19
470.243	537.19
470.462	548.19
470.681	540.19
470.901	525.19
471.12	549.19
471.339	550.19
471.558	558.19
471.777	546.19
471.997	527.19
472.216	567.19
472.435	558.19
472.654	544.19
472.873	550.19
473.092	560.19
473.311	553.19
473.53	553.19
473.749	595.19
473.968	570.19
474.187	558.19
474.406	542.19
474.625	547.19
474.844	532.19
475.063	557.19
475.282	539.19
475.501	548.19
475.72	585.19
475.939	558.19
476.158	578.19
476.377	556.19
476.596	602.19
476.814	591.19
477.033	599.19
477.252	568.19
477.471	588.19
477.69	604.19
477.908	613.19
478.127	625.19
478.346	605.19
478.564	634.19
478.783	635.19
479.002	626.19
479.22	647.19
479.439	661.19
479.658	651.19
479.876	655.19
480.095	657.19
480.313	635.19
480.532	641.19
480.751	639.19
480.969	641.19
481.188	652.19
481.406	659.19
481.624	662.19
481.843	648.19
482.061	628.19
482.28	663.19
482.498	647.19
482.717	653.19
482.935	661.19
483.153	644.19
483.372	622.19
483.59	673.19
483.808	665.19
484.027	671.19
484.245	644.19
484.463	665.19
484.681	659.19
484.9	642.19
485.118	671.19
485.336	659.19
485.554	665.19
485.772	670.19
485.99	649.19
486.209	673.19
486.427	669.19
486.645	644.19
486.863	663.19
487.081	678.19
487.299	687.19
487.517	661.19
487.735	665.19
487.953	677.19
488.171	704.19
488.389	671.19
488.607	673.19
488.825	662.19
489.043	670.19
489.261	682.19
489.479	671.19
489.696	672.19
489.914	686.19
490.132	675.19
490.35	684.19
490.568	682.19
490.786	680.19
491.003	676.19
491.221	681.19
491.439	689.19
491.657	693.19
491.874	687.19
492.092	693.19
492.31	708.19
492.527	689.19
492.745	719.19
492.963	705.19
493.18	693.19
493.398	686.19
493.615	680.19
493.833	702.19
494.05	698.19
494.268	703.19
494.485	694.19
494.703	707.19
494.92	719.19
495.138	699.19
495.355	704.19
495.573	707.19
495.79	738.19
496.008	745.19
496.225	712.19
496.442	727.19
496.66	753.19
496.877	751.19
497.094	778.19
497.312	769.19
497.529	803.19
497.746	785.19
497.963	764.19
498.181	813.19
498.398	825.19
498.615	854.19
498.832	861.19
499.049	863.19
499.267	901.19
499.484	930.19
499.701	969.19
499.918	1013.19
500.135	1019.19
500.352	1089.19
500.569	1063.19
500.786	1072.19
501.003	1066.19
501.22	1037.19
501.437	973.19
501.654	973.19
