Data from Fe(NO3)3@0.1M.TitratingCurve.Agarose3%dH2O.NegLispCup.LampEnergy10.LIBS07252019_HRD10591_16-37-43-332.txt Node
Date: Thu Jul 25 16:37:43 EDT 2019
User: cochatt
Spectrometer: HR+D1059
Trigger mode: 1
Integration Time (sec): 1.000000E-1
Scans to average: 1
Electric dark correction enabled: true
Nonlinearity correction enabled: false
Boxcar width: 0
XAxis mode: Wavelengths
Number of Pixels in Spectrum: 2048
>>>>>Begin Spectral Data<<<<<
223.165	-9.12
223.4	-9.12
223.635	-9.12
223.869	-23.12
224.104	-12.12
224.338	-20.12
224.573	-20.12
224.808	-9.12
225.042	-10.12
225.277	-9.12
225.511	4.88
225.746	7.88
225.98	3.88
226.215	1.88
226.449	17.88
226.683	13.88
226.918	36.88
227.152	25.88
227.387	21.88
227.621	36.88
227.856	37.88
228.09	34.88
228.324	56.88
228.559	46.88
228.793	54.88
229.027	62.88
229.262	82.88
229.496	76.88
229.73	80.88
229.964	80.88
230.199	85.88
230.433	88.88
230.667	77.88
230.901	83.88
231.136	88.88
231.37	90.88
231.604	93.88
231.838	83.88
232.072	101.88
232.306	84.88
232.541	103.88
232.775	94.88
233.009	103.88
233.243	96.88
233.477	109.88
233.711	90.88
233.945	97.88
234.179	109.88
234.413	78.88
234.647	100.88
234.881	103.88
235.115	87.88
235.349	94.88
235.583	94.88
235.817	90.88
236.051	99.88
236.285	94.88
236.519	84.88
236.753	92.88
236.987	90.88
237.221	82.88
237.455	107.88
237.689	102.88
237.922	84.88
238.156	78.88
238.39	110.88
238.624	96.88
238.858	100.88
239.091	96.88
239.325	76.88
239.559	103.88
239.793	110.88
240.027	97.88
240.26	109.88
240.494	102.88
240.728	104.88
240.961	101.88
241.195	102.88
241.429	99.88
241.662	109.88
241.896	103.88
242.13	118.88
242.363	88.88
242.597	94.88
242.83	102.88
243.064	105.88
243.298	103.88
243.531	97.88
243.765	110.88
243.998	116.88
244.232	108.88
244.465	111.88
244.699	108.88
244.932	89.88
245.166	98.88
245.399	109.88
245.633	117.88
245.866	124.88
246.099	123.88
246.333	116.88
246.566	98.88
246.8	94.88
247.033	114.88
247.266	115.88
247.5	110.88
247.733	102.88
247.966	111.88
248.2	114.88
248.433	114.88
248.666	109.88
248.899	110.88
249.133	104.88
249.366	126.88
249.599	114.88
249.832	131.88
250.066	116.88
250.299	102.88
250.532	113.88
250.765	118.88
250.998	125.88
251.231	110.88
251.465	122.88
251.698	122.88
251.931	100.88
252.164	100.88
252.397	118.88
252.63	118.88
252.863	131.88
253.096	127.88
253.329	126.88
253.562	121.88
253.795	111.88
254.028	121.88
254.261	109.88
254.494	114.88
254.727	125.88
254.96	119.88
255.193	127.88
255.426	139.88
255.659	120.88
255.892	126.88
256.124	119.88
256.357	119.88
256.59	113.88
256.823	130.88
257.056	126.88
257.289	133.88
257.521	137.88
257.754	118.88
257.987	119.88
258.22	109.88
258.452	132.88
258.685	121.88
258.918	124.88
259.151	127.88
259.383	140.88
259.616	129.88
259.849	137.88
260.081	131.88
260.314	135.88
260.547	123.88
260.779	124.88
261.012	141.88
261.244	123.88
261.477	134.88
261.71	147.88
261.942	138.88
262.175	107.88
262.407	133.88
262.64	127.88
262.872	136.88
263.105	129.88
263.337	157.88
263.57	138.88
263.802	135.88
264.035	143.88
264.267	134.88
264.499	129.88
264.732	129.88
264.964	122.88
265.197	127.88
265.429	136.88
265.661	145.88
265.894	142.88
266.126	142.88
266.358	132.88
266.591	133.88
266.823	125.88
267.055	142.88
267.287	146.88
267.52	135.88
267.752	133.88
267.984	132.88
268.216	127.88
268.448	129.88
268.681	135.88
268.913	151.88
269.145	138.88
269.377	132.88
269.609	148.88
269.841	144.88
270.073	153.88
270.306	149.88
270.538	141.88
270.77	140.88
271.002	149.88
271.234	146.88
271.466	143.88
271.698	143.88
271.93	145.88
272.162	150.88
272.394	155.88
272.626	148.88
272.858	149.88
273.09	147.88
273.322	144.88
273.553	165.88
273.785	154.88
274.017	161.88
274.249	158.88
274.481	140.88
274.713	146.88
274.945	149.88
275.176	156.88
275.408	158.88
275.64	157.88
275.872	153.88
276.104	162.88
276.335	162.88
276.567	153.88
276.799	149.88
277.031	167.88
277.262	151.88
277.494	151.88
277.726	154.88
277.957	151.88
278.189	154.88
278.421	154.88
278.652	154.88
278.884	140.88
279.115	158.88
279.347	169.88
279.579	156.88
279.81	151.88
280.042	164.88
280.273	167.88
280.505	147.88
280.736	156.88
280.968	158.88
281.199	158.88
281.431	159.88
281.662	156.88
281.894	167.88
282.125	185.88
282.356	170.88
282.588	158.88
282.819	164.88
283.051	150.88
283.282	153.88
283.513	157.88
283.745	155.88
283.976	175.88
284.207	167.88
284.439	162.88
284.67	158.88
284.901	160.88
285.132	164.88
285.364	178.88
285.595	173.88
285.826	175.88
286.057	153.88
286.288	172.88
286.52	174.88
286.751	180.88
286.982	166.88
287.213	166.88
287.444	174.88
287.675	155.88
287.906	146.88
288.138	179.88
288.369	158.88
288.6	163.88
288.831	161.88
289.062	160.88
289.293	170.88
289.524	177.88
289.755	185.88
289.986	171.88
290.217	185.88
290.448	173.88
290.679	181.88
290.91	168.88
291.141	162.88
291.371	178.88
291.602	177.88
291.833	175.88
292.064	165.88
292.295	194.88
292.526	169.88
292.757	153.88
292.987	164.88
293.218	167.88
293.449	175.88
293.68	166.88
293.91	171.88
294.141	175.88
294.372	179.88
294.603	173.88
294.833	185.88
295.064	193.88
295.295	180.88
295.525	179.88
295.756	171.88
295.987	168.88
296.217	181.88
296.448	185.88
296.679	178.88
296.909	179.88
297.14	180.88
297.37	174.88
297.601	172.88
297.831	194.88
298.062	174.88
298.292	191.88
298.523	196.88
298.753	183.88
298.984	176.88
299.214	193.88
299.445	198.88
299.675	200.88
299.905	175.88
300.136	179.88
300.366	186.88
300.597	178.88
300.827	173.88
301.057	189.88
301.288	170.88
301.518	194.88
301.748	191.88
301.979	187.88
302.209	189.88
302.439	182.88
302.669	195.88
302.9	173.88
303.13	206.88
303.36	208.88
303.59	187.88
303.82	190.88
304.051	180.88
304.281	199.88
304.511	198.88
304.741	195.88
304.971	181.88
305.201	205.88
305.431	180.88
305.661	180.88
305.891	183.88
306.121	190.88
306.352	193.88
306.582	194.88
306.812	185.88
307.042	210.88
307.272	193.88
307.502	186.88
307.731	187.88
307.961	192.88
308.191	183.88
308.421	185.88
308.651	204.88
308.881	199.88
309.111	188.88
309.341	194.88
309.571	195.88
309.8	198.88
310.03	184.88
310.26	188.88
310.49	193.88
310.72	207.88
310.949	191.88
311.179	188.88
311.409	205.88
311.639	201.88
311.868	191.88
312.098	204.88
312.328	196.88
312.557	187.88
312.787	197.88
313.017	201.88
313.246	205.88
313.476	201.88
313.706	194.88
313.935	191.88
314.165	203.88
314.394	204.88
314.624	194.88
314.853	201.88
315.083	201.88
315.312	212.88
315.542	209.88
315.771	210.88
316.001	201.88
316.23	201.88
316.46	214.88
316.689	193.88
316.919	205.88
317.148	196.88
317.377	202.88
317.607	191.88
317.836	184.88
318.065	204.88
318.295	186.88
318.524	191.88
318.753	202.88
318.983	198.88
319.212	173.88
319.441	215.88
319.67	201.88
319.9	207.88
320.129	179.88
320.358	197.88
320.587	193.88
320.816	206.88
321.046	201.88
321.275	198.88
321.504	203.88
321.733	212.88
321.962	191.88
322.191	190.88
322.42	199.88
322.649	206.88
322.878	193.88
323.108	220.88
323.337	206.88
323.566	196.88
323.795	189.88
324.024	209.88
324.253	190.88
324.482	185.88
324.71	194.88
324.939	217.88
325.168	213.88
325.397	188.88
325.626	205.88
325.855	198.88
326.084	217.88
326.313	218.88
326.542	236.88
326.77	219.88
326.999	203.88
327.228	203.88
327.457	203.88
327.686	203.88
327.914	213.88
328.143	207.88
328.372	223.88
328.6	213.88
328.829	217.88
329.058	208.88
329.287	217.88
329.515	214.88
329.744	214.88
329.972	233.88
330.201	219.88
330.43	227.88
330.658	220.88
330.887	223.88
331.115	214.88
331.344	195.88
331.572	247.88
331.801	211.88
332.03	224.88
332.258	243.88
332.486	227.88
332.715	253.88
332.943	253.88
333.172	244.88
333.4	286.88
333.629	285.88
333.857	236.88
334.085	243.88
334.314	252.88
334.542	261.88
334.771	240.88
334.999	265.88
335.227	266.88
335.455	268.88
335.684	257.88
335.912	241.88
336.14	243.88
336.369	228.88
336.597	248.88
336.825	261.88
337.053	265.88
337.281	257.88
337.51	250.88
337.738	246.88
337.966	231.88
338.194	227.88
338.422	228.88
338.65	250.88
338.878	227.88
339.106	232.88
339.334	244.88
339.562	228.88
339.79	228.88
340.018	223.88
340.246	230.88
340.474	226.88
340.702	236.88
340.93	236.88
341.158	242.88
341.386	221.88
341.614	215.88
341.842	220.88
342.07	227.88
342.298	216.88
342.526	207.88
342.754	214.88
342.981	214.88
343.209	231.88
343.437	230.88
343.665	241.88
343.893	248.88
344.12	262.88
344.348	233.88
344.576	232.88
344.804	234.88
345.031	220.88
345.259	219.88
345.487	213.88
345.714	214.88
345.942	222.88
346.17	206.88
346.397	221.88
346.625	225.88
346.853	219.88
347.08	215.88
347.308	233.88
347.535	204.88
347.763	218.88
347.99	223.88
348.218	205.88
348.445	216.88
348.673	201.88
348.9	217.88
349.128	213.88
349.355	235.88
349.583	210.88
349.81	207.88
350.037	206.88
350.265	218.88
350.492	225.88
350.72	212.88
350.947	208.88
351.174	225.88
351.402	196.88
351.629	202.88
351.856	209.88
352.083	211.88
352.311	206.88
352.538	204.88
352.765	216.88
352.992	219.88
353.22	195.88
353.447	202.88
353.674	214.88
353.901	202.88
354.128	190.88
354.355	202.88
354.583	211.88
354.81	222.88
355.037	215.88
355.264	195.88
355.491	206.88
355.718	206.88
355.945	218.88
356.172	199.88
356.399	215.88
356.626	236.88
356.853	212.88
357.08	207.88
357.307	219.88
357.534	213.88
357.761	212.88
357.988	206.88
358.215	204.88
358.441	201.88
358.668	207.88
358.895	196.88
359.122	205.88
359.349	212.88
359.576	219.88
359.802	209.88
360.029	203.88
360.256	217.88
360.483	206.88
360.709	222.88
360.936	221.88
361.163	215.88
361.39	214.88
361.616	211.88
361.843	231.88
362.07	220.88
362.296	210.88
362.523	203.88
362.749	212.88
362.976	215.88
363.203	220.88
363.429	211.88
363.656	205.88
363.882	214.88
364.109	210.88
364.335	217.88
364.562	218.88
364.788	224.88
365.015	228.88
365.241	220.88
365.468	225.88
365.694	201.88
365.92	219.88
366.147	217.88
366.373	207.88
366.599	211.88
366.826	221.88
367.052	226.88
367.278	226.88
367.505	205.88
367.731	216.88
367.957	215.88
368.184	207.88
368.41	232.88
368.636	212.88
368.862	218.88
369.089	218.88
369.315	223.88
369.541	223.88
369.767	231.88
369.993	230.88
370.219	220.88
370.445	221.88
370.672	223.88
370.898	214.88
371.124	248.88
371.35	235.88
371.576	244.88
371.802	247.88
372.028	222.88
372.254	225.88
372.48	237.88
372.706	260.88
372.932	243.88
373.158	245.88
373.384	254.88
373.61	244.88
373.835	224.88
374.061	234.88
374.287	233.88
374.513	231.88
374.739	265.88
374.965	248.88
375.191	277.88
375.416	262.88
375.642	238.88
375.868	245.88
376.094	245.88
376.319	249.88
376.545	246.88
376.771	261.88
376.997	230.88
377.222	251.88
377.448	239.88
377.674	249.88
377.899	234.88
378.125	247.88
378.35	245.88
378.576	234.88
378.802	249.88
379.027	244.88
379.253	239.88
379.478	240.88
379.704	243.88
379.929	229.88
380.155	248.88
380.38	239.88
380.606	233.88
380.831	239.88
381.057	247.88
381.282	245.88
381.507	263.88
381.733	249.88
381.958	246.88
382.184	241.88
382.409	269.88
382.634	263.88
382.86	249.88
383.085	248.88
383.31	271.88
383.535	260.88
383.761	265.88
383.986	278.88
384.211	270.88
384.436	283.88
384.662	282.88
384.887	261.88
385.112	287.88
385.337	279.88
385.562	286.88
385.787	294.88
386.013	279.88
386.238	286.88
386.463	281.88
386.688	287.88
386.913	297.88
387.138	284.88
387.363	297.88
387.588	274.88
387.813	280.88
388.038	275.88
388.263	295.88
388.488	308.88
388.713	307.88
388.938	308.88
389.163	285.88
389.387	279.88
389.612	293.88
389.837	289.88
390.062	291.88
390.287	296.88
390.512	316.88
390.736	310.88
390.961	308.88
391.186	311.88
391.411	330.88
391.636	321.88
391.86	312.88
392.085	322.88
392.31	327.88
392.534	309.88
392.759	307.88
392.984	291.88
393.208	312.88
393.433	316.88
393.658	323.88
393.882	312.88
394.107	331.88
394.331	307.88
394.556	298.88
394.78	317.88
395.005	307.88
395.229	319.88
395.454	322.88
395.678	333.88
395.903	310.88
396.127	338.88
396.352	323.88
396.576	306.88
396.801	329.88
397.025	313.88
397.249	316.88
397.474	340.88
397.698	346.88
397.922	335.88
398.147	335.88
398.371	344.88
398.595	356.88
398.82	354.88
399.044	358.88
399.268	392.88
399.492	465.88
399.717	498.88
399.941	493.88
400.165	451.88
400.389	426.88
400.613	407.88
400.837	383.88
401.062	362.88
401.286	367.88
401.51	354.88
401.734	356.88
401.958	371.88
402.182	383.88
402.406	377.88
402.63	362.88
402.854	369.88
403.078	387.88
403.302	408.88
403.526	404.88
403.75	418.88
403.974	429.88
404.198	420.88
404.422	414.88
404.645	405.88
404.869	393.88
405.093	382.88
405.317	390.88
405.541	387.88
405.765	405.88
405.988	417.88
406.212	399.88
406.436	420.88
406.66	411.88
406.883	420.88
407.107	441.88
407.331	448.88
407.555	447.88
407.778	451.88
408.002	452.88
408.226	439.88
408.449	428.88
408.673	424.88
408.896	410.88
409.12	415.88
409.344	414.88
409.567	412.88
409.791	436.88
410.014	411.88
410.238	426.88
410.461	413.88
410.685	394.88
410.908	401.88
411.132	402.88
411.355	387.88
411.578	402.88
411.802	381.88
412.025	385.88
412.249	382.88
412.472	377.88
412.695	382.88
412.919	369.88
413.142	369.88
413.365	361.88
413.589	373.88
413.812	373.88
414.035	365.88
414.258	376.88
414.482	376.88
414.705	394.88
414.928	383.88
415.151	381.88
415.374	373.88
415.597	402.88
415.821	391.88
416.044	359.88
416.267	373.88
416.49	346.88
416.713	359.88
416.936	362.88
417.159	385.88
417.382	364.88
417.605	374.88
417.828	373.88
418.051	384.88
418.274	381.88
418.497	371.88
418.72	385.88
418.943	397.88
419.166	396.88
419.389	417.88
419.611	403.88
419.834	398.88
420.057	387.88
420.28	374.88
420.503	364.88
420.726	372.88
420.948	374.88
421.171	371.88
421.394	390.88
421.617	374.88
421.839	377.88
422.062	388.88
422.285	379.88
422.507	387.88
422.73	391.88
422.953	389.88
423.175	373.88
423.398	373.88
423.621	379.88
423.843	377.88
424.066	381.88
424.288	372.88
424.511	392.88
424.733	374.88
424.956	386.88
425.178	365.88
425.401	380.88
425.623	363.88
425.846	348.88
426.068	358.88
426.291	355.88
426.513	342.88
426.735	335.88
426.958	367.88
427.18	351.88
427.402	312.88
427.625	350.88
427.847	322.88
428.069	347.88
428.292	335.88
428.514	317.88
428.736	313.88
428.958	333.88
429.181	349.88
429.403	342.88
429.625	335.88
429.847	336.88
430.069	329.88
430.292	334.88
430.514	344.88
430.736	345.88
430.958	339.88
431.18	340.88
431.402	325.88
431.624	340.88
431.846	353.88
432.068	337.88
432.29	345.88
432.512	349.88
432.734	356.88
432.956	349.88
433.178	348.88
433.4	345.88
433.622	350.88
433.844	339.88
434.066	351.88
434.287	345.88
434.509	356.88
434.731	377.88
434.953	377.88
435.175	371.88
435.397	362.88
435.618	353.88
435.84	339.88
436.062	330.88
436.284	331.88
436.505	346.88
436.727	325.88
436.949	323.88
437.17	340.88
437.392	326.88
437.614	345.88
437.835	328.88
438.057	329.88
438.278	342.88
438.5	346.88
438.721	341.88
438.943	332.88
439.165	308.88
439.386	346.88
439.608	335.88
439.829	341.88
440.05	364.88
440.272	364.88
440.493	338.88
440.715	343.88
440.936	354.88
441.158	347.88
441.379	352.88
441.6	353.88
441.822	372.88
442.043	369.88
442.264	361.88
442.486	342.88
442.707	358.88
442.928	357.88
443.149	384.88
443.371	358.88
443.592	367.88
443.813	380.88
444.034	369.88
444.255	381.88
444.476	409.88
444.698	427.88
444.919	424.88
445.14	551.88
445.361	461.88
445.582	362.88
445.803	360.88
446.024	357.88
446.245	334.88
446.466	358.88
446.687	359.88
446.908	356.88
447.129	346.88
447.35	354.88
447.571	361.88
447.792	338.88
448.013	338.88
448.234	326.88
448.455	332.88
448.675	352.88
448.896	325.88
449.117	313.88
449.338	327.88
449.559	320.88
449.779	326.88
450	312.88
450.221	318.88
450.442	321.88
450.662	312.88
450.883	310.88
451.104	323.88
451.324	321.88
451.545	331.88
451.766	309.88
451.986	325.88
452.207	311.88
452.428	300.88
452.648	315.88
452.869	307.88
453.089	318.88
453.31	302.88
453.53	325.88
453.751	316.88
453.971	320.88
454.192	305.88
454.412	299.88
454.633	295.88
454.853	303.88
455.073	318.88
455.294	297.88
455.514	301.88
455.734	296.88
455.955	300.88
456.175	276.88
456.395	323.88
456.616	291.88
456.836	293.88
457.056	312.88
457.276	271.88
457.497	302.88
457.717	306.88
457.937	319.88
458.157	298.88
458.377	292.88
458.598	315.88
458.818	325.88
459.038	318.88
459.258	335.88
459.478	344.88
459.698	359.88
459.918	345.88
460.138	348.88
460.358	377.88
460.578	383.88
460.798	369.88
461.018	399.88
461.238	385.88
461.458	390.88
461.678	373.88
461.898	408.88
462.118	373.88
462.338	399.88
462.558	408.88
462.777	453.88
462.997	459.88
463.217	492.88
463.437	485.88
463.657	446.88
463.876	437.88
464.096	450.88
464.316	444.88
464.536	452.88
464.755	422.88
464.975	409.88
465.195	387.88
465.414	380.88
465.634	362.88
465.854	357.88
466.073	349.88
466.293	334.88
466.512	341.88
466.732	336.88
466.951	322.88
467.171	333.88
467.391	331.88
467.61	323.88
467.829	330.88
468.049	317.88
468.268	314.88
468.488	316.88
468.707	322.88
468.927	318.88
469.146	330.88
469.365	316.88
469.585	336.88
469.804	344.88
470.023	332.88
470.243	324.88
470.462	341.88
470.681	339.88
470.901	313.88
471.12	319.88
471.339	322.88
471.558	330.88
471.777	346.88
471.997	330.88
472.216	326.88
472.435	309.88
472.654	314.88
472.873	328.88
473.092	320.88
473.311	314.88
473.53	298.88
473.749	311.88
473.968	317.88
474.187	300.88
474.406	324.88
474.625	326.88
474.844	321.88
475.063	324.88
475.282	322.88
475.501	315.88
475.72	333.88
475.939	320.88
476.158	323.88
476.377	302.88
476.596	315.88
476.814	325.88
477.033	330.88
477.252	334.88
477.471	353.88
477.69	338.88
477.908	358.88
478.127	366.88
478.346	351.88
478.564	355.88
478.783	356.88
479.002	367.88
479.22	374.88
479.439	366.88
479.658	361.88
479.876	351.88
480.095	365.88
480.313	391.88
480.532	388.88
480.751	408.88
480.969	352.88
481.188	384.88
481.406	365.88
481.624	363.88
481.843	349.88
482.061	333.88
482.28	365.88
482.498	365.88
482.717	342.88
482.935	349.88
483.153	365.88
483.372	347.88
483.59	364.88
483.808	328.88
484.027	358.88
484.245	349.88
484.463	353.88
484.681	362.88
484.9	366.88
485.118	362.88
485.336	350.88
485.554	360.88
485.772	357.88
485.99	362.88
486.209	366.88
486.427	362.88
486.645	359.88
486.863	372.88
487.081	370.88
487.299	351.88
487.517	377.88
487.735	349.88
487.953	346.88
488.171	356.88
488.389	348.88
488.607	362.88
488.825	346.88
489.043	347.88
489.261	377.88
489.479	357.88
489.696	383.88
489.914	363.88
490.132	364.88
490.35	364.88
490.568	383.88
490.786	384.88
491.003	385.88
491.221	372.88
491.439	363.88
491.657	377.88
491.874	371.88
492.092	397.88
492.31	391.88
492.527	371.88
492.745	383.88
492.963	392.88
493.18	385.88
493.398	397.88
493.615	390.88
493.833	393.88
494.05	373.88
494.268	387.88
494.485	392.88
494.703	381.88
494.92	381.88
495.138	380.88
495.355	378.88
495.573	399.88
495.79	398.88
496.008	404.88
496.225	372.88
496.442	401.88
496.66	393.88
496.877	403.88
497.094	405.88
497.312	428.88
497.529	421.88
497.746	422.88
497.963	460.88
498.181	441.88
498.398	462.88
498.615	482.88
498.832	523.88
499.049	547.88
499.267	571.88
499.484	636.88
499.701	683.88
499.918	781.88
500.135	849.88
500.352	915.88
500.569	970.88
500.786	965.88
501.003	915.88
501.22	825.88
501.437	733.88
501.654	661.88
501.871	619.88
502.088	579.88
502.305	551.88
