Data from Fe(NO3)3@0.025M.TitratingCurve.Agarose3%dH2O.NegLispCup.LampEnergy10.LIBS07252019_HRD10591_16-56-46-345.txt Node
Date: Thu Jul 25 16:56:46 EDT 2019
User: cochatt
Spectrometer: HR+D1059
Trigger mode: 1
Integration Time (sec): 1.000000E-1
Scans to average: 1
Electric dark correction enabled: true
Nonlinearity correction enabled: false
Boxcar width: 0
XAxis mode: Wavelengths
Number of Pixels in Spectrum: 2048
>>>>>Begin Spectral Data<<<<<
223.165	-16.75
223.4	-16.75
223.635	-16.75
223.869	-9.75
224.104	0.25
224.338	-9.75
224.573	-17.75
224.808	-22.75
225.042	-6.75
225.277	-12.75
225.511	-1.75
225.746	-2.75
225.98	11.25
226.215	3.25
226.449	14.25
226.683	17.25
226.918	19.25
227.152	35.25
227.387	42.25
227.621	31.25
227.856	43.25
228.09	57.25
228.324	60.25
228.559	66.25
228.793	71.25
229.027	83.25
229.262	73.25
229.496	82.25
229.73	79.25
229.964	100.25
230.199	90.25
230.433	103.25
230.667	103.25
230.901	95.25
231.136	96.25
231.37	93.25
231.604	103.25
231.838	100.25
232.072	102.25
232.306	99.25
232.541	110.25
232.775	107.25
233.009	94.25
233.243	93.25
233.477	91.25
233.711	95.25
233.945	106.25
234.179	122.25
234.413	103.25
234.647	105.25
234.881	95.25
235.115	118.25
235.349	108.25
235.583	112.25
235.817	92.25
236.051	96.25
236.285	106.25
236.519	93.25
236.753	106.25
236.987	98.25
237.221	118.25
237.455	93.25
237.689	117.25
237.922	109.25
238.156	114.25
238.39	128.25
238.624	102.25
238.858	103.25
239.091	119.25
239.325	109.25
239.559	105.25
239.793	115.25
240.027	114.25
240.26	110.25
240.494	102.25
240.728	99.25
240.961	101.25
241.195	118.25
241.429	115.25
241.662	107.25
241.896	121.25
242.13	114.25
242.363	109.25
242.597	120.25
242.83	116.25
243.064	121.25
243.298	110.25
243.531	120.25
243.765	112.25
243.998	115.25
244.232	126.25
244.465	110.25
244.699	126.25
244.932	121.25
245.166	105.25
245.399	113.25
245.633	134.25
245.866	111.25
246.099	119.25
246.333	132.25
246.566	135.25
246.8	118.25
247.033	118.25
247.266	131.25
247.5	116.25
247.733	117.25
247.966	130.25
248.2	126.25
248.433	123.25
248.666	131.25
248.899	118.25
249.133	128.25
249.366	133.25
249.599	135.25
249.832	140.25
250.066	149.25
250.299	138.25
250.532	133.25
250.765	130.25
250.998	127.25
251.231	126.25
251.465	123.25
251.698	145.25
251.931	141.25
252.164	163.25
252.397	122.25
252.63	142.25
252.863	153.25
253.096	142.25
253.329	136.25
253.562	143.25
253.795	137.25
254.028	152.25
254.261	143.25
254.494	141.25
254.727	140.25
254.96	142.25
255.193	138.25
255.426	142.25
255.659	142.25
255.892	148.25
256.124	140.25
256.357	153.25
256.59	151.25
256.823	157.25
257.056	143.25
257.289	139.25
257.521	142.25
257.754	155.25
257.987	147.25
258.22	146.25
258.452	157.25
258.685	140.25
258.918	146.25
259.151	140.25
259.383	164.25
259.616	138.25
259.849	163.25
260.081	154.25
260.314	150.25
260.547	175.25
260.779	172.25
261.012	157.25
261.244	151.25
261.477	166.25
261.71	143.25
261.942	164.25
262.175	166.25
262.407	172.25
262.64	154.25
262.872	159.25
263.105	178.25
263.337	162.25
263.57	143.25
263.802	156.25
264.035	164.25
264.267	171.25
264.499	169.25
264.732	172.25
264.964	166.25
265.197	176.25
265.429	168.25
265.661	185.25
265.894	165.25
266.126	164.25
266.358	176.25
266.591	182.25
266.823	175.25
267.055	172.25
267.287	190.25
267.52	185.25
267.752	174.25
267.984	166.25
268.216	183.25
268.448	174.25
268.681	162.25
268.913	172.25
269.145	179.25
269.377	184.25
269.609	171.25
269.841	195.25
270.073	191.25
270.306	158.25
270.538	184.25
270.77	175.25
271.002	163.25
271.234	178.25
271.466	190.25
271.698	177.25
271.93	163.25
272.162	200.25
272.394	184.25
272.626	185.25
272.858	180.25
273.09	180.25
273.322	197.25
273.553	190.25
273.785	204.25
274.017	182.25
274.249	193.25
274.481	208.25
274.713	202.25
274.945	185.25
275.176	211.25
275.408	197.25
275.64	202.25
275.872	185.25
276.104	197.25
276.335	188.25
276.567	208.25
276.799	219.25
277.031	210.25
277.262	207.25
277.494	200.25
277.726	199.25
277.957	220.25
278.189	192.25
278.421	199.25
278.652	218.25
278.884	218.25
279.115	207.25
279.347	210.25
279.579	219.25
279.81	208.25
280.042	230.25
280.273	227.25
280.505	211.25
280.736	215.25
280.968	229.25
281.199	206.25
281.431	217.25
281.662	226.25
281.894	221.25
282.125	199.25
282.356	203.25
282.588	219.25
282.819	218.25
283.051	202.25
283.282	212.25
283.513	198.25
283.745	203.25
283.976	226.25
284.207	230.25
284.439	208.25
284.67	212.25
284.901	204.25
285.132	214.25
285.364	220.25
285.595	222.25
285.826	229.25
286.057	226.25
286.288	233.25
286.52	222.25
286.751	238.25
286.982	242.25
287.213	247.25
287.444	238.25
287.675	232.25
287.906	247.25
288.138	226.25
288.369	237.25
288.6	226.25
288.831	230.25
289.062	230.25
289.293	228.25
289.524	236.25
289.755	226.25
289.986	231.25
290.217	231.25
290.448	228.25
290.679	231.25
290.91	228.25
291.141	243.25
291.371	226.25
291.602	246.25
291.833	219.25
292.064	245.25
292.295	244.25
292.526	232.25
292.757	231.25
292.987	229.25
293.218	232.25
293.449	248.25
293.68	242.25
293.91	247.25
294.141	224.25
294.372	231.25
294.603	235.25
294.833	241.25
295.064	240.25
295.295	244.25
295.525	237.25
295.756	253.25
295.987	244.25
296.217	270.25
296.448	251.25
296.679	238.25
296.909	257.25
297.14	250.25
297.37	273.25
297.601	250.25
297.831	248.25
298.062	258.25
298.292	251.25
298.523	258.25
298.753	258.25
298.984	273.25
299.214	265.25
299.445	270.25
299.675	272.25
299.905	267.25
300.136	252.25
300.366	262.25
300.597	248.25
300.827	290.25
301.057	251.25
301.288	255.25
301.518	280.25
301.748	278.25
301.979	289.25
302.209	276.25
302.439	271.25
302.669	278.25
302.9	271.25
303.13	276.25
303.36	279.25
303.59	269.25
303.82	263.25
304.051	263.25
304.281	281.25
304.511	270.25
304.741	271.25
304.971	282.25
305.201	277.25
305.431	293.25
305.661	284.25
305.891	287.25
306.121	299.25
306.352	295.25
306.582	286.25
306.812	283.25
307.042	298.25
307.272	278.25
307.502	274.25
307.731	283.25
307.961	289.25
308.191	279.25
308.421	287.25
308.651	287.25
308.881	274.25
309.111	282.25
309.341	278.25
309.571	300.25
309.8	283.25
310.03	293.25
310.26	289.25
310.49	289.25
310.72	296.25
310.949	273.25
311.179	283.25
311.409	283.25
311.639	312.25
311.868	290.25
312.098	296.25
312.328	291.25
312.557	298.25
312.787	295.25
313.017	306.25
313.246	310.25
313.476	303.25
313.706	301.25
313.935	300.25
314.165	295.25
314.394	309.25
314.624	303.25
314.853	294.25
315.083	283.25
315.312	302.25
315.542	298.25
315.771	300.25
316.001	316.25
316.23	318.25
316.46	308.25
316.689	300.25
316.919	300.25
317.148	302.25
317.377	303.25
317.607	301.25
317.836	295.25
318.065	296.25
318.295	311.25
318.524	327.25
318.753	304.25
318.983	292.25
319.212	296.25
319.441	309.25
319.67	301.25
319.9	307.25
320.129	321.25
320.358	308.25
320.587	303.25
320.816	326.25
321.046	315.25
321.275	304.25
321.504	308.25
321.733	292.25
321.962	308.25
322.191	323.25
322.42	320.25
322.649	314.25
322.878	306.25
323.108	316.25
323.337	323.25
323.566	315.25
323.795	330.25
324.024	322.25
324.253	312.25
324.482	317.25
324.71	320.25
324.939	328.25
325.168	330.25
325.397	317.25
325.626	330.25
325.855	319.25
326.084	328.25
326.313	326.25
326.542	332.25
326.77	339.25
326.999	332.25
327.228	320.25
327.457	332.25
327.686	328.25
327.914	356.25
328.143	347.25
328.372	344.25
328.6	320.25
328.829	335.25
329.058	344.25
329.287	319.25
329.515	331.25
329.744	321.25
329.972	339.25
330.201	335.25
330.43	341.25
330.658	340.25
330.887	355.25
331.115	331.25
331.344	349.25
331.572	355.25
331.801	366.25
332.03	368.25
332.258	361.25
332.486	364.25
332.715	359.25
332.943	356.25
333.172	400.25
333.4	397.25
333.629	407.25
333.857	418.25
334.085	417.25
334.314	407.25
334.542	386.25
334.771	390.25
334.999	382.25
335.227	388.25
335.455	398.25
335.684	395.25
335.912	376.25
336.14	380.25
336.369	382.25
336.597	363.25
336.825	383.25
337.053	366.25
337.281	393.25
337.51	370.25
337.738	394.25
337.966	376.25
338.194	389.25
338.422	365.25
338.65	354.25
338.878	362.25
339.106	346.25
339.334	394.25
339.562	370.25
339.79	381.25
340.018	379.25
340.246	356.25
340.474	352.25
340.702	370.25
340.93	356.25
341.158	351.25
341.386	338.25
341.614	370.25
341.842	359.25
342.07	347.25
342.298	362.25
342.526	362.25
342.754	359.25
342.981	349.25
343.209	376.25
343.437	380.25
343.665	388.25
343.893	394.25
344.12	388.25
344.348	379.25
344.576	380.25
344.804	380.25
345.031	370.25
345.259	370.25
345.487	346.25
345.714	341.25
345.942	366.25
346.17	378.25
346.397	361.25
346.625	355.25
346.853	351.25
347.08	362.25
347.308	348.25
347.535	348.25
347.763	329.25
347.99	367.25
348.218	341.25
348.445	354.25
348.673	356.25
348.9	324.25
349.128	334.25
349.355	348.25
349.583	331.25
349.81	371.25
350.037	338.25
350.265	342.25
350.492	348.25
350.72	354.25
350.947	347.25
351.174	351.25
351.402	358.25
351.629	351.25
351.856	334.25
352.083	346.25
352.311	335.25
352.538	335.25
352.765	357.25
352.992	351.25
353.22	353.25
353.447	346.25
353.674	358.25
353.901	355.25
354.128	346.25
354.355	365.25
354.583	355.25
354.81	351.25
355.037	362.25
355.264	361.25
355.491	331.25
355.718	362.25
355.945	357.25
356.172	343.25
356.399	336.25
356.626	353.25
356.853	341.25
357.08	359.25
357.307	356.25
357.534	376.25
357.761	369.25
357.988	343.25
358.215	343.25
358.441	350.25
358.668	341.25
358.895	362.25
359.122	347.25
359.349	338.25
359.576	362.25
359.802	357.25
360.029	338.25
360.256	333.25
360.483	362.25
360.709	348.25
360.936	360.25
361.163	352.25
361.39	360.25
361.616	338.25
361.843	342.25
362.07	345.25
362.296	374.25
362.523	368.25
362.749	356.25
362.976	351.25
363.203	354.25
363.429	342.25
363.656	355.25
363.882	347.25
364.109	350.25
364.335	350.25
364.562	367.25
364.788	347.25
365.015	362.25
365.241	353.25
365.468	332.25
365.694	355.25
365.92	350.25
366.147	347.25
366.373	349.25
366.599	344.25
366.826	348.25
367.052	355.25
367.278	367.25
367.505	354.25
367.731	355.25
367.957	367.25
368.184	364.25
368.41	360.25
368.636	367.25
368.862	380.25
369.089	354.25
369.315	388.25
369.541	375.25
369.767	364.25
369.993	357.25
370.219	360.25
370.445	363.25
370.672	372.25
370.898	363.25
371.124	374.25
371.35	383.25
371.576	383.25
371.802	373.25
372.028	390.25
372.254	377.25
372.48	387.25
372.706	383.25
372.932	382.25
373.158	393.25
373.384	400.25
373.61	391.25
373.835	389.25
374.061	401.25
374.287	386.25
374.513	395.25
374.739	398.25
374.965	395.25
375.191	392.25
375.416	401.25
375.642	380.25
375.868	401.25
376.094	410.25
376.319	382.25
376.545	376.25
376.771	368.25
376.997	384.25
377.222	372.25
377.448	364.25
377.674	392.25
377.899	396.25
378.125	386.25
378.35	376.25
378.576	367.25
378.802	361.25
379.027	388.25
379.253	372.25
379.478	382.25
379.704	404.25
379.929	375.25
380.155	380.25
380.38	382.25
380.606	378.25
380.831	377.25
381.057	397.25
381.282	393.25
381.507	400.25
381.733	396.25
381.958	384.25
382.184	392.25
382.409	408.25
382.634	395.25
382.86	386.25
383.085	397.25
383.31	414.25
383.535	410.25
383.761	413.25
383.986	408.25
384.211	416.25
384.436	399.25
384.662	421.25
384.887	415.25
385.112	423.25
385.337	431.25
385.562	424.25
385.787	430.25
386.013	432.25
386.238	438.25
386.463	428.25
386.688	429.25
386.913	443.25
387.138	424.25
387.363	409.25
387.588	461.25
387.813	446.25
388.038	430.25
388.263	442.25
388.488	452.25
388.713	434.25
388.938	438.25
389.163	428.25
389.387	428.25
389.612	430.25
389.837	446.25
390.062	420.25
390.287	455.25
390.512	441.25
390.736	437.25
390.961	439.25
391.186	456.25
391.411	461.25
391.636	465.25
391.86	454.25
392.085	469.25
392.31	464.25
392.534	472.25
392.759	465.25
392.984	461.25
393.208	454.25
393.433	452.25
393.658	463.25
393.882	467.25
394.107	439.25
394.331	457.25
394.556	458.25
394.78	476.25
395.005	441.25
395.229	474.25
395.454	472.25
395.678	503.25
395.903	476.25
396.127	479.25
396.352	465.25
396.576	476.25
396.801	471.25
397.025	472.25
397.249	487.25
397.474	502.25
397.698	483.25
397.922	493.25
398.147	489.25
398.371	493.25
398.595	520.25
398.82	528.25
399.044	554.25
399.268	586.25
399.492	589.25
399.717	600.25
399.941	658.25
400.165	612.25
400.389	614.25
400.613	591.25
400.837	551.25
401.062	535.25
401.286	524.25
401.51	540.25
401.734	505.25
401.958	524.25
402.182	527.25
402.406	519.25
402.63	531.25
402.854	512.25
403.078	507.25
403.302	531.25
403.526	549.25
403.75	516.25
403.974	512.25
404.198	527.25
404.422	526.25
404.645	554.25
404.869	537.25
405.093	539.25
405.317	529.25
405.541	534.25
405.765	548.25
405.988	553.25
406.212	554.25
406.436	555.25
406.66	565.25
406.883	575.25
407.107	578.25
407.331	562.25
407.555	592.25
407.778	612.25
408.002	599.25
408.226	575.25
408.449	563.25
408.673	587.25
408.896	546.25
409.12	572.25
409.344	540.25
409.567	558.25
409.791	548.25
410.014	509.25
410.238	509.25
410.461	539.25
410.685	535.25
410.908	565.25
411.132	545.25
411.355	522.25
411.578	547.25
411.802	530.25
412.025	529.25
412.249	532.25
412.472	536.25
412.695	514.25
412.919	540.25
413.142	552.25
413.365	527.25
413.589	528.25
413.812	505.25
414.035	495.25
414.258	527.25
414.482	483.25
414.705	507.25
414.928	512.25
415.151	522.25
415.374	496.25
415.597	514.25
415.821	512.25
416.044	506.25
416.267	479.25
416.49	519.25
416.713	495.25
416.936	491.25
417.159	502.25
417.382	474.25
417.605	500.25
417.828	501.25
418.051	518.25
418.274	501.25
418.497	488.25
418.72	501.25
418.943	539.25
419.166	546.25
419.389	560.25
419.611	532.25
419.834	515.25
420.057	501.25
420.28	511.25
420.503	484.25
420.726	482.25
420.948	472.25
421.171	476.25
421.394	493.25
421.617	518.25
421.839	501.25
422.062	489.25
422.285	486.25
422.507	487.25
422.73	489.25
422.953	494.25
423.175	494.25
423.398	491.25
423.621	499.25
423.843	477.25
424.066	481.25
424.288	494.25
424.511	496.25
424.733	475.25
424.956	511.25
425.178	483.25
425.401	501.25
425.623	466.25
425.846	479.25
426.068	468.25
426.291	486.25
426.513	474.25
426.735	477.25
426.958	468.25
427.18	463.25
427.402	463.25
427.625	478.25
427.847	477.25
428.069	471.25
428.292	475.25
428.514	476.25
428.736	459.25
428.958	466.25
429.181	463.25
429.403	446.25
429.625	452.25
429.847	463.25
430.069	468.25
430.292	446.25
430.514	463.25
430.736	437.25
430.958	459.25
431.18	443.25
431.402	461.25
431.624	438.25
431.846	457.25
432.068	455.25
432.29	460.25
432.512	449.25
432.734	462.25
432.956	470.25
433.178	476.25
433.4	468.25
433.622	479.25
433.844	485.25
434.066	469.25
434.287	466.25
434.509	490.25
434.731	511.25
434.953	480.25
435.175	484.25
435.397	498.25
435.618	472.25
435.84	459.25
436.062	448.25
436.284	473.25
436.505	453.25
436.727	465.25
436.949	462.25
437.17	467.25
437.392	455.25
437.614	439.25
437.835	430.25
438.057	422.25
438.278	432.25
438.5	441.25
438.721	455.25
438.943	431.25
439.165	441.25
439.386	456.25
439.608	470.25
439.829	466.25
440.05	441.25
440.272	471.25
440.493	453.25
440.715	475.25
440.936	463.25
441.158	475.25
441.379	464.25
441.6	487.25
441.822	465.25
442.043	475.25
442.264	471.25
442.486	476.25
442.707	483.25
442.928	480.25
443.149	486.25
443.371	475.25
443.592	473.25
443.813	478.25
444.034	489.25
444.255	501.25
444.476	494.25
444.698	509.25
444.919	510.25
445.14	603.25
445.361	516.25
445.582	483.25
445.803	478.25
446.024	475.25
446.245	464.25
446.466	453.25
446.687	478.25
446.908	466.25
447.129	463.25
447.35	440.25
447.571	434.25
447.792	425.25
448.013	419.25
448.234	405.25
448.455	438.25
448.675	437.25
448.896	413.25
449.117	400.25
449.338	410.25
449.559	409.25
449.779	418.25
450	408.25
450.221	417.25
450.442	419.25
450.662	422.25
450.883	408.25
451.104	419.25
451.324	416.25
451.545	416.25
451.766	423.25
451.986	399.25
452.207	406.25
452.428	411.25
452.648	402.25
452.869	408.25
453.089	382.25
453.31	397.25
453.53	421.25
453.751	427.25
453.971	432.25
454.192	424.25
454.412	370.25
454.633	404.25
454.853	400.25
455.073	407.25
455.294	409.25
455.514	381.25
455.734	396.25
455.955	398.25
456.175	396.25
456.395	416.25
456.616	384.25
456.836	391.25
457.056	410.25
457.276	407.25
457.497	403.25
457.717	389.25
457.937	404.25
458.157	408.25
458.377	403.25
458.598	425.25
458.818	448.25
459.038	439.25
459.258	437.25
459.478	453.25
459.698	455.25
459.918	466.25
460.138	474.25
460.358	499.25
460.578	478.25
460.798	485.25
461.018	472.25
461.238	500.25
461.458	501.25
461.678	511.25
461.898	523.25
462.118	504.25
462.338	534.25
462.558	541.25
462.777	557.25
462.997	564.25
463.217	564.25
463.437	563.25
463.657	575.25
463.876	563.25
464.096	552.25
464.316	538.25
464.536	543.25
464.755	531.25
464.975	509.25
465.195	489.25
465.414	488.25
465.634	499.25
465.854	476.25
466.073	479.25
466.293	468.25
466.512	444.25
466.732	429.25
466.951	452.25
467.171	441.25
467.391	454.25
467.61	435.25
467.829	418.25
468.049	443.25
468.268	434.25
468.488	413.25
468.707	416.25
468.927	430.25
469.146	421.25
469.365	451.25
469.585	419.25
469.804	440.25
470.023	437.25
470.243	446.25
470.462	440.25
470.681	436.25
470.901	447.25
471.12	457.25
471.339	450.25
471.558	431.25
471.777	441.25
471.997	452.25
472.216	433.25
472.435	418.25
472.654	439.25
472.873	428.25
473.092	458.25
473.311	422.25
473.53	443.25
473.749	412.25
473.968	426.25
474.187	439.25
474.406	438.25
474.625	441.25
474.844	433.25
475.063	456.25
475.282	450.25
475.501	435.25
475.72	459.25
475.939	459.25
476.158	462.25
476.377	450.25
476.596	455.25
476.814	458.25
477.033	442.25
477.252	444.25
477.471	472.25
477.69	492.25
477.908	483.25
478.127	494.25
478.346	500.25
478.564	524.25
478.783	522.25
479.002	500.25
479.22	512.25
479.439	526.25
479.658	513.25
479.876	510.25
480.095	526.25
480.313	532.25
480.532	532.25
480.751	519.25
480.969	531.25
481.188	515.25
481.406	545.25
481.624	534.25
481.843	506.25
482.061	525.25
482.28	519.25
482.498	507.25
482.717	492.25
482.935	518.25
483.153	506.25
483.372	513.25
483.59	521.25
483.808	539.25
484.027	516.25
484.245	532.25
484.463	542.25
484.681	532.25
484.9	535.25
485.118	513.25
485.336	525.25
485.554	545.25
485.772	554.25
485.99	535.25
486.209	542.25
486.427	538.25
486.645	549.25
486.863	546.25
487.081	525.25
487.299	553.25
487.517	541.25
487.735	551.25
487.953	532.25
488.171	528.25
488.389	506.25
488.607	528.25
488.825	511.25
489.043	532.25
489.261	520.25
489.479	546.25
489.696	536.25
489.914	531.25
490.132	520.25
490.35	522.25
490.568	524.25
490.786	543.25
491.003	528.25
491.221	521.25
491.439	557.25
491.657	516.25
491.874	521.25
492.092	533.25
492.31	522.25
492.527	526.25
492.745	526.25
492.963	531.25
493.18	540.25
493.398	543.25
493.615	536.25
493.833	552.25
494.05	537.25
494.268	563.25
494.485	562.25
494.703	552.25
494.92	560.25
495.138	547.25
495.355	548.25
495.573	548.25
495.79	555.25
496.008	575.25
496.225	568.25
496.442	583.25
496.66	593.25
496.877	597.25
497.094	601.25
497.312	590.25
497.529	605.25
497.746	613.25
497.963	621.25
498.181	653.25
498.398	672.25
498.615	687.25
498.832	738.25
499.049	750.25
499.267	810.25
499.484	844.25
499.701	909.25
499.918	937.25
500.135	988.25
500.352	1034.25
500.569	1063.25
500.786	1038.25
501.003	990.25
501.22	948.25
501.437	879.25
501.654	826.25
501.871	806.25
