Data from Fe(NO3)3@0.025M.TitratingCurve.Agarose3%dH2O.NegLispCup.LampEnergy10.LIBS07252019_HRD10591_16-53-41-335.txt Node
Date: Thu Jul 25 16:53:41 EDT 2019
User: cochatt
Spectrometer: HR+D1059
Trigger mode: 1
Integration Time (sec): 1.000000E-1
Scans to average: 1
Electric dark correction enabled: true
Nonlinearity correction enabled: false
Boxcar width: 0
XAxis mode: Wavelengths
Number of Pixels in Spectrum: 2048
>>>>>Begin Spectral Data<<<<<
223.165	-15.62
223.4	-15.62
223.635	-15.62
223.869	-19.62
224.104	-8.62
224.338	-14.62
224.573	-6.62
224.808	-10.62
225.042	-25.62
225.277	-0.62
225.511	-10.62
225.746	4.38
225.98	15.38
226.215	9.38
226.449	27.38
226.683	10.38
226.918	18.38
227.152	27.38
227.387	27.38
227.621	38.38
227.856	30.38
228.09	40.38
228.324	51.38
228.559	55.38
228.793	68.38
229.027	101.38
229.262	102.38
229.496	94.38
229.73	105.38
229.964	114.38
230.199	125.38
230.433	124.38
230.667	129.38
230.901	135.38
231.136	126.38
231.37	134.38
231.604	139.38
231.838	139.38
232.072	133.38
232.306	135.38
232.541	142.38
232.775	126.38
233.009	131.38
233.243	126.38
233.477	138.38
233.711	133.38
233.945	147.38
234.179	141.38
234.413	141.38
234.647	161.38
234.881	151.38
235.115	155.38
235.349	164.38
235.583	161.38
235.817	141.38
236.051	151.38
236.285	151.38
236.519	139.38
236.753	155.38
236.987	163.38
237.221	137.38
237.455	143.38
237.689	144.38
237.922	145.38
238.156	149.38
238.39	161.38
238.624	154.38
238.858	185.38
239.091	163.38
239.325	159.38
239.559	170.38
239.793	174.38
240.027	171.38
240.26	174.38
240.494	168.38
240.728	166.38
240.961	191.38
241.195	195.38
241.429	172.38
241.662	184.38
241.896	164.38
242.13	173.38
242.363	198.38
242.597	178.38
242.83	180.38
243.064	176.38
243.298	183.38
243.531	193.38
243.765	181.38
243.998	189.38
244.232	190.38
244.465	189.38
244.699	187.38
244.932	183.38
245.166	192.38
245.399	202.38
245.633	201.38
245.866	210.38
246.099	218.38
246.333	200.38
246.566	211.38
246.8	207.38
247.033	199.38
247.266	205.38
247.5	219.38
247.733	209.38
247.966	210.38
248.2	221.38
248.433	223.38
248.666	233.38
248.899	210.38
249.133	215.38
249.366	245.38
249.599	226.38
249.832	221.38
250.066	228.38
250.299	233.38
250.532	218.38
250.765	220.38
250.998	233.38
251.231	221.38
251.465	242.38
251.698	243.38
251.931	264.38
252.164	246.38
252.397	243.38
252.63	238.38
252.863	257.38
253.096	264.38
253.329	245.38
253.562	251.38
253.795	240.38
254.028	266.38
254.261	248.38
254.494	258.38
254.727	261.38
254.96	273.38
255.193	274.38
255.426	279.38
255.659	256.38
255.892	269.38
256.124	267.38
256.357	282.38
256.59	279.38
256.823	283.38
257.056	277.38
257.289	265.38
257.521	273.38
257.754	261.38
257.987	284.38
258.22	275.38
258.452	279.38
258.685	269.38
258.918	288.38
259.151	294.38
259.383	277.38
259.616	288.38
259.849	291.38
260.081	314.38
260.314	335.38
260.547	306.38
260.779	300.38
261.012	305.38
261.244	326.38
261.477	340.38
261.71	327.38
261.942	312.38
262.175	309.38
262.407	327.38
262.64	315.38
262.872	322.38
263.105	319.38
263.337	328.38
263.57	332.38
263.802	314.38
264.035	338.38
264.267	319.38
264.499	305.38
264.732	315.38
264.964	314.38
265.197	310.38
265.429	321.38
265.661	311.38
265.894	322.38
266.126	308.38
266.358	322.38
266.591	323.38
266.823	307.38
267.055	335.38
267.287	335.38
267.52	341.38
267.752	330.38
267.984	346.38
268.216	347.38
268.448	339.38
268.681	359.38
268.913	337.38
269.145	351.38
269.377	352.38
269.609	349.38
269.841	366.38
270.073	346.38
270.306	348.38
270.538	343.38
270.77	360.38
271.002	363.38
271.234	371.38
271.466	347.38
271.698	358.38
271.93	375.38
272.162	377.38
272.394	366.38
272.626	395.38
272.858	389.38
273.09	397.38
273.322	394.38
273.553	389.38
273.785	401.38
274.017	405.38
274.249	414.38
274.481	419.38
274.713	403.38
274.945	433.38
275.176	433.38
275.408	415.38
275.64	433.38
275.872	421.38
276.104	415.38
276.335	399.38
276.567	391.38
276.799	403.38
277.031	405.38
277.262	411.38
277.494	411.38
277.726	429.38
277.957	422.38
278.189	422.38
278.421	406.38
278.652	412.38
278.884	412.38
279.115	414.38
279.347	419.38
279.579	419.38
279.81	418.38
280.042	424.38
280.273	443.38
280.505	409.38
280.736	414.38
280.968	414.38
281.199	443.38
281.431	429.38
281.662	435.38
281.894	438.38
282.125	433.38
282.356	451.38
282.588	458.38
282.819	452.38
283.051	430.38
283.282	439.38
283.513	455.38
283.745	449.38
283.976	437.38
284.207	461.38
284.439	461.38
284.67	463.38
284.901	441.38
285.132	469.38
285.364	457.38
285.595	463.38
285.826	467.38
286.057	470.38
286.288	449.38
286.52	475.38
286.751	471.38
286.982	500.38
287.213	470.38
287.444	476.38
287.675	468.38
287.906	513.38
288.138	489.38
288.369	471.38
288.6	457.38
288.831	455.38
289.062	498.38
289.293	503.38
289.524	476.38
289.755	470.38
289.986	503.38
290.217	495.38
290.448	462.38
290.679	499.38
290.91	497.38
291.141	478.38
291.371	488.38
291.602	481.38
291.833	477.38
292.064	492.38
292.295	494.38
292.526	518.38
292.757	505.38
292.987	500.38
293.218	495.38
293.449	519.38
293.68	512.38
293.91	510.38
294.141	503.38
294.372	505.38
294.603	492.38
294.833	509.38
295.064	511.38
295.295	525.38
295.525	502.38
295.756	511.38
295.987	513.38
296.217	505.38
296.448	527.38
296.679	518.38
296.909	527.38
297.14	488.38
297.37	538.38
297.601	530.38
297.831	526.38
298.062	517.38
298.292	536.38
298.523	541.38
298.753	523.38
298.984	538.38
299.214	543.38
299.445	531.38
299.675	518.38
299.905	539.38
300.136	528.38
300.366	561.38
300.597	549.38
300.827	561.38
301.057	524.38
301.288	550.38
301.518	561.38
301.748	559.38
301.979	572.38
302.209	569.38
302.439	565.38
302.669	567.38
302.9	572.38
303.13	572.38
303.36	557.38
303.59	577.38
303.82	578.38
304.051	575.38
304.281	571.38
304.511	550.38
304.741	583.38
304.971	584.38
305.201	584.38
305.431	561.38
305.661	567.38
305.891	584.38
306.121	577.38
306.352	583.38
306.582	557.38
306.812	553.38
307.042	582.38
307.272	583.38
307.502	582.38
307.731	605.38
307.961	598.38
308.191	595.38
308.421	588.38
308.651	588.38
308.881	590.38
309.111	586.38
309.341	582.38
309.571	595.38
309.8	587.38
310.03	579.38
310.26	613.38
310.49	579.38
310.72	597.38
310.949	615.38
311.179	618.38
311.409	602.38
311.639	624.38
311.868	615.38
312.098	611.38
312.328	586.38
312.557	606.38
312.787	617.38
313.017	620.38
313.246	631.38
313.476	607.38
313.706	636.38
313.935	643.38
314.165	643.38
314.394	624.38
314.624	634.38
314.853	628.38
315.083	632.38
315.312	658.38
315.542	647.38
315.771	635.38
316.001	634.38
316.23	633.38
316.46	643.38
316.689	669.38
316.919	647.38
317.148	629.38
317.377	641.38
317.607	655.38
317.836	646.38
318.065	641.38
318.295	659.38
318.524	673.38
318.753	689.38
318.983	693.38
319.212	666.38
319.441	671.38
319.67	660.38
319.9	674.38
320.129	664.38
320.358	665.38
320.587	666.38
320.816	639.38
321.046	684.38
321.275	675.38
321.504	686.38
321.733	662.38
321.962	675.38
322.191	680.38
322.42	653.38
322.649	687.38
322.878	712.38
323.108	666.38
323.337	673.38
323.566	686.38
323.795	697.38
324.024	702.38
324.253	682.38
324.482	674.38
324.71	696.38
324.939	705.38
325.168	698.38
325.397	697.38
325.626	718.38
325.855	718.38
326.084	706.38
326.313	701.38
326.542	690.38
326.77	736.38
326.999	714.38
327.228	712.38
327.457	712.38
327.686	744.38
327.914	725.38
328.143	709.38
328.372	724.38
328.6	724.38
328.829	742.38
329.058	716.38
329.287	716.38
329.515	737.38
329.744	709.38
329.972	726.38
330.201	712.38
330.43	717.38
330.658	728.38
330.887	725.38
331.115	733.38
331.344	731.38
331.572	730.38
331.801	754.38
332.03	737.38
332.258	750.38
332.486	755.38
332.715	748.38
332.943	733.38
333.172	756.38
333.4	770.38
333.629	770.38
333.857	797.38
334.085	790.38
334.314	777.38
334.542	785.38
334.771	788.38
334.999	781.38
335.227	782.38
335.455	796.38
335.684	797.38
335.912	780.38
336.14	758.38
336.369	812.38
336.597	797.38
336.825	794.38
337.053	783.38
337.281	779.38
337.51	790.38
337.738	811.38
337.966	788.38
338.194	775.38
338.422	787.38
338.65	783.38
338.878	789.38
339.106	780.38
339.334	787.38
339.562	789.38
339.79	762.38
340.018	758.38
340.246	779.38
340.474	751.38
340.702	761.38
340.93	791.38
341.158	782.38
341.386	774.38
341.614	792.38
341.842	769.38
342.07	765.38
342.298	777.38
342.526	778.38
342.754	795.38
342.981	776.38
343.209	744.38
343.437	772.38
343.665	787.38
343.893	797.38
344.12	793.38
344.348	800.38
344.576	780.38
344.804	783.38
345.031	790.38
345.259	798.38
345.487	756.38
345.714	792.38
345.942	787.38
346.17	782.38
346.397	769.38
346.625	769.38
346.853	775.38
347.08	759.38
347.308	743.38
347.535	754.38
347.763	756.38
347.99	738.38
348.218	723.38
348.445	753.38
348.673	733.38
348.9	756.38
349.128	731.38
349.355	757.38
349.583	735.38
349.81	743.38
350.037	748.38
350.265	763.38
350.492	745.38
350.72	758.38
350.947	741.38
351.174	750.38
351.402	758.38
351.629	727.38
351.856	725.38
352.083	746.38
352.311	731.38
352.538	747.38
352.765	745.38
352.992	737.38
353.22	749.38
353.447	740.38
353.674	754.38
353.901	729.38
354.128	750.38
354.355	721.38
354.583	736.38
354.81	742.38
355.037	745.38
355.264	760.38
355.491	749.38
355.718	743.38
355.945	723.38
356.172	745.38
356.399	717.38
356.626	741.38
356.853	738.38
357.08	728.38
357.307	748.38
357.534	731.38
357.761	741.38
357.988	741.38
358.215	740.38
358.441	755.38
358.668	762.38
358.895	749.38
359.122	736.38
359.349	732.38
359.576	750.38
359.802	733.38
360.029	737.38
360.256	715.38
360.483	747.38
360.709	733.38
360.936	769.38
361.163	742.38
361.39	742.38
361.616	717.38
361.843	750.38
362.07	741.38
362.296	746.38
362.523	731.38
362.749	778.38
362.976	760.38
363.203	771.38
363.429	751.38
363.656	740.38
363.882	753.38
364.109	762.38
364.335	757.38
364.562	783.38
364.788	773.38
365.015	784.38
365.241	755.38
365.468	767.38
365.694	747.38
365.92	775.38
366.147	746.38
366.373	765.38
366.599	792.38
366.826	753.38
367.052	753.38
367.278	786.38
367.505	791.38
367.731	784.38
367.957	765.38
368.184	761.38
368.41	793.38
368.636	797.38
368.862	800.38
369.089	794.38
369.315	835.38
369.541	786.38
369.767	783.38
369.993	763.38
370.219	787.38
370.445	794.38
370.672	794.38
370.898	798.38
371.124	793.38
371.35	779.38
371.576	782.38
371.802	777.38
372.028	818.38
372.254	795.38
372.48	813.38
372.706	821.38
372.932	810.38
373.158	797.38
373.384	825.38
373.61	805.38
373.835	811.38
374.061	823.38
374.287	796.38
374.513	838.38
374.739	845.38
374.965	831.38
375.191	802.38
375.416	833.38
375.642	808.38
375.868	810.38
376.094	784.38
376.319	797.38
376.545	804.38
376.771	817.38
376.997	827.38
377.222	822.38
377.448	801.38
377.674	805.38
377.899	814.38
378.125	806.38
378.35	819.38
378.576	797.38
378.802	806.38
379.027	794.38
379.253	825.38
379.478	829.38
379.704	791.38
379.929	795.38
380.155	786.38
380.38	799.38
380.606	811.38
380.831	821.38
381.057	835.38
381.282	796.38
381.507	830.38
381.733	828.38
381.958	807.38
382.184	815.38
382.409	811.38
382.634	810.38
382.86	804.38
383.085	830.38
383.31	847.38
383.535	835.38
383.761	825.38
383.986	837.38
384.211	813.38
384.436	817.38
384.662	832.38
384.887	820.38
385.112	824.38
385.337	867.38
385.562	848.38
385.787	854.38
386.013	868.38
386.238	869.38
386.463	879.38
386.688	898.38
386.913	876.38
387.138	847.38
387.363	885.38
387.588	896.38
387.813	888.38
388.038	871.38
388.263	876.38
388.488	877.38
388.713	867.38
388.938	904.38
389.163	889.38
389.387	916.38
389.612	881.38
389.837	870.38
390.062	897.38
390.287	903.38
390.512	879.38
390.736	897.38
390.961	874.38
391.186	911.38
391.411	927.38
391.636	899.38
391.86	911.38
392.085	927.38
392.31	905.38
392.534	915.38
392.759	910.38
392.984	901.38
393.208	925.38
393.433	923.38
393.658	927.38
393.882	903.38
394.107	904.38
394.331	933.38
394.556	907.38
394.78	892.38
395.005	934.38
395.229	909.38
395.454	910.38
395.678	909.38
395.903	898.38
396.127	937.38
396.352	930.38
396.576	926.38
396.801	940.38
397.025	956.38
397.249	972.38
397.474	962.38
397.698	961.38
397.922	951.38
398.147	967.38
398.371	956.38
398.595	981.38
398.82	961.38
399.044	989.38
399.268	987.38
399.492	1011.38
399.717	1028.38
399.941	1043.38
400.165	1082.38
400.389	1062.38
400.613	1009.38
400.837	1019.38
401.062	1012.38
401.286	1018.38
401.51	993.38
401.734	1019.38
401.958	1011.38
402.182	987.38
402.406	983.38
402.63	1014.38
402.854	998.38
403.078	991.38
403.302	1005.38
403.526	988.38
403.75	983.38
403.974	1005.38
404.198	969.38
404.422	988.38
404.645	1009.38
404.869	972.38
405.093	990.38
405.317	997.38
405.541	998.38
405.765	978.38
405.988	998.38
406.212	1051.38
406.436	1029.38
406.66	1027.38
406.883	1027.38
407.107	1028.38
407.331	1027.38
407.555	1067.38
407.778	1061.38
408.002	1043.38
408.226	1068.38
408.449	1089.38
408.673	1089.38
408.896	1047.38
409.12	1037.38
409.344	1040.38
409.567	1048.38
409.791	1016.38
410.014	1022.38
410.238	1028.38
410.461	1047.38
410.685	1049.38
410.908	1044.38
411.132	1042.38
411.355	997.38
411.578	1003.38
411.802	990.38
412.025	1025.38
412.249	1025.38
412.472	1005.38
412.695	1000.38
412.919	1023.38
413.142	988.38
413.365	992.38
413.589	989.38
413.812	989.38
414.035	967.38
414.258	982.38
414.482	979.38
414.705	968.38
414.928	945.38
415.151	994.38
415.374	942.38
415.597	978.38
415.821	970.38
416.044	967.38
416.267	953.38
416.49	939.38
416.713	932.38
416.936	946.38
417.159	952.38
417.382	911.38
417.605	927.38
417.828	927.38
418.051	933.38
418.274	934.38
418.497	920.38
418.72	931.38
418.943	921.38
419.166	976.38
419.389	1006.38
419.611	1003.38
419.834	953.38
420.057	979.38
420.28	937.38
420.503	894.38
420.726	938.38
420.948	908.38
421.171	916.38
421.394	921.38
421.617	895.38
421.839	920.38
422.062	919.38
422.285	895.38
422.507	937.38
422.73	900.38
422.953	921.38
423.175	938.38
423.398	908.38
423.621	920.38
423.843	928.38
424.066	933.38
424.288	894.38
424.511	918.38
424.733	910.38
424.956	900.38
425.178	903.38
425.401	927.38
425.623	916.38
425.846	901.38
426.068	878.38
426.291	923.38
426.513	921.38
426.735	929.38
426.958	939.38
427.18	924.38
427.402	882.38
427.625	885.38
427.847	875.38
428.069	907.38
428.292	917.38
428.514	900.38
428.736	912.38
428.958	891.38
429.181	898.38
429.403	885.38
429.625	886.38
429.847	906.38
430.069	872.38
430.292	904.38
430.514	895.38
430.736	903.38
430.958	905.38
431.18	884.38
431.402	887.38
431.624	896.38
431.846	904.38
432.068	902.38
432.29	900.38
432.512	885.38
432.734	887.38
432.956	908.38
433.178	908.38
433.4	890.38
433.622	914.38
433.844	923.38
434.066	899.38
434.287	885.38
434.509	905.38
434.731	893.38
434.953	908.38
435.175	907.38
435.397	925.38
435.618	887.38
435.84	904.38
436.062	901.38
436.284	884.38
436.505	917.38
436.727	890.38
436.949	900.38
437.17	887.38
437.392	865.38
437.614	874.38
437.835	889.38
438.057	878.38
438.278	865.38
438.5	876.38
438.721	876.38
438.943	874.38
439.165	887.38
439.386	862.38
439.608	885.38
439.829	865.38
440.05	864.38
440.272	863.38
440.493	868.38
440.715	882.38
440.936	883.38
441.158	897.38
441.379	904.38
441.6	899.38
441.822	887.38
442.043	861.38
442.264	881.38
442.486	877.38
442.707	893.38
442.928	883.38
443.149	897.38
443.371	859.38
443.592	881.38
443.813	892.38
444.034	873.38
444.255	893.38
444.476	899.38
444.698	889.38
444.919	883.38
445.14	1006.38
445.361	940.38
445.582	885.38
445.803	871.38
446.024	855.38
446.245	855.38
446.466	886.38
446.687	845.38
446.908	835.38
447.129	841.38
447.35	858.38
447.571	836.38
447.792	842.38
448.013	846.38
448.234	836.38
448.455	839.38
448.675	811.38
448.896	823.38
449.117	811.38
449.338	827.38
449.559	829.38
449.779	838.38
450	815.38
450.221	822.38
450.442	828.38
450.662	814.38
450.883	797.38
451.104	796.38
451.324	798.38
451.545	813.38
451.766	822.38
451.986	796.38
452.207	784.38
452.428	827.38
452.648	795.38
452.869	803.38
453.089	803.38
453.31	796.38
453.53	787.38
453.751	789.38
453.971	803.38
454.192	813.38
454.412	773.38
454.633	767.38
454.853	811.38
455.073	798.38
455.294	790.38
455.514	790.38
455.734	772.38
455.955	787.38
456.175	794.38
456.395	801.38
456.616	795.38
456.836	784.38
457.056	775.38
457.276	789.38
457.497	814.38
457.717	796.38
457.937	810.38
458.157	788.38
458.377	819.38
458.598	838.38
458.818	833.38
459.038	839.38
459.258	837.38
459.478	844.38
459.698	860.38
459.918	838.38
460.138	869.38
460.358	870.38
460.578	861.38
460.798	878.38
461.018	890.38
461.238	895.38
461.458	910.38
461.678	878.38
461.898	896.38
462.118	897.38
462.338	916.38
462.558	895.38
462.777	907.38
462.997	949.38
463.217	922.38
463.437	924.38
463.657	923.38
463.876	932.38
464.096	958.38
464.316	926.38
464.536	949.38
464.755	916.38
464.975	921.38
465.195	902.38
465.414	916.38
465.634	881.38
465.854	890.38
466.073	872.38
466.293	866.38
466.512	839.38
466.732	844.38
466.951	865.38
467.171	875.38
467.391	869.38
467.61	875.38
467.829	871.38
468.049	848.38
468.268	831.38
468.488	852.38
468.707	844.38
468.927	843.38
469.146	860.38
469.365	843.38
469.585	844.38
469.804	845.38
470.023	858.38
470.243	857.38
470.462	831.38
470.681	858.38
470.901	855.38
471.12	871.38
471.339	868.38
471.558	834.38
471.777	864.38
471.997	871.38
472.216	878.38
472.435	909.38
472.654	881.38
472.873	891.38
473.092	869.38
473.311	895.38
473.53	873.38
473.749	875.38
473.968	863.38
474.187	857.38
474.406	871.38
474.625	880.38
474.844	905.38
475.063	886.38
475.282	895.38
475.501	884.38
475.72	922.38
475.939	901.38
476.158	931.38
476.377	926.38
476.596	953.38
476.814	933.38
477.033	938.38
477.252	959.38
477.471	947.38
477.69	965.38
477.908	931.38
478.127	955.38
478.346	987.38
478.564	961.38
478.783	981.38
479.002	983.38
479.22	986.38
479.439	1009.38
479.658	986.38
479.876	1021.38
480.095	1012.38
480.313	1034.38
480.532	1015.38
480.751	1030.38
480.969	1033.38
481.188	1017.38
481.406	1017.38
481.624	1038.38
481.843	1059.38
482.061	1049.38
482.28	1022.38
482.498	1022.38
482.717	998.38
482.935	1027.38
483.153	1047.38
483.372	1043.38
483.59	1049.38
483.808	1036.38
484.027	1039.38
484.245	1050.38
484.463	1042.38
484.681	1083.38
484.9	1068.38
485.118	1045.38
485.336	1054.38
485.554	1056.38
485.772	1048.38
485.99	1055.38
486.209	1069.38
486.427	1068.38
486.645	1067.38
486.863	1059.38
487.081	1071.38
487.299	1100.38
487.517	1081.38
487.735	1049.38
487.953	1071.38
488.171	1065.38
488.389	1066.38
488.607	1057.38
488.825	1067.38
489.043	1080.38
489.261	1061.38
489.479	1082.38
489.696	1065.38
489.914	1044.38
490.132	1076.38
490.35	1091.38
490.568	1079.38
490.786	1070.38
491.003	1103.38
491.221	1096.38
491.439	1043.38
491.657	1060.38
491.874	1073.38
492.092	1057.38
492.31	1094.38
492.527	1097.38
492.745	1092.38
492.963	1078.38
493.18	1070.38
493.398	1117.38
493.615	1103.38
493.833	1092.38
494.05	1109.38
494.268	1107.38
494.485	1106.38
494.703	1109.38
494.92	1126.38
495.138	1117.38
495.355	1098.38
495.573	1127.38
495.79	1110.38
496.008	1125.38
496.225	1151.38
496.442	1193.38
496.66	1139.38
496.877	1186.38
497.094	1195.38
497.312	1172.38
497.529	1202.38
497.746	1205.38
497.963	1198.38
498.181	1219.38
498.398	1228.38
498.615	1273.38
498.832	1303.38
499.049	1300.38
499.267	1311.38
499.484	1354.38
499.701	1357.38
