Data from Fe(NO3)3@0.05M.TitratingCurve.Agarose3%dH2O.NegLispCup.LampEnergy10.LIBS07252019_HRD10591_16-46-23-334.txt Node
Date: Thu Jul 25 16:46:23 EDT 2019
User: cochatt
Spectrometer: HR+D1059
Trigger mode: 1
Integration Time (sec): 1.000000E-1
Scans to average: 1
Electric dark correction enabled: true
Nonlinearity correction enabled: false
Boxcar width: 0
XAxis mode: Wavelengths
Number of Pixels in Spectrum: 2048
>>>>>Begin Spectral Data<<<<<
223.165	-20.44
223.4	-20.44
223.635	-20.44
223.869	-28.44
224.104	-15.44
224.338	-24.44
224.573	-6.44
224.808	-10.44
225.042	-7.44
225.277	7.56
225.511	-3.44
225.746	6.56
225.98	2.56
226.215	11.56
226.449	5.56
226.683	23.56
226.918	23.56
227.152	35.56
227.387	41.56
227.621	40.56
227.856	44.56
228.09	41.56
228.324	53.56
228.559	58.56
228.793	69.56
229.027	108.56
229.262	128.56
229.496	134.56
229.73	140.56
229.964	143.56
230.199	145.56
230.433	153.56
230.667	149.56
230.901	152.56
231.136	153.56
231.37	153.56
231.604	176.56
231.838	163.56
232.072	150.56
232.306	159.56
232.541	152.56
232.775	167.56
233.009	149.56
233.243	168.56
233.477	163.56
233.711	179.56
233.945	196.56
234.179	182.56
234.413	180.56
234.647	187.56
234.881	177.56
235.115	198.56
235.349	196.56
235.583	191.56
235.817	179.56
236.051	177.56
236.285	184.56
236.519	198.56
236.753	199.56
236.987	195.56
237.221	193.56
237.455	198.56
237.689	193.56
237.922	190.56
238.156	205.56
238.39	216.56
238.624	242.56
238.858	225.56
239.091	210.56
239.325	228.56
239.559	210.56
239.793	240.56
240.027	236.56
240.26	231.56
240.494	227.56
240.728	246.56
240.961	261.56
241.195	235.56
241.429	244.56
241.662	223.56
241.896	229.56
242.13	228.56
242.363	236.56
242.597	244.56
242.83	252.56
243.064	239.56
243.298	266.56
243.531	228.56
243.765	255.56
243.998	263.56
244.232	259.56
244.465	262.56
244.699	269.56
244.932	286.56
245.166	266.56
245.399	267.56
245.633	260.56
245.866	283.56
246.099	267.56
246.333	277.56
246.566	282.56
246.8	268.56
247.033	287.56
247.266	274.56
247.5	277.56
247.733	285.56
247.966	293.56
248.2	282.56
248.433	291.56
248.666	307.56
248.899	298.56
249.133	308.56
249.366	333.56
249.599	339.56
249.832	319.56
250.066	331.56
250.299	331.56
250.532	319.56
250.765	318.56
250.998	331.56
251.231	320.56
251.465	318.56
251.698	317.56
251.931	321.56
252.164	322.56
252.397	337.56
252.63	344.56
252.863	350.56
253.096	369.56
253.329	345.56
253.562	361.56
253.795	360.56
254.028	359.56
254.261	383.56
254.494	365.56
254.727	372.56
254.96	375.56
255.193	365.56
255.426	381.56
255.659	347.56
255.892	355.56
256.124	371.56
256.357	372.56
256.59	365.56
256.823	375.56
257.056	370.56
257.289	358.56
257.521	374.56
257.754	385.56
257.987	398.56
258.22	395.56
258.452	379.56
258.685	400.56
258.918	416.56
259.151	407.56
259.383	401.56
259.616	400.56
259.849	402.56
260.081	459.56
260.314	515.56
260.547	435.56
260.779	428.56
261.012	463.56
261.244	471.56
261.477	472.56
261.71	452.56
261.942	434.56
262.175	420.56
262.407	413.56
262.64	437.56
262.872	447.56
263.105	474.56
263.337	453.56
263.57	455.56
263.802	404.56
264.035	423.56
264.267	425.56
264.499	400.56
264.732	431.56
264.964	439.56
265.197	429.56
265.429	420.56
265.661	429.56
265.894	437.56
266.126	435.56
266.358	457.56
266.591	437.56
266.823	439.56
267.055	460.56
267.287	456.56
267.52	448.56
267.752	475.56
267.984	447.56
268.216	454.56
268.448	451.56
268.681	466.56
268.913	465.56
269.145	461.56
269.377	451.56
269.609	471.56
269.841	462.56
270.073	461.56
270.306	485.56
270.538	478.56
270.77	450.56
271.002	476.56
271.234	489.56
271.466	499.56
271.698	515.56
271.93	507.56
272.162	482.56
272.394	515.56
272.626	490.56
272.858	513.56
273.09	525.56
273.322	524.56
273.553	535.56
273.785	517.56
274.017	572.56
274.249	605.56
274.481	603.56
274.713	611.56
274.945	627.56
275.176	666.56
275.408	631.56
275.64	615.56
275.872	613.56
276.104	572.56
276.335	532.56
276.567	543.56
276.799	535.56
277.031	566.56
277.262	550.56
277.494	540.56
277.726	535.56
277.957	534.56
278.189	557.56
278.421	548.56
278.652	559.56
278.884	544.56
279.115	557.56
279.347	561.56
279.579	554.56
279.81	561.56
280.042	547.56
280.273	541.56
280.505	555.56
280.736	545.56
280.968	571.56
281.199	574.56
281.431	601.56
281.662	567.56
281.894	593.56
282.125	582.56
282.356	577.56
282.588	585.56
282.819	588.56
283.051	570.56
283.282	588.56
283.513	581.56
283.745	607.56
283.976	600.56
284.207	618.56
284.439	615.56
284.67	624.56
284.901	615.56
285.132	607.56
285.364	613.56
285.595	607.56
285.826	630.56
286.057	595.56
286.288	598.56
286.52	620.56
286.751	629.56
286.982	636.56
287.213	628.56
287.444	614.56
287.675	623.56
287.906	618.56
288.138	626.56
288.369	629.56
288.6	624.56
288.831	624.56
289.062	636.56
289.293	660.56
289.524	632.56
289.755	628.56
289.986	645.56
290.217	632.56
290.448	632.56
290.679	660.56
290.91	652.56
291.141	646.56
291.371	646.56
291.602	651.56
291.833	633.56
292.064	625.56
292.295	649.56
292.526	632.56
292.757	641.56
292.987	653.56
293.218	651.56
293.449	646.56
293.68	642.56
293.91	639.56
294.141	657.56
294.372	631.56
294.603	659.56
294.833	667.56
295.064	659.56
295.295	675.56
295.525	649.56
295.756	665.56
295.987	667.56
296.217	666.56
296.448	662.56
296.679	682.56
296.909	682.56
297.14	680.56
297.37	676.56
297.601	687.56
297.831	692.56
298.062	673.56
298.292	701.56
298.523	715.56
298.753	714.56
298.984	682.56
299.214	679.56
299.445	713.56
299.675	694.56
299.905	704.56
300.136	691.56
300.366	718.56
300.597	722.56
300.827	702.56
301.057	705.56
301.288	711.56
301.518	701.56
301.748	712.56
301.979	732.56
302.209	748.56
302.439	750.56
302.669	736.56
302.9	711.56
303.13	716.56
303.36	723.56
303.59	749.56
303.82	755.56
304.051	751.56
304.281	715.56
304.511	739.56
304.741	754.56
304.971	719.56
305.201	744.56
305.431	767.56
305.661	757.56
305.891	718.56
306.121	755.56
306.352	782.56
306.582	725.56
306.812	737.56
307.042	730.56
307.272	717.56
307.502	735.56
307.731	729.56
307.961	736.56
308.191	745.56
308.421	730.56
308.651	743.56
308.881	736.56
309.111	735.56
309.341	768.56
309.571	747.56
309.8	757.56
310.03	773.56
310.26	766.56
310.49	746.56
310.72	757.56
310.949	745.56
311.179	736.56
311.409	743.56
311.639	753.56
311.868	773.56
312.098	769.56
312.328	788.56
312.557	801.56
312.787	800.56
313.017	788.56
313.246	776.56
313.476	782.56
313.706	797.56
313.935	811.56
314.165	799.56
314.394	790.56
314.624	816.56
314.853	819.56
315.083	779.56
315.312	813.56
315.542	832.56
315.771	826.56
316.001	798.56
316.23	781.56
316.46	811.56
316.689	816.56
316.919	837.56
317.148	823.56
317.377	803.56
317.607	805.56
317.836	813.56
318.065	814.56
318.295	817.56
318.524	815.56
318.753	827.56
318.983	823.56
319.212	803.56
319.441	822.56
319.67	835.56
319.9	855.56
320.129	833.56
320.358	839.56
320.587	811.56
320.816	817.56
321.046	815.56
321.275	819.56
321.504	844.56
321.733	837.56
321.962	827.56
322.191	840.56
322.42	827.56
322.649	828.56
322.878	855.56
323.108	812.56
323.337	832.56
323.566	853.56
323.795	835.56
324.024	865.56
324.253	876.56
324.482	841.56
324.71	835.56
324.939	856.56
325.168	868.56
325.397	867.56
325.626	851.56
325.855	870.56
326.084	887.56
326.313	885.56
326.542	877.56
326.77	868.56
326.999	867.56
327.228	847.56
327.457	891.56
327.686	860.56
327.914	871.56
328.143	888.56
328.372	897.56
328.6	887.56
328.829	887.56
329.058	896.56
329.287	887.56
329.515	906.56
329.744	904.56
329.972	883.56
330.201	907.56
330.43	910.56
330.658	891.56
330.887	898.56
331.115	916.56
331.344	914.56
331.572	908.56
331.801	953.56
332.03	944.56
332.258	969.56
332.486	944.56
332.715	946.56
332.943	970.56
333.172	986.56
333.4	957.56
333.629	978.56
333.857	1009.56
334.085	1045.56
334.314	1033.56
334.542	1026.56
334.771	1026.56
334.999	1041.56
335.227	1041.56
335.455	1007.56
335.684	1038.56
335.912	1052.56
336.14	1021.56
336.369	1032.56
336.597	1022.56
336.825	993.56
337.053	1014.56
337.281	1015.56
337.51	1017.56
337.738	1013.56
337.966	992.56
338.194	977.56
338.422	963.56
338.65	967.56
338.878	982.56
339.106	962.56
339.334	976.56
339.562	970.56
339.79	963.56
340.018	967.56
340.246	954.56
340.474	971.56
340.702	947.56
340.93	951.56
341.158	969.56
341.386	969.56
341.614	953.56
341.842	955.56
342.07	967.56
342.298	936.56
342.526	943.56
342.754	946.56
342.981	950.56
343.209	949.56
343.437	971.56
343.665	1008.56
343.893	1023.56
344.12	1033.56
344.348	1029.56
344.576	995.56
344.804	1000.56
345.031	999.56
345.259	981.56
345.487	966.56
345.714	986.56
345.942	948.56
346.17	963.56
346.397	961.56
346.625	947.56
346.853	957.56
347.08	936.56
347.308	917.56
347.535	924.56
347.763	905.56
347.99	926.56
348.218	906.56
348.445	905.56
348.673	882.56
348.9	924.56
349.128	910.56
349.355	919.56
349.583	922.56
349.81	885.56
350.037	905.56
350.265	908.56
350.492	891.56
350.72	927.56
350.947	895.56
351.174	900.56
351.402	897.56
351.629	912.56
351.856	919.56
352.083	919.56
352.311	893.56
352.538	888.56
352.765	900.56
352.992	882.56
353.22	893.56
353.447	900.56
353.674	901.56
353.901	906.56
354.128	889.56
354.355	909.56
354.583	889.56
354.81	890.56
355.037	925.56
355.264	900.56
355.491	932.56
355.718	915.56
355.945	904.56
356.172	892.56
356.399	900.56
356.626	936.56
356.853	915.56
357.08	931.56
357.307	924.56
357.534	894.56
357.761	905.56
357.988	916.56
358.215	912.56
358.441	946.56
358.668	933.56
358.895	957.56
359.122	895.56
359.349	903.56
359.576	921.56
359.802	903.56
360.029	894.56
360.256	914.56
360.483	925.56
360.709	922.56
360.936	947.56
361.163	935.56
361.39	909.56
361.616	936.56
361.843	932.56
362.07	924.56
362.296	932.56
362.523	938.56
362.749	906.56
362.976	920.56
363.203	931.56
363.429	918.56
363.656	925.56
363.882	943.56
364.109	905.56
364.335	915.56
364.562	899.56
364.788	935.56
365.015	938.56
365.241	924.56
365.468	908.56
365.694	925.56
365.92	918.56
366.147	931.56
366.373	925.56
366.599	963.56
366.826	929.56
367.052	927.56
367.278	941.56
367.505	953.56
367.731	907.56
367.957	943.56
368.184	945.56
368.41	955.56
368.636	977.56
368.862	967.56
369.089	993.56
369.315	928.56
369.541	960.56
369.767	976.56
369.993	967.56
370.219	961.56
370.445	997.56
370.672	996.56
370.898	1021.56
371.124	988.56
371.35	1013.56
371.576	971.56
371.802	1001.56
372.028	1021.56
372.254	1006.56
372.48	1008.56
372.706	1026.56
372.932	1050.56
373.158	1019.56
373.384	1033.56
373.61	1057.56
373.835	1068.56
374.061	1039.56
374.287	1050.56
374.513	1066.56
374.739	1055.56
374.965	1096.56
375.191	1092.56
375.416	1067.56
375.642	1049.56
375.868	1073.56
376.094	1047.56
376.319	1025.56
376.545	1067.56
376.771	1043.56
376.997	1011.56
377.222	997.56
377.448	1001.56
377.674	1020.56
377.899	996.56
378.125	1040.56
378.35	1004.56
378.576	1043.56
378.802	992.56
379.027	1027.56
379.253	1004.56
379.478	1004.56
379.704	1019.56
379.929	1008.56
380.155	1014.56
380.38	1018.56
380.606	1023.56
380.831	994.56
381.057	1039.56
381.282	1019.56
381.507	1038.56
381.733	1075.56
381.958	1067.56
382.184	1096.56
382.409	1079.56
382.634	1103.56
382.86	1078.56
383.085	1057.56
383.31	1085.56
383.535	1084.56
383.761	1068.56
383.986	1089.56
384.211	1096.56
384.436	1117.56
384.662	1131.56
384.887	1122.56
385.112	1149.56
385.337	1133.56
385.562	1140.56
385.787	1147.56
386.013	1175.56
386.238	1147.56
386.463	1170.56
386.688	1187.56
386.913	1153.56
387.138	1164.56
387.363	1194.56
387.588	1179.56
387.813	1140.56
388.038	1169.56
388.263	1181.56
388.488	1213.56
388.713	1215.56
388.938	1199.56
389.163	1183.56
389.387	1171.56
389.612	1182.56
389.837	1191.56
390.062	1186.56
390.287	1169.56
390.512	1193.56
390.736	1196.56
390.961	1218.56
391.186	1232.56
391.411	1201.56
391.636	1259.56
391.86	1246.56
392.085	1251.56
392.31	1247.56
392.534	1261.56
392.759	1232.56
392.984	1242.56
393.208	1239.56
393.433	1263.56
393.658	1276.56
393.882	1231.56
394.107	1249.56
394.331	1259.56
394.556	1252.56
394.78	1221.56
395.005	1240.56
395.229	1250.56
395.454	1267.56
395.678	1259.56
395.903	1303.56
396.127	1306.56
396.352	1281.56
396.576	1294.56
396.801	1280.56
397.025	1320.56
397.249	1303.56
397.474	1311.56
397.698	1322.56
397.922	1323.56
398.147	1337.56
398.371	1378.56
398.595	1392.56
398.82	1435.56
399.044	1489.56
399.268	1509.56
399.492	1562.56
399.717	1642.56
399.941	1608.56
400.165	1622.56
400.389	1581.56
400.613	1563.56
400.837	1500.56
401.062	1515.56
401.286	1462.56
401.51	1460.56
401.734	1427.56
401.958	1438.56
402.182	1459.56
402.406	1452.56
402.63	1415.56
402.854	1432.56
403.078	1436.56
403.302	1432.56
403.526	1423.56
403.75	1454.56
403.974	1461.56
404.198	1485.56
404.422	1473.56
404.645	1462.56
404.869	1486.56
405.093	1475.56
405.317	1481.56
405.541	1481.56
405.765	1490.56
405.988	1512.56
406.212	1488.56
406.436	1546.56
406.66	1555.56
406.883	1513.56
407.107	1566.56
407.331	1607.56
407.555	1637.56
407.778	1655.56
408.002	1620.56
408.226	1611.56
408.449	1620.56
408.673	1586.56
408.896	1572.56
409.12	1530.56
409.344	1561.56
409.567	1547.56
409.791	1560.56
410.014	1522.56
410.238	1508.56
410.461	1519.56
410.685	1521.56
410.908	1497.56
411.132	1493.56
411.355	1465.56
411.578	1500.56
411.802	1503.56
412.025	1465.56
412.249	1477.56
412.472	1516.56
412.695	1486.56
412.919	1451.56
413.142	1465.56
413.365	1439.56
413.589	1482.56
413.812	1465.56
414.035	1453.56
414.258	1434.56
414.482	1463.56
414.705	1481.56
414.928	1443.56
415.151	1435.56
415.374	1416.56
415.597	1422.56
415.821	1395.56
416.044	1397.56
416.267	1372.56
416.49	1370.56
416.713	1428.56
416.936	1396.56
417.159	1363.56
417.382	1377.56
417.605	1360.56
417.828	1404.56
418.051	1376.56
418.274	1385.56
418.497	1399.56
418.72	1399.56
418.943	1371.56
419.166	1411.56
419.389	1551.56
419.611	1514.56
419.834	1455.56
420.057	1415.56
420.28	1386.56
420.503	1380.56
420.726	1349.56
420.948	1364.56
421.171	1378.56
421.394	1328.56
421.617	1359.56
421.839	1381.56
422.062	1401.56
422.285	1317.56
422.507	1355.56
422.73	1356.56
422.953	1346.56
423.175	1371.56
423.398	1357.56
423.621	1331.56
423.843	1356.56
424.066	1403.56
424.288	1382.56
424.511	1356.56
424.733	1373.56
424.956	1333.56
425.178	1352.56
425.401	1359.56
425.623	1357.56
425.846	1337.56
426.068	1322.56
426.291	1351.56
426.513	1347.56
426.735	1316.56
426.958	1357.56
427.18	1313.56
427.402	1327.56
427.625	1328.56
427.847	1305.56
428.069	1289.56
428.292	1324.56
428.514	1321.56
428.736	1302.56
428.958	1321.56
429.181	1311.56
429.403	1294.56
429.625	1298.56
429.847	1297.56
430.069	1298.56
430.292	1302.56
430.514	1306.56
430.736	1337.56
430.958	1327.56
431.18	1291.56
431.402	1332.56
431.624	1290.56
431.846	1331.56
432.068	1333.56
432.29	1340.56
432.512	1354.56
432.734	1314.56
432.956	1332.56
433.178	1300.56
433.4	1306.56
433.622	1348.56
433.844	1327.56
434.066	1301.56
434.287	1338.56
434.509	1364.56
434.731	1366.56
434.953	1363.56
435.175	1317.56
435.397	1337.56
435.618	1346.56
435.84	1370.56
436.062	1340.56
436.284	1329.56
436.505	1317.56
436.727	1307.56
436.949	1289.56
437.17	1298.56
437.392	1285.56
437.614	1272.56
437.835	1237.56
438.057	1255.56
438.278	1298.56
438.5	1268.56
438.721	1299.56
438.943	1308.56
439.165	1267.56
439.386	1295.56
439.608	1293.56
439.829	1293.56
440.05	1280.56
440.272	1267.56
440.493	1313.56
440.715	1305.56
440.936	1332.56
441.158	1343.56
441.379	1306.56
441.6	1341.56
441.822	1337.56
442.043	1343.56
442.264	1334.56
442.486	1363.56
442.707	1347.56
442.928	1336.56
443.149	1352.56
443.371	1296.56
443.592	1375.56
443.813	1349.56
444.034	1344.56
444.255	1358.56
444.476	1428.56
444.698	1397.56
444.919	1403.56
445.14	1531.56
445.361	1455.56
445.582	1367.56
445.803	1352.56
446.024	1362.56
446.245	1347.56
446.466	1345.56
446.687	1304.56
446.908	1296.56
447.129	1295.56
447.35	1293.56
447.571	1253.56
447.792	1247.56
448.013	1256.56
448.234	1232.56
448.455	1247.56
448.675	1223.56
448.896	1214.56
449.117	1204.56
449.338	1216.56
449.559	1182.56
449.779	1203.56
450	1209.56
450.221	1182.56
450.442	1205.56
450.662	1175.56
450.883	1173.56
451.104	1192.56
451.324	1174.56
451.545	1208.56
451.766	1181.56
451.986	1186.56
452.207	1162.56
452.428	1183.56
452.648	1183.56
452.869	1143.56
453.089	1145.56
453.31	1149.56
453.53	1146.56
453.751	1159.56
453.971	1159.56
454.192	1172.56
454.412	1145.56
454.633	1143.56
454.853	1165.56
455.073	1125.56
455.294	1130.56
455.514	1146.56
455.734	1157.56
455.955	1116.56
456.175	1137.56
456.395	1138.56
456.616	1121.56
456.836	1143.56
457.056	1183.56
457.276	1140.56
457.497	1175.56
457.717	1145.56
457.937	1190.56
458.157	1164.56
458.377	1169.56
458.598	1201.56
458.818	1180.56
459.038	1256.56
459.258	1244.56
459.478	1273.56
459.698	1296.56
459.918	1317.56
460.138	1291.56
460.358	1371.56
460.578	1357.56
460.798	1350.56
461.018	1398.56
461.238	1399.56
461.458	1431.56
461.678	1368.56
461.898	1397.56
462.118	1393.56
462.338	1472.56
462.558	1459.56
462.777	1494.56
462.997	1546.56
463.217	1538.56
463.437	1568.56
463.657	1537.56
463.876	1545.56
464.096	1579.56
464.316	1510.56
464.536	1466.56
464.755	1466.56
464.975	1462.56
465.195	1447.56
465.414	1426.56
465.634	1359.56
465.854	1369.56
466.073	1330.56
466.293	1325.56
466.512	1291.56
466.732	1285.56
466.951	1296.56
467.171	1263.56
467.391	1275.56
467.61	1267.56
467.829	1248.56
468.049	1257.56
468.268	1234.56
468.488	1232.56
468.707	1228.56
468.927	1261.56
469.146	1261.56
469.365	1243.56
469.585	1206.56
469.804	1264.56
470.023	1296.56
470.243	1263.56
470.462	1247.56
470.681	1243.56
470.901	1276.56
471.12	1274.56
471.339	1289.56
471.558	1226.56
471.777	1256.56
471.997	1287.56
472.216	1278.56
472.435	1298.56
472.654	1236.56
472.873	1219.56
473.092	1238.56
473.311	1273.56
473.53	1249.56
473.749	1266.56
473.968	1273.56
474.187	1276.56
474.406	1255.56
474.625	1267.56
474.844	1266.56
475.063	1296.56
475.282	1297.56
475.501	1293.56
475.72	1308.56
475.939	1299.56
476.158	1307.56
476.377	1344.56
476.596	1359.56
476.814	1367.56
477.033	1331.56
477.252	1361.56
477.471	1397.56
477.69	1393.56
477.908	1396.56
478.127	1441.56
478.346	1421.56
478.564	1435.56
478.783	1429.56
479.002	1510.56
479.22	1501.56
479.439	1545.56
479.658	1539.56
479.876	1499.56
480.095	1495.56
480.313	1532.56
480.532	1562.56
480.751	1542.56
480.969	1543.56
481.188	1536.56
481.406	1547.56
481.624	1533.56
481.843	1493.56
482.061	1490.56
482.28	1511.56
482.498	1523.56
482.717	1501.56
482.935	1480.56
483.153	1508.56
483.372	1492.56
483.59	1498.56
483.808	1496.56
484.027	1524.56
484.245	1525.56
484.463	1496.56
484.681	1503.56
484.9	1544.56
485.118	1549.56
485.336	1558.56
485.554	1568.56
485.772	1549.56
485.99	1510.56
486.209	1561.56
486.427	1554.56
486.645	1551.56
486.863	1588.56
487.081	1577.56
487.299	1559.56
487.517	1581.56
487.735	1549.56
487.953	1547.56
488.171	1548.56
488.389	1550.56
488.607	1551.56
488.825	1554.56
489.043	1541.56
489.261	1566.56
489.479	1560.56
489.696	1535.56
489.914	1539.56
490.132	1516.56
490.35	1542.56
490.568	1524.56
490.786	1538.56
491.003	1570.56
491.221	1571.56
491.439	1570.56
491.657	1557.56
491.874	1580.56
492.092	1608.56
492.31	1559.56
492.527	1622.56
492.745	1616.56
492.963	1580.56
493.18	1589.56
493.398	1591.56
493.615	1631.56
493.833	1565.56
