Data from Fe(NO3)3@0.05M.TitratingCurve.Agarose3%dH2O.NegLispCup.LampEnergy10.LIBS07252019_HRD10591_16-48-02-334.txt Node
Date: Thu Jul 25 16:48:02 EDT 2019
User: cochatt
Spectrometer: HR+D1059
Trigger mode: 1
Integration Time (sec): 1.000000E-1
Scans to average: 1
Electric dark correction enabled: true
Nonlinearity correction enabled: false
Boxcar width: 0
XAxis mode: Wavelengths
Number of Pixels in Spectrum: 2048
>>>>>Begin Spectral Data<<<<<
223.165	-15.44
223.4	-15.44
223.635	-15.44
223.869	-18.44
224.104	-25.44
224.338	-10.44
224.573	-11.44
224.808	-27.44
225.042	-10.44
225.277	-7.44
225.511	-1.44
225.746	10.56
225.98	5.56
226.215	6.56
226.449	20.56
226.683	22.56
226.918	38.56
227.152	23.56
227.387	51.56
227.621	41.56
227.856	40.56
228.09	44.56
228.324	51.56
228.559	68.56
228.793	51.56
229.027	65.56
229.262	71.56
229.496	68.56
229.73	83.56
229.964	88.56
230.199	77.56
230.433	73.56
230.667	97.56
230.901	87.56
231.136	68.56
231.37	87.56
231.604	87.56
231.838	85.56
232.072	96.56
232.306	101.56
232.541	92.56
232.775	87.56
233.009	92.56
233.243	84.56
233.477	96.56
233.711	88.56
233.945	86.56
234.179	90.56
234.413	106.56
234.647	87.56
234.881	84.56
235.115	96.56
235.349	88.56
235.583	90.56
235.817	95.56
236.051	86.56
236.285	92.56
236.519	99.56
236.753	96.56
236.987	85.56
237.221	89.56
237.455	97.56
237.689	75.56
237.922	100.56
238.156	86.56
238.39	96.56
238.624	100.56
238.858	82.56
239.091	84.56
239.325	88.56
239.559	90.56
239.793	90.56
240.027	87.56
240.26	76.56
240.494	88.56
240.728	86.56
240.961	90.56
241.195	86.56
241.429	101.56
241.662	73.56
241.896	82.56
242.13	90.56
242.363	93.56
242.597	100.56
242.83	96.56
243.064	97.56
243.298	99.56
243.531	103.56
243.765	98.56
243.998	95.56
244.232	105.56
244.465	102.56
244.699	93.56
244.932	89.56
245.166	112.56
245.399	113.56
245.633	105.56
245.866	96.56
246.099	89.56
246.333	93.56
246.566	104.56
246.8	116.56
247.033	108.56
247.266	103.56
247.5	104.56
247.733	95.56
247.966	118.56
248.2	113.56
248.433	105.56
248.666	106.56
248.899	102.56
249.133	117.56
249.366	105.56
249.599	114.56
249.832	115.56
250.066	106.56
250.299	105.56
250.532	128.56
250.765	103.56
250.998	99.56
251.231	97.56
251.465	111.56
251.698	99.56
251.931	107.56
252.164	100.56
252.397	112.56
252.63	117.56
252.863	113.56
253.096	109.56
253.329	103.56
253.562	117.56
253.795	123.56
254.028	120.56
254.261	104.56
254.494	125.56
254.727	122.56
254.96	125.56
255.193	121.56
255.426	102.56
255.659	110.56
255.892	104.56
256.124	109.56
256.357	105.56
256.59	116.56
256.823	103.56
257.056	108.56
257.289	125.56
257.521	109.56
257.754	107.56
257.987	99.56
258.22	108.56
258.452	111.56
258.685	104.56
258.918	116.56
259.151	117.56
259.383	123.56
259.616	117.56
259.849	118.56
260.081	144.56
260.314	128.56
260.547	130.56
260.779	124.56
261.012	127.56
261.244	124.56
261.477	121.56
261.71	134.56
261.942	131.56
262.175	114.56
262.407	124.56
262.64	117.56
262.872	126.56
263.105	122.56
263.337	123.56
263.57	124.56
263.802	118.56
264.035	114.56
264.267	111.56
264.499	120.56
264.732	125.56
264.964	123.56
265.197	119.56
265.429	112.56
265.661	115.56
265.894	115.56
266.126	129.56
266.358	128.56
266.591	132.56
266.823	136.56
267.055	112.56
267.287	130.56
267.52	125.56
267.752	121.56
267.984	112.56
268.216	134.56
268.448	129.56
268.681	124.56
268.913	133.56
269.145	123.56
269.377	138.56
269.609	127.56
269.841	137.56
270.073	119.56
270.306	124.56
270.538	118.56
270.77	132.56
271.002	124.56
271.234	124.56
271.466	128.56
271.698	130.56
271.93	134.56
272.162	127.56
272.394	138.56
272.626	139.56
272.858	139.56
273.09	142.56
273.322	145.56
273.553	135.56
273.785	144.56
274.017	130.56
274.249	130.56
274.481	140.56
274.713	138.56
274.945	151.56
275.176	139.56
275.408	125.56
275.64	149.56
275.872	134.56
276.104	150.56
276.335	125.56
276.567	127.56
276.799	135.56
277.031	143.56
277.262	135.56
277.494	138.56
277.726	142.56
277.957	141.56
278.189	140.56
278.421	153.56
278.652	149.56
278.884	136.56
279.115	155.56
279.347	139.56
279.579	136.56
279.81	144.56
280.042	135.56
280.273	134.56
280.505	146.56
280.736	135.56
280.968	147.56
281.199	144.56
281.431	130.56
281.662	133.56
281.894	137.56
282.125	136.56
282.356	151.56
282.588	141.56
282.819	145.56
283.051	145.56
283.282	153.56
283.513	149.56
283.745	140.56
283.976	137.56
284.207	153.56
284.439	154.56
284.67	148.56
284.901	156.56
285.132	131.56
285.364	172.56
285.595	161.56
285.826	131.56
286.057	145.56
286.288	148.56
286.52	149.56
286.751	153.56
286.982	138.56
287.213	159.56
287.444	157.56
287.675	156.56
287.906	138.56
288.138	140.56
288.369	144.56
288.6	153.56
288.831	151.56
289.062	144.56
289.293	142.56
289.524	160.56
289.755	138.56
289.986	141.56
290.217	158.56
290.448	155.56
290.679	145.56
290.91	150.56
291.141	155.56
291.371	154.56
291.602	151.56
291.833	141.56
292.064	151.56
292.295	159.56
292.526	145.56
292.757	140.56
292.987	155.56
293.218	145.56
293.449	143.56
293.68	147.56
293.91	145.56
294.141	152.56
294.372	152.56
294.603	169.56
294.833	154.56
295.064	151.56
295.295	139.56
295.525	136.56
295.756	150.56
295.987	160.56
296.217	167.56
296.448	158.56
296.679	137.56
296.909	159.56
297.14	156.56
297.37	173.56
297.601	157.56
297.831	158.56
298.062	159.56
298.292	157.56
298.523	179.56
298.753	163.56
298.984	156.56
299.214	164.56
299.445	172.56
299.675	169.56
299.905	163.56
300.136	166.56
300.366	162.56
300.597	162.56
300.827	154.56
301.057	166.56
301.288	177.56
301.518	166.56
301.748	171.56
301.979	142.56
302.209	175.56
302.439	167.56
302.669	167.56
302.9	176.56
303.13	168.56
303.36	155.56
303.59	163.56
303.82	161.56
304.051	152.56
304.281	158.56
304.511	165.56
304.741	170.56
304.971	148.56
305.201	167.56
305.431	168.56
305.661	184.56
305.891	149.56
306.121	168.56
306.352	163.56
306.582	170.56
306.812	167.56
307.042	162.56
307.272	167.56
307.502	175.56
307.731	165.56
307.961	179.56
308.191	170.56
308.421	156.56
308.651	169.56
308.881	171.56
309.111	173.56
309.341	155.56
309.571	163.56
309.8	174.56
310.03	174.56
310.26	176.56
310.49	172.56
310.72	152.56
310.949	165.56
311.179	161.56
311.409	170.56
311.639	153.56
311.868	178.56
312.098	163.56
312.328	172.56
312.557	171.56
312.787	184.56
313.017	179.56
313.246	169.56
313.476	175.56
313.706	165.56
313.935	181.56
314.165	172.56
314.394	159.56
314.624	171.56
314.853	190.56
315.083	168.56
315.312	184.56
315.542	171.56
315.771	169.56
316.001	174.56
316.23	176.56
316.46	180.56
316.689	175.56
316.919	153.56
317.148	170.56
317.377	183.56
317.607	179.56
317.836	165.56
318.065	176.56
318.295	171.56
318.524	164.56
318.753	176.56
318.983	167.56
319.212	169.56
319.441	165.56
319.67	172.56
319.9	178.56
320.129	185.56
320.358	172.56
320.587	172.56
320.816	168.56
321.046	195.56
321.275	175.56
321.504	185.56
321.733	166.56
321.962	181.56
322.191	183.56
322.42	188.56
322.649	170.56
322.878	182.56
323.108	185.56
323.337	183.56
323.566	167.56
323.795	181.56
324.024	172.56
324.253	163.56
324.482	175.56
324.71	181.56
324.939	171.56
325.168	177.56
325.397	186.56
325.626	189.56
325.855	173.56
326.084	193.56
326.313	196.56
326.542	171.56
326.77	164.56
326.999	182.56
327.228	185.56
327.457	179.56
327.686	192.56
327.914	175.56
328.143	185.56
328.372	159.56
328.6	193.56
328.829	191.56
329.058	169.56
329.287	169.56
329.515	191.56
329.744	183.56
329.972	179.56
330.201	200.56
330.43	183.56
330.658	181.56
330.887	180.56
331.115	186.56
331.344	171.56
331.572	191.56
331.801	196.56
332.03	192.56
332.258	200.56
332.486	201.56
332.715	200.56
332.943	199.56
333.172	212.56
333.4	217.56
333.629	226.56
333.857	216.56
334.085	216.56
334.314	201.56
334.542	234.56
334.771	221.56
334.999	190.56
335.227	202.56
335.455	214.56
335.684	220.56
335.912	196.56
336.14	210.56
336.369	212.56
336.597	200.56
336.825	197.56
337.053	202.56
337.281	208.56
337.51	215.56
337.738	192.56
337.966	193.56
338.194	198.56
338.422	199.56
338.65	196.56
338.878	213.56
339.106	202.56
339.334	204.56
339.562	197.56
339.79	194.56
340.018	187.56
340.246	191.56
340.474	201.56
340.702	183.56
340.93	184.56
341.158	183.56
341.386	194.56
341.614	186.56
341.842	193.56
342.07	193.56
342.298	211.56
342.526	194.56
342.754	187.56
342.981	183.56
343.209	187.56
343.437	200.56
343.665	195.56
343.893	219.56
344.12	220.56
344.348	221.56
344.576	199.56
344.804	197.56
345.031	187.56
345.259	194.56
345.487	200.56
345.714	181.56
345.942	180.56
346.17	179.56
346.397	177.56
346.625	182.56
346.853	188.56
347.08	212.56
347.308	188.56
347.535	188.56
347.763	176.56
347.99	184.56
348.218	188.56
348.445	191.56
348.673	175.56
348.9	191.56
349.128	191.56
349.355	193.56
349.583	170.56
349.81	202.56
350.037	169.56
350.265	191.56
350.492	175.56
350.72	172.56
350.947	166.56
351.174	200.56
351.402	192.56
351.629	176.56
351.856	171.56
352.083	188.56
352.311	180.56
352.538	191.56
352.765	173.56
352.992	178.56
353.22	171.56
353.447	196.56
353.674	185.56
353.901	186.56
354.128	190.56
354.355	183.56
354.583	181.56
354.81	187.56
355.037	185.56
355.264	165.56
355.491	188.56
355.718	194.56
355.945	201.56
356.172	203.56
356.399	186.56
356.626	190.56
356.853	172.56
357.08	194.56
357.307	186.56
357.534	175.56
357.761	186.56
357.988	197.56
358.215	185.56
358.441	187.56
358.668	178.56
358.895	181.56
359.122	195.56
359.349	186.56
359.576	169.56
359.802	167.56
360.029	168.56
360.256	180.56
360.483	185.56
360.709	198.56
360.936	190.56
361.163	183.56
361.39	183.56
361.616	202.56
361.843	208.56
362.07	189.56
362.296	193.56
362.523	203.56
362.749	202.56
362.976	180.56
363.203	212.56
363.429	186.56
363.656	190.56
363.882	181.56
364.109	202.56
364.335	200.56
364.562	187.56
364.788	187.56
365.015	202.56
365.241	209.56
365.468	197.56
365.694	200.56
365.92	176.56
366.147	185.56
366.373	195.56
366.599	181.56
366.826	181.56
367.052	180.56
367.278	176.56
367.505	192.56
367.731	208.56
367.957	181.56
368.184	183.56
368.41	188.56
368.636	202.56
368.862	196.56
369.089	202.56
369.315	203.56
369.541	213.56
369.767	201.56
369.993	215.56
370.219	206.56
370.445	186.56
370.672	202.56
370.898	194.56
371.124	205.56
371.35	198.56
371.576	205.56
371.802	209.56
372.028	205.56
372.254	209.56
372.48	222.56
372.706	209.56
372.932	217.56
373.158	206.56
373.384	220.56
373.61	219.56
373.835	213.56
374.061	206.56
374.287	202.56
374.513	214.56
374.739	236.56
374.965	233.56
375.191	214.56
375.416	213.56
375.642	220.56
375.868	229.56
376.094	225.56
376.319	213.56
376.545	229.56
376.771	217.56
376.997	207.56
377.222	210.56
377.448	195.56
377.674	208.56
377.899	215.56
378.125	227.56
378.35	225.56
378.576	211.56
378.802	208.56
379.027	217.56
379.253	213.56
379.478	212.56
379.704	225.56
379.929	210.56
380.155	208.56
380.38	211.56
380.606	222.56
380.831	205.56
381.057	208.56
381.282	223.56
381.507	226.56
381.733	232.56
381.958	221.56
382.184	235.56
382.409	208.56
382.634	226.56
382.86	223.56
383.085	209.56
383.31	235.56
383.535	227.56
383.761	227.56
383.986	243.56
384.211	233.56
384.436	244.56
384.662	253.56
384.887	240.56
385.112	245.56
385.337	247.56
385.562	249.56
385.787	241.56
386.013	277.56
386.238	255.56
386.463	263.56
386.688	245.56
386.913	228.56
387.138	243.56
387.363	246.56
387.588	267.56
387.813	255.56
388.038	261.56
388.263	234.56
388.488	252.56
388.713	239.56
388.938	236.56
389.163	234.56
389.387	236.56
389.612	245.56
389.837	245.56
390.062	247.56
390.287	246.56
390.512	248.56
390.736	258.56
390.961	253.56
391.186	238.56
391.411	265.56
391.636	272.56
391.86	266.56
392.085	277.56
392.31	264.56
392.534	282.56
392.759	252.56
392.984	268.56
393.208	284.56
393.433	277.56
393.658	276.56
393.882	277.56
394.107	270.56
394.331	283.56
394.556	267.56
394.78	264.56
395.005	270.56
395.229	263.56
395.454	279.56
395.678	268.56
395.903	268.56
396.127	279.56
396.352	271.56
396.576	268.56
396.801	285.56
397.025	292.56
397.249	259.56
397.474	288.56
397.698	275.56
397.922	279.56
398.147	303.56
398.371	273.56
398.595	285.56
398.82	282.56
399.044	335.56
399.268	354.56
399.492	369.56
399.717	391.56
399.941	396.56
400.165	363.56
400.389	342.56
400.613	318.56
400.837	320.56
401.062	306.56
401.286	312.56
401.51	322.56
401.734	325.56
401.958	315.56
402.182	305.56
402.406	316.56
402.63	317.56
402.854	297.56
403.078	326.56
403.302	347.56
403.526	330.56
403.75	346.56
403.974	333.56
404.198	332.56
404.422	347.56
404.645	339.56
404.869	345.56
405.093	327.56
405.317	314.56
405.541	322.56
405.765	337.56
405.988	316.56
406.212	329.56
406.436	337.56
406.66	341.56
406.883	344.56
407.107	378.56
407.331	362.56
407.555	403.56
407.778	389.56
408.002	367.56
408.226	374.56
408.449	365.56
408.673	363.56
408.896	367.56
409.12	343.56
409.344	361.56
409.567	340.56
409.791	351.56
410.014	355.56
410.238	351.56
410.461	351.56
410.685	335.56
410.908	347.56
411.132	342.56
411.355	334.56
411.578	317.56
411.802	313.56
412.025	316.56
412.249	319.56
412.472	349.56
412.695	319.56
412.919	327.56
413.142	342.56
413.365	311.56
413.589	322.56
413.812	307.56
414.035	317.56
414.258	317.56
414.482	325.56
414.705	321.56
414.928	336.56
415.151	321.56
415.374	328.56
415.597	314.56
415.821	312.56
416.044	319.56
416.267	330.56
416.49	317.56
416.713	320.56
416.936	305.56
417.159	324.56
417.382	311.56
417.605	318.56
417.828	303.56
418.051	332.56
418.274	314.56
418.497	318.56
418.72	323.56
418.943	331.56
419.166	338.56
419.389	354.56
419.611	344.56
419.834	346.56
420.057	354.56
420.28	343.56
420.503	327.56
420.726	322.56
420.948	311.56
421.171	323.56
421.394	308.56
421.617	316.56
421.839	326.56
422.062	331.56
422.285	321.56
422.507	328.56
422.73	301.56
422.953	335.56
423.175	324.56
423.398	317.56
423.621	316.56
423.843	344.56
424.066	357.56
424.288	357.56
424.511	339.56
424.733	315.56
424.956	336.56
425.178	329.56
425.401	308.56
425.623	338.56
425.846	329.56
426.068	323.56
426.291	323.56
426.513	313.56
426.735	314.56
426.958	327.56
427.18	328.56
427.402	328.56
427.625	299.56
427.847	299.56
428.069	324.56
428.292	313.56
428.514	325.56
428.736	310.56
428.958	292.56
429.181	307.56
429.403	314.56
429.625	291.56
429.847	307.56
430.069	310.56
430.292	300.56
430.514	299.56
430.736	291.56
430.958	310.56
431.18	289.56
431.402	296.56
431.624	293.56
431.846	296.56
432.068	313.56
432.29	312.56
432.512	325.56
432.734	311.56
432.956	313.56
433.178	325.56
433.4	296.56
433.622	315.56
433.844	305.56
434.066	322.56
434.287	315.56
434.509	323.56
434.731	331.56
434.953	320.56
435.175	344.56
435.397	319.56
435.618	334.56
435.84	319.56
436.062	313.56
436.284	307.56
436.505	310.56
436.727	313.56
436.949	318.56
437.17	300.56
437.392	319.56
437.614	312.56
437.835	307.56
438.057	310.56
438.278	315.56
438.5	324.56
438.721	300.56
438.943	312.56
439.165	322.56
439.386	329.56
439.608	314.56
439.829	312.56
440.05	323.56
440.272	315.56
440.493	332.56
440.715	330.56
440.936	323.56
441.158	304.56
441.379	329.56
441.6	333.56
441.822	332.56
442.043	336.56
442.264	340.56
442.486	337.56
442.707	352.56
442.928	335.56
443.149	356.56
443.371	336.56
443.592	335.56
443.813	349.56
444.034	354.56
444.255	352.56
444.476	353.56
444.698	363.56
444.919	391.56
445.14	516.56
445.361	420.56
445.582	355.56
445.803	328.56
446.024	340.56
446.245	363.56
446.466	333.56
446.687	343.56
446.908	343.56
447.129	323.56
447.35	315.56
447.571	322.56
447.792	315.56
448.013	315.56
448.234	308.56
448.455	305.56
448.675	306.56
448.896	311.56
449.117	298.56
449.338	306.56
449.559	321.56
449.779	322.56
450	301.56
450.221	337.56
450.442	284.56
450.662	332.56
450.883	309.56
451.104	314.56
451.324	307.56
451.545	316.56
451.766	315.56
451.986	319.56
452.207	308.56
452.428	284.56
452.648	305.56
452.869	311.56
453.089	291.56
453.31	293.56
453.53	295.56
453.751	277.56
453.971	280.56
454.192	294.56
454.412	290.56
454.633	303.56
454.853	291.56
455.073	311.56
455.294	301.56
455.514	291.56
455.734	288.56
455.955	269.56
456.175	284.56
456.395	290.56
456.616	275.56
456.836	299.56
457.056	308.56
457.276	283.56
457.497	296.56
457.717	278.56
457.937	292.56
458.157	287.56
458.377	297.56
458.598	309.56
458.818	307.56
459.038	309.56
459.258	313.56
459.478	330.56
459.698	311.56
459.918	328.56
460.138	325.56
460.358	339.56
460.578	355.56
460.798	360.56
461.018	373.56
461.238	343.56
461.458	371.56
461.678	356.56
461.898	360.56
462.118	363.56
462.338	377.56
462.558	387.56
462.777	387.56
462.997	392.56
463.217	429.56
463.437	419.56
463.657	409.56
463.876	391.56
464.096	397.56
464.316	389.56
464.536	369.56
464.755	392.56
464.975	383.56
465.195	367.56
465.414	359.56
465.634	334.56
465.854	327.56
466.073	346.56
466.293	336.56
466.512	323.56
466.732	321.56
466.951	313.56
467.171	305.56
467.391	305.56
467.61	320.56
467.829	325.56
468.049	311.56
468.268	310.56
468.488	291.56
468.707	311.56
468.927	305.56
469.146	300.56
469.365	313.56
469.585	342.56
469.804	324.56
470.023	333.56
470.243	320.56
470.462	334.56
470.681	329.56
470.901	335.56
471.12	342.56
471.339	313.56
471.558	313.56
471.777	319.56
471.997	318.56
472.216	312.56
472.435	314.56
472.654	322.56
472.873	292.56
473.092	304.56
473.311	308.56
473.53	309.56
473.749	313.56
473.968	312.56
474.187	298.56
474.406	297.56
474.625	293.56
474.844	298.56
475.063	323.56
475.282	299.56
475.501	311.56
475.72	319.56
475.939	324.56
476.158	316.56
476.377	325.56
476.596	318.56
476.814	305.56
477.033	316.56
477.252	325.56
477.471	312.56
477.69	335.56
477.908	340.56
478.127	335.56
478.346	341.56
478.564	362.56
478.783	356.56
479.002	356.56
479.22	370.56
479.439	355.56
479.658	358.56
479.876	347.56
480.095	372.56
480.313	364.56
480.532	359.56
480.751	359.56
480.969	369.56
481.188	367.56
481.406	357.56
481.624	347.56
481.843	363.56
482.061	328.56
482.28	343.56
482.498	323.56
482.717	333.56
482.935	345.56
483.153	339.56
483.372	356.56
483.59	328.56
483.808	357.56
484.027	357.56
484.245	354.56
484.463	346.56
484.681	365.56
484.9	363.56
485.118	350.56
485.336	351.56
485.554	354.56
485.772	354.56
485.99	364.56
486.209	346.56
486.427	352.56
486.645	377.56
486.863	351.56
487.081	356.56
487.299	356.56
487.517	347.56
487.735	363.56
487.953	363.56
488.171	363.56
488.389	356.56
488.607	357.56
488.825	332.56
489.043	355.56
489.261	348.56
489.479	343.56
489.696	344.56
489.914	368.56
490.132	343.56
490.35	389.56
490.568	363.56
490.786	358.56
491.003	351.56
491.221	361.56
491.439	364.56
491.657	368.56
491.874	372.56
492.092	390.56
492.31	393.56
492.527	387.56
492.745	377.56
492.963	377.56
493.18	367.56
493.398	363.56
493.615	383.56
493.833	370.56
494.05	399.56
494.268	358.56
494.485	360.56
494.703	362.56
494.92	370.56
495.138	379.56
495.355	385.56
495.573	374.56
495.79	362.56
496.008	372.56
496.225	369.56
496.442	386.56
496.66	386.56
496.877	395.56
497.094	395.56
497.312	384.56
497.529	391.56
497.746	404.56
497.963	413.56
498.181	415.56
498.398	436.56
498.615	456.56
498.832	445.56
499.049	476.56
499.267	505.56
499.484	545.56
499.701	610.56
499.918	640.56
500.135	693.56
500.352	744.56
500.569	786.56
500.786	776.56
501.003	725.56
501.22	671.56
501.437	628.56
501.654	570.56
501.871	536.56
502.088	513.56
502.305	482.56
502.522	485.56
