Data from Fe(NO3)3@0.0125M.TitratingCurve.Agarose3%dH2O.NegLispCup.LampEnergy10.LIBS07252019_HRD10591_17-00-32-337.txt Node
Date: Thu Jul 25 17:00:32 EDT 2019
User: cochatt
Spectrometer: HR+D1059
Trigger mode: 1
Integration Time (sec): 1.000000E-1
Scans to average: 1
Electric dark correction enabled: true
Nonlinearity correction enabled: false
Boxcar width: 0
XAxis mode: Wavelengths
Number of Pixels in Spectrum: 2048
>>>>>Begin Spectral Data<<<<<
223.165	-17.69
223.4	-17.69
223.635	-17.69
223.869	-19.69
224.104	-20.69
224.338	-2.69
224.573	-20.69
224.808	-18.69
225.042	1.31
225.277	0.31
225.511	-3.69
225.746	-4.69
225.98	6.31
226.215	10.31
226.449	8.31
226.683	10.31
226.918	39.31
227.152	32.31
227.387	33.31
227.621	47.31
227.856	30.31
228.09	62.31
228.324	51.31
228.559	54.31
228.793	63.31
229.027	85.31
229.262	95.31
229.496	85.31
229.73	91.31
229.964	118.31
230.199	92.31
230.433	90.31
230.667	97.31
230.901	121.31
231.136	103.31
231.37	94.31
231.604	109.31
231.838	102.31
232.072	90.31
232.306	114.31
232.541	100.31
232.775	107.31
233.009	125.31
233.243	109.31
233.477	124.31
233.711	110.31
233.945	113.31
234.179	103.31
234.413	101.31
234.647	111.31
234.881	123.31
235.115	107.31
235.349	127.31
235.583	120.31
235.817	119.31
236.051	114.31
236.285	118.31
236.519	117.31
236.753	98.31
236.987	102.31
237.221	110.31
237.455	122.31
237.689	124.31
237.922	126.31
238.156	123.31
238.39	117.31
238.624	127.31
238.858	128.31
239.091	105.31
239.325	111.31
239.559	138.31
239.793	124.31
240.027	133.31
240.26	131.31
240.494	131.31
240.728	132.31
240.961	128.31
241.195	128.31
241.429	135.31
241.662	110.31
241.896	125.31
242.13	126.31
242.363	141.31
242.597	120.31
242.83	116.31
243.064	131.31
243.298	123.31
243.531	135.31
243.765	147.31
243.998	131.31
244.232	137.31
244.465	132.31
244.699	137.31
244.932	131.31
245.166	149.31
245.399	134.31
245.633	128.31
245.866	135.31
246.099	140.31
246.333	143.31
246.566	152.31
246.8	126.31
247.033	124.31
247.266	135.31
247.5	150.31
247.733	153.31
247.966	136.31
248.2	134.31
248.433	142.31
248.666	152.31
248.899	164.31
249.133	150.31
249.366	158.31
249.599	160.31
249.832	142.31
250.066	156.31
250.299	149.31
250.532	144.31
250.765	168.31
250.998	150.31
251.231	183.31
251.465	157.31
251.698	151.31
251.931	150.31
252.164	149.31
252.397	166.31
252.63	159.31
252.863	173.31
253.096	164.31
253.329	164.31
253.562	152.31
253.795	164.31
254.028	166.31
254.261	172.31
254.494	159.31
254.727	160.31
254.96	165.31
255.193	173.31
255.426	171.31
255.659	172.31
255.892	165.31
256.124	176.31
256.357	160.31
256.59	169.31
256.823	180.31
257.056	177.31
257.289	169.31
257.521	163.31
257.754	170.31
257.987	183.31
258.22	182.31
258.452	195.31
258.685	187.31
258.918	187.31
259.151	169.31
259.383	168.31
259.616	185.31
259.849	197.31
260.081	200.31
260.314	203.31
260.547	191.31
260.779	180.31
261.012	183.31
261.244	192.31
261.477	199.31
261.71	188.31
261.942	187.31
262.175	194.31
262.407	187.31
262.64	203.31
262.872	199.31
263.105	202.31
263.337	213.31
263.57	206.31
263.802	200.31
264.035	192.31
264.267	184.31
264.499	198.31
264.732	183.31
264.964	188.31
265.197	184.31
265.429	203.31
265.661	198.31
265.894	187.31
266.126	210.31
266.358	198.31
266.591	190.31
266.823	200.31
267.055	208.31
267.287	204.31
267.52	189.31
267.752	206.31
267.984	204.31
268.216	204.31
268.448	198.31
268.681	206.31
268.913	212.31
269.145	205.31
269.377	200.31
269.609	214.31
269.841	219.31
270.073	201.31
270.306	219.31
270.538	210.31
270.77	220.31
271.002	219.31
271.234	206.31
271.466	222.31
271.698	209.31
271.93	225.31
272.162	212.31
272.394	211.31
272.626	225.31
272.858	219.31
273.09	216.31
273.322	224.31
273.553	218.31
273.785	222.31
274.017	240.31
274.249	262.31
274.481	227.31
274.713	252.31
274.945	240.31
275.176	255.31
275.408	252.31
275.64	246.31
275.872	234.31
276.104	238.31
276.335	226.31
276.567	239.31
276.799	241.31
277.031	238.31
277.262	236.31
277.494	244.31
277.726	213.31
277.957	243.31
278.189	231.31
278.421	242.31
278.652	258.31
278.884	241.31
279.115	242.31
279.347	248.31
279.579	241.31
279.81	252.31
280.042	246.31
280.273	257.31
280.505	254.31
280.736	264.31
280.968	250.31
281.199	258.31
281.431	252.31
281.662	253.31
281.894	262.31
282.125	266.31
282.356	265.31
282.588	256.31
282.819	259.31
283.051	276.31
283.282	264.31
283.513	270.31
283.745	264.31
283.976	259.31
284.207	272.31
284.439	277.31
284.67	282.31
284.901	279.31
285.132	269.31
285.364	269.31
285.595	260.31
285.826	272.31
286.057	270.31
286.288	262.31
286.52	264.31
286.751	272.31
286.982	274.31
287.213	276.31
287.444	267.31
287.675	268.31
287.906	277.31
288.138	271.31
288.369	277.31
288.6	293.31
288.831	278.31
289.062	269.31
289.293	271.31
289.524	275.31
289.755	266.31
289.986	286.31
290.217	277.31
290.448	286.31
290.679	276.31
290.91	276.31
291.141	268.31
291.371	294.31
291.602	283.31
291.833	270.31
292.064	274.31
292.295	278.31
292.526	289.31
292.757	278.31
292.987	294.31
293.218	279.31
293.449	296.31
293.68	266.31
293.91	286.31
294.141	276.31
294.372	289.31
294.603	285.31
294.833	274.31
295.064	300.31
295.295	303.31
295.525	283.31
295.756	282.31
295.987	286.31
296.217	303.31
296.448	299.31
296.679	290.31
296.909	300.31
297.14	307.31
297.37	308.31
297.601	308.31
297.831	307.31
298.062	314.31
298.292	293.31
298.523	306.31
298.753	306.31
298.984	324.31
299.214	297.31
299.445	284.31
299.675	312.31
299.905	323.31
300.136	324.31
300.366	316.31
300.597	298.31
300.827	318.31
301.057	330.31
301.288	308.31
301.518	312.31
301.748	302.31
301.979	310.31
302.209	347.31
302.439	325.31
302.669	315.31
302.9	324.31
303.13	338.31
303.36	312.31
303.59	334.31
303.82	318.31
304.051	326.31
304.281	341.31
304.511	320.31
304.741	338.31
304.971	335.31
305.201	318.31
305.431	331.31
305.661	331.31
305.891	334.31
306.121	334.31
306.352	338.31
306.582	326.31
306.812	300.31
307.042	333.31
307.272	317.31
307.502	312.31
307.731	332.31
307.961	320.31
308.191	333.31
308.421	326.31
308.651	330.31
308.881	326.31
309.111	334.31
309.341	318.31
309.571	344.31
309.8	334.31
310.03	319.31
310.26	323.31
310.49	341.31
310.72	342.31
310.949	344.31
311.179	336.31
311.409	319.31
311.639	343.31
311.868	342.31
312.098	347.31
312.328	352.31
312.557	365.31
312.787	351.31
313.017	336.31
313.246	336.31
313.476	362.31
313.706	344.31
313.935	341.31
314.165	338.31
314.394	367.31
314.624	355.31
314.853	330.31
315.083	361.31
315.312	359.31
315.542	343.31
315.771	374.31
316.001	351.31
316.23	347.31
316.46	349.31
316.689	367.31
316.919	355.31
317.148	353.31
317.377	367.31
317.607	356.31
317.836	346.31
318.065	357.31
318.295	364.31
318.524	365.31
318.753	342.31
318.983	353.31
319.212	366.31
319.441	371.31
319.67	350.31
319.9	348.31
320.129	364.31
320.358	370.31
320.587	358.31
320.816	356.31
321.046	364.31
321.275	371.31
321.504	373.31
321.733	367.31
321.962	367.31
322.191	362.31
322.42	375.31
322.649	354.31
322.878	380.31
323.108	374.31
323.337	360.31
323.566	372.31
323.795	378.31
324.024	376.31
324.253	377.31
324.482	351.31
324.71	372.31
324.939	386.31
325.168	392.31
325.397	382.31
325.626	378.31
325.855	385.31
326.084	393.31
326.313	385.31
326.542	388.31
326.77	383.31
326.999	386.31
327.228	404.31
327.457	375.31
327.686	411.31
327.914	376.31
328.143	391.31
328.372	390.31
328.6	383.31
328.829	386.31
329.058	392.31
329.287	403.31
329.515	372.31
329.744	376.31
329.972	382.31
330.201	386.31
330.43	408.31
330.658	390.31
330.887	427.31
331.115	414.31
331.344	421.31
331.572	404.31
331.801	429.31
332.03	419.31
332.258	407.31
332.486	410.31
332.715	428.31
332.943	458.31
333.172	440.31
333.4	448.31
333.629	463.31
333.857	462.31
334.085	464.31
334.314	440.31
334.542	475.31
334.771	472.31
334.999	454.31
335.227	443.31
335.455	447.31
335.684	435.31
335.912	475.31
336.14	469.31
336.369	470.31
336.597	443.31
336.825	458.31
337.053	467.31
337.281	436.31
337.51	447.31
337.738	441.31
337.966	427.31
338.194	442.31
338.422	435.31
338.65	431.31
338.878	446.31
339.106	440.31
339.334	431.31
339.562	422.31
339.79	420.31
340.018	429.31
340.246	431.31
340.474	422.31
340.702	424.31
340.93	400.31
341.158	414.31
341.386	399.31
341.614	419.31
341.842	421.31
342.07	418.31
342.298	436.31
342.526	403.31
342.754	428.31
342.981	443.31
343.209	418.31
343.437	420.31
343.665	441.31
343.893	458.31
344.12	460.31
344.348	456.31
344.576	459.31
344.804	458.31
345.031	440.31
345.259	429.31
345.487	432.31
345.714	431.31
345.942	414.31
346.17	426.31
346.397	403.31
346.625	408.31
346.853	414.31
347.08	425.31
347.308	431.31
347.535	408.31
347.763	426.31
347.99	416.31
348.218	405.31
348.445	406.31
348.673	402.31
348.9	426.31
349.128	420.31
349.355	408.31
349.583	397.31
349.81	425.31
350.037	416.31
350.265	393.31
350.492	407.31
350.72	406.31
350.947	398.31
351.174	410.31
351.402	417.31
351.629	406.31
351.856	396.31
352.083	403.31
352.311	398.31
352.538	394.31
352.765	413.31
352.992	382.31
353.22	380.31
353.447	403.31
353.674	403.31
353.901	395.31
354.128	400.31
354.355	386.31
354.583	405.31
354.81	404.31
355.037	413.31
355.264	410.31
355.491	394.31
355.718	397.31
355.945	427.31
356.172	399.31
356.399	407.31
356.626	419.31
356.853	421.31
357.08	414.31
357.307	425.31
357.534	424.31
357.761	384.31
357.988	410.31
358.215	412.31
358.441	423.31
358.668	416.31
358.895	399.31
359.122	390.31
359.349	408.31
359.576	423.31
359.802	417.31
360.029	422.31
360.256	419.31
360.483	426.31
360.709	428.31
360.936	430.31
361.163	411.31
361.39	417.31
361.616	446.31
361.843	392.31
362.07	429.31
362.296	420.31
362.523	426.31
362.749	409.31
362.976	437.31
363.203	422.31
363.429	428.31
363.656	425.31
363.882	441.31
364.109	425.31
364.335	414.31
364.562	413.31
364.788	413.31
365.015	427.31
365.241	408.31
365.468	432.31
365.694	416.31
365.92	426.31
366.147	426.31
366.373	410.31
366.599	405.31
366.826	434.31
367.052	422.31
367.278	397.31
367.505	431.31
367.731	421.31
367.957	427.31
368.184	425.31
368.41	441.31
368.636	431.31
368.862	429.31
369.089	421.31
369.315	437.31
369.541	441.31
369.767	440.31
369.993	420.31
370.219	432.31
370.445	423.31
370.672	442.31
370.898	448.31
371.124	445.31
371.35	445.31
371.576	441.31
371.802	452.31
372.028	446.31
372.254	449.31
372.48	451.31
372.706	454.31
372.932	468.31
373.158	472.31
373.384	467.31
373.61	475.31
373.835	458.31
374.061	490.31
374.287	472.31
374.513	477.31
374.739	476.31
374.965	478.31
375.191	494.31
375.416	468.31
375.642	477.31
375.868	499.31
376.094	469.31
376.319	454.31
376.545	457.31
376.771	470.31
376.997	459.31
377.222	443.31
377.448	450.31
377.674	468.31
377.899	445.31
378.125	451.31
378.35	459.31
378.576	439.31
378.802	453.31
379.027	458.31
379.253	437.31
379.478	463.31
379.704	472.31
379.929	453.31
380.155	424.31
380.38	470.31
380.606	446.31
380.831	446.31
381.057	473.31
381.282	472.31
381.507	451.31
381.733	455.31
381.958	475.31
382.184	476.31
382.409	478.31
382.634	474.31
382.86	485.31
383.085	487.31
383.31	475.31
383.535	480.31
383.761	487.31
383.986	486.31
384.211	465.31
384.436	495.31
384.662	504.31
384.887	518.31
385.112	504.31
385.337	501.31
385.562	509.31
385.787	531.31
386.013	526.31
386.238	527.31
386.463	523.31
386.688	531.31
386.913	516.31
387.138	518.31
387.363	525.31
387.588	526.31
387.813	503.31
388.038	531.31
388.263	532.31
388.488	532.31
388.713	538.31
388.938	525.31
389.163	518.31
389.387	540.31
389.612	521.31
389.837	535.31
390.062	537.31
390.287	544.31
390.512	513.31
390.736	527.31
390.961	535.31
391.186	542.31
391.411	564.31
391.636	536.31
391.86	550.31
392.085	557.31
392.31	565.31
392.534	542.31
392.759	560.31
392.984	576.31
393.208	566.31
393.433	580.31
393.658	601.31
393.882	572.31
394.107	554.31
394.331	560.31
394.556	569.31
394.78	538.31
395.005	572.31
395.229	587.31
395.454	569.31
395.678	589.31
395.903	587.31
396.127	590.31
396.352	572.31
396.576	549.31
396.801	568.31
397.025	582.31
397.249	596.31
397.474	575.31
397.698	562.31
397.922	618.31
398.147	610.31
398.371	591.31
398.595	618.31
398.82	619.31
399.044	654.31
399.268	683.31
399.492	710.31
399.717	722.31
399.941	762.31
400.165	710.31
400.389	693.31
400.613	672.31
400.837	671.31
401.062	664.31
401.286	654.31
401.51	630.31
401.734	638.31
401.958	630.31
402.182	639.31
402.406	630.31
402.63	624.31
402.854	646.31
403.078	642.31
403.302	639.31
403.526	628.31
403.75	648.31
403.974	660.31
404.198	666.31
404.422	664.31
404.645	663.31
404.869	660.31
405.093	662.31
405.317	653.31
405.541	654.31
405.765	675.31
405.988	646.31
406.212	676.31
406.436	672.31
406.66	665.31
406.883	687.31
407.107	732.31
407.331	708.31
407.555	728.31
407.778	735.31
408.002	721.31
408.226	716.31
408.449	718.31
408.673	698.31
408.896	715.31
409.12	675.31
409.344	700.31
409.567	667.31
409.791	696.31
410.014	676.31
410.238	672.31
410.461	660.31
410.685	690.31
410.908	662.31
411.132	689.31
411.355	658.31
411.578	679.31
411.802	653.31
412.025	666.31
412.249	702.31
412.472	673.31
412.695	622.31
412.919	646.31
413.142	645.31
413.365	647.31
413.589	665.31
413.812	634.31
414.035	659.31
414.258	642.31
414.482	635.31
414.705	638.31
414.928	630.31
415.151	617.31
415.374	638.31
415.597	628.31
415.821	623.31
416.044	648.31
416.267	610.31
416.49	621.31
416.713	601.31
416.936	633.31
417.159	635.31
417.382	608.31
417.605	604.31
417.828	612.31
418.051	618.31
418.274	628.31
418.497	617.31
418.72	638.31
418.943	619.31
419.166	650.31
419.389	696.31
419.611	670.31
419.834	629.31
420.057	649.31
420.28	620.31
420.503	622.31
420.726	616.31
420.948	596.31
421.171	612.31
421.394	626.31
421.617	600.31
421.839	606.31
422.062	635.31
422.285	602.31
422.507	631.31
422.73	617.31
422.953	619.31
423.175	605.31
423.398	634.31
423.621	617.31
423.843	606.31
424.066	631.31
424.288	623.31
424.511	613.31
424.733	626.31
424.956	602.31
425.178	605.31
425.401	607.31
425.623	627.31
425.846	614.31
426.068	582.31
426.291	603.31
426.513	596.31
426.735	612.31
426.958	591.31
427.18	591.31
427.402	602.31
427.625	598.31
427.847	596.31
428.069	578.31
428.292	593.31
428.514	569.31
428.736	584.31
428.958	626.31
429.181	588.31
429.403	565.31
429.625	587.31
429.847	575.31
430.069	564.31
430.292	603.31
430.514	587.31
430.736	594.31
430.958	586.31
431.18	593.31
431.402	576.31
431.624	580.31
431.846	573.31
432.068	584.31
432.29	613.31
432.512	593.31
432.734	590.31
432.956	567.31
433.178	606.31
433.4	581.31
433.622	603.31
433.844	583.31
434.066	600.31
434.287	593.31
434.509	574.31
434.731	634.31
434.953	609.31
435.175	602.31
435.397	612.31
435.618	597.31
435.84	612.31
436.062	578.31
436.284	578.31
436.505	572.31
436.727	592.31
436.949	577.31
437.17	578.31
437.392	614.31
437.614	582.31
437.835	553.31
438.057	587.31
438.278	566.31
438.5	570.31
438.721	571.31
438.943	555.31
439.165	543.31
439.386	568.31
439.608	572.31
439.829	578.31
440.05	608.31
440.272	592.31
440.493	586.31
440.715	599.31
440.936	591.31
441.158	587.31
441.379	599.31
441.6	620.31
441.822	591.31
442.043	567.31
442.264	601.31
442.486	588.31
442.707	593.31
442.928	588.31
443.149	626.31
443.371	607.31
443.592	592.31
443.813	610.31
444.034	590.31
444.255	598.31
444.476	634.31
444.698	638.31
444.919	636.31
445.14	711.31
445.361	666.31
445.582	638.31
445.803	587.31
446.024	619.31
446.245	607.31
446.466	585.31
446.687	594.31
446.908	604.31
447.129	566.31
447.35	557.31
447.571	561.31
447.792	547.31
448.013	568.31
448.234	564.31
448.455	571.31
448.675	541.31
448.896	558.31
449.117	542.31
449.338	544.31
449.559	552.31
449.779	540.31
450	562.31
450.221	548.31
450.442	518.31
450.662	528.31
450.883	536.31
451.104	554.31
451.324	554.31
451.545	559.31
451.766	555.31
451.986	534.31
452.207	544.31
452.428	557.31
452.648	554.31
452.869	539.31
453.089	530.31
453.31	532.31
453.53	515.31
453.751	520.31
453.971	534.31
454.192	523.31
454.412	509.31
454.633	518.31
454.853	532.31
455.073	510.31
455.294	539.31
455.514	527.31
455.734	540.31
455.955	512.31
456.175	498.31
456.395	518.31
456.616	516.31
456.836	543.31
457.056	500.31
457.276	518.31
457.497	535.31
457.717	515.31
457.937	525.31
458.157	546.31
458.377	556.31
458.598	573.31
458.818	558.31
459.038	558.31
459.258	548.31
459.478	572.31
459.698	597.31
459.918	578.31
460.138	594.31
460.358	626.31
460.578	628.31
460.798	633.31
461.018	621.31
461.238	646.31
461.458	657.31
461.678	646.31
461.898	660.31
462.118	675.31
462.338	673.31
462.558	702.31
462.777	685.31
462.997	706.31
463.217	719.31
463.437	736.31
463.657	726.31
463.876	710.31
464.096	715.31
464.316	704.31
464.536	692.31
464.755	686.31
464.975	674.31
465.195	650.31
465.414	639.31
465.634	606.31
465.854	625.31
466.073	596.31
466.293	615.31
466.512	616.31
466.732	572.31
466.951	608.31
467.171	579.31
467.391	594.31
467.61	580.31
467.829	568.31
468.049	572.31
468.268	566.31
468.488	587.31
468.707	582.31
468.927	593.31
469.146	541.31
469.365	555.31
469.585	578.31
469.804	586.31
470.023	545.31
470.243	583.31
470.462	583.31
470.681	586.31
470.901	590.31
471.12	586.31
471.339	585.31
471.558	573.31
471.777	580.31
471.997	565.31
472.216	566.31
472.435	575.31
472.654	558.31
472.873	582.31
473.092	566.31
473.311	583.31
473.53	570.31
473.749	574.31
473.968	569.31
474.187	574.31
474.406	564.31
474.625	574.31
474.844	578.31
475.063	591.31
475.282	562.31
475.501	592.31
475.72	577.31
475.939	577.31
476.158	591.31
476.377	600.31
476.596	596.31
476.814	604.31
477.033	612.31
477.252	623.31
477.471	615.31
477.69	641.31
477.908	621.31
478.127	671.31
478.346	638.31
478.564	656.31
478.783	668.31
479.002	663.31
479.22	666.31
479.439	686.31
479.658	673.31
479.876	683.31
480.095	702.31
480.313	690.31
480.532	679.31
480.751	681.31
480.969	694.31
481.188	672.31
481.406	675.31
481.624	686.31
481.843	645.31
482.061	678.31
482.28	676.31
482.498	653.31
482.717	656.31
482.935	653.31
483.153	693.31
483.372	678.31
483.59	678.31
483.808	701.31
484.027	688.31
484.245	681.31
484.463	687.31
484.681	715.31
484.9	693.31
485.118	702.31
485.336	686.31
485.554	694.31
485.772	682.31
485.99	679.31
486.209	685.31
486.427	693.31
486.645	692.31
486.863	715.31
487.081	684.31
487.299	702.31
487.517	716.31
487.735	683.31
487.953	714.31
488.171	684.31
488.389	708.31
488.607	700.31
488.825	669.31
489.043	691.31
489.261	706.31
489.479	722.31
489.696	695.31
489.914	722.31
490.132	714.31
490.35	667.31
490.568	696.31
490.786	706.31
491.003	688.31
491.221	709.31
491.439	720.31
491.657	693.31
491.874	724.31
492.092	703.31
492.31	729.31
492.527	731.31
492.745	737.31
492.963	722.31
493.18	730.31
493.398	738.31
493.615	770.31
493.833	726.31
494.05	718.31
494.268	718.31
494.485	746.31
494.703	736.31
494.92	745.31
495.138	740.31
495.355	741.31
495.573	751.31
495.79	758.31
496.008	783.31
496.225	788.31
496.442	789.31
496.66	767.31
496.877	797.31
497.094	806.31
497.312	798.31
497.529	804.31
497.746	844.31
497.963	861.31
498.181	885.31
498.398	894.31
498.615	928.31
498.832	957.31
499.049	996.31
499.267	994.31
499.484	1058.31
499.701	1152.31
499.918	1166.31
500.135	1251.31
500.352	1293.31
500.569	1309.31
500.786	1309.31
501.003	1306.31
501.22	1211.31
501.437	1151.31
501.654	1122.31
