Data from Fe(NO3)3@0.0125M.TitratingCurve.Agarose3%dH2O.NegLispCup.LampEnergy10.LIBS07252019_HRD10591_16-58-36-336.txt Node
Date: Thu Jul 25 16:58:36 EDT 2019
User: cochatt
Spectrometer: HR+D1059
Trigger mode: 1
Integration Time (sec): 1.000000E-1
Scans to average: 1
Electric dark correction enabled: true
Nonlinearity correction enabled: false
Boxcar width: 0
XAxis mode: Wavelengths
Number of Pixels in Spectrum: 2048
>>>>>Begin Spectral Data<<<<<
223.165	-15.19
223.4	-15.19
223.635	-15.19
223.869	-15.19
224.104	-20.19
224.338	-28.19
224.573	-5.19
224.808	-10.19
225.042	-0.19
225.277	0.81
225.511	3.81
225.746	-4.19
225.98	3.81
226.215	2.81
226.449	0.81
226.683	22.81
226.918	27.81
227.152	35.81
227.387	32.81
227.621	28.81
227.856	49.81
228.09	59.81
228.324	51.81
228.559	40.81
228.793	69.81
229.027	99.81
229.262	107.81
229.496	120.81
229.73	107.81
229.964	113.81
230.199	120.81
230.433	105.81
230.667	124.81
230.901	125.81
231.136	121.81
231.37	115.81
231.604	131.81
231.838	120.81
232.072	135.81
232.306	127.81
232.541	148.81
232.775	127.81
233.009	135.81
233.243	128.81
233.477	127.81
233.711	127.81
233.945	131.81
234.179	127.81
234.413	142.81
234.647	136.81
234.881	131.81
235.115	141.81
235.349	129.81
235.583	139.81
235.817	134.81
236.051	136.81
236.285	149.81
236.519	136.81
236.753	138.81
236.987	136.81
237.221	135.81
237.455	146.81
237.689	154.81
237.922	144.81
238.156	150.81
238.39	155.81
238.624	150.81
238.858	148.81
239.091	133.81
239.325	150.81
239.559	149.81
239.793	151.81
240.027	147.81
240.26	157.81
240.494	155.81
240.728	149.81
240.961	156.81
241.195	145.81
241.429	161.81
241.662	165.81
241.896	156.81
242.13	176.81
242.363	160.81
242.597	176.81
242.83	152.81
243.064	177.81
243.298	177.81
243.531	172.81
243.765	186.81
243.998	171.81
244.232	170.81
244.465	159.81
244.699	179.81
244.932	183.81
245.166	176.81
245.399	171.81
245.633	195.81
245.866	178.81
246.099	185.81
246.333	187.81
246.566	211.81
246.8	184.81
247.033	181.81
247.266	195.81
247.5	177.81
247.733	186.81
247.966	214.81
248.2	185.81
248.433	180.81
248.666	193.81
248.899	199.81
249.133	199.81
249.366	212.81
249.599	200.81
249.832	196.81
250.066	215.81
250.299	217.81
250.532	217.81
250.765	209.81
250.998	209.81
251.231	202.81
251.465	217.81
251.698	232.81
251.931	213.81
252.164	215.81
252.397	236.81
252.63	230.81
252.863	235.81
253.096	232.81
253.329	236.81
253.562	223.81
253.795	232.81
254.028	219.81
254.261	224.81
254.494	220.81
254.727	246.81
254.96	211.81
255.193	236.81
255.426	235.81
255.659	227.81
255.892	240.81
256.124	242.81
256.357	236.81
256.59	237.81
256.823	246.81
257.056	232.81
257.289	255.81
257.521	268.81
257.754	249.81
257.987	264.81
258.22	250.81
258.452	274.81
258.685	263.81
258.918	255.81
259.151	275.81
259.383	276.81
259.616	257.81
259.849	274.81
260.081	274.81
260.314	260.81
260.547	270.81
260.779	275.81
261.012	272.81
261.244	262.81
261.477	293.81
261.71	274.81
261.942	275.81
262.175	298.81
262.407	289.81
262.64	279.81
262.872	301.81
263.105	283.81
263.337	281.81
263.57	297.81
263.802	277.81
264.035	273.81
264.267	283.81
264.499	276.81
264.732	307.81
264.964	301.81
265.197	305.81
265.429	297.81
265.661	314.81
265.894	304.81
266.126	319.81
266.358	294.81
266.591	307.81
266.823	310.81
267.055	328.81
267.287	321.81
267.52	315.81
267.752	300.81
267.984	307.81
268.216	318.81
268.448	332.81
268.681	317.81
268.913	317.81
269.145	311.81
269.377	320.81
269.609	336.81
269.841	331.81
270.073	334.81
270.306	308.81
270.538	329.81
270.77	330.81
271.002	341.81
271.234	347.81
271.466	337.81
271.698	352.81
271.93	321.81
272.162	357.81
272.394	339.81
272.626	340.81
272.858	357.81
273.09	351.81
273.322	356.81
273.553	349.81
273.785	369.81
274.017	349.81
274.249	359.81
274.481	360.81
274.713	370.81
274.945	367.81
275.176	368.81
275.408	363.81
275.64	389.81
275.872	361.81
276.104	376.81
276.335	369.81
276.567	361.81
276.799	379.81
277.031	387.81
277.262	383.81
277.494	371.81
277.726	406.81
277.957	389.81
278.189	381.81
278.421	394.81
278.652	385.81
278.884	395.81
279.115	390.81
279.347	388.81
279.579	387.81
279.81	395.81
280.042	392.81
280.273	405.81
280.505	410.81
280.736	419.81
280.968	402.81
281.199	420.81
281.431	415.81
281.662	405.81
281.894	415.81
282.125	397.81
282.356	412.81
282.588	421.81
282.819	417.81
283.051	414.81
283.282	415.81
283.513	435.81
283.745	426.81
283.976	419.81
284.207	440.81
284.439	439.81
284.67	429.81
284.901	442.81
285.132	444.81
285.364	431.81
285.595	456.81
285.826	448.81
286.057	420.81
286.288	448.81
286.52	441.81
286.751	437.81
286.982	477.81
287.213	454.81
287.444	453.81
287.675	442.81
287.906	463.81
288.138	465.81
288.369	467.81
288.6	470.81
288.831	446.81
289.062	470.81
289.293	469.81
289.524	449.81
289.755	460.81
289.986	479.81
290.217	483.81
290.448	473.81
290.679	472.81
290.91	511.81
291.141	488.81
291.371	481.81
291.602	480.81
291.833	469.81
292.064	472.81
292.295	482.81
292.526	495.81
292.757	489.81
292.987	491.81
293.218	490.81
293.449	476.81
293.68	508.81
293.91	493.81
294.141	491.81
294.372	470.81
294.603	501.81
294.833	495.81
295.064	503.81
295.295	504.81
295.525	511.81
295.756	490.81
295.987	490.81
296.217	507.81
296.448	487.81
296.679	507.81
296.909	498.81
297.14	508.81
297.37	526.81
297.601	533.81
297.831	522.81
298.062	520.81
298.292	523.81
298.523	501.81
298.753	551.81
298.984	532.81
299.214	513.81
299.445	541.81
299.675	503.81
299.905	548.81
300.136	538.81
300.366	529.81
300.597	536.81
300.827	523.81
301.057	543.81
301.288	573.81
301.518	528.81
301.748	549.81
301.979	551.81
302.209	576.81
302.439	564.81
302.669	539.81
302.9	571.81
303.13	567.81
303.36	580.81
303.59	559.81
303.82	557.81
304.051	581.81
304.281	566.81
304.511	582.81
304.741	587.81
304.971	582.81
305.201	587.81
305.431	580.81
305.661	571.81
305.891	571.81
306.121	561.81
306.352	587.81
306.582	561.81
306.812	580.81
307.042	575.81
307.272	556.81
307.502	591.81
307.731	600.81
307.961	580.81
308.191	603.81
308.421	587.81
308.651	585.81
308.881	597.81
309.111	584.81
309.341	584.81
309.571	584.81
309.8	592.81
310.03	609.81
310.26	587.81
310.49	590.81
310.72	595.81
310.949	604.81
311.179	610.81
311.409	617.81
311.639	628.81
311.868	625.81
312.098	625.81
312.328	606.81
312.557	645.81
312.787	614.81
313.017	635.81
313.246	618.81
313.476	640.81
313.706	628.81
313.935	640.81
314.165	627.81
314.394	630.81
314.624	630.81
314.853	646.81
315.083	636.81
315.312	640.81
315.542	657.81
315.771	639.81
316.001	636.81
316.23	629.81
316.46	643.81
316.689	629.81
316.919	650.81
317.148	657.81
317.377	645.81
317.607	637.81
317.836	659.81
318.065	645.81
318.295	654.81
318.524	650.81
318.753	675.81
318.983	645.81
319.212	665.81
319.441	662.81
319.67	658.81
319.9	652.81
320.129	660.81
320.358	684.81
320.587	667.81
320.816	676.81
321.046	689.81
321.275	677.81
321.504	695.81
321.733	703.81
321.962	696.81
322.191	693.81
322.42	689.81
322.649	703.81
322.878	701.81
323.108	722.81
323.337	715.81
323.566	692.81
323.795	684.81
324.024	713.81
324.253	712.81
324.482	691.81
324.71	696.81
324.939	710.81
325.168	727.81
325.397	687.81
325.626	708.81
325.855	707.81
326.084	720.81
326.313	738.81
326.542	760.81
326.77	751.81
326.999	756.81
327.228	723.81
327.457	716.81
327.686	727.81
327.914	728.81
328.143	729.81
328.372	723.81
328.6	731.81
328.829	732.81
329.058	744.81
329.287	735.81
329.515	720.81
329.744	725.81
329.972	754.81
330.201	747.81
330.43	727.81
330.658	743.81
330.887	758.81
331.115	757.81
331.344	759.81
331.572	753.81
331.801	743.81
332.03	775.81
332.258	747.81
332.486	774.81
332.715	754.81
332.943	757.81
333.172	760.81
333.4	762.81
333.629	782.81
333.857	780.81
334.085	768.81
334.314	809.81
334.542	783.81
334.771	779.81
334.999	764.81
335.227	798.81
335.455	789.81
335.684	817.81
335.912	812.81
336.14	789.81
336.369	811.81
336.597	808.81
336.825	811.81
337.053	831.81
337.281	783.81
337.51	787.81
337.738	802.81
337.966	815.81
338.194	780.81
338.422	799.81
338.65	782.81
338.878	793.81
339.106	791.81
339.334	798.81
339.562	766.81
339.79	787.81
340.018	793.81
340.246	789.81
340.474	804.81
340.702	773.81
340.93	769.81
341.158	799.81
341.386	774.81
341.614	793.81
341.842	775.81
342.07	784.81
342.298	768.81
342.526	784.81
342.754	789.81
342.981	772.81
343.209	788.81
343.437	779.81
343.665	821.81
343.893	800.81
344.12	787.81
344.348	799.81
344.576	800.81
344.804	800.81
345.031	785.81
345.259	791.81
345.487	771.81
345.714	796.81
345.942	781.81
346.17	769.81
346.397	782.81
346.625	749.81
346.853	769.81
347.08	737.81
347.308	775.81
347.535	743.81
347.763	770.81
347.99	771.81
348.218	764.81
348.445	753.81
348.673	765.81
348.9	761.81
349.128	776.81
349.355	741.81
349.583	776.81
349.81	757.81
350.037	755.81
350.265	764.81
350.492	775.81
350.72	772.81
350.947	751.81
351.174	768.81
351.402	770.81
351.629	772.81
351.856	753.81
352.083	759.81
352.311	743.81
352.538	732.81
352.765	742.81
352.992	735.81
353.22	760.81
353.447	769.81
353.674	771.81
353.901	750.81
354.128	758.81
354.355	743.81
354.583	734.81
354.81	743.81
355.037	760.81
355.264	738.81
355.491	739.81
355.718	775.81
355.945	755.81
356.172	778.81
356.399	763.81
356.626	761.81
356.853	782.81
357.08	797.81
357.307	770.81
357.534	752.81
357.761	755.81
357.988	777.81
358.215	774.81
358.441	751.81
358.668	745.81
358.895	747.81
359.122	742.81
359.349	774.81
359.576	756.81
359.802	775.81
360.029	758.81
360.256	762.81
360.483	774.81
360.709	737.81
360.936	773.81
361.163	753.81
361.39	765.81
361.616	755.81
361.843	755.81
362.07	765.81
362.296	772.81
362.523	780.81
362.749	760.81
362.976	779.81
363.203	799.81
363.429	767.81
363.656	775.81
363.882	790.81
364.109	795.81
364.335	768.81
364.562	801.81
364.788	772.81
365.015	781.81
365.241	776.81
365.468	794.81
365.694	789.81
365.92	763.81
366.147	767.81
366.373	749.81
366.599	806.81
366.826	791.81
367.052	775.81
367.278	801.81
367.505	772.81
367.731	791.81
367.957	812.81
368.184	790.81
368.41	786.81
368.636	794.81
368.862	791.81
369.089	817.81
369.315	825.81
369.541	804.81
369.767	805.81
369.993	806.81
370.219	793.81
370.445	794.81
370.672	807.81
370.898	805.81
371.124	793.81
371.35	833.81
371.576	793.81
371.802	803.81
372.028	831.81
372.254	828.81
372.48	817.81
372.706	829.81
372.932	820.81
373.158	794.81
373.384	849.81
373.61	803.81
373.835	820.81
374.061	827.81
374.287	833.81
374.513	837.81
374.739	829.81
374.965	844.81
375.191	853.81
375.416	833.81
375.642	838.81
375.868	843.81
376.094	826.81
376.319	835.81
376.545	784.81
376.771	793.81
376.997	808.81
377.222	831.81
377.448	789.81
377.674	800.81
377.899	799.81
378.125	834.81
378.35	803.81
378.576	783.81
378.802	791.81
379.027	800.81
379.253	807.81
379.478	793.81
379.704	807.81
379.929	815.81
380.155	821.81
380.38	811.81
380.606	802.81
380.831	802.81
381.057	829.81
381.282	840.81
381.507	796.81
381.733	829.81
381.958	824.81
382.184	831.81
382.409	816.81
382.634	829.81
382.86	849.81
383.085	841.81
383.31	835.81
383.535	848.81
383.761	845.81
383.986	833.81
384.211	884.81
384.436	856.81
384.662	855.81
384.887	837.81
385.112	856.81
385.337	864.81
385.562	870.81
385.787	882.81
386.013	865.81
386.238	866.81
386.463	895.81
386.688	897.81
386.913	875.81
387.138	899.81
387.363	909.81
387.588	882.81
387.813	882.81
388.038	872.81
388.263	931.81
388.488	910.81
388.713	920.81
388.938	882.81
389.163	886.81
389.387	897.81
389.612	872.81
389.837	914.81
390.062	895.81
390.287	885.81
390.512	910.81
390.736	899.81
390.961	909.81
391.186	901.81
391.411	888.81
391.636	916.81
391.86	906.81
392.085	907.81
392.31	917.81
392.534	905.81
392.759	915.81
392.984	909.81
393.208	919.81
393.433	939.81
393.658	947.81
393.882	940.81
394.107	932.81
394.331	932.81
394.556	916.81
394.78	902.81
395.005	930.81
395.229	926.81
395.454	940.81
395.678	947.81
395.903	915.81
396.127	953.81
396.352	956.81
396.576	930.81
396.801	940.81
397.025	927.81
397.249	936.81
397.474	956.81
397.698	967.81
397.922	960.81
398.147	953.81
398.371	990.81
398.595	971.81
398.82	1008.81
399.044	1004.81
399.268	984.81
399.492	1047.81
399.717	1044.81
399.941	1048.81
400.165	1048.81
400.389	1060.81
400.613	1065.81
400.837	1026.81
401.062	1023.81
401.286	1030.81
401.51	1008.81
401.734	987.81
401.958	995.81
402.182	985.81
402.406	1002.81
402.63	1018.81
402.854	992.81
403.078	995.81
403.302	1041.81
403.526	988.81
403.75	997.81
403.974	997.81
404.198	1014.81
404.422	1032.81
404.645	1017.81
404.869	984.81
405.093	1019.81
405.317	991.81
405.541	1002.81
405.765	1055.81
405.988	1064.81
406.212	1038.81
406.436	1045.81
406.66	1065.81
406.883	1045.81
407.107	1055.81
407.331	1087.81
407.555	1087.81
407.778	1092.81
408.002	1082.81
408.226	1074.81
408.449	1099.81
408.673	1089.81
408.896	1083.81
409.12	1075.81
409.344	1078.81
409.567	1061.81
409.791	1085.81
410.014	1035.81
410.238	1075.81
410.461	1074.81
410.685	1074.81
410.908	1063.81
411.132	1058.81
411.355	987.81
411.578	1031.81
411.802	986.81
412.025	1026.81
412.249	1010.81
412.472	1025.81
412.695	999.81
412.919	1011.81
413.142	1049.81
413.365	1006.81
413.589	1041.81
413.812	1005.81
414.035	1023.81
414.258	1014.81
414.482	1023.81
414.705	1018.81
414.928	985.81
415.151	1003.81
415.374	1022.81
415.597	982.81
415.821	967.81
416.044	998.81
416.267	956.81
416.49	1005.81
416.713	972.81
416.936	968.81
417.159	950.81
417.382	946.81
417.605	965.81
417.828	941.81
418.051	967.81
418.274	965.81
418.497	933.81
418.72	936.81
418.943	946.81
419.166	983.81
419.389	1050.81
419.611	1049.81
419.834	985.81
420.057	1001.81
420.28	943.81
420.503	943.81
420.726	919.81
420.948	935.81
421.171	952.81
421.394	945.81
421.617	932.81
421.839	914.81
422.062	943.81
422.285	917.81
422.507	936.81
422.73	930.81
422.953	937.81
423.175	936.81
423.398	948.81
423.621	947.81
423.843	956.81
424.066	918.81
424.288	940.81
424.511	922.81
424.733	933.81
424.956	938.81
425.178	920.81
425.401	919.81
425.623	924.81
425.846	920.81
426.068	933.81
426.291	919.81
426.513	924.81
426.735	902.81
426.958	919.81
427.18	931.81
427.402	905.81
427.625	919.81
427.847	927.81
428.069	905.81
428.292	897.81
428.514	899.81
428.736	914.81
428.958	915.81
429.181	899.81
429.403	911.81
429.625	883.81
429.847	891.81
430.069	917.81
430.292	925.81
430.514	934.81
430.736	924.81
430.958	916.81
431.18	912.81
431.402	905.81
431.624	953.81
431.846	933.81
432.068	895.81
432.29	920.81
432.512	905.81
432.734	926.81
432.956	916.81
433.178	930.81
433.4	933.81
433.622	922.81
433.844	932.81
434.066	920.81
434.287	906.81
434.509	959.81
434.731	933.81
434.953	937.81
435.175	904.81
435.397	923.81
435.618	901.81
435.84	901.81
436.062	887.81
436.284	908.81
436.505	909.81
436.727	912.81
436.949	901.81
437.17	900.81
437.392	885.81
437.614	919.81
437.835	870.81
438.057	883.81
438.278	881.81
438.5	889.81
438.721	899.81
438.943	894.81
439.165	904.81
439.386	884.81
439.608	892.81
439.829	891.81
440.05	911.81
440.272	905.81
440.493	893.81
440.715	900.81
440.936	894.81
441.158	891.81
441.379	888.81
441.6	914.81
441.822	905.81
442.043	903.81
442.264	907.81
442.486	891.81
442.707	899.81
442.928	900.81
443.149	911.81
443.371	920.81
443.592	890.81
443.813	911.81
444.034	879.81
444.255	915.81
444.476	893.81
444.698	921.81
444.919	904.81
445.14	1007.81
445.361	955.81
445.582	922.81
445.803	931.81
446.024	884.81
446.245	873.81
446.466	872.81
446.687	872.81
446.908	890.81
447.129	869.81
447.35	868.81
447.571	867.81
447.792	842.81
448.013	864.81
448.234	845.81
448.455	849.81
448.675	824.81
448.896	847.81
449.117	830.81
449.338	829.81
449.559	846.81
449.779	801.81
450	845.81
450.221	835.81
450.442	839.81
450.662	837.81
450.883	824.81
451.104	835.81
451.324	821.81
451.545	831.81
451.766	834.81
451.986	852.81
452.207	847.81
452.428	844.81
452.648	797.81
452.869	841.81
453.089	804.81
453.31	821.81
453.53	822.81
453.751	818.81
453.971	827.81
454.192	811.81
454.412	788.81
454.633	823.81
454.853	833.81
455.073	826.81
455.294	809.81
455.514	789.81
455.734	819.81
455.955	806.81
456.175	819.81
456.395	812.81
456.616	769.81
456.836	811.81
457.056	808.81
457.276	805.81
457.497	817.81
457.717	787.81
457.937	825.81
458.157	809.81
458.377	819.81
458.598	849.81
458.818	834.81
459.038	833.81
459.258	838.81
459.478	851.81
459.698	869.81
459.918	874.81
460.138	879.81
460.358	893.81
460.578	901.81
460.798	920.81
461.018	915.81
461.238	915.81
461.458	920.81
461.678	913.81
461.898	899.81
462.118	940.81
462.338	927.81
462.558	929.81
462.777	930.81
462.997	964.81
463.217	949.81
463.437	976.81
463.657	935.81
463.876	967.81
464.096	966.81
464.316	958.81
464.536	941.81
464.755	938.81
464.975	907.81
465.195	927.81
465.414	907.81
465.634	915.81
465.854	901.81
466.073	905.81
466.293	887.81
466.512	887.81
466.732	864.81
466.951	901.81
467.171	865.81
467.391	863.81
467.61	861.81
467.829	858.81
468.049	867.81
468.268	852.81
468.488	864.81
468.707	859.81
468.927	873.81
469.146	864.81
469.365	865.81
469.585	869.81
469.804	874.81
470.023	880.81
470.243	853.81
470.462	844.81
470.681	865.81
470.901	899.81
471.12	881.81
471.339	887.81
471.558	873.81
471.777	883.81
471.997	874.81
472.216	895.81
472.435	897.81
472.654	890.81
472.873	897.81
473.092	873.81
473.311	899.81
473.53	898.81
473.749	880.81
473.968	866.81
474.187	899.81
474.406	883.81
474.625	918.81
474.844	930.81
475.063	900.81
475.282	893.81
475.501	915.81
475.72	921.81
475.939	896.81
476.158	908.81
476.377	961.81
476.596	952.81
476.814	956.81
477.033	945.81
477.252	956.81
477.471	938.81
477.69	953.81
477.908	968.81
478.127	1000.81
478.346	995.81
478.564	998.81
478.783	974.81
479.002	1004.81
479.22	1012.81
479.439	998.81
479.658	1017.81
479.876	1023.81
480.095	1035.81
480.313	1052.81
480.532	1014.81
480.751	1032.81
480.969	1045.81
481.188	1039.81
481.406	1013.81
481.624	1051.81
481.843	1009.81
482.061	1045.81
482.28	1025.81
482.498	1014.81
482.717	1018.81
482.935	1084.81
483.153	1031.81
483.372	1039.81
483.59	1041.81
483.808	1054.81
484.027	1058.81
484.245	1065.81
484.463	1037.81
484.681	1045.81
484.9	1077.81
485.118	1044.81
485.336	1035.81
485.554	1074.81
485.772	1057.81
485.99	1087.81
486.209	1080.81
486.427	1064.81
486.645	1076.81
486.863	1095.81
487.081	1059.81
487.299	1092.81
487.517	1072.81
487.735	1078.81
487.953	1103.81
488.171	1045.81
488.389	1068.81
488.607	1061.81
488.825	1091.81
489.043	1070.81
489.261	1084.81
489.479	1096.81
489.696	1082.81
489.914	1074.81
490.132	1091.81
490.35	1097.81
490.568	1091.81
490.786	1079.81
491.003	1075.81
491.221	1087.81
491.439	1109.81
491.657	1091.81
491.874	1097.81
492.092	1145.81
492.31	1136.81
492.527	1135.81
492.745	1066.81
492.963	1117.81
493.18	1105.81
493.398	1123.81
493.615	1122.81
493.833	1077.81
494.05	1131.81
494.268	1117.81
494.485	1144.81
494.703	1123.81
494.92	1116.81
495.138	1119.81
495.355	1154.81
495.573	1146.81
495.79	1153.81
496.008	1181.81
496.225	1148.81
496.442	1152.81
496.66	1172.81
496.877	1207.81
497.094	1181.81
497.312	1205.81
497.529	1220.81
497.746	1224.81
497.963	1235.81
498.181	1251.81
498.398	1261.81
498.615	1293.81
498.832	1311.81
499.049	1336.81
499.267	1355.81
499.484	1370.81
