Data from Fe(NO3)3@0.0125M.TitratingCurve.Agarose3%dH2O.NegLispCup.LampEnergy10.LIBS07252019_HRD10591_16-59-26-346.txt Node
Date: Thu Jul 25 16:59:26 EDT 2019
User: cochatt
Spectrometer: HR+D1059
Trigger mode: 1
Integration Time (sec): 1.000000E-1
Scans to average: 1
Electric dark correction enabled: true
Nonlinearity correction enabled: false
Boxcar width: 0
XAxis mode: Wavelengths
Number of Pixels in Spectrum: 2048
>>>>>Begin Spectral Data<<<<<
223.165	-19.62
223.4	-19.62
223.635	-19.62
223.869	-7.62
224.104	-19.62
224.338	-25.62
224.573	-19.62
224.808	-10.62
225.042	-4.62
225.277	3.38
225.511	-2.62
225.746	15.38
225.98	5.38
226.215	3.38
226.449	11.38
226.683	22.38
226.918	19.38
227.152	29.38
227.387	20.38
227.621	41.38
227.856	51.38
228.09	52.38
228.324	41.38
228.559	63.38
228.793	59.38
229.027	80.38
229.262	85.38
229.496	91.38
229.73	95.38
229.964	82.38
230.199	102.38
230.433	97.38
230.667	99.38
230.901	104.38
231.136	99.38
231.37	96.38
231.604	107.38
231.838	92.38
232.072	105.38
232.306	106.38
232.541	115.38
232.775	99.38
233.009	98.38
233.243	108.38
233.477	102.38
233.711	98.38
233.945	113.38
234.179	116.38
234.413	114.38
234.647	95.38
234.881	113.38
235.115	104.38
235.349	104.38
235.583	80.38
235.817	103.38
236.051	103.38
236.285	99.38
236.519	102.38
236.753	106.38
236.987	119.38
237.221	111.38
237.455	108.38
237.689	106.38
237.922	118.38
238.156	117.38
238.39	109.38
238.624	118.38
238.858	109.38
239.091	117.38
239.325	113.38
239.559	112.38
239.793	103.38
240.027	109.38
240.26	119.38
240.494	108.38
240.728	107.38
240.961	112.38
241.195	106.38
241.429	115.38
241.662	125.38
241.896	114.38
242.13	109.38
242.363	111.38
242.597	111.38
242.83	128.38
243.064	111.38
243.298	137.38
243.531	124.38
243.765	122.38
243.998	112.38
244.232	116.38
244.465	134.38
244.699	125.38
244.932	137.38
245.166	133.38
245.399	107.38
245.633	113.38
245.866	133.38
246.099	139.38
246.333	149.38
246.566	136.38
246.8	130.38
247.033	125.38
247.266	119.38
247.5	122.38
247.733	105.38
247.966	139.38
248.2	136.38
248.433	140.38
248.666	139.38
248.899	137.38
249.133	138.38
249.366	131.38
249.599	132.38
249.832	139.38
250.066	165.38
250.299	144.38
250.532	146.38
250.765	149.38
250.998	130.38
251.231	141.38
251.465	143.38
251.698	144.38
251.931	147.38
252.164	156.38
252.397	141.38
252.63	136.38
252.863	154.38
253.096	137.38
253.329	138.38
253.562	138.38
253.795	152.38
254.028	146.38
254.261	139.38
254.494	168.38
254.727	143.38
254.96	146.38
255.193	142.38
255.426	156.38
255.659	142.38
255.892	157.38
256.124	145.38
256.357	164.38
256.59	161.38
256.823	154.38
257.056	151.38
257.289	172.38
257.521	150.38
257.754	161.38
257.987	165.38
258.22	170.38
258.452	150.38
258.685	176.38
258.918	162.38
259.151	155.38
259.383	160.38
259.616	158.38
259.849	164.38
260.081	173.38
260.314	189.38
260.547	179.38
260.779	165.38
261.012	181.38
261.244	179.38
261.477	173.38
261.71	181.38
261.942	173.38
262.175	170.38
262.407	179.38
262.64	175.38
262.872	179.38
263.105	169.38
263.337	182.38
263.57	175.38
263.802	183.38
264.035	175.38
264.267	184.38
264.499	176.38
264.732	189.38
264.964	191.38
265.197	171.38
265.429	195.38
265.661	177.38
265.894	176.38
266.126	181.38
266.358	181.38
266.591	199.38
266.823	195.38
267.055	200.38
267.287	182.38
267.52	186.38
267.752	205.38
267.984	197.38
268.216	183.38
268.448	190.38
268.681	186.38
268.913	193.38
269.145	204.38
269.377	193.38
269.609	207.38
269.841	200.38
270.073	185.38
270.306	183.38
270.538	207.38
270.77	195.38
271.002	195.38
271.234	221.38
271.466	198.38
271.698	203.38
271.93	228.38
272.162	206.38
272.394	210.38
272.626	204.38
272.858	235.38
273.09	225.38
273.322	223.38
273.553	213.38
273.785	221.38
274.017	209.38
274.249	216.38
274.481	213.38
274.713	233.38
274.945	249.38
275.176	244.38
275.408	228.38
275.64	229.38
275.872	247.38
276.104	235.38
276.335	225.38
276.567	234.38
276.799	226.38
277.031	229.38
277.262	231.38
277.494	229.38
277.726	239.38
277.957	225.38
278.189	239.38
278.421	239.38
278.652	224.38
278.884	232.38
279.115	249.38
279.347	242.38
279.579	233.38
279.81	226.38
280.042	232.38
280.273	250.38
280.505	236.38
280.736	251.38
280.968	245.38
281.199	236.38
281.431	241.38
281.662	243.38
281.894	272.38
282.125	265.38
282.356	273.38
282.588	268.38
282.819	244.38
283.051	250.38
283.282	273.38
283.513	263.38
283.745	273.38
283.976	244.38
284.207	274.38
284.439	251.38
284.67	266.38
284.901	287.38
285.132	282.38
285.364	272.38
285.595	281.38
285.826	286.38
286.057	276.38
286.288	271.38
286.52	299.38
286.751	284.38
286.982	281.38
287.213	280.38
287.444	277.38
287.675	294.38
287.906	292.38
288.138	276.38
288.369	273.38
288.6	279.38
288.831	278.38
289.062	296.38
289.293	283.38
289.524	305.38
289.755	294.38
289.986	279.38
290.217	284.38
290.448	283.38
290.679	303.38
290.91	285.38
291.141	295.38
291.371	299.38
291.602	300.38
291.833	297.38
292.064	289.38
292.295	299.38
292.526	314.38
292.757	314.38
292.987	306.38
293.218	291.38
293.449	300.38
293.68	319.38
293.91	303.38
294.141	303.38
294.372	299.38
294.603	308.38
294.833	327.38
295.064	319.38
295.295	312.38
295.525	305.38
295.756	322.38
295.987	321.38
296.217	322.38
296.448	323.38
296.679	296.38
296.909	319.38
297.14	323.38
297.37	321.38
297.601	324.38
297.831	316.38
298.062	331.38
298.292	335.38
298.523	329.38
298.753	309.38
298.984	312.38
299.214	332.38
299.445	336.38
299.675	341.38
299.905	323.38
300.136	330.38
300.366	344.38
300.597	345.38
300.827	313.38
301.057	308.38
301.288	316.38
301.518	348.38
301.748	351.38
301.979	369.38
302.209	332.38
302.439	338.38
302.669	345.38
302.9	327.38
303.13	352.38
303.36	340.38
303.59	347.38
303.82	346.38
304.051	356.38
304.281	376.38
304.511	364.38
304.741	353.38
304.971	344.38
305.201	356.38
305.431	351.38
305.661	349.38
305.891	369.38
306.121	365.38
306.352	330.38
306.582	354.38
306.812	342.38
307.042	343.38
307.272	367.38
307.502	359.38
307.731	375.38
307.961	353.38
308.191	358.38
308.421	362.38
308.651	356.38
308.881	372.38
309.111	381.38
309.341	354.38
309.571	346.38
309.8	369.38
310.03	375.38
310.26	362.38
310.49	363.38
310.72	368.38
310.949	360.38
311.179	384.38
311.409	385.38
311.639	386.38
311.868	375.38
312.098	378.38
312.328	386.38
312.557	377.38
312.787	371.38
313.017	404.38
313.246	381.38
313.476	367.38
313.706	386.38
313.935	395.38
314.165	385.38
314.394	407.38
314.624	406.38
314.853	395.38
315.083	389.38
315.312	400.38
315.542	409.38
315.771	394.38
316.001	404.38
316.23	403.38
316.46	403.38
316.689	398.38
316.919	421.38
317.148	403.38
317.377	413.38
317.607	400.38
317.836	402.38
318.065	403.38
318.295	397.38
318.524	405.38
318.753	400.38
318.983	395.38
319.212	419.38
319.441	406.38
319.67	422.38
319.9	396.38
320.129	419.38
320.358	398.38
320.587	407.38
320.816	419.38
321.046	427.38
321.275	433.38
321.504	450.38
321.733	437.38
321.962	424.38
322.191	404.38
322.42	440.38
322.649	415.38
322.878	435.38
323.108	433.38
323.337	431.38
323.566	443.38
323.795	429.38
324.024	437.38
324.253	427.38
324.482	428.38
324.71	437.38
324.939	425.38
325.168	430.38
325.397	452.38
325.626	445.38
325.855	444.38
326.084	455.38
326.313	438.38
326.542	453.38
326.77	458.38
326.999	455.38
327.228	436.38
327.457	426.38
327.686	439.38
327.914	444.38
328.143	457.38
328.372	450.38
328.6	449.38
328.829	457.38
329.058	465.38
329.287	451.38
329.515	452.38
329.744	453.38
329.972	453.38
330.201	458.38
330.43	431.38
330.658	450.38
330.887	463.38
331.115	461.38
331.344	475.38
331.572	484.38
331.801	448.38
332.03	456.38
332.258	468.38
332.486	466.38
332.715	468.38
332.943	466.38
333.172	461.38
333.4	491.38
333.629	468.38
333.857	491.38
334.085	492.38
334.314	485.38
334.542	498.38
334.771	481.38
334.999	490.38
335.227	502.38
335.455	485.38
335.684	483.38
335.912	508.38
336.14	497.38
336.369	485.38
336.597	488.38
336.825	504.38
337.053	504.38
337.281	493.38
337.51	492.38
337.738	511.38
337.966	486.38
338.194	500.38
338.422	484.38
338.65	483.38
338.878	492.38
339.106	488.38
339.334	489.38
339.562	490.38
339.79	480.38
340.018	497.38
340.246	489.38
340.474	484.38
340.702	499.38
340.93	483.38
341.158	491.38
341.386	474.38
341.614	477.38
341.842	495.38
342.07	495.38
342.298	492.38
342.526	484.38
342.754	473.38
342.981	495.38
343.209	490.38
343.437	495.38
343.665	508.38
343.893	486.38
344.12	487.38
344.348	514.38
344.576	516.38
344.804	495.38
345.031	488.38
345.259	482.38
345.487	463.38
345.714	515.38
345.942	466.38
346.17	492.38
346.397	482.38
346.625	494.38
346.853	509.38
347.08	495.38
347.308	477.38
347.535	482.38
347.763	487.38
347.99	476.38
348.218	476.38
348.445	470.38
348.673	484.38
348.9	482.38
349.128	498.38
349.355	475.38
349.583	473.38
349.81	484.38
350.037	479.38
350.265	503.38
350.492	483.38
350.72	492.38
350.947	484.38
351.174	483.38
351.402	479.38
351.629	479.38
351.856	491.38
352.083	483.38
352.311	498.38
352.538	479.38
352.765	480.38
352.992	477.38
353.22	460.38
353.447	454.38
353.674	484.38
353.901	479.38
354.128	507.38
354.355	461.38
354.583	469.38
354.81	452.38
355.037	480.38
355.264	484.38
355.491	485.38
355.718	500.38
355.945	468.38
356.172	476.38
356.399	482.38
356.626	465.38
356.853	477.38
357.08	484.38
357.307	483.38
357.534	492.38
357.761	458.38
357.988	494.38
358.215	501.38
358.441	481.38
358.668	486.38
358.895	488.38
359.122	471.38
359.349	487.38
359.576	477.38
359.802	465.38
360.029	493.38
360.256	513.38
360.483	491.38
360.709	511.38
360.936	490.38
361.163	489.38
361.39	506.38
361.616	491.38
361.843	485.38
362.07	503.38
362.296	515.38
362.523	495.38
362.749	495.38
362.976	505.38
363.203	495.38
363.429	483.38
363.656	504.38
363.882	489.38
364.109	503.38
364.335	524.38
364.562	508.38
364.788	500.38
365.015	495.38
365.241	505.38
365.468	500.38
365.694	515.38
365.92	496.38
366.147	508.38
366.373	507.38
366.599	523.38
366.826	507.38
367.052	486.38
367.278	513.38
367.505	513.38
367.731	515.38
367.957	524.38
368.184	513.38
368.41	519.38
368.636	495.38
368.862	499.38
369.089	511.38
369.315	509.38
369.541	523.38
369.767	498.38
369.993	530.38
370.219	501.38
370.445	523.38
370.672	519.38
370.898	519.38
371.124	537.38
371.35	526.38
371.576	538.38
371.802	506.38
372.028	532.38
372.254	531.38
372.48	515.38
372.706	532.38
372.932	514.38
373.158	525.38
373.384	539.38
373.61	537.38
373.835	521.38
374.061	524.38
374.287	548.38
374.513	550.38
374.739	520.38
374.965	548.38
375.191	539.38
375.416	536.38
375.642	526.38
375.868	542.38
376.094	533.38
376.319	554.38
376.545	531.38
376.771	529.38
376.997	513.38
377.222	515.38
377.448	498.38
377.674	520.38
377.899	491.38
378.125	526.38
378.35	544.38
378.576	551.38
378.802	542.38
379.027	546.38
379.253	535.38
379.478	507.38
379.704	538.38
379.929	524.38
380.155	515.38
380.38	536.38
380.606	514.38
380.831	541.38
381.057	541.38
381.282	524.38
381.507	512.38
381.733	538.38
381.958	543.38
382.184	538.38
382.409	525.38
382.634	563.38
382.86	548.38
383.085	543.38
383.31	560.38
383.535	527.38
383.761	555.38
383.986	555.38
384.211	563.38
384.436	549.38
384.662	557.38
384.887	546.38
385.112	559.38
385.337	548.38
385.562	567.38
385.787	569.38
386.013	599.38
386.238	587.38
386.463	592.38
386.688	577.38
386.913	580.38
387.138	564.38
387.363	575.38
387.588	577.38
387.813	572.38
388.038	553.38
388.263	563.38
388.488	591.38
388.713	550.38
388.938	565.38
389.163	579.38
389.387	581.38
389.612	593.38
389.837	577.38
390.062	563.38
390.287	584.38
390.512	567.38
390.736	582.38
390.961	587.38
391.186	574.38
391.411	605.38
391.636	593.38
391.86	585.38
392.085	595.38
392.31	602.38
392.534	575.38
392.759	608.38
392.984	609.38
393.208	598.38
393.433	608.38
393.658	602.38
393.882	596.38
394.107	577.38
394.331	572.38
394.556	573.38
394.78	604.38
395.005	592.38
395.229	583.38
395.454	619.38
395.678	616.38
395.903	611.38
396.127	605.38
396.352	601.38
396.576	605.38
396.801	618.38
397.025	586.38
397.249	613.38
397.474	611.38
397.698	612.38
397.922	581.38
398.147	633.38
398.371	615.38
398.595	633.38
398.82	627.38
399.044	641.38
399.268	664.38
399.492	683.38
399.717	690.38
399.941	680.38
400.165	699.38
400.389	668.38
400.613	664.38
400.837	643.38
401.062	643.38
401.286	630.38
401.51	636.38
401.734	649.38
401.958	656.38
402.182	660.38
402.406	659.38
402.63	640.38
402.854	615.38
403.078	637.38
403.302	623.38
403.526	636.38
403.75	630.38
403.974	635.38
404.198	622.38
404.422	652.38
404.645	646.38
404.869	643.38
405.093	627.38
405.317	644.38
405.541	672.38
405.765	656.38
405.988	654.38
406.212	657.38
406.436	657.38
406.66	659.38
406.883	652.38
407.107	674.38
407.331	674.38
407.555	684.38
407.778	690.38
408.002	694.38
408.226	695.38
408.449	711.38
408.673	678.38
408.896	673.38
409.12	663.38
409.344	679.38
409.567	663.38
409.791	666.38
410.014	662.38
410.238	664.38
410.461	684.38
410.685	644.38
410.908	688.38
411.132	652.38
411.355	650.38
411.578	645.38
411.802	627.38
412.025	649.38
412.249	665.38
412.472	633.38
412.695	633.38
412.919	658.38
413.142	665.38
413.365	646.38
413.589	633.38
413.812	620.38
414.035	641.38
414.258	634.38
414.482	635.38
414.705	639.38
414.928	662.38
415.151	632.38
415.374	624.38
415.597	640.38
415.821	645.38
416.044	629.38
416.267	637.38
416.49	633.38
416.713	611.38
416.936	631.38
417.159	591.38
417.382	605.38
417.605	608.38
417.828	619.38
418.051	627.38
418.274	599.38
418.497	625.38
418.72	599.38
418.943	607.38
419.166	626.38
419.389	672.38
419.611	630.38
419.834	644.38
420.057	641.38
420.28	624.38
420.503	625.38
420.726	611.38
420.948	631.38
421.171	609.38
421.394	609.38
421.617	590.38
421.839	603.38
422.062	615.38
422.285	604.38
422.507	602.38
422.73	592.38
422.953	605.38
423.175	601.38
423.398	587.38
423.621	612.38
423.843	617.38
424.066	620.38
424.288	585.38
424.511	599.38
424.733	628.38
424.956	593.38
425.178	584.38
425.401	608.38
425.623	603.38
425.846	602.38
426.068	613.38
426.291	616.38
426.513	620.38
426.735	627.38
426.958	604.38
427.18	588.38
427.402	617.38
427.625	610.38
427.847	614.38
428.069	616.38
428.292	609.38
428.514	601.38
428.736	602.38
428.958	607.38
429.181	608.38
429.403	602.38
429.625	592.38
429.847	589.38
430.069	627.38
430.292	609.38
430.514	588.38
430.736	606.38
430.958	597.38
431.18	594.38
431.402	576.38
431.624	589.38
431.846	600.38
432.068	592.38
432.29	600.38
432.512	592.38
432.734	599.38
432.956	598.38
433.178	599.38
433.4	610.38
433.622	620.38
433.844	601.38
434.066	604.38
434.287	610.38
434.509	615.38
434.731	607.38
434.953	611.38
435.175	600.38
435.397	623.38
435.618	594.38
435.84	601.38
436.062	608.38
436.284	591.38
436.505	617.38
436.727	603.38
436.949	582.38
437.17	580.38
437.392	579.38
437.614	584.38
437.835	571.38
438.057	614.38
438.278	574.38
438.5	571.38
438.721	588.38
438.943	582.38
439.165	579.38
439.386	586.38
439.608	623.38
439.829	595.38
440.05	603.38
440.272	596.38
440.493	583.38
440.715	605.38
440.936	596.38
441.158	587.38
441.379	587.38
441.6	592.38
441.822	581.38
442.043	617.38
442.264	617.38
442.486	574.38
442.707	593.38
442.928	604.38
443.149	587.38
443.371	607.38
443.592	601.38
443.813	577.38
444.034	609.38
444.255	598.38
444.476	608.38
444.698	609.38
444.919	605.38
445.14	683.38
445.361	655.38
445.582	637.38
445.803	612.38
446.024	602.38
446.245	599.38
446.466	605.38
446.687	611.38
446.908	598.38
447.129	574.38
447.35	595.38
447.571	585.38
447.792	587.38
448.013	581.38
448.234	569.38
448.455	575.38
448.675	588.38
448.896	570.38
449.117	541.38
449.338	582.38
449.559	550.38
449.779	563.38
450	564.38
450.221	579.38
450.442	561.38
450.662	567.38
450.883	554.38
451.104	557.38
451.324	565.38
451.545	572.38
451.766	559.38
451.986	563.38
452.207	545.38
452.428	546.38
452.648	553.38
452.869	561.38
453.089	543.38
453.31	531.38
453.53	559.38
453.751	548.38
453.971	544.38
454.192	534.38
454.412	531.38
454.633	514.38
454.853	542.38
455.073	545.38
455.294	539.38
455.514	554.38
455.734	555.38
455.955	560.38
456.175	539.38
456.395	567.38
456.616	545.38
456.836	551.38
457.056	545.38
457.276	553.38
457.497	537.38
457.717	566.38
457.937	552.38
458.157	541.38
458.377	562.38
458.598	544.38
458.818	552.38
459.038	549.38
459.258	572.38
459.478	569.38
459.698	602.38
459.918	586.38
460.138	599.38
460.358	589.38
460.578	589.38
460.798	601.38
461.018	611.38
461.238	580.38
461.458	608.38
461.678	601.38
461.898	621.38
462.118	584.38
462.338	604.38
462.558	623.38
462.777	626.38
462.997	641.38
463.217	668.38
463.437	657.38
463.657	641.38
463.876	653.38
464.096	645.38
464.316	623.38
464.536	646.38
464.755	641.38
464.975	632.38
465.195	605.38
465.414	590.38
465.634	594.38
465.854	587.38
466.073	611.38
466.293	596.38
466.512	592.38
466.732	570.38
466.951	599.38
467.171	583.38
467.391	573.38
467.61	581.38
467.829	585.38
468.049	588.38
468.268	586.38
468.488	579.38
468.707	588.38
468.927	594.38
469.146	593.38
469.365	572.38
469.585	575.38
469.804	598.38
470.023	581.38
470.243	593.38
470.462	599.38
470.681	602.38
470.901	584.38
471.12	592.38
471.339	599.38
471.558	602.38
471.777	609.38
471.997	603.38
472.216	600.38
472.435	562.38
472.654	619.38
472.873	605.38
473.092	605.38
473.311	609.38
473.53	587.38
473.749	588.38
473.968	626.38
474.187	612.38
474.406	597.38
474.625	619.38
474.844	619.38
475.063	611.38
475.282	609.38
475.501	616.38
475.72	631.38
475.939	643.38
476.158	651.38
476.377	643.38
476.596	656.38
476.814	651.38
477.033	629.38
477.252	652.38
477.471	658.38
477.69	671.38
477.908	658.38
478.127	680.38
478.346	671.38
478.564	671.38
478.783	664.38
479.002	684.38
479.22	679.38
479.439	701.38
479.658	701.38
479.876	709.38
480.095	707.38
480.313	738.38
480.532	727.38
480.751	698.38
480.969	724.38
481.188	727.38
481.406	721.38
481.624	707.38
481.843	699.38
482.061	725.38
482.28	689.38
482.498	706.38
482.717	723.38
482.935	726.38
483.153	710.38
483.372	707.38
483.59	712.38
483.808	723.38
484.027	756.38
484.245	745.38
484.463	721.38
484.681	763.38
484.9	721.38
485.118	735.38
485.336	727.38
485.554	722.38
485.772	733.38
485.99	758.38
486.209	763.38
486.427	748.38
486.645	740.38
486.863	773.38
487.081	748.38
487.299	744.38
487.517	742.38
487.735	749.38
487.953	752.38
488.171	744.38
488.389	715.38
488.607	743.38
488.825	748.38
489.043	739.38
489.261	754.38
489.479	746.38
489.696	749.38
489.914	736.38
490.132	753.38
490.35	757.38
490.568	764.38
490.786	762.38
491.003	774.38
491.221	741.38
491.439	738.38
491.657	759.38
491.874	760.38
492.092	751.38
492.31	791.38
492.527	774.38
492.745	783.38
492.963	779.38
493.18	771.38
493.398	766.38
493.615	755.38
493.833	772.38
494.05	791.38
494.268	793.38
494.485	801.38
494.703	780.38
494.92	754.38
495.138	780.38
495.355	786.38
495.573	775.38
495.79	796.38
496.008	803.38
496.225	783.38
496.442	820.38
496.66	821.38
496.877	833.38
497.094	824.38
497.312	820.38
497.529	835.38
497.746	820.38
497.963	828.38
498.181	853.38
498.398	838.38
498.615	865.38
498.832	893.38
499.049	891.38
499.267	914.38
499.484	902.38
499.701	951.38
499.918	963.38
500.135	1016.38
500.352	1019.38
500.569	1033.38
500.786	1013.38
501.003	1039.38
501.22	981.38
501.437	977.38
501.654	918.38
