Data from Fe(NO3)3@0.05M.TitratingCurve.Agarose3%dH2O.NegLispCup.LampEnergy10.LIBS07252019_HRD10591_16-48-29-334.txt Node
Date: Thu Jul 25 16:48:29 EDT 2019
User: cochatt
Spectrometer: HR+D1059
Trigger mode: 1
Integration Time (sec): 1.000000E-1
Scans to average: 1
Electric dark correction enabled: true
Nonlinearity correction enabled: false
Boxcar width: 0
XAxis mode: Wavelengths
Number of Pixels in Spectrum: 2048
>>>>>Begin Spectral Data<<<<<
223.165	-23.31
223.4	-23.31
223.635	-23.31
223.869	-27.31
224.104	-11.31
224.338	-18.31
224.573	-23.31
224.808	-13.31
225.042	-3.31
225.277	1.69
225.511	0.69
225.746	3.69
225.98	-1.31
226.215	16.69
226.449	20.69
226.683	25.69
226.918	33.69
227.152	18.69
227.387	33.69
227.621	26.69
227.856	25.69
228.09	54.69
228.324	68.69
228.559	46.69
228.793	71.69
229.027	61.69
229.262	72.69
229.496	70.69
229.73	86.69
229.964	83.69
230.199	105.69
230.433	87.69
230.667	105.69
230.901	92.69
231.136	87.69
231.37	102.69
231.604	102.69
231.838	94.69
232.072	118.69
232.306	96.69
232.541	102.69
232.775	93.69
233.009	96.69
233.243	98.69
233.477	111.69
233.711	106.69
233.945	103.69
234.179	101.69
234.413	86.69
234.647	110.69
234.881	113.69
235.115	112.69
235.349	98.69
235.583	104.69
235.817	74.69
236.051	95.69
236.285	87.69
236.519	86.69
236.753	92.69
236.987	102.69
237.221	95.69
237.455	105.69
237.689	106.69
237.922	103.69
238.156	99.69
238.39	97.69
238.624	90.69
238.858	101.69
239.091	95.69
239.325	98.69
239.559	110.69
239.793	119.69
240.027	105.69
240.26	117.69
240.494	102.69
240.728	111.69
240.961	113.69
241.195	123.69
241.429	94.69
241.662	100.69
241.896	103.69
242.13	96.69
242.363	106.69
242.597	112.69
242.83	106.69
243.064	111.69
243.298	117.69
243.531	105.69
243.765	121.69
243.998	129.69
244.232	105.69
244.465	109.69
244.699	115.69
244.932	103.69
245.166	103.69
245.399	97.69
245.633	113.69
245.866	112.69
246.099	115.69
246.333	110.69
246.566	121.69
246.8	127.69
247.033	108.69
247.266	123.69
247.5	107.69
247.733	130.69
247.966	117.69
248.2	118.69
248.433	131.69
248.666	121.69
248.899	122.69
249.133	126.69
249.366	144.69
249.599	143.69
249.832	131.69
250.066	127.69
250.299	123.69
250.532	123.69
250.765	134.69
250.998	139.69
251.231	145.69
251.465	133.69
251.698	129.69
251.931	134.69
252.164	145.69
252.397	132.69
252.63	139.69
252.863	113.69
253.096	140.69
253.329	122.69
253.562	153.69
253.795	144.69
254.028	144.69
254.261	133.69
254.494	145.69
254.727	137.69
254.96	133.69
255.193	138.69
255.426	123.69
255.659	123.69
255.892	138.69
256.124	135.69
256.357	136.69
256.59	161.69
256.823	139.69
257.056	140.69
257.289	137.69
257.521	139.69
257.754	140.69
257.987	137.69
258.22	136.69
258.452	136.69
258.685	146.69
258.918	154.69
259.151	142.69
259.383	155.69
259.616	149.69
259.849	138.69
260.081	163.69
260.314	154.69
260.547	136.69
260.779	153.69
261.012	149.69
261.244	143.69
261.477	146.69
261.71	159.69
261.942	148.69
262.175	151.69
262.407	151.69
262.64	144.69
262.872	149.69
263.105	145.69
263.337	152.69
263.57	157.69
263.802	162.69
264.035	157.69
264.267	153.69
264.499	155.69
264.732	162.69
264.964	163.69
265.197	158.69
265.429	150.69
265.661	146.69
265.894	165.69
266.126	169.69
266.358	142.69
266.591	153.69
266.823	158.69
267.055	147.69
267.287	157.69
267.52	155.69
267.752	166.69
267.984	160.69
268.216	151.69
268.448	158.69
268.681	166.69
268.913	160.69
269.145	166.69
269.377	169.69
269.609	160.69
269.841	164.69
270.073	147.69
270.306	168.69
270.538	161.69
270.77	171.69
271.002	163.69
271.234	177.69
271.466	162.69
271.698	163.69
271.93	178.69
272.162	171.69
272.394	173.69
272.626	166.69
272.858	158.69
273.09	165.69
273.322	180.69
273.553	173.69
273.785	161.69
274.017	164.69
274.249	195.69
274.481	187.69
274.713	183.69
274.945	179.69
275.176	182.69
275.408	184.69
275.64	190.69
275.872	170.69
276.104	168.69
276.335	173.69
276.567	162.69
276.799	180.69
277.031	185.69
277.262	185.69
277.494	166.69
277.726	183.69
277.957	167.69
278.189	192.69
278.421	178.69
278.652	163.69
278.884	177.69
279.115	175.69
279.347	163.69
279.579	174.69
279.81	175.69
280.042	174.69
280.273	176.69
280.505	190.69
280.736	177.69
280.968	192.69
281.199	188.69
281.431	186.69
281.662	181.69
281.894	203.69
282.125	193.69
282.356	198.69
282.588	198.69
282.819	193.69
283.051	167.69
283.282	205.69
283.513	199.69
283.745	190.69
283.976	184.69
284.207	196.69
284.439	199.69
284.67	202.69
284.901	203.69
285.132	191.69
285.364	199.69
285.595	203.69
285.826	202.69
286.057	189.69
286.288	192.69
286.52	168.69
286.751	189.69
286.982	201.69
287.213	203.69
287.444	204.69
287.675	201.69
287.906	196.69
288.138	213.69
288.369	213.69
288.6	206.69
288.831	200.69
289.062	207.69
289.293	193.69
289.524	216.69
289.755	180.69
289.986	191.69
290.217	197.69
290.448	200.69
290.679	192.69
290.91	202.69
291.141	210.69
291.371	217.69
291.602	189.69
291.833	199.69
292.064	211.69
292.295	206.69
292.526	226.69
292.757	195.69
292.987	200.69
293.218	209.69
293.449	197.69
293.68	202.69
293.91	204.69
294.141	193.69
294.372	189.69
294.603	212.69
294.833	213.69
295.064	220.69
295.295	205.69
295.525	215.69
295.756	210.69
295.987	218.69
296.217	201.69
296.448	228.69
296.679	214.69
296.909	216.69
297.14	213.69
297.37	209.69
297.601	203.69
297.831	223.69
298.062	225.69
298.292	210.69
298.523	230.69
298.753	227.69
298.984	211.69
299.214	225.69
299.445	209.69
299.675	232.69
299.905	230.69
300.136	208.69
300.366	210.69
300.597	221.69
300.827	231.69
301.057	207.69
301.288	232.69
301.518	214.69
301.748	229.69
301.979	228.69
302.209	216.69
302.439	229.69
302.669	237.69
302.9	227.69
303.13	217.69
303.36	229.69
303.59	228.69
303.82	220.69
304.051	224.69
304.281	219.69
304.511	229.69
304.741	223.69
304.971	228.69
305.201	213.69
305.431	220.69
305.661	223.69
305.891	232.69
306.121	230.69
306.352	229.69
306.582	250.69
306.812	217.69
307.042	224.69
307.272	218.69
307.502	222.69
307.731	233.69
307.961	225.69
308.191	240.69
308.421	229.69
308.651	197.69
308.881	214.69
309.111	229.69
309.341	231.69
309.571	226.69
309.8	219.69
310.03	231.69
310.26	217.69
310.49	223.69
310.72	231.69
310.949	213.69
311.179	241.69
311.409	228.69
311.639	221.69
311.868	214.69
312.098	240.69
312.328	233.69
312.557	229.69
312.787	233.69
313.017	245.69
313.246	222.69
313.476	235.69
313.706	234.69
313.935	234.69
314.165	232.69
314.394	253.69
314.624	246.69
314.853	235.69
315.083	230.69
315.312	248.69
315.542	255.69
315.771	248.69
316.001	228.69
316.23	239.69
316.46	243.69
316.689	241.69
316.919	216.69
317.148	254.69
317.377	245.69
317.607	230.69
317.836	236.69
318.065	246.69
318.295	239.69
318.524	237.69
318.753	235.69
318.983	232.69
319.212	228.69
319.441	243.69
319.67	251.69
319.9	245.69
320.129	238.69
320.358	234.69
320.587	250.69
320.816	248.69
321.046	237.69
321.275	246.69
321.504	228.69
321.733	251.69
321.962	253.69
322.191	258.69
322.42	243.69
322.649	234.69
322.878	239.69
323.108	253.69
323.337	263.69
323.566	258.69
323.795	264.69
324.024	260.69
324.253	252.69
324.482	242.69
324.71	242.69
324.939	242.69
325.168	257.69
325.397	234.69
325.626	231.69
325.855	253.69
326.084	257.69
326.313	270.69
326.542	254.69
326.77	242.69
326.999	266.69
327.228	243.69
327.457	260.69
327.686	264.69
327.914	248.69
328.143	250.69
328.372	264.69
328.6	273.69
328.829	268.69
329.058	257.69
329.287	245.69
329.515	247.69
329.744	254.69
329.972	261.69
330.201	260.69
330.43	264.69
330.658	277.69
330.887	257.69
331.115	273.69
331.344	297.69
331.572	285.69
331.801	275.69
332.03	281.69
332.258	270.69
332.486	285.69
332.715	291.69
332.943	305.69
333.172	313.69
333.4	297.69
333.629	327.69
333.857	325.69
334.085	323.69
334.314	327.69
334.542	327.69
334.771	317.69
334.999	301.69
335.227	319.69
335.455	307.69
335.684	307.69
335.912	293.69
336.14	293.69
336.369	295.69
336.597	295.69
336.825	307.69
337.053	290.69
337.281	318.69
337.51	295.69
337.738	303.69
337.966	285.69
338.194	276.69
338.422	287.69
338.65	260.69
338.878	307.69
339.106	287.69
339.334	290.69
339.562	270.69
339.79	273.69
340.018	272.69
340.246	261.69
340.474	274.69
340.702	290.69
340.93	282.69
341.158	274.69
341.386	286.69
341.614	276.69
341.842	277.69
342.07	268.69
342.298	263.69
342.526	274.69
342.754	274.69
342.981	274.69
343.209	261.69
343.437	279.69
343.665	301.69
343.893	314.69
344.12	325.69
344.348	321.69
344.576	303.69
344.804	301.69
345.031	267.69
345.259	269.69
345.487	263.69
345.714	278.69
345.942	281.69
346.17	265.69
346.397	268.69
346.625	273.69
346.853	258.69
347.08	250.69
347.308	259.69
347.535	270.69
347.763	261.69
347.99	281.69
348.218	271.69
348.445	279.69
348.673	259.69
348.9	261.69
349.128	248.69
349.355	259.69
349.583	255.69
349.81	255.69
350.037	278.69
350.265	265.69
350.492	263.69
350.72	267.69
350.947	261.69
351.174	253.69
351.402	251.69
351.629	245.69
351.856	257.69
352.083	258.69
352.311	250.69
352.538	269.69
352.765	261.69
352.992	247.69
353.22	252.69
353.447	264.69
353.674	254.69
353.901	262.69
354.128	278.69
354.355	258.69
354.583	268.69
354.81	276.69
355.037	279.69
355.264	253.69
355.491	260.69
355.718	271.69
355.945	266.69
356.172	275.69
356.399	268.69
356.626	249.69
356.853	247.69
357.08	250.69
357.307	250.69
357.534	259.69
357.761	253.69
357.988	267.69
358.215	260.69
358.441	260.69
358.668	264.69
358.895	264.69
359.122	269.69
359.349	264.69
359.576	264.69
359.802	273.69
360.029	263.69
360.256	250.69
360.483	259.69
360.709	263.69
360.936	263.69
361.163	268.69
361.39	272.69
361.616	261.69
361.843	253.69
362.07	263.69
362.296	282.69
362.523	261.69
362.749	250.69
362.976	267.69
363.203	268.69
363.429	290.69
363.656	262.69
363.882	255.69
364.109	281.69
364.335	265.69
364.562	245.69
364.788	256.69
365.015	265.69
365.241	277.69
365.468	271.69
365.694	263.69
365.92	280.69
366.147	280.69
366.373	273.69
366.599	262.69
366.826	271.69
367.052	257.69
367.278	263.69
367.505	266.69
367.731	275.69
367.957	255.69
368.184	270.69
368.41	273.69
368.636	284.69
368.862	264.69
369.089	271.69
369.315	251.69
369.541	268.69
369.767	276.69
369.993	283.69
370.219	275.69
370.445	267.69
370.672	277.69
370.898	277.69
371.124	277.69
371.35	298.69
371.576	289.69
371.802	286.69
372.028	308.69
372.254	317.69
372.48	270.69
372.706	293.69
372.932	297.69
373.158	290.69
373.384	305.69
373.61	316.69
373.835	292.69
374.061	312.69
374.287	304.69
374.513	298.69
374.739	303.69
374.965	303.69
375.191	325.69
375.416	332.69
375.642	309.69
375.868	294.69
376.094	309.69
376.319	307.69
376.545	288.69
376.771	293.69
376.997	272.69
377.222	306.69
377.448	282.69
377.674	287.69
377.899	294.69
378.125	286.69
378.35	271.69
378.576	288.69
378.802	280.69
379.027	292.69
379.253	302.69
379.478	303.69
379.704	297.69
379.929	290.69
380.155	282.69
380.38	275.69
380.606	284.69
380.831	295.69
381.057	290.69
381.282	290.69
381.507	308.69
381.733	283.69
381.958	286.69
382.184	309.69
382.409	305.69
382.634	304.69
382.86	334.69
383.085	311.69
383.31	325.69
383.535	330.69
383.761	323.69
383.986	329.69
384.211	317.69
384.436	331.69
384.662	343.69
384.887	357.69
385.112	341.69
385.337	331.69
385.562	342.69
385.787	336.69
386.013	349.69
386.238	347.69
386.463	350.69
386.688	356.69
386.913	334.69
387.138	326.69
387.363	359.69
387.588	352.69
387.813	335.69
388.038	353.69
388.263	357.69
388.488	345.69
388.713	345.69
388.938	333.69
389.163	346.69
389.387	344.69
389.612	321.69
389.837	346.69
390.062	330.69
390.287	366.69
390.512	335.69
390.736	353.69
390.961	347.69
391.186	353.69
391.411	366.69
391.636	366.69
391.86	384.69
392.085	375.69
392.31	357.69
392.534	355.69
392.759	365.69
392.984	388.69
393.208	381.69
393.433	373.69
393.658	354.69
393.882	365.69
394.107	372.69
394.331	373.69
394.556	373.69
394.78	365.69
395.005	372.69
395.229	347.69
395.454	373.69
395.678	377.69
395.903	367.69
396.127	405.69
396.352	387.69
396.576	353.69
396.801	375.69
397.025	379.69
397.249	383.69
397.474	396.69
397.698	396.69
397.922	379.69
398.147	384.69
398.371	414.69
398.595	410.69
398.82	428.69
399.044	440.69
399.268	497.69
399.492	517.69
399.717	579.69
399.941	559.69
400.165	530.69
400.389	498.69
400.613	452.69
400.837	464.69
401.062	459.69
401.286	451.69
401.51	442.69
401.734	431.69
401.958	426.69
402.182	451.69
402.406	426.69
402.63	437.69
402.854	449.69
403.078	458.69
403.302	451.69
403.526	457.69
403.75	472.69
403.974	473.69
404.198	464.69
404.422	470.69
404.645	464.69
404.869	472.69
405.093	459.69
405.317	456.69
405.541	467.69
405.765	445.69
405.988	458.69
406.212	459.69
406.436	476.69
406.66	469.69
406.883	504.69
407.107	474.69
407.331	511.69
407.555	551.69
407.778	551.69
408.002	518.69
408.226	509.69
408.449	493.69
408.673	477.69
408.896	486.69
409.12	486.69
409.344	487.69
409.567	498.69
409.791	468.69
410.014	479.69
410.238	483.69
410.461	487.69
410.685	465.69
410.908	472.69
411.132	464.69
411.355	446.69
411.578	451.69
411.802	450.69
412.025	456.69
412.249	458.69
412.472	464.69
412.695	433.69
412.919	452.69
413.142	439.69
413.365	425.69
413.589	463.69
413.812	441.69
414.035	462.69
414.258	437.69
414.482	447.69
414.705	451.69
414.928	432.69
415.151	432.69
415.374	422.69
415.597	447.69
415.821	427.69
416.044	424.69
416.267	446.69
416.49	440.69
416.713	426.69
416.936	433.69
417.159	431.69
417.382	429.69
417.605	445.69
417.828	427.69
418.051	437.69
418.274	421.69
418.497	441.69
418.72	422.69
418.943	426.69
419.166	441.69
419.389	516.69
419.611	493.69
419.834	473.69
420.057	472.69
420.28	439.69
420.503	442.69
420.726	410.69
420.948	421.69
421.171	434.69
421.394	455.69
421.617	443.69
421.839	466.69
422.062	440.69
422.285	430.69
422.507	432.69
422.73	449.69
422.953	443.69
423.175	439.69
423.398	453.69
423.621	463.69
423.843	447.69
424.066	453.69
424.288	449.69
424.511	481.69
424.733	443.69
424.956	435.69
425.178	441.69
425.401	441.69
425.623	431.69
425.846	413.69
426.068	442.69
426.291	436.69
426.513	422.69
426.735	417.69
426.958	409.69
427.18	398.69
427.402	419.69
427.625	420.69
427.847	427.69
428.069	408.69
428.292	411.69
428.514	433.69
428.736	393.69
428.958	402.69
429.181	401.69
429.403	396.69
429.625	400.69
429.847	402.69
430.069	405.69
430.292	395.69
430.514	400.69
430.736	385.69
430.958	414.69
431.18	390.69
431.402	390.69
431.624	395.69
431.846	405.69
432.068	411.69
432.29	425.69
432.512	411.69
432.734	413.69
432.956	407.69
433.178	414.69
433.4	392.69
433.622	414.69
433.844	432.69
434.066	409.69
434.287	406.69
434.509	423.69
434.731	419.69
434.953	432.69
435.175	444.69
435.397	442.69
435.618	424.69
435.84	418.69
436.062	417.69
436.284	411.69
436.505	410.69
436.727	415.69
436.949	439.69
437.17	418.69
437.392	391.69
437.614	414.69
437.835	380.69
438.057	392.69
438.278	381.69
438.5	402.69
438.721	407.69
438.943	401.69
439.165	411.69
439.386	399.69
439.608	413.69
439.829	409.69
440.05	404.69
440.272	401.69
440.493	399.69
440.715	410.69
440.936	425.69
441.158	421.69
441.379	430.69
441.6	435.69
441.822	463.69
442.043	433.69
442.264	438.69
442.486	449.69
442.707	444.69
442.928	444.69
443.149	450.69
443.371	451.69
443.592	438.69
443.813	465.69
444.034	447.69
444.255	470.69
444.476	469.69
444.698	480.69
444.919	527.69
445.14	618.69
445.361	509.69
445.582	465.69
445.803	445.69
446.024	442.69
446.245	413.69
446.466	427.69
446.687	437.69
446.908	422.69
447.129	402.69
447.35	417.69
447.571	402.69
447.792	388.69
448.013	399.69
448.234	395.69
448.455	399.69
448.675	392.69
448.896	397.69
449.117	373.69
449.338	391.69
449.559	395.69
449.779	402.69
450	398.69
450.221	389.69
450.442	405.69
450.662	375.69
450.883	394.69
451.104	385.69
451.324	395.69
451.545	381.69
451.766	393.69
451.986	394.69
452.207	379.69
452.428	386.69
452.648	375.69
452.869	363.69
453.089	357.69
453.31	370.69
453.53	380.69
453.751	363.69
453.971	371.69
454.192	359.69
454.412	354.69
454.633	383.69
454.853	377.69
455.073	365.69
455.294	369.69
455.514	347.69
455.734	373.69
455.955	358.69
456.175	361.69
456.395	337.69
456.616	365.69
456.836	357.69
457.056	341.69
457.276	353.69
457.497	355.69
457.717	360.69
457.937	371.69
458.157	367.69
458.377	359.69
458.598	383.69
458.818	370.69
459.038	380.69
459.258	410.69
459.478	401.69
459.698	415.69
459.918	417.69
460.138	434.69
460.358	457.69
460.578	455.69
460.798	456.69
461.018	451.69
461.238	457.69
461.458	459.69
461.678	458.69
461.898	477.69
462.118	476.69
462.338	494.69
462.558	495.69
462.777	505.69
462.997	559.69
463.217	583.69
463.437	577.69
463.657	547.69
463.876	507.69
464.096	510.69
464.316	520.69
464.536	521.69
464.755	505.69
464.975	506.69
465.195	468.69
465.414	442.69
465.634	450.69
465.854	422.69
466.073	426.69
466.293	402.69
466.512	414.69
466.732	399.69
466.951	417.69
467.171	375.69
467.391	408.69
467.61	391.69
467.829	402.69
468.049	383.69
468.268	405.69
468.488	416.69
468.707	408.69
468.927	395.69
469.146	402.69
469.365	399.69
469.585	407.69
469.804	400.69
470.023	409.69
470.243	416.69
470.462	402.69
470.681	422.69
470.901	396.69
471.12	391.69
471.339	408.69
471.558	377.69
471.777	383.69
471.997	390.69
472.216	382.69
472.435	385.69
472.654	395.69
472.873	370.69
473.092	389.69
473.311	388.69
473.53	385.69
473.749	393.69
473.968	393.69
474.187	385.69
474.406	367.69
474.625	374.69
474.844	373.69
475.063	353.69
475.282	381.69
475.501	381.69
475.72	389.69
475.939	409.69
476.158	408.69
476.377	386.69
476.596	389.69
476.814	421.69
477.033	418.69
477.252	409.69
477.471	401.69
477.69	445.69
477.908	408.69
478.127	429.69
478.346	419.69
478.564	409.69
478.783	449.69
479.002	464.69
479.22	447.69
479.439	445.69
479.658	448.69
479.876	440.69
480.095	448.69
480.313	466.69
480.532	478.69
480.751	474.69
480.969	470.69
481.188	444.69
481.406	454.69
481.624	436.69
481.843	423.69
482.061	410.69
482.28	413.69
482.498	413.69
482.717	418.69
482.935	407.69
483.153	435.69
483.372	434.69
483.59	435.69
483.808	425.69
484.027	438.69
484.245	413.69
484.463	415.69
484.681	416.69
484.9	422.69
485.118	453.69
485.336	413.69
485.554	453.69
485.772	444.69
485.99	431.69
486.209	434.69
486.427	421.69
486.645	425.69
486.863	454.69
487.081	441.69
487.299	430.69
487.517	431.69
487.735	433.69
487.953	426.69
488.171	438.69
488.389	446.69
488.607	422.69
488.825	435.69
489.043	429.69
489.261	397.69
489.479	411.69
489.696	435.69
489.914	459.69
490.132	415.69
490.35	441.69
490.568	434.69
490.786	439.69
491.003	453.69
491.221	446.69
491.439	453.69
491.657	439.69
491.874	445.69
492.092	464.69
492.31	482.69
492.527	477.69
492.745	456.69
492.963	450.69
493.18	463.69
493.398	443.69
493.615	443.69
493.833	462.69
494.05	470.69
494.268	448.69
494.485	475.69
494.703	465.69
494.92	465.69
495.138	471.69
495.355	494.69
495.573	477.69
495.79	456.69
496.008	485.69
496.225	470.69
496.442	483.69
496.66	490.69
496.877	473.69
497.094	512.69
497.312	508.69
497.529	538.69
497.746	531.69
497.963	545.69
498.181	537.69
498.398	557.69
498.615	584.69
498.832	637.69
499.049	638.69
499.267	705.69
499.484	750.69
499.701	816.69
499.918	888.69
500.135	967.69
500.352	1052.69
500.569	1087.69
500.786	1101.69
501.003	1026.69
501.22	969.69
501.437	864.69
501.654	787.69
501.871	734.69
