Data from Fe(NO3)3@0.025M.TitratingCurve.Agarose3%dH2O.NegLispCup.LampEnergy10.LIBS07252019_HRD10591_16-55-37-335.txt Node
Date: Thu Jul 25 16:55:37 EDT 2019
User: cochatt
Spectrometer: HR+D1059
Trigger mode: 1
Integration Time (sec): 1.000000E-1
Scans to average: 1
Electric dark correction enabled: true
Nonlinearity correction enabled: false
Boxcar width: 0
XAxis mode: Wavelengths
Number of Pixels in Spectrum: 2048
>>>>>Begin Spectral Data<<<<<
223.165	-13.06
223.4	-13.06
223.635	-13.06
223.869	-29.06
224.104	-18.06
224.338	-20.06
224.573	-17.06
224.808	-16.06
225.042	-18.06
225.277	-1.06
225.511	6.94
225.746	2.94
225.98	5.94
226.215	18.94
226.449	19.94
226.683	20.94
226.918	21.94
227.152	34.94
227.387	41.94
227.621	41.94
227.856	45.94
228.09	44.94
228.324	50.94
228.559	48.94
228.793	51.94
229.027	71.94
229.262	71.94
229.496	66.94
229.73	81.94
229.964	77.94
230.199	81.94
230.433	84.94
230.667	94.94
230.901	100.94
231.136	102.94
231.37	78.94
231.604	92.94
231.838	88.94
232.072	83.94
232.306	97.94
232.541	92.94
232.775	102.94
233.009	88.94
233.243	94.94
233.477	108.94
233.711	101.94
233.945	94.94
234.179	102.94
234.413	90.94
234.647	100.94
234.881	112.94
235.115	111.94
235.349	102.94
235.583	82.94
235.817	95.94
236.051	101.94
236.285	91.94
236.519	91.94
236.753	99.94
236.987	90.94
237.221	99.94
237.455	107.94
237.689	92.94
237.922	103.94
238.156	96.94
238.39	90.94
238.624	113.94
238.858	99.94
239.091	111.94
239.325	91.94
239.559	95.94
239.793	94.94
240.027	104.94
240.26	85.94
240.494	88.94
240.728	102.94
240.961	114.94
241.195	94.94
241.429	98.94
241.662	120.94
241.896	94.94
242.13	108.94
242.363	98.94
242.597	107.94
242.83	104.94
243.064	123.94
243.298	106.94
243.531	101.94
243.765	123.94
243.998	110.94
244.232	118.94
244.465	121.94
244.699	116.94
244.932	109.94
245.166	114.94
245.399	107.94
245.633	114.94
245.866	127.94
246.099	108.94
246.333	114.94
246.566	110.94
246.8	115.94
247.033	110.94
247.266	103.94
247.5	116.94
247.733	106.94
247.966	100.94
248.2	118.94
248.433	118.94
248.666	105.94
248.899	122.94
249.133	132.94
249.366	126.94
249.599	113.94
249.832	126.94
250.066	123.94
250.299	104.94
250.532	120.94
250.765	130.94
250.998	123.94
251.231	119.94
251.465	129.94
251.698	120.94
251.931	132.94
252.164	114.94
252.397	142.94
252.63	128.94
252.863	136.94
253.096	139.94
253.329	133.94
253.562	128.94
253.795	129.94
254.028	128.94
254.261	129.94
254.494	126.94
254.727	140.94
254.96	123.94
255.193	137.94
255.426	113.94
255.659	130.94
255.892	130.94
256.124	128.94
256.357	134.94
256.59	135.94
256.823	121.94
257.056	147.94
257.289	121.94
257.521	129.94
257.754	134.94
257.987	138.94
258.22	122.94
258.452	144.94
258.685	140.94
258.918	136.94
259.151	131.94
259.383	129.94
259.616	127.94
259.849	151.94
260.081	140.94
260.314	125.94
260.547	160.94
260.779	140.94
261.012	116.94
261.244	140.94
261.477	150.94
261.71	140.94
261.942	159.94
262.175	151.94
262.407	147.94
262.64	144.94
262.872	150.94
263.105	150.94
263.337	165.94
263.57	158.94
263.802	159.94
264.035	149.94
264.267	158.94
264.499	136.94
264.732	148.94
264.964	147.94
265.197	138.94
265.429	140.94
265.661	136.94
265.894	163.94
266.126	150.94
266.358	146.94
266.591	144.94
266.823	154.94
267.055	140.94
267.287	152.94
267.52	166.94
267.752	152.94
267.984	145.94
268.216	156.94
268.448	155.94
268.681	152.94
268.913	147.94
269.145	161.94
269.377	161.94
269.609	146.94
269.841	146.94
270.073	158.94
270.306	161.94
270.538	154.94
270.77	149.94
271.002	159.94
271.234	158.94
271.466	166.94
271.698	155.94
271.93	160.94
272.162	176.94
272.394	150.94
272.626	163.94
272.858	150.94
273.09	158.94
273.322	175.94
273.553	159.94
273.785	159.94
274.017	167.94
274.249	188.94
274.481	170.94
274.713	168.94
274.945	183.94
275.176	188.94
275.408	184.94
275.64	197.94
275.872	185.94
276.104	184.94
276.335	191.94
276.567	173.94
276.799	179.94
277.031	167.94
277.262	166.94
277.494	183.94
277.726	180.94
277.957	172.94
278.189	176.94
278.421	179.94
278.652	196.94
278.884	169.94
279.115	178.94
279.347	204.94
279.579	199.94
279.81	196.94
280.042	192.94
280.273	193.94
280.505	171.94
280.736	187.94
280.968	184.94
281.199	176.94
281.431	191.94
281.662	187.94
281.894	192.94
282.125	210.94
282.356	197.94
282.588	197.94
282.819	204.94
283.051	195.94
283.282	190.94
283.513	192.94
283.745	196.94
283.976	185.94
284.207	185.94
284.439	202.94
284.67	187.94
284.901	181.94
285.132	199.94
285.364	189.94
285.595	192.94
285.826	208.94
286.057	198.94
286.288	207.94
286.52	192.94
286.751	200.94
286.982	191.94
287.213	211.94
287.444	206.94
287.675	210.94
287.906	211.94
288.138	227.94
288.369	208.94
288.6	192.94
288.831	208.94
289.062	201.94
289.293	210.94
289.524	200.94
289.755	214.94
289.986	205.94
290.217	199.94
290.448	218.94
290.679	211.94
290.91	206.94
291.141	210.94
291.371	214.94
291.602	205.94
291.833	204.94
292.064	216.94
292.295	214.94
292.526	208.94
292.757	212.94
292.987	220.94
293.218	205.94
293.449	211.94
293.68	214.94
293.91	227.94
294.141	227.94
294.372	223.94
294.603	202.94
294.833	209.94
295.064	218.94
295.295	203.94
295.525	217.94
295.756	227.94
295.987	223.94
296.217	233.94
296.448	210.94
296.679	226.94
296.909	239.94
297.14	219.94
297.37	219.94
297.601	223.94
297.831	222.94
298.062	240.94
298.292	220.94
298.523	243.94
298.753	233.94
298.984	224.94
299.214	250.94
299.445	245.94
299.675	230.94
299.905	236.94
300.136	221.94
300.366	237.94
300.597	237.94
300.827	230.94
301.057	221.94
301.288	238.94
301.518	227.94
301.748	232.94
301.979	228.94
302.209	247.94
302.439	240.94
302.669	245.94
302.9	235.94
303.13	253.94
303.36	245.94
303.59	252.94
303.82	244.94
304.051	262.94
304.281	263.94
304.511	247.94
304.741	250.94
304.971	252.94
305.201	226.94
305.431	242.94
305.661	260.94
305.891	251.94
306.121	245.94
306.352	248.94
306.582	244.94
306.812	255.94
307.042	263.94
307.272	245.94
307.502	273.94
307.731	245.94
307.961	266.94
308.191	254.94
308.421	269.94
308.651	241.94
308.881	256.94
309.111	252.94
309.341	251.94
309.571	269.94
309.8	245.94
310.03	254.94
310.26	252.94
310.49	264.94
310.72	260.94
310.949	255.94
311.179	273.94
311.409	256.94
311.639	262.94
311.868	261.94
312.098	266.94
312.328	259.94
312.557	275.94
312.787	256.94
313.017	263.94
313.246	263.94
313.476	271.94
313.706	259.94
313.935	273.94
314.165	267.94
314.394	280.94
314.624	278.94
314.853	273.94
315.083	276.94
315.312	262.94
315.542	274.94
315.771	281.94
316.001	280.94
316.23	274.94
316.46	274.94
316.689	285.94
316.919	284.94
317.148	280.94
317.377	289.94
317.607	280.94
317.836	286.94
318.065	288.94
318.295	287.94
318.524	287.94
318.753	271.94
318.983	291.94
319.212	290.94
319.441	285.94
319.67	290.94
319.9	288.94
320.129	284.94
320.358	264.94
320.587	286.94
320.816	286.94
321.046	266.94
321.275	289.94
321.504	266.94
321.733	277.94
321.962	295.94
322.191	303.94
322.42	289.94
322.649	295.94
322.878	282.94
323.108	288.94
323.337	274.94
323.566	288.94
323.795	283.94
324.024	290.94
324.253	299.94
324.482	286.94
324.71	294.94
324.939	268.94
325.168	299.94
325.397	294.94
325.626	281.94
325.855	289.94
326.084	295.94
326.313	290.94
326.542	317.94
326.77	306.94
326.999	297.94
327.228	297.94
327.457	332.94
327.686	298.94
327.914	322.94
328.143	324.94
328.372	303.94
328.6	319.94
328.829	320.94
329.058	287.94
329.287	302.94
329.515	314.94
329.744	291.94
329.972	314.94
330.201	298.94
330.43	314.94
330.658	309.94
330.887	296.94
331.115	329.94
331.344	337.94
331.572	312.94
331.801	326.94
332.03	326.94
332.258	317.94
332.486	326.94
332.715	320.94
332.943	348.94
333.172	350.94
333.4	337.94
333.629	324.94
333.857	341.94
334.085	350.94
334.314	354.94
334.542	368.94
334.771	372.94
334.999	359.94
335.227	366.94
335.455	379.94
335.684	378.94
335.912	368.94
336.14	377.94
336.369	361.94
336.597	342.94
336.825	364.94
337.053	370.94
337.281	348.94
337.51	349.94
337.738	360.94
337.966	342.94
338.194	338.94
338.422	340.94
338.65	359.94
338.878	335.94
339.106	343.94
339.334	350.94
339.562	356.94
339.79	342.94
340.018	326.94
340.246	327.94
340.474	326.94
340.702	353.94
340.93	331.94
341.158	320.94
341.386	330.94
341.614	326.94
341.842	326.94
342.07	340.94
342.298	313.94
342.526	321.94
342.754	327.94
342.981	340.94
343.209	339.94
343.437	335.94
343.665	364.94
343.893	370.94
344.12	373.94
344.348	375.94
344.576	356.94
344.804	352.94
345.031	348.94
345.259	335.94
345.487	332.94
345.714	323.94
345.942	316.94
346.17	336.94
346.397	320.94
346.625	345.94
346.853	320.94
347.08	339.94
347.308	331.94
347.535	322.94
347.763	334.94
347.99	326.94
348.218	328.94
348.445	331.94
348.673	336.94
348.9	333.94
349.128	299.94
349.355	326.94
349.583	330.94
349.81	323.94
350.037	328.94
350.265	323.94
350.492	331.94
350.72	321.94
350.947	315.94
351.174	345.94
351.402	323.94
351.629	304.94
351.856	318.94
352.083	306.94
352.311	318.94
352.538	329.94
352.765	317.94
352.992	319.94
353.22	314.94
353.447	323.94
353.674	322.94
353.901	337.94
354.128	340.94
354.355	331.94
354.583	338.94
354.81	327.94
355.037	323.94
355.264	331.94
355.491	334.94
355.718	313.94
355.945	334.94
356.172	323.94
356.399	311.94
356.626	319.94
356.853	326.94
357.08	332.94
357.307	337.94
357.534	322.94
357.761	342.94
357.988	323.94
358.215	334.94
358.441	335.94
358.668	310.94
358.895	337.94
359.122	323.94
359.349	341.94
359.576	334.94
359.802	332.94
360.029	344.94
360.256	325.94
360.483	322.94
360.709	323.94
360.936	342.94
361.163	329.94
361.39	331.94
361.616	330.94
361.843	329.94
362.07	332.94
362.296	350.94
362.523	327.94
362.749	330.94
362.976	331.94
363.203	343.94
363.429	348.94
363.656	347.94
363.882	333.94
364.109	331.94
364.335	343.94
364.562	335.94
364.788	322.94
365.015	366.94
365.241	336.94
365.468	334.94
365.694	330.94
365.92	328.94
366.147	327.94
366.373	340.94
366.599	338.94
366.826	335.94
367.052	346.94
367.278	352.94
367.505	353.94
367.731	333.94
367.957	336.94
368.184	350.94
368.41	339.94
368.636	338.94
368.862	352.94
369.089	327.94
369.315	358.94
369.541	336.94
369.767	347.94
369.993	346.94
370.219	354.94
370.445	360.94
370.672	355.94
370.898	340.94
371.124	358.94
371.35	348.94
371.576	351.94
371.802	367.94
372.028	357.94
372.254	378.94
372.48	346.94
372.706	350.94
372.932	363.94
373.158	367.94
373.384	386.94
373.61	362.94
373.835	377.94
374.061	377.94
374.287	384.94
374.513	376.94
374.739	371.94
374.965	391.94
375.191	364.94
375.416	376.94
375.642	380.94
375.868	378.94
376.094	385.94
376.319	364.94
376.545	357.94
376.771	348.94
376.997	368.94
377.222	355.94
377.448	359.94
377.674	354.94
377.899	376.94
378.125	344.94
378.35	367.94
378.576	360.94
378.802	350.94
379.027	354.94
379.253	364.94
379.478	370.94
379.704	358.94
379.929	359.94
380.155	371.94
380.38	366.94
380.606	364.94
380.831	366.94
381.057	382.94
381.282	381.94
381.507	367.94
381.733	370.94
381.958	362.94
382.184	360.94
382.409	373.94
382.634	385.94
382.86	386.94
383.085	367.94
383.31	375.94
383.535	387.94
383.761	371.94
383.986	399.94
384.211	408.94
384.436	425.94
384.662	403.94
384.887	407.94
385.112	387.94
385.337	400.94
385.562	398.94
385.787	411.94
386.013	427.94
386.238	431.94
386.463	425.94
386.688	409.94
386.913	431.94
387.138	416.94
387.363	421.94
387.588	447.94
387.813	431.94
388.038	434.94
388.263	431.94
388.488	422.94
388.713	434.94
388.938	415.94
389.163	438.94
389.387	447.94
389.612	446.94
389.837	419.94
390.062	434.94
390.287	429.94
390.512	440.94
390.736	445.94
390.961	440.94
391.186	446.94
391.411	451.94
391.636	439.94
391.86	451.94
392.085	447.94
392.31	456.94
392.534	452.94
392.759	451.94
392.984	459.94
393.208	444.94
393.433	433.94
393.658	458.94
393.882	446.94
394.107	459.94
394.331	455.94
394.556	437.94
394.78	467.94
395.005	459.94
395.229	467.94
395.454	459.94
395.678	454.94
395.903	471.94
396.127	472.94
396.352	468.94
396.576	472.94
396.801	478.94
397.025	480.94
397.249	482.94
397.474	467.94
397.698	483.94
397.922	490.94
398.147	480.94
398.371	512.94
398.595	520.94
398.82	533.94
399.044	546.94
399.268	555.94
399.492	592.94
399.717	604.94
399.941	603.94
400.165	588.94
400.389	567.94
400.613	554.94
400.837	523.94
401.062	541.94
401.286	521.94
401.51	515.94
401.734	520.94
401.958	505.94
402.182	510.94
402.406	506.94
402.63	508.94
402.854	535.94
403.078	527.94
403.302	493.94
403.526	509.94
403.75	514.94
403.974	515.94
404.198	517.94
404.422	501.94
404.645	516.94
404.869	502.94
405.093	521.94
405.317	530.94
405.541	518.94
405.765	539.94
405.988	528.94
406.212	534.94
406.436	549.94
406.66	563.94
406.883	564.94
407.107	565.94
407.331	542.94
407.555	567.94
407.778	570.94
408.002	575.94
408.226	576.94
408.449	576.94
408.673	555.94
408.896	539.94
409.12	541.94
409.344	551.94
409.567	541.94
409.791	528.94
410.014	536.94
410.238	532.94
410.461	531.94
410.685	525.94
410.908	509.94
411.132	518.94
411.355	502.94
411.578	526.94
411.802	550.94
412.025	545.94
412.249	539.94
412.472	530.94
412.695	508.94
412.919	514.94
413.142	514.94
413.365	511.94
413.589	509.94
413.812	483.94
414.035	516.94
414.258	513.94
414.482	520.94
414.705	502.94
414.928	496.94
415.151	489.94
415.374	499.94
415.597	488.94
415.821	495.94
416.044	476.94
416.267	496.94
416.49	476.94
416.713	495.94
416.936	480.94
417.159	484.94
417.382	491.94
417.605	481.94
417.828	497.94
418.051	499.94
418.274	488.94
418.497	510.94
418.72	507.94
418.943	478.94
419.166	479.94
419.389	509.94
419.611	510.94
419.834	491.94
420.057	497.94
420.28	489.94
420.503	469.94
420.726	498.94
420.948	475.94
421.171	485.94
421.394	489.94
421.617	460.94
421.839	477.94
422.062	482.94
422.285	467.94
422.507	476.94
422.73	486.94
422.953	482.94
423.175	459.94
423.398	482.94
423.621	487.94
423.843	479.94
424.066	491.94
424.288	474.94
424.511	488.94
424.733	482.94
424.956	476.94
425.178	488.94
425.401	486.94
425.623	481.94
425.846	466.94
426.068	456.94
426.291	472.94
426.513	450.94
426.735	468.94
426.958	450.94
427.18	466.94
427.402	466.94
427.625	464.94
427.847	446.94
428.069	465.94
428.292	448.94
428.514	458.94
428.736	474.94
428.958	428.94
429.181	441.94
429.403	446.94
429.625	438.94
429.847	440.94
430.069	453.94
430.292	459.94
430.514	440.94
430.736	434.94
430.958	443.94
431.18	452.94
431.402	467.94
431.624	460.94
431.846	447.94
432.068	440.94
432.29	478.94
432.512	451.94
432.734	439.94
432.956	440.94
433.178	447.94
433.4	467.94
433.622	459.94
433.844	469.94
434.066	455.94
434.287	447.94
434.509	462.94
434.731	472.94
434.953	475.94
435.175	505.94
435.397	478.94
435.618	466.94
435.84	468.94
436.062	439.94
436.284	466.94
436.505	449.94
436.727	464.94
436.949	452.94
437.17	446.94
437.392	442.94
437.614	432.94
437.835	427.94
438.057	439.94
438.278	437.94
438.5	441.94
438.721	423.94
438.943	411.94
439.165	426.94
439.386	445.94
439.608	438.94
439.829	418.94
440.05	437.94
440.272	438.94
440.493	435.94
440.715	460.94
440.936	448.94
441.158	472.94
441.379	472.94
441.6	463.94
441.822	468.94
442.043	473.94
442.264	475.94
442.486	476.94
442.707	465.94
442.928	491.94
443.149	478.94
443.371	482.94
443.592	473.94
443.813	494.94
444.034	480.94
444.255	483.94
444.476	508.94
444.698	478.94
444.919	499.94
445.14	591.94
445.361	505.94
445.582	487.94
445.803	487.94
446.024	472.94
446.245	471.94
446.466	452.94
446.687	454.94
446.908	446.94
447.129	442.94
447.35	432.94
447.571	446.94
447.792	431.94
448.013	436.94
448.234	455.94
448.455	427.94
448.675	423.94
448.896	388.94
449.117	418.94
449.338	407.94
449.559	422.94
449.779	410.94
450	397.94
450.221	415.94
450.442	391.94
450.662	416.94
450.883	421.94
451.104	410.94
451.324	403.94
451.545	401.94
451.766	415.94
451.986	393.94
452.207	386.94
452.428	417.94
452.648	400.94
452.869	398.94
453.089	399.94
453.31	398.94
453.53	395.94
453.751	397.94
453.971	410.94
454.192	405.94
454.412	379.94
454.633	398.94
454.853	386.94
455.073	400.94
455.294	387.94
455.514	394.94
455.734	400.94
455.955	405.94
456.175	380.94
456.395	399.94
456.616	404.94
456.836	399.94
457.056	392.94
457.276	402.94
457.497	372.94
457.717	390.94
457.937	407.94
458.157	427.94
458.377	426.94
458.598	417.94
458.818	417.94
459.038	445.94
459.258	453.94
459.478	451.94
459.698	451.94
459.918	464.94
460.138	455.94
460.358	479.94
460.578	482.94
460.798	473.94
461.018	502.94
461.238	494.94
461.458	495.94
461.678	518.94
461.898	485.94
462.118	503.94
462.338	514.94
462.558	541.94
462.777	560.94
462.997	538.94
463.217	563.94
463.437	559.94
463.657	588.94
463.876	524.94
464.096	563.94
464.316	525.94
464.536	528.94
464.755	529.94
464.975	522.94
465.195	497.94
465.414	504.94
465.634	493.94
465.854	482.94
466.073	471.94
466.293	436.94
466.512	444.94
466.732	444.94
466.951	462.94
467.171	463.94
467.391	454.94
467.61	433.94
467.829	427.94
468.049	447.94
468.268	442.94
468.488	427.94
468.707	441.94
468.927	436.94
469.146	444.94
469.365	437.94
469.585	430.94
469.804	434.94
470.023	433.94
470.243	444.94
470.462	440.94
470.681	440.94
470.901	470.94
471.12	457.94
471.339	467.94
471.558	439.94
471.777	443.94
471.997	446.94
472.216	432.94
472.435	446.94
472.654	455.94
472.873	429.94
473.092	451.94
473.311	437.94
473.53	442.94
473.749	433.94
473.968	435.94
474.187	432.94
474.406	462.94
474.625	444.94
474.844	445.94
475.063	434.94
475.282	444.94
475.501	434.94
475.72	453.94
475.939	444.94
476.158	456.94
476.377	472.94
476.596	460.94
476.814	470.94
477.033	458.94
477.252	483.94
477.471	492.94
477.69	471.94
477.908	495.94
478.127	491.94
478.346	506.94
478.564	491.94
478.783	492.94
479.002	533.94
479.22	530.94
479.439	538.94
479.658	523.94
479.876	523.94
480.095	521.94
480.313	555.94
480.532	535.94
480.751	556.94
480.969	528.94
481.188	502.94
481.406	512.94
481.624	529.94
481.843	506.94
482.061	530.94
482.28	514.94
482.498	515.94
482.717	511.94
482.935	504.94
483.153	511.94
483.372	495.94
483.59	505.94
483.808	515.94
484.027	504.94
484.245	496.94
484.463	522.94
484.681	523.94
484.9	521.94
485.118	533.94
485.336	520.94
485.554	545.94
485.772	518.94
485.99	539.94
486.209	518.94
486.427	538.94
486.645	522.94
486.863	514.94
487.081	512.94
487.299	517.94
487.517	510.94
487.735	539.94
487.953	518.94
488.171	532.94
488.389	548.94
488.607	530.94
488.825	522.94
489.043	539.94
489.261	533.94
489.479	542.94
489.696	515.94
489.914	532.94
490.132	558.94
490.35	551.94
490.568	538.94
490.786	520.94
491.003	537.94
491.221	545.94
491.439	535.94
491.657	547.94
491.874	548.94
492.092	542.94
492.31	536.94
492.527	528.94
492.745	530.94
492.963	551.94
493.18	558.94
493.398	529.94
493.615	554.94
493.833	574.94
494.05	544.94
494.268	570.94
494.485	550.94
494.703	578.94
494.92	573.94
495.138	562.94
495.355	574.94
495.573	598.94
495.79	574.94
496.008	565.94
496.225	596.94
496.442	608.94
496.66	614.94
496.877	608.94
497.094	619.94
497.312	637.94
497.529	646.94
497.746	651.94
497.963	663.94
498.181	670.94
498.398	692.94
498.615	713.94
498.832	770.94
499.049	752.94
499.267	781.94
499.484	864.94
499.701	871.94
499.918	904.94
500.135	921.94
500.352	931.94
500.569	952.94
500.786	955.94
501.003	964.94
501.22	923.94
501.437	902.94
501.654	856.94
501.871	833.94
502.088	798.94
