Data from Fe(NO3)3@0.05M.TitratingCurve.Agarose3%dH2O.NegLispCup.LampEnergy10.LIBS07252019_HRD10591_16-47-36-333.txt Node
Date: Thu Jul 25 16:47:36 EDT 2019
User: cochatt
Spectrometer: HR+D1059
Trigger mode: 1
Integration Time (sec): 1.000000E-1
Scans to average: 1
Electric dark correction enabled: true
Nonlinearity correction enabled: false
Boxcar width: 0
XAxis mode: Wavelengths
Number of Pixels in Spectrum: 2048
>>>>>Begin Spectral Data<<<<<
223.165	-15.19
223.4	-15.19
223.635	-15.19
223.869	-20.19
224.104	-24.19
224.338	-11.19
224.573	-12.19
224.808	2.81
225.042	-1.19
225.277	0.81
225.511	-10.19
225.746	-4.19
225.98	6.81
226.215	1.81
226.449	1.81
226.683	36.81
226.918	19.81
227.152	27.81
227.387	30.81
227.621	36.81
227.856	31.81
228.09	41.81
228.324	52.81
228.559	60.81
228.793	68.81
229.027	79.81
229.262	85.81
229.496	81.81
229.73	96.81
229.964	114.81
230.199	113.81
230.433	103.81
230.667	84.81
230.901	106.81
231.136	97.81
231.37	116.81
231.604	101.81
231.838	103.81
232.072	97.81
232.306	100.81
232.541	103.81
232.775	100.81
233.009	102.81
233.243	113.81
233.477	99.81
233.711	116.81
233.945	126.81
234.179	128.81
234.413	107.81
234.647	106.81
234.881	100.81
235.115	116.81
235.349	106.81
235.583	102.81
235.817	107.81
236.051	120.81
236.285	99.81
236.519	118.81
236.753	120.81
236.987	109.81
237.221	124.81
237.455	124.81
237.689	112.81
237.922	107.81
238.156	124.81
238.39	106.81
238.624	124.81
238.858	115.81
239.091	121.81
239.325	126.81
239.559	135.81
239.793	128.81
240.027	122.81
240.26	124.81
240.494	125.81
240.728	118.81
240.961	128.81
241.195	134.81
241.429	120.81
241.662	120.81
241.896	112.81
242.13	133.81
242.363	116.81
242.597	120.81
242.83	120.81
243.064	116.81
243.298	126.81
243.531	124.81
243.765	132.81
243.998	134.81
244.232	126.81
244.465	148.81
244.699	143.81
244.932	128.81
245.166	140.81
245.399	136.81
245.633	141.81
245.866	145.81
246.099	142.81
246.333	142.81
246.566	164.81
246.8	145.81
247.033	143.81
247.266	142.81
247.5	145.81
247.733	142.81
247.966	139.81
248.2	155.81
248.433	146.81
248.666	133.81
248.899	148.81
249.133	159.81
249.366	148.81
249.599	146.81
249.832	152.81
250.066	149.81
250.299	145.81
250.532	157.81
250.765	155.81
250.998	153.81
251.231	149.81
251.465	157.81
251.698	146.81
251.931	147.81
252.164	160.81
252.397	166.81
252.63	158.81
252.863	166.81
253.096	172.81
253.329	149.81
253.562	170.81
253.795	157.81
254.028	165.81
254.261	173.81
254.494	153.81
254.727	141.81
254.96	169.81
255.193	164.81
255.426	166.81
255.659	196.81
255.892	166.81
256.124	169.81
256.357	181.81
256.59	178.81
256.823	157.81
257.056	189.81
257.289	157.81
257.521	153.81
257.754	176.81
257.987	164.81
258.22	186.81
258.452	164.81
258.685	189.81
258.918	181.81
259.151	178.81
259.383	189.81
259.616	192.81
259.849	191.81
260.081	192.81
260.314	196.81
260.547	167.81
260.779	186.81
261.012	189.81
261.244	186.81
261.477	182.81
261.71	189.81
261.942	177.81
262.175	182.81
262.407	191.81
262.64	192.81
262.872	192.81
263.105	192.81
263.337	198.81
263.57	189.81
263.802	204.81
264.035	193.81
264.267	197.81
264.499	186.81
264.732	188.81
264.964	199.81
265.197	202.81
265.429	206.81
265.661	193.81
265.894	183.81
266.126	187.81
266.358	194.81
266.591	199.81
266.823	197.81
267.055	202.81
267.287	201.81
267.52	197.81
267.752	204.81
267.984	200.81
268.216	200.81
268.448	201.81
268.681	196.81
268.913	202.81
269.145	204.81
269.377	211.81
269.609	198.81
269.841	203.81
270.073	208.81
270.306	212.81
270.538	205.81
270.77	212.81
271.002	207.81
271.234	196.81
271.466	201.81
271.698	201.81
271.93	227.81
272.162	210.81
272.394	210.81
272.626	223.81
272.858	212.81
273.09	218.81
273.322	218.81
273.553	221.81
273.785	214.81
274.017	230.81
274.249	229.81
274.481	230.81
274.713	241.81
274.945	236.81
275.176	264.81
275.408	240.81
275.64	232.81
275.872	226.81
276.104	226.81
276.335	211.81
276.567	230.81
276.799	229.81
277.031	224.81
277.262	240.81
277.494	229.81
277.726	229.81
277.957	215.81
278.189	226.81
278.421	233.81
278.652	224.81
278.884	219.81
279.115	229.81
279.347	241.81
279.579	233.81
279.81	225.81
280.042	237.81
280.273	226.81
280.505	223.81
280.736	234.81
280.968	256.81
281.199	241.81
281.431	240.81
281.662	239.81
281.894	240.81
282.125	233.81
282.356	252.81
282.588	248.81
282.819	243.81
283.051	253.81
283.282	245.81
283.513	265.81
283.745	264.81
283.976	242.81
284.207	245.81
284.439	230.81
284.67	242.81
284.901	262.81
285.132	252.81
285.364	252.81
285.595	241.81
285.826	265.81
286.057	267.81
286.288	257.81
286.52	277.81
286.751	262.81
286.982	245.81
287.213	286.81
287.444	264.81
287.675	257.81
287.906	256.81
288.138	274.81
288.369	242.81
288.6	263.81
288.831	251.81
289.062	273.81
289.293	279.81
289.524	246.81
289.755	252.81
289.986	260.81
290.217	271.81
290.448	273.81
290.679	276.81
290.91	265.81
291.141	270.81
291.371	268.81
291.602	266.81
291.833	271.81
292.064	274.81
292.295	265.81
292.526	267.81
292.757	262.81
292.987	270.81
293.218	275.81
293.449	278.81
293.68	283.81
293.91	284.81
294.141	288.81
294.372	277.81
294.603	270.81
294.833	278.81
295.064	280.81
295.295	275.81
295.525	283.81
295.756	279.81
295.987	269.81
296.217	281.81
296.448	290.81
296.679	270.81
296.909	293.81
297.14	277.81
297.37	278.81
297.601	275.81
297.831	299.81
298.062	267.81
298.292	286.81
298.523	283.81
298.753	296.81
298.984	304.81
299.214	300.81
299.445	304.81
299.675	291.81
299.905	293.81
300.136	301.81
300.366	301.81
300.597	304.81
300.827	304.81
301.057	292.81
301.288	311.81
301.518	307.81
301.748	288.81
301.979	327.81
302.209	299.81
302.439	308.81
302.669	320.81
302.9	282.81
303.13	298.81
303.36	308.81
303.59	300.81
303.82	289.81
304.051	282.81
304.281	296.81
304.511	310.81
304.741	300.81
304.971	298.81
305.201	305.81
305.431	309.81
305.661	298.81
305.891	283.81
306.121	300.81
306.352	300.81
306.582	285.81
306.812	280.81
307.042	284.81
307.272	307.81
307.502	313.81
307.731	296.81
307.961	286.81
308.191	293.81
308.421	296.81
308.651	291.81
308.881	289.81
309.111	310.81
309.341	296.81
309.571	304.81
309.8	298.81
310.03	300.81
310.26	305.81
310.49	320.81
310.72	300.81
310.949	312.81
311.179	299.81
311.409	290.81
311.639	323.81
311.868	301.81
312.098	308.81
312.328	328.81
312.557	320.81
312.787	317.81
313.017	328.81
313.246	308.81
313.476	322.81
313.706	320.81
313.935	320.81
314.165	314.81
314.394	314.81
314.624	313.81
314.853	323.81
315.083	318.81
315.312	330.81
315.542	321.81
315.771	312.81
316.001	330.81
316.23	324.81
316.46	321.81
316.689	310.81
316.919	324.81
317.148	308.81
317.377	330.81
317.607	329.81
317.836	309.81
318.065	309.81
318.295	315.81
318.524	324.81
318.753	320.81
318.983	322.81
319.212	313.81
319.441	320.81
319.67	323.81
319.9	333.81
320.129	306.81
320.358	324.81
320.587	321.81
320.816	340.81
321.046	324.81
321.275	323.81
321.504	309.81
321.733	318.81
321.962	316.81
322.191	332.81
322.42	340.81
322.649	339.81
322.878	334.81
323.108	320.81
323.337	335.81
323.566	332.81
323.795	341.81
324.024	328.81
324.253	335.81
324.482	347.81
324.71	327.81
324.939	331.81
325.168	324.81
325.397	315.81
325.626	317.81
325.855	331.81
326.084	349.81
326.313	342.81
326.542	347.81
326.77	339.81
326.999	351.81
327.228	334.81
327.457	330.81
327.686	343.81
327.914	345.81
328.143	339.81
328.372	350.81
328.6	346.81
328.829	352.81
329.058	357.81
329.287	353.81
329.515	355.81
329.744	355.81
329.972	349.81
330.201	374.81
330.43	360.81
330.658	354.81
330.887	358.81
331.115	356.81
331.344	378.81
331.572	361.81
331.801	371.81
332.03	400.81
332.258	395.81
332.486	397.81
332.715	406.81
332.943	407.81
333.172	412.81
333.4	461.81
333.629	437.81
333.857	457.81
334.085	427.81
334.314	439.81
334.542	435.81
334.771	417.81
334.999	423.81
335.227	416.81
335.455	415.81
335.684	425.81
335.912	424.81
336.14	404.81
336.369	415.81
336.597	422.81
336.825	391.81
337.053	402.81
337.281	398.81
337.51	432.81
337.738	403.81
337.966	390.81
338.194	378.81
338.422	377.81
338.65	369.81
338.878	384.81
339.106	378.81
339.334	368.81
339.562	372.81
339.79	363.81
340.018	369.81
340.246	353.81
340.474	375.81
340.702	370.81
340.93	376.81
341.158	374.81
341.386	371.81
341.614	376.81
341.842	357.81
342.07	362.81
342.298	371.81
342.526	372.81
342.754	380.81
342.981	337.81
343.209	373.81
343.437	368.81
343.665	384.81
343.893	444.81
344.12	440.81
344.348	434.81
344.576	412.81
344.804	396.81
345.031	383.81
345.259	382.81
345.487	379.81
345.714	377.81
345.942	356.81
346.17	378.81
346.397	374.81
346.625	355.81
346.853	371.81
347.08	350.81
347.308	360.81
347.535	349.81
347.763	361.81
347.99	360.81
348.218	350.81
348.445	357.81
348.673	347.81
348.9	370.81
349.128	353.81
349.355	353.81
349.583	383.81
349.81	352.81
350.037	342.81
350.265	327.81
350.492	363.81
350.72	370.81
350.947	364.81
351.174	342.81
351.402	340.81
351.629	345.81
351.856	353.81
352.083	347.81
352.311	353.81
352.538	333.81
352.765	344.81
352.992	357.81
353.22	338.81
353.447	351.81
353.674	348.81
353.901	352.81
354.128	356.81
354.355	365.81
354.583	363.81
354.81	358.81
355.037	340.81
355.264	371.81
355.491	343.81
355.718	358.81
355.945	357.81
356.172	363.81
356.399	342.81
356.626	348.81
356.853	365.81
357.08	353.81
357.307	380.81
357.534	354.81
357.761	339.81
357.988	345.81
358.215	346.81
358.441	352.81
358.668	352.81
358.895	355.81
359.122	352.81
359.349	349.81
359.576	369.81
359.802	350.81
360.029	366.81
360.256	366.81
360.483	356.81
360.709	339.81
360.936	332.81
361.163	356.81
361.39	353.81
361.616	347.81
361.843	355.81
362.07	360.81
362.296	352.81
362.523	360.81
362.749	378.81
362.976	346.81
363.203	373.81
363.429	347.81
363.656	333.81
363.882	365.81
364.109	360.81
364.335	358.81
364.562	358.81
364.788	368.81
365.015	366.81
365.241	365.81
365.468	378.81
365.694	335.81
365.92	351.81
366.147	360.81
366.373	353.81
366.599	370.81
366.826	354.81
367.052	352.81
367.278	361.81
367.505	354.81
367.731	348.81
367.957	362.81
368.184	363.81
368.41	379.81
368.636	350.81
368.862	372.81
369.089	388.81
369.315	370.81
369.541	366.81
369.767	375.81
369.993	378.81
370.219	379.81
370.445	374.81
370.672	384.81
370.898	389.81
371.124	394.81
371.35	408.81
371.576	391.81
371.802	368.81
372.028	376.81
372.254	394.81
372.48	405.81
372.706	380.81
372.932	404.81
373.158	404.81
373.384	401.81
373.61	395.81
373.835	390.81
374.061	386.81
374.287	373.81
374.513	404.81
374.739	420.81
374.965	448.81
375.191	437.81
375.416	428.81
375.642	394.81
375.868	411.81
376.094	410.81
376.319	396.81
376.545	404.81
376.771	372.81
376.997	399.81
377.222	383.81
377.448	416.81
377.674	388.81
377.899	397.81
378.125	394.81
378.35	382.81
378.576	388.81
378.802	385.81
379.027	412.81
379.253	390.81
379.478	384.81
379.704	385.81
379.929	395.81
380.155	392.81
380.38	395.81
380.606	392.81
380.831	410.81
381.057	413.81
381.282	385.81
381.507	398.81
381.733	398.81
381.958	401.81
382.184	406.81
382.409	404.81
382.634	429.81
382.86	423.81
383.085	437.81
383.31	422.81
383.535	413.81
383.761	415.81
383.986	409.81
384.211	456.81
384.436	448.81
384.662	447.81
384.887	455.81
385.112	471.81
385.337	462.81
385.562	473.81
385.787	466.81
386.013	454.81
386.238	475.81
386.463	487.81
386.688	468.81
386.913	453.81
387.138	466.81
387.363	461.81
387.588	461.81
387.813	453.81
388.038	466.81
388.263	469.81
388.488	465.81
388.713	467.81
388.938	454.81
389.163	447.81
389.387	455.81
389.612	441.81
389.837	469.81
390.062	477.81
390.287	469.81
390.512	470.81
390.736	469.81
390.961	470.81
391.186	485.81
391.411	492.81
391.636	501.81
391.86	523.81
392.085	520.81
392.31	543.81
392.534	528.81
392.759	521.81
392.984	504.81
393.208	509.81
393.433	519.81
393.658	489.81
393.882	485.81
394.107	489.81
394.331	507.81
394.556	518.81
394.78	508.81
395.005	514.81
395.229	500.81
395.454	515.81
395.678	521.81
395.903	529.81
396.127	537.81
396.352	509.81
396.576	497.81
396.801	489.81
397.025	508.81
397.249	527.81
397.474	528.81
397.698	548.81
397.922	528.81
398.147	563.81
398.371	566.81
398.595	572.81
398.82	599.81
399.044	628.81
399.268	670.81
399.492	724.81
399.717	754.81
399.941	796.81
400.165	744.81
400.389	691.81
400.613	636.81
400.837	626.81
401.062	601.81
401.286	600.81
401.51	595.81
401.734	600.81
401.958	603.81
402.182	597.81
402.406	586.81
402.63	609.81
402.854	625.81
403.078	599.81
403.302	611.81
403.526	644.81
403.75	625.81
403.974	648.81
404.198	640.81
404.422	648.81
404.645	636.81
404.869	614.81
405.093	632.81
405.317	664.81
405.541	620.81
405.765	636.81
405.988	638.81
406.212	633.81
406.436	646.81
406.66	651.81
406.883	639.81
407.107	678.81
407.331	724.81
407.555	744.81
407.778	714.81
408.002	698.81
408.226	722.81
408.449	687.81
408.673	658.81
408.896	650.81
409.12	652.81
409.344	678.81
409.567	652.81
409.791	653.81
410.014	655.81
410.238	642.81
410.461	632.81
410.685	628.81
410.908	623.81
411.132	624.81
411.355	614.81
411.578	608.81
411.802	597.81
412.025	617.81
412.249	628.81
412.472	626.81
412.695	609.81
412.919	603.81
413.142	609.81
413.365	617.81
413.589	590.81
413.812	585.81
414.035	581.81
414.258	592.81
414.482	607.81
414.705	618.81
414.928	621.81
415.151	605.81
415.374	581.81
415.597	585.81
415.821	601.81
416.044	606.81
416.267	596.81
416.49	578.81
416.713	604.81
416.936	582.81
417.159	573.81
417.382	565.81
417.605	588.81
417.828	588.81
418.051	602.81
418.274	613.81
418.497	601.81
418.72	599.81
418.943	591.81
419.166	633.81
419.389	656.81
419.611	648.81
419.834	637.81
420.057	616.81
420.28	596.81
420.503	573.81
420.726	574.81
420.948	574.81
421.171	582.81
421.394	582.81
421.617	593.81
421.839	573.81
422.062	591.81
422.285	577.81
422.507	592.81
422.73	598.81
422.953	581.81
423.175	600.81
423.398	600.81
423.621	611.81
423.843	618.81
424.066	625.81
424.288	620.81
424.511	602.81
424.733	606.81
424.956	590.81
425.178	578.81
425.401	578.81
425.623	614.81
425.846	580.81
426.068	566.81
426.291	569.81
426.513	588.81
426.735	573.81
426.958	551.81
427.18	570.81
427.402	554.81
427.625	565.81
427.847	536.81
428.069	564.81
428.292	542.81
428.514	536.81
428.736	543.81
428.958	547.81
429.181	518.81
429.403	533.81
429.625	537.81
429.847	544.81
430.069	570.81
430.292	541.81
430.514	524.81
430.736	533.81
430.958	521.81
431.18	524.81
431.402	537.81
431.624	525.81
431.846	539.81
432.068	548.81
432.29	555.81
432.512	550.81
432.734	548.81
432.956	541.81
433.178	549.81
433.4	548.81
433.622	556.81
433.844	539.81
434.066	544.81
434.287	552.81
434.509	570.81
434.731	570.81
434.953	597.81
435.175	598.81
435.397	597.81
435.618	580.81
435.84	544.81
436.062	529.81
436.284	544.81
436.505	548.81
436.727	552.81
436.949	528.81
437.17	538.81
437.392	534.81
437.614	545.81
437.835	512.81
438.057	520.81
438.278	528.81
438.5	529.81
438.721	529.81
438.943	527.81
439.165	545.81
439.386	545.81
439.608	533.81
439.829	542.81
440.05	544.81
440.272	553.81
440.493	562.81
440.715	547.81
440.936	556.81
441.158	553.81
441.379	568.81
441.6	598.81
441.822	611.81
442.043	615.81
442.264	590.81
442.486	586.81
442.707	590.81
442.928	592.81
443.149	584.81
443.371	580.81
443.592	578.81
443.813	601.81
444.034	611.81
444.255	621.81
444.476	651.81
444.698	675.81
444.919	681.81
445.14	754.81
445.361	666.81
445.582	636.81
445.803	601.81
446.024	594.81
446.245	578.81
446.466	572.81
446.687	563.81
446.908	554.81
447.129	555.81
447.35	547.81
447.571	553.81
447.792	540.81
448.013	541.81
448.234	531.81
448.455	527.81
448.675	509.81
448.896	517.81
449.117	510.81
449.338	524.81
449.559	509.81
449.779	510.81
450	531.81
450.221	500.81
450.442	521.81
450.662	498.81
450.883	512.81
451.104	506.81
451.324	515.81
451.545	524.81
451.766	523.81
451.986	479.81
452.207	512.81
452.428	506.81
452.648	501.81
452.869	470.81
453.089	501.81
453.31	473.81
453.53	492.81
453.751	485.81
453.971	470.81
454.192	490.81
454.412	494.81
454.633	472.81
454.853	488.81
455.073	500.81
455.294	493.81
455.514	473.81
455.734	475.81
455.955	474.81
456.175	462.81
456.395	463.81
456.616	468.81
456.836	476.81
457.056	471.81
457.276	463.81
457.497	478.81
457.717	476.81
457.937	507.81
458.157	482.81
458.377	482.81
458.598	492.81
458.818	516.81
459.038	523.81
459.258	514.81
459.478	551.81
459.698	547.81
459.918	548.81
460.138	576.81
460.358	600.81
460.578	626.81
460.798	610.81
461.018	638.81
461.238	648.81
461.458	633.81
461.678	626.81
461.898	657.81
462.118	657.81
462.338	660.81
462.558	663.81
462.777	717.81
462.997	718.81
463.217	748.81
463.437	796.81
463.657	741.81
463.876	752.81
464.096	719.81
464.316	716.81
464.536	722.81
464.755	730.81
464.975	663.81
465.195	634.81
465.414	601.81
465.634	616.81
465.854	588.81
466.073	576.81
466.293	546.81
466.512	540.81
466.732	555.81
466.951	529.81
467.171	534.81
467.391	540.81
467.61	552.81
467.829	531.81
468.049	546.81
468.268	519.81
468.488	523.81
468.707	524.81
468.927	537.81
469.146	515.81
469.365	530.81
469.585	544.81
469.804	523.81
470.023	532.81
470.243	536.81
470.462	553.81
470.681	532.81
470.901	542.81
471.12	532.81
471.339	540.81
471.558	526.81
471.777	544.81
471.997	520.81
472.216	525.81
472.435	517.81
472.654	504.81
472.873	487.81
473.092	516.81
473.311	500.81
473.53	490.81
473.749	508.81
473.968	507.81
474.187	513.81
474.406	492.81
474.625	505.81
474.844	520.81
475.063	529.81
475.282	531.81
475.501	488.81
475.72	524.81
475.939	528.81
476.158	532.81
476.377	529.81
476.596	526.81
476.814	520.81
477.033	518.81
477.252	547.81
477.471	539.81
477.69	567.81
477.908	576.81
478.127	583.81
478.346	573.81
478.564	592.81
478.783	607.81
479.002	633.81
479.22	602.81
479.439	618.81
479.658	603.81
479.876	576.81
480.095	608.81
480.313	631.81
480.532	648.81
480.751	615.81
480.969	585.81
481.188	593.81
481.406	599.81
481.624	580.81
481.843	584.81
482.061	558.81
482.28	562.81
482.498	576.81
482.717	578.81
482.935	577.81
483.153	578.81
483.372	577.81
483.59	580.81
483.808	579.81
484.027	572.81
484.245	596.81
484.463	596.81
484.681	589.81
484.9	589.81
485.118	589.81
485.336	580.81
485.554	612.81
485.772	592.81
485.99	580.81
486.209	575.81
486.427	594.81
486.645	609.81
486.863	602.81
487.081	602.81
487.299	580.81
487.517	574.81
487.735	593.81
487.953	601.81
488.171	611.81
488.389	601.81
488.607	601.81
488.825	580.81
489.043	561.81
489.261	585.81
489.479	578.81
489.696	595.81
489.914	588.81
490.132	590.81
490.35	584.81
490.568	600.81
490.786	597.81
491.003	621.81
491.221	628.81
491.439	619.81
491.657	608.81
491.874	595.81
492.092	634.81
492.31	646.81
492.527	616.81
492.745	624.81
492.963	628.81
493.18	635.81
493.398	631.81
493.615	632.81
493.833	610.81
494.05	620.81
494.268	622.81
494.485	625.81
494.703	641.81
494.92	651.81
495.138	632.81
495.355	636.81
495.573	635.81
495.79	644.81
496.008	661.81
496.225	637.81
496.442	631.81
496.66	674.81
496.877	666.81
497.094	686.81
497.312	699.81
497.529	704.81
497.746	694.81
497.963	729.81
498.181	738.81
498.398	788.81
498.615	840.81
498.832	871.81
499.049	902.81
499.267	946.81
499.484	1045.81
499.701	1112.81
499.918	1220.81
500.135	1379.81
500.352	1482.81
500.569	1525.81
500.786	1505.81
501.003	1445.81
501.22	1372.81
501.437	1208.81
501.654	1088.81
