Data from Fe(NO3)3@0.0125M.TitratingCurve.Agarose3%dH2O.NegLispCup.LampEnergy10.LIBS07252019_HRD10591_17-01-25-336.txt Node
Date: Thu Jul 25 17:01:25 EDT 2019
User: cochatt
Spectrometer: HR+D1059
Trigger mode: 1
Integration Time (sec): 1.000000E-1
Scans to average: 1
Electric dark correction enabled: true
Nonlinearity correction enabled: false
Boxcar width: 0
XAxis mode: Wavelengths
Number of Pixels in Spectrum: 2048
>>>>>Begin Spectral Data<<<<<
223.165	-20.25
223.4	-20.25
223.635	-20.25
223.869	0.75
224.104	-24.25
224.338	-12.25
224.573	-18.25
224.808	-18.25
225.042	-12.25
225.277	0.75
225.511	-1.25
225.746	5.75
225.98	3.75
226.215	10.75
226.449	15.75
226.683	19.75
226.918	15.75
227.152	33.75
227.387	50.75
227.621	54.75
227.856	55.75
228.09	49.75
228.324	46.75
228.559	52.75
228.793	63.75
229.027	87.75
229.262	80.75
229.496	91.75
229.73	89.75
229.964	81.75
230.199	85.75
230.433	106.75
230.667	107.75
230.901	91.75
231.136	97.75
231.37	97.75
231.604	90.75
231.838	101.75
232.072	107.75
232.306	113.75
232.541	99.75
232.775	102.75
233.009	105.75
233.243	101.75
233.477	115.75
233.711	115.75
233.945	113.75
234.179	106.75
234.413	113.75
234.647	103.75
234.881	115.75
235.115	100.75
235.349	106.75
235.583	110.75
235.817	103.75
236.051	118.75
236.285	102.75
236.519	107.75
236.753	100.75
236.987	91.75
237.221	107.75
237.455	116.75
237.689	109.75
237.922	106.75
238.156	101.75
238.39	105.75
238.624	96.75
238.858	103.75
239.091	114.75
239.325	111.75
239.559	100.75
239.793	115.75
240.027	119.75
240.26	102.75
240.494	120.75
240.728	117.75
240.961	117.75
241.195	109.75
241.429	117.75
241.662	119.75
241.896	118.75
242.13	115.75
242.363	102.75
242.597	111.75
242.83	116.75
243.064	127.75
243.298	110.75
243.531	105.75
243.765	104.75
243.998	121.75
244.232	129.75
244.465	122.75
244.699	137.75
244.932	123.75
245.166	122.75
245.399	126.75
245.633	130.75
245.866	113.75
246.099	121.75
246.333	132.75
246.566	129.75
246.8	125.75
247.033	134.75
247.266	118.75
247.5	122.75
247.733	129.75
247.966	141.75
248.2	125.75
248.433	138.75
248.666	135.75
248.899	136.75
249.133	141.75
249.366	132.75
249.599	137.75
249.832	123.75
250.066	147.75
250.299	141.75
250.532	129.75
250.765	140.75
250.998	139.75
251.231	140.75
251.465	131.75
251.698	121.75
251.931	135.75
252.164	150.75
252.397	151.75
252.63	142.75
252.863	135.75
253.096	141.75
253.329	153.75
253.562	155.75
253.795	150.75
254.028	171.75
254.261	149.75
254.494	141.75
254.727	158.75
254.96	143.75
255.193	157.75
255.426	138.75
255.659	156.75
255.892	149.75
256.124	149.75
256.357	152.75
256.59	160.75
256.823	161.75
257.056	146.75
257.289	153.75
257.521	165.75
257.754	161.75
257.987	161.75
258.22	157.75
258.452	153.75
258.685	157.75
258.918	166.75
259.151	161.75
259.383	156.75
259.616	151.75
259.849	168.75
260.081	178.75
260.314	169.75
260.547	157.75
260.779	171.75
261.012	169.75
261.244	147.75
261.477	162.75
261.71	166.75
261.942	157.75
262.175	164.75
262.407	183.75
262.64	155.75
262.872	165.75
263.105	179.75
263.337	162.75
263.57	167.75
263.802	159.75
264.035	159.75
264.267	164.75
264.499	161.75
264.732	175.75
264.964	161.75
265.197	177.75
265.429	183.75
265.661	182.75
265.894	157.75
266.126	170.75
266.358	159.75
266.591	176.75
266.823	177.75
267.055	162.75
267.287	171.75
267.52	165.75
267.752	181.75
267.984	176.75
268.216	179.75
268.448	193.75
268.681	183.75
268.913	183.75
269.145	184.75
269.377	197.75
269.609	191.75
269.841	180.75
270.073	180.75
270.306	181.75
270.538	191.75
270.77	195.75
271.002	179.75
271.234	189.75
271.466	195.75
271.698	197.75
271.93	170.75
272.162	185.75
272.394	188.75
272.626	191.75
272.858	197.75
273.09	183.75
273.322	202.75
273.553	198.75
273.785	187.75
274.017	185.75
274.249	183.75
274.481	200.75
274.713	215.75
274.945	218.75
275.176	204.75
275.408	198.75
275.64	194.75
275.872	189.75
276.104	216.75
276.335	202.75
276.567	215.75
276.799	193.75
277.031	204.75
277.262	194.75
277.494	207.75
277.726	185.75
277.957	206.75
278.189	208.75
278.421	227.75
278.652	209.75
278.884	211.75
279.115	210.75
279.347	213.75
279.579	211.75
279.81	216.75
280.042	201.75
280.273	219.75
280.505	221.75
280.736	213.75
280.968	213.75
281.199	218.75
281.431	220.75
281.662	202.75
281.894	221.75
282.125	225.75
282.356	238.75
282.588	221.75
282.819	218.75
283.051	208.75
283.282	220.75
283.513	237.75
283.745	232.75
283.976	241.75
284.207	231.75
284.439	220.75
284.67	233.75
284.901	228.75
285.132	221.75
285.364	222.75
285.595	221.75
285.826	209.75
286.057	227.75
286.288	236.75
286.52	215.75
286.751	226.75
286.982	227.75
287.213	230.75
287.444	233.75
287.675	212.75
287.906	223.75
288.138	251.75
288.369	242.75
288.6	249.75
288.831	238.75
289.062	226.75
289.293	226.75
289.524	242.75
289.755	246.75
289.986	245.75
290.217	233.75
290.448	245.75
290.679	233.75
290.91	238.75
291.141	256.75
291.371	242.75
291.602	229.75
291.833	246.75
292.064	247.75
292.295	260.75
292.526	243.75
292.757	232.75
292.987	225.75
293.218	244.75
293.449	245.75
293.68	229.75
293.91	226.75
294.141	234.75
294.372	244.75
294.603	234.75
294.833	245.75
295.064	254.75
295.295	235.75
295.525	234.75
295.756	248.75
295.987	242.75
296.217	248.75
296.448	258.75
296.679	244.75
296.909	247.75
297.14	269.75
297.37	271.75
297.601	258.75
297.831	251.75
298.062	247.75
298.292	257.75
298.523	263.75
298.753	259.75
298.984	261.75
299.214	252.75
299.445	265.75
299.675	255.75
299.905	255.75
300.136	256.75
300.366	257.75
300.597	261.75
300.827	246.75
301.057	245.75
301.288	284.75
301.518	295.75
301.748	277.75
301.979	283.75
302.209	275.75
302.439	269.75
302.669	264.75
302.9	272.75
303.13	284.75
303.36	256.75
303.59	279.75
303.82	287.75
304.051	250.75
304.281	281.75
304.511	271.75
304.741	271.75
304.971	278.75
305.201	279.75
305.431	272.75
305.661	278.75
305.891	254.75
306.121	261.75
306.352	263.75
306.582	283.75
306.812	268.75
307.042	298.75
307.272	275.75
307.502	278.75
307.731	269.75
307.961	278.75
308.191	277.75
308.421	278.75
308.651	290.75
308.881	261.75
309.111	286.75
309.341	271.75
309.571	280.75
309.8	284.75
310.03	271.75
310.26	279.75
310.49	285.75
310.72	282.75
310.949	276.75
311.179	275.75
311.409	265.75
311.639	292.75
311.868	283.75
312.098	300.75
312.328	285.75
312.557	292.75
312.787	295.75
313.017	286.75
313.246	300.75
313.476	301.75
313.706	294.75
313.935	317.75
314.165	295.75
314.394	277.75
314.624	289.75
314.853	297.75
315.083	301.75
315.312	298.75
315.542	296.75
315.771	304.75
316.001	294.75
316.23	306.75
316.46	302.75
316.689	287.75
316.919	314.75
317.148	318.75
317.377	309.75
317.607	306.75
317.836	314.75
318.065	302.75
318.295	321.75
318.524	299.75
318.753	307.75
318.983	314.75
319.212	306.75
319.441	309.75
319.67	311.75
319.9	285.75
320.129	292.75
320.358	301.75
320.587	306.75
320.816	310.75
321.046	307.75
321.275	302.75
321.504	313.75
321.733	298.75
321.962	305.75
322.191	315.75
322.42	328.75
322.649	296.75
322.878	313.75
323.108	308.75
323.337	325.75
323.566	321.75
323.795	313.75
324.024	323.75
324.253	306.75
324.482	321.75
324.71	316.75
324.939	309.75
325.168	309.75
325.397	322.75
325.626	327.75
325.855	344.75
326.084	334.75
326.313	326.75
326.542	324.75
326.77	330.75
326.999	314.75
327.228	317.75
327.457	321.75
327.686	345.75
327.914	322.75
328.143	317.75
328.372	311.75
328.6	327.75
328.829	312.75
329.058	321.75
329.287	333.75
329.515	329.75
329.744	342.75
329.972	327.75
330.201	326.75
330.43	343.75
330.658	341.75
330.887	340.75
331.115	341.75
331.344	367.75
331.572	353.75
331.801	360.75
332.03	359.75
332.258	341.75
332.486	359.75
332.715	363.75
332.943	357.75
333.172	393.75
333.4	384.75
333.629	399.75
333.857	393.75
334.085	400.75
334.314	387.75
334.542	383.75
334.771	390.75
334.999	401.75
335.227	377.75
335.455	392.75
335.684	390.75
335.912	388.75
336.14	415.75
336.369	369.75
336.597	373.75
336.825	378.75
337.053	384.75
337.281	376.75
337.51	380.75
337.738	378.75
337.966	343.75
338.194	345.75
338.422	352.75
338.65	366.75
338.878	346.75
339.106	362.75
339.334	352.75
339.562	349.75
339.79	366.75
340.018	340.75
340.246	340.75
340.474	340.75
340.702	355.75
340.93	347.75
341.158	348.75
341.386	354.75
341.614	374.75
341.842	363.75
342.07	349.75
342.298	327.75
342.526	377.75
342.754	347.75
342.981	350.75
343.209	345.75
343.437	362.75
343.665	367.75
343.893	387.75
344.12	379.75
344.348	371.75
344.576	382.75
344.804	361.75
345.031	356.75
345.259	346.75
345.487	350.75
345.714	362.75
345.942	356.75
346.17	361.75
346.397	342.75
346.625	342.75
346.853	329.75
347.08	338.75
347.308	362.75
347.535	330.75
347.763	345.75
347.99	349.75
348.218	331.75
348.445	332.75
348.673	334.75
348.9	335.75
349.128	327.75
349.355	339.75
349.583	355.75
349.81	322.75
350.037	351.75
350.265	341.75
350.492	339.75
350.72	335.75
350.947	334.75
351.174	335.75
351.402	331.75
351.629	340.75
351.856	331.75
352.083	335.75
352.311	344.75
352.538	328.75
352.765	320.75
352.992	350.75
353.22	338.75
353.447	328.75
353.674	340.75
353.901	357.75
354.128	350.75
354.355	340.75
354.583	339.75
354.81	334.75
355.037	339.75
355.264	313.75
355.491	342.75
355.718	335.75
355.945	324.75
356.172	345.75
356.399	355.75
356.626	350.75
356.853	339.75
357.08	321.75
357.307	324.75
357.534	338.75
357.761	330.75
357.988	333.75
358.215	347.75
358.441	328.75
358.668	317.75
358.895	351.75
359.122	339.75
359.349	345.75
359.576	343.75
359.802	364.75
360.029	330.75
360.256	331.75
360.483	354.75
360.709	346.75
360.936	369.75
361.163	351.75
361.39	347.75
361.616	350.75
361.843	334.75
362.07	355.75
362.296	353.75
362.523	359.75
362.749	344.75
362.976	335.75
363.203	347.75
363.429	351.75
363.656	348.75
363.882	334.75
364.109	340.75
364.335	317.75
364.562	340.75
364.788	335.75
365.015	348.75
365.241	356.75
365.468	353.75
365.694	346.75
365.92	348.75
366.147	351.75
366.373	345.75
366.599	342.75
366.826	339.75
367.052	362.75
367.278	356.75
367.505	347.75
367.731	336.75
367.957	359.75
368.184	359.75
368.41	333.75
368.636	349.75
368.862	354.75
369.089	342.75
369.315	357.75
369.541	359.75
369.767	351.75
369.993	348.75
370.219	349.75
370.445	364.75
370.672	364.75
370.898	352.75
371.124	354.75
371.35	359.75
371.576	370.75
371.802	366.75
372.028	380.75
372.254	358.75
372.48	364.75
372.706	378.75
372.932	379.75
373.158	380.75
373.384	391.75
373.61	393.75
373.835	378.75
374.061	365.75
374.287	380.75
374.513	385.75
374.739	383.75
374.965	394.75
375.191	396.75
375.416	387.75
375.642	399.75
375.868	394.75
376.094	372.75
376.319	381.75
376.545	377.75
376.771	386.75
376.997	371.75
377.222	375.75
377.448	364.75
377.674	355.75
377.899	356.75
378.125	361.75
378.35	353.75
378.576	362.75
378.802	355.75
379.027	371.75
379.253	376.75
379.478	379.75
379.704	355.75
379.929	364.75
380.155	372.75
380.38	381.75
380.606	365.75
380.831	356.75
381.057	377.75
381.282	368.75
381.507	366.75
381.733	379.75
381.958	379.75
382.184	380.75
382.409	403.75
382.634	402.75
382.86	400.75
383.085	386.75
383.31	390.75
383.535	394.75
383.761	392.75
383.986	418.75
384.211	390.75
384.436	395.75
384.662	395.75
384.887	410.75
385.112	394.75
385.337	420.75
385.562	412.75
385.787	421.75
386.013	429.75
386.238	422.75
386.463	416.75
386.688	414.75
386.913	415.75
387.138	421.75
387.363	414.75
387.588	417.75
387.813	437.75
388.038	432.75
388.263	422.75
388.488	421.75
388.713	422.75
388.938	425.75
389.163	428.75
389.387	416.75
389.612	423.75
389.837	415.75
390.062	439.75
390.287	426.75
390.512	409.75
390.736	413.75
390.961	439.75
391.186	426.75
391.411	451.75
391.636	454.75
391.86	443.75
392.085	451.75
392.31	425.75
392.534	433.75
392.759	464.75
392.984	445.75
393.208	455.75
393.433	454.75
393.658	459.75
393.882	462.75
394.107	440.75
394.331	470.75
394.556	430.75
394.78	446.75
395.005	466.75
395.229	445.75
395.454	469.75
395.678	466.75
395.903	466.75
396.127	470.75
396.352	445.75
396.576	459.75
396.801	471.75
397.025	474.75
397.249	470.75
397.474	495.75
397.698	474.75
397.922	469.75
398.147	495.75
398.371	483.75
398.595	504.75
398.82	501.75
399.044	540.75
399.268	565.75
399.492	581.75
399.717	619.75
399.941	634.75
400.165	615.75
400.389	573.75
400.613	539.75
400.837	546.75
401.062	548.75
401.286	526.75
401.51	519.75
401.734	499.75
401.958	504.75
402.182	517.75
402.406	520.75
402.63	516.75
402.854	521.75
403.078	519.75
403.302	516.75
403.526	509.75
403.75	509.75
403.974	528.75
404.198	538.75
404.422	518.75
404.645	550.75
404.869	535.75
405.093	542.75
405.317	544.75
405.541	535.75
405.765	526.75
405.988	550.75
406.212	535.75
406.436	548.75
406.66	572.75
406.883	587.75
407.107	588.75
407.331	580.75
407.555	595.75
407.778	606.75
408.002	590.75
408.226	565.75
408.449	569.75
408.673	580.75
408.896	569.75
409.12	537.75
409.344	549.75
409.567	533.75
409.791	573.75
410.014	551.75
410.238	541.75
410.461	543.75
410.685	558.75
410.908	555.75
411.132	526.75
411.355	545.75
411.578	540.75
411.802	525.75
412.025	523.75
412.249	534.75
412.472	549.75
412.695	532.75
412.919	506.75
413.142	505.75
413.365	523.75
413.589	523.75
413.812	518.75
414.035	520.75
414.258	502.75
414.482	519.75
414.705	513.75
414.928	522.75
415.151	513.75
415.374	525.75
415.597	491.75
415.821	503.75
416.044	494.75
416.267	505.75
416.49	494.75
416.713	509.75
416.936	508.75
417.159	510.75
417.382	501.75
417.605	515.75
417.828	494.75
418.051	517.75
418.274	513.75
418.497	525.75
418.72	528.75
418.943	496.75
419.166	521.75
419.389	553.75
419.611	539.75
419.834	526.75
420.057	515.75
420.28	526.75
420.503	491.75
420.726	469.75
420.948	494.75
421.171	511.75
421.394	481.75
421.617	481.75
421.839	489.75
422.062	497.75
422.285	495.75
422.507	489.75
422.73	501.75
422.953	489.75
423.175	498.75
423.398	505.75
423.621	506.75
423.843	508.75
424.066	503.75
424.288	520.75
424.511	485.75
424.733	489.75
424.956	480.75
425.178	501.75
425.401	477.75
425.623	473.75
425.846	465.75
426.068	489.75
426.291	463.75
426.513	474.75
426.735	467.75
426.958	488.75
427.18	473.75
427.402	462.75
427.625	494.75
427.847	459.75
428.069	489.75
428.292	449.75
428.514	455.75
428.736	450.75
428.958	466.75
429.181	449.75
429.403	439.75
429.625	446.75
429.847	441.75
430.069	456.75
430.292	466.75
430.514	457.75
430.736	441.75
430.958	451.75
431.18	472.75
431.402	439.75
431.624	446.75
431.846	476.75
432.068	458.75
432.29	459.75
432.512	484.75
432.734	469.75
432.956	479.75
433.178	470.75
433.4	458.75
433.622	460.75
433.844	473.75
434.066	471.75
434.287	493.75
434.509	497.75
434.731	477.75
434.953	481.75
435.175	501.75
435.397	482.75
435.618	454.75
435.84	469.75
436.062	475.75
436.284	451.75
436.505	449.75
436.727	467.75
436.949	461.75
437.17	447.75
437.392	466.75
437.614	436.75
437.835	442.75
438.057	449.75
438.278	450.75
438.5	429.75
438.721	451.75
438.943	446.75
439.165	441.75
439.386	446.75
439.608	443.75
439.829	451.75
440.05	439.75
440.272	453.75
440.493	441.75
440.715	468.75
440.936	456.75
441.158	474.75
441.379	466.75
441.6	493.75
441.822	491.75
442.043	469.75
442.264	486.75
442.486	478.75
442.707	484.75
442.928	493.75
443.149	468.75
443.371	477.75
443.592	487.75
443.813	490.75
444.034	492.75
444.255	489.75
444.476	510.75
444.698	515.75
444.919	521.75
445.14	571.75
445.361	551.75
445.582	493.75
445.803	484.75
446.024	487.75
446.245	468.75
446.466	463.75
446.687	439.75
446.908	442.75
447.129	453.75
447.35	450.75
447.571	447.75
447.792	424.75
448.013	419.75
448.234	422.75
448.455	418.75
448.675	428.75
448.896	393.75
449.117	433.75
449.338	414.75
449.559	409.75
449.779	430.75
450	422.75
450.221	413.75
450.442	419.75
450.662	406.75
450.883	441.75
451.104	412.75
451.324	394.75
451.545	403.75
451.766	427.75
451.986	414.75
452.207	411.75
452.428	431.75
452.648	409.75
452.869	407.75
453.089	407.75
453.31	405.75
453.53	396.75
453.751	415.75
453.971	413.75
454.192	407.75
454.412	407.75
454.633	400.75
454.853	396.75
455.073	402.75
455.294	408.75
455.514	394.75
455.734	412.75
455.955	400.75
456.175	403.75
456.395	394.75
456.616	401.75
456.836	417.75
457.056	408.75
457.276	405.75
457.497	390.75
457.717	387.75
457.937	414.75
458.157	424.75
458.377	417.75
458.598	419.75
458.818	426.75
459.038	445.75
459.258	432.75
459.478	463.75
459.698	468.75
459.918	485.75
460.138	468.75
460.358	481.75
460.578	487.75
460.798	520.75
461.018	497.75
461.238	506.75
461.458	506.75
461.678	516.75
461.898	517.75
462.118	521.75
462.338	514.75
462.558	538.75
462.777	554.75
462.997	597.75
463.217	602.75
463.437	595.75
463.657	566.75
463.876	572.75
464.096	585.75
464.316	547.75
464.536	530.75
464.755	549.75
464.975	538.75
465.195	525.75
465.414	484.75
465.634	489.75
465.854	468.75
466.073	461.75
466.293	453.75
466.512	468.75
466.732	458.75
466.951	441.75
467.171	461.75
467.391	415.75
467.61	455.75
467.829	439.75
468.049	452.75
468.268	435.75
468.488	437.75
468.707	447.75
468.927	421.75
469.146	413.75
469.365	437.75
469.585	415.75
469.804	436.75
470.023	440.75
470.243	443.75
470.462	471.75
470.681	465.75
470.901	460.75
471.12	447.75
471.339	437.75
471.558	438.75
471.777	455.75
471.997	455.75
472.216	457.75
472.435	443.75
472.654	425.75
472.873	449.75
473.092	434.75
473.311	422.75
473.53	429.75
473.749	419.75
473.968	448.75
474.187	427.75
474.406	433.75
474.625	461.75
474.844	424.75
475.063	446.75
475.282	443.75
475.501	434.75
475.72	442.75
475.939	443.75
476.158	461.75
476.377	451.75
476.596	442.75
476.814	455.75
477.033	452.75
477.252	470.75
477.471	465.75
477.69	482.75
477.908	513.75
478.127	469.75
478.346	487.75
478.564	497.75
478.783	487.75
479.002	521.75
479.22	523.75
479.439	503.75
479.658	515.75
479.876	531.75
480.095	513.75
480.313	531.75
480.532	526.75
480.751	519.75
480.969	516.75
481.188	511.75
481.406	524.75
481.624	539.75
481.843	481.75
482.061	506.75
482.28	486.75
482.498	511.75
482.717	485.75
482.935	495.75
483.153	508.75
483.372	507.75
483.59	490.75
483.808	521.75
484.027	497.75
484.245	505.75
484.463	495.75
484.681	493.75
484.9	523.75
485.118	509.75
485.336	516.75
485.554	520.75
485.772	516.75
485.99	535.75
486.209	515.75
486.427	542.75
486.645	517.75
486.863	522.75
487.081	502.75
487.299	496.75
487.517	523.75
487.735	523.75
487.953	517.75
488.171	518.75
488.389	516.75
488.607	512.75
488.825	499.75
489.043	503.75
489.261	511.75
489.479	519.75
489.696	530.75
489.914	521.75
490.132	507.75
490.35	520.75
490.568	527.75
490.786	504.75
491.003	510.75
491.221	540.75
491.439	526.75
491.657	543.75
491.874	528.75
492.092	535.75
492.31	517.75
492.527	539.75
492.745	543.75
492.963	530.75
493.18	547.75
493.398	546.75
493.615	538.75
493.833	530.75
494.05	538.75
494.268	549.75
494.485	519.75
494.703	553.75
494.92	567.75
495.138	550.75
495.355	573.75
495.573	552.75
495.79	553.75
496.008	551.75
496.225	542.75
496.442	569.75
496.66	603.75
496.877	586.75
497.094	586.75
497.312	606.75
497.529	613.75
497.746	620.75
497.963	635.75
498.181	651.75
498.398	690.75
498.615	689.75
498.832	722.75
499.049	769.75
499.267	803.75
499.484	857.75
499.701	919.75
499.918	955.75
500.135	1001.75
500.352	1085.75
500.569	1099.75
500.786	1079.75
501.003	1034.75
501.22	987.75
501.437	921.75
501.654	868.75
