Data from Fe(NO3)3@0.1M.TitratingCurve.Agarose3%dH2O.NegLispCup.LampEnergy10.LIBS07252019_HRD10591_16-37-21-332.txt Node
Date: Thu Jul 25 16:37:21 EDT 2019
User: cochatt
Spectrometer: HR+D1059
Trigger mode: 1
Integration Time (sec): 1.000000E-1
Scans to average: 1
Electric dark correction enabled: true
Nonlinearity correction enabled: false
Boxcar width: 0
XAxis mode: Wavelengths
Number of Pixels in Spectrum: 2048
>>>>>Begin Spectral Data<<<<<
223.165	-20.94
223.4	-20.94
223.635	-20.94
223.869	-6.94
224.104	-23.94
224.338	-7.94
224.573	-15.94
224.808	-10.94
225.042	-22.94
225.277	-15.94
225.511	1.06
225.746	-2.94
225.98	8.06
226.215	10.06
226.449	21.06
226.683	13.06
226.918	37.06
227.152	38.06
227.387	40.06
227.621	39.06
227.856	50.06
228.09	54.06
228.324	54.06
228.559	52.06
228.793	60.06
229.027	77.06
229.262	72.06
229.496	74.06
229.73	89.06
229.964	82.06
230.199	83.06
230.433	76.06
230.667	79.06
230.901	96.06
231.136	103.06
231.37	103.06
231.604	98.06
231.838	104.06
232.072	92.06
232.306	97.06
232.541	105.06
232.775	96.06
233.009	98.06
233.243	114.06
233.477	102.06
233.711	112.06
233.945	78.06
234.179	103.06
234.413	102.06
234.647	101.06
234.881	94.06
235.115	101.06
235.349	95.06
235.583	114.06
235.817	94.06
236.051	92.06
236.285	90.06
236.519	120.06
236.753	90.06
236.987	100.06
237.221	105.06
237.455	104.06
237.689	92.06
237.922	103.06
238.156	105.06
238.39	119.06
238.624	101.06
238.858	101.06
239.091	110.06
239.325	96.06
239.559	94.06
239.793	119.06
240.027	104.06
240.26	102.06
240.494	103.06
240.728	105.06
240.961	102.06
241.195	111.06
241.429	108.06
241.662	105.06
241.896	100.06
242.13	96.06
242.363	113.06
242.597	96.06
242.83	112.06
243.064	114.06
243.298	97.06
243.531	100.06
243.765	96.06
243.998	107.06
244.232	112.06
244.465	102.06
244.699	105.06
244.932	104.06
245.166	118.06
245.399	106.06
245.633	103.06
245.866	112.06
246.099	121.06
246.333	102.06
246.566	109.06
246.8	116.06
247.033	116.06
247.266	116.06
247.5	119.06
247.733	125.06
247.966	112.06
248.2	115.06
248.433	106.06
248.666	116.06
248.899	124.06
249.133	118.06
249.366	113.06
249.599	117.06
249.832	125.06
250.066	131.06
250.299	118.06
250.532	119.06
250.765	119.06
250.998	121.06
251.231	132.06
251.465	127.06
251.698	125.06
251.931	136.06
252.164	132.06
252.397	135.06
252.63	128.06
252.863	124.06
253.096	119.06
253.329	128.06
253.562	124.06
253.795	126.06
254.028	123.06
254.261	118.06
254.494	133.06
254.727	128.06
254.96	114.06
255.193	132.06
255.426	146.06
255.659	135.06
255.892	124.06
256.124	132.06
256.357	137.06
256.59	138.06
256.823	128.06
257.056	128.06
257.289	118.06
257.521	131.06
257.754	126.06
257.987	141.06
258.22	153.06
258.452	137.06
258.685	154.06
258.918	151.06
259.151	134.06
259.383	131.06
259.616	143.06
259.849	141.06
260.081	149.06
260.314	154.06
260.547	134.06
260.779	149.06
261.012	154.06
261.244	137.06
261.477	156.06
261.71	138.06
261.942	134.06
262.175	150.06
262.407	137.06
262.64	137.06
262.872	150.06
263.105	148.06
263.337	128.06
263.57	162.06
263.802	134.06
264.035	149.06
264.267	148.06
264.499	158.06
264.732	139.06
264.964	153.06
265.197	153.06
265.429	157.06
265.661	156.06
265.894	159.06
266.126	142.06
266.358	155.06
266.591	153.06
266.823	153.06
267.055	152.06
267.287	163.06
267.52	146.06
267.752	171.06
267.984	156.06
268.216	141.06
268.448	158.06
268.681	163.06
268.913	162.06
269.145	153.06
269.377	146.06
269.609	159.06
269.841	167.06
270.073	160.06
270.306	155.06
270.538	142.06
270.77	148.06
271.002	146.06
271.234	155.06
271.466	157.06
271.698	159.06
271.93	165.06
272.162	145.06
272.394	171.06
272.626	172.06
272.858	191.06
273.09	155.06
273.322	171.06
273.553	169.06
273.785	162.06
274.017	168.06
274.249	174.06
274.481	168.06
274.713	169.06
274.945	166.06
275.176	170.06
275.408	185.06
275.64	178.06
275.872	177.06
276.104	160.06
276.335	174.06
276.567	171.06
276.799	174.06
277.031	157.06
277.262	165.06
277.494	172.06
277.726	180.06
277.957	168.06
278.189	164.06
278.421	178.06
278.652	172.06
278.884	172.06
279.115	171.06
279.347	179.06
279.579	176.06
279.81	169.06
280.042	173.06
280.273	167.06
280.505	180.06
280.736	180.06
280.968	170.06
281.199	185.06
281.431	184.06
281.662	176.06
281.894	187.06
282.125	184.06
282.356	198.06
282.588	185.06
282.819	195.06
283.051	181.06
283.282	178.06
283.513	195.06
283.745	179.06
283.976	185.06
284.207	195.06
284.439	188.06
284.67	202.06
284.901	185.06
285.132	188.06
285.364	183.06
285.595	182.06
285.826	192.06
286.057	179.06
286.288	198.06
286.52	191.06
286.751	193.06
286.982	185.06
287.213	173.06
287.444	188.06
287.675	196.06
287.906	204.06
288.138	194.06
288.369	195.06
288.6	203.06
288.831	199.06
289.062	192.06
289.293	199.06
289.524	196.06
289.755	200.06
289.986	194.06
290.217	211.06
290.448	196.06
290.679	202.06
290.91	201.06
291.141	193.06
291.371	198.06
291.602	193.06
291.833	197.06
292.064	193.06
292.295	188.06
292.526	205.06
292.757	191.06
292.987	222.06
293.218	200.06
293.449	197.06
293.68	197.06
293.91	200.06
294.141	195.06
294.372	194.06
294.603	205.06
294.833	204.06
295.064	194.06
295.295	205.06
295.525	199.06
295.756	199.06
295.987	211.06
296.217	207.06
296.448	219.06
296.679	207.06
296.909	186.06
297.14	194.06
297.37	196.06
297.601	193.06
297.831	210.06
298.062	205.06
298.292	212.06
298.523	229.06
298.753	193.06
298.984	205.06
299.214	194.06
299.445	208.06
299.675	213.06
299.905	206.06
300.136	211.06
300.366	211.06
300.597	197.06
300.827	222.06
301.057	217.06
301.288	220.06
301.518	235.06
301.748	203.06
301.979	229.06
302.209	209.06
302.439	224.06
302.669	214.06
302.9	233.06
303.13	223.06
303.36	221.06
303.59	211.06
303.82	225.06
304.051	220.06
304.281	205.06
304.511	210.06
304.741	227.06
304.971	230.06
305.201	203.06
305.431	225.06
305.661	213.06
305.891	216.06
306.121	217.06
306.352	210.06
306.582	219.06
306.812	210.06
307.042	221.06
307.272	221.06
307.502	214.06
307.731	233.06
307.961	212.06
308.191	235.06
308.421	226.06
308.651	214.06
308.881	210.06
309.111	226.06
309.341	214.06
309.571	219.06
309.8	208.06
310.03	206.06
310.26	217.06
310.49	232.06
310.72	222.06
310.949	217.06
311.179	228.06
311.409	224.06
311.639	213.06
311.868	215.06
312.098	231.06
312.328	233.06
312.557	223.06
312.787	227.06
313.017	237.06
313.246	203.06
313.476	225.06
313.706	218.06
313.935	244.06
314.165	226.06
314.394	230.06
314.624	232.06
314.853	232.06
315.083	218.06
315.312	227.06
315.542	245.06
315.771	221.06
316.001	234.06
316.23	226.06
316.46	230.06
316.689	217.06
316.919	237.06
317.148	236.06
317.377	229.06
317.607	245.06
317.836	234.06
318.065	227.06
318.295	240.06
318.524	235.06
318.753	232.06
318.983	216.06
319.212	222.06
319.441	224.06
319.67	214.06
319.9	236.06
320.129	220.06
320.358	246.06
320.587	228.06
320.816	227.06
321.046	226.06
321.275	230.06
321.504	241.06
321.733	222.06
321.962	224.06
322.191	214.06
322.42	232.06
322.649	241.06
322.878	217.06
323.108	234.06
323.337	237.06
323.566	241.06
323.795	235.06
324.024	224.06
324.253	226.06
324.482	219.06
324.71	235.06
324.939	234.06
325.168	243.06
325.397	223.06
325.626	224.06
325.855	246.06
326.084	256.06
326.313	235.06
326.542	257.06
326.77	259.06
326.999	258.06
327.228	264.06
327.457	253.06
327.686	243.06
327.914	251.06
328.143	232.06
328.372	249.06
328.6	240.06
328.829	231.06
329.058	237.06
329.287	234.06
329.515	252.06
329.744	259.06
329.972	258.06
330.201	224.06
330.43	235.06
330.658	241.06
330.887	274.06
331.115	261.06
331.344	280.06
331.572	273.06
331.801	258.06
332.03	264.06
332.258	273.06
332.486	270.06
332.715	260.06
332.943	273.06
333.172	287.06
333.4	280.06
333.629	319.06
333.857	306.06
334.085	312.06
334.314	304.06
334.542	290.06
334.771	287.06
334.999	285.06
335.227	288.06
335.455	295.06
335.684	288.06
335.912	298.06
336.14	311.06
336.369	296.06
336.597	298.06
336.825	298.06
337.053	291.06
337.281	271.06
337.51	278.06
337.738	280.06
337.966	261.06
338.194	282.06
338.422	251.06
338.65	270.06
338.878	266.06
339.106	252.06
339.334	262.06
339.562	261.06
339.79	277.06
340.018	283.06
340.246	261.06
340.474	266.06
340.702	252.06
340.93	271.06
341.158	268.06
341.386	258.06
341.614	261.06
341.842	243.06
342.07	282.06
342.298	247.06
342.526	267.06
342.754	245.06
342.981	258.06
343.209	254.06
343.437	276.06
343.665	287.06
343.893	270.06
344.12	306.06
344.348	295.06
344.576	292.06
344.804	262.06
345.031	281.06
345.259	274.06
345.487	252.06
345.714	248.06
345.942	248.06
346.17	261.06
346.397	258.06
346.625	252.06
346.853	250.06
347.08	249.06
347.308	245.06
347.535	267.06
347.763	263.06
347.99	258.06
348.218	256.06
348.445	242.06
348.673	253.06
348.9	253.06
349.128	253.06
349.355	237.06
349.583	255.06
349.81	234.06
350.037	247.06
350.265	246.06
350.492	261.06
350.72	247.06
350.947	234.06
351.174	257.06
351.402	261.06
351.629	218.06
351.856	242.06
352.083	258.06
352.311	248.06
352.538	250.06
352.765	227.06
352.992	251.06
353.22	259.06
353.447	245.06
353.674	258.06
353.901	263.06
354.128	260.06
354.355	248.06
354.583	240.06
354.81	241.06
355.037	252.06
355.264	254.06
355.491	239.06
355.718	265.06
355.945	263.06
356.172	240.06
356.399	247.06
356.626	227.06
356.853	237.06
357.08	242.06
357.307	260.06
357.534	264.06
357.761	246.06
357.988	268.06
358.215	248.06
358.441	235.06
358.668	244.06
358.895	256.06
359.122	249.06
359.349	248.06
359.576	257.06
359.802	256.06
360.029	260.06
360.256	251.06
360.483	246.06
360.709	246.06
360.936	263.06
361.163	248.06
361.39	246.06
361.616	252.06
361.843	257.06
362.07	253.06
362.296	250.06
362.523	256.06
362.749	241.06
362.976	224.06
363.203	252.06
363.429	231.06
363.656	247.06
363.882	245.06
364.109	253.06
364.335	263.06
364.562	233.06
364.788	247.06
365.015	254.06
365.241	270.06
365.468	276.06
365.694	241.06
365.92	248.06
366.147	260.06
366.373	243.06
366.599	245.06
366.826	256.06
367.052	266.06
367.278	257.06
367.505	257.06
367.731	260.06
367.957	242.06
368.184	259.06
368.41	265.06
368.636	256.06
368.862	270.06
369.089	261.06
369.315	283.06
369.541	266.06
369.767	269.06
369.993	256.06
370.219	258.06
370.445	268.06
370.672	284.06
370.898	275.06
371.124	256.06
371.35	271.06
371.576	273.06
371.802	273.06
372.028	266.06
372.254	277.06
372.48	295.06
372.706	301.06
372.932	295.06
373.158	298.06
373.384	281.06
373.61	275.06
373.835	284.06
374.061	268.06
374.287	295.06
374.513	287.06
374.739	305.06
374.965	296.06
375.191	308.06
375.416	308.06
375.642	296.06
375.868	302.06
376.094	280.06
376.319	283.06
376.545	299.06
376.771	278.06
376.997	274.06
377.222	288.06
377.448	276.06
377.674	280.06
377.899	273.06
378.125	285.06
378.35	284.06
378.576	279.06
378.802	295.06
379.027	274.06
379.253	271.06
379.478	271.06
379.704	291.06
379.929	263.06
380.155	305.06
380.38	309.06
380.606	295.06
380.831	319.06
381.057	282.06
381.282	301.06
381.507	311.06
381.733	308.06
381.958	300.06
382.184	306.06
382.409	304.06
382.634	301.06
382.86	312.06
383.085	294.06
383.31	320.06
383.535	337.06
383.761	325.06
383.986	324.06
384.211	327.06
384.436	334.06
384.662	344.06
384.887	334.06
385.112	330.06
385.337	341.06
385.562	336.06
385.787	327.06
386.013	353.06
386.238	328.06
386.463	327.06
386.688	356.06
386.913	331.06
387.138	329.06
387.363	334.06
387.588	341.06
387.813	323.06
388.038	339.06
388.263	331.06
388.488	361.06
388.713	357.06
388.938	352.06
389.163	328.06
389.387	344.06
389.612	326.06
389.837	340.06
390.062	346.06
390.287	325.06
390.512	325.06
390.736	358.06
390.961	345.06
391.186	341.06
391.411	366.06
391.636	358.06
391.86	381.06
392.085	386.06
392.31	368.06
392.534	378.06
392.759	360.06
392.984	329.06
393.208	355.06
393.433	359.06
393.658	365.06
393.882	383.06
394.107	352.06
394.331	363.06
394.556	370.06
394.78	362.06
395.005	370.06
395.229	368.06
395.454	378.06
395.678	370.06
395.903	376.06
396.127	381.06
396.352	376.06
396.576	359.06
396.801	365.06
397.025	378.06
397.249	372.06
397.474	402.06
397.698	388.06
397.922	393.06
398.147	376.06
398.371	391.06
398.595	409.06
398.82	435.06
399.044	452.06
399.268	469.06
399.492	530.06
399.717	593.06
399.941	589.06
400.165	534.06
400.389	466.06
400.613	446.06
400.837	443.06
401.062	425.06
401.286	428.06
401.51	420.06
401.734	426.06
401.958	428.06
402.182	438.06
402.406	446.06
402.63	443.06
402.854	434.06
403.078	465.06
403.302	461.06
403.526	484.06
403.75	460.06
403.974	478.06
404.198	466.06
404.422	470.06
404.645	460.06
404.869	473.06
405.093	463.06
405.317	440.06
405.541	458.06
405.765	459.06
405.988	478.06
406.212	454.06
406.436	443.06
406.66	460.06
406.883	473.06
407.107	491.06
407.331	505.06
407.555	506.06
407.778	520.06
408.002	517.06
408.226	491.06
408.449	479.06
408.673	483.06
408.896	490.06
409.12	476.06
409.344	469.06
409.567	468.06
409.791	479.06
410.014	464.06
410.238	460.06
410.461	467.06
410.685	462.06
410.908	459.06
411.132	464.06
411.355	445.06
411.578	455.06
411.802	449.06
412.025	456.06
412.249	456.06
412.472	448.06
412.695	433.06
412.919	424.06
413.142	419.06
413.365	424.06
413.589	439.06
413.812	438.06
414.035	423.06
414.258	448.06
414.482	426.06
414.705	425.06
414.928	439.06
415.151	439.06
415.374	430.06
415.597	437.06
415.821	412.06
416.044	425.06
416.267	422.06
416.49	431.06
416.713	410.06
416.936	426.06
417.159	419.06
417.382	423.06
417.605	425.06
417.828	423.06
418.051	420.06
418.274	431.06
418.497	395.06
418.72	451.06
418.943	432.06
419.166	461.06
419.389	475.06
419.611	469.06
419.834	474.06
420.057	453.06
420.28	432.06
420.503	446.06
420.726	417.06
420.948	418.06
421.171	414.06
421.394	429.06
421.617	419.06
421.839	427.06
422.062	438.06
422.285	416.06
422.507	432.06
422.73	450.06
422.953	433.06
423.175	470.06
423.398	438.06
423.621	468.06
423.843	440.06
424.066	455.06
424.288	430.06
424.511	427.06
424.733	440.06
424.956	422.06
425.178	430.06
425.401	421.06
425.623	428.06
425.846	403.06
426.068	428.06
426.291	401.06
426.513	397.06
426.735	391.06
426.958	399.06
427.18	394.06
427.402	414.06
427.625	394.06
427.847	390.06
428.069	388.06
428.292	381.06
428.514	394.06
428.736	392.06
428.958	393.06
429.181	389.06
429.403	379.06
429.625	378.06
429.847	380.06
430.069	383.06
430.292	379.06
430.514	356.06
430.736	390.06
430.958	380.06
431.18	383.06
431.402	386.06
431.624	384.06
431.846	391.06
432.068	421.06
432.29	404.06
432.512	384.06
432.734	396.06
432.956	395.06
433.178	412.06
433.4	404.06
433.622	417.06
433.844	412.06
434.066	407.06
434.287	389.06
434.509	398.06
434.731	425.06
434.953	417.06
435.175	430.06
435.397	434.06
435.618	436.06
435.84	405.06
436.062	403.06
436.284	400.06
436.505	391.06
436.727	390.06
436.949	409.06
437.17	420.06
437.392	380.06
437.614	394.06
437.835	384.06
438.057	362.06
438.278	366.06
438.5	360.06
438.721	377.06
438.943	378.06
439.165	378.06
439.386	374.06
439.608	380.06
439.829	408.06
440.05	407.06
440.272	409.06
440.493	397.06
440.715	393.06
440.936	404.06
441.158	422.06
441.379	401.06
441.6	429.06
441.822	426.06
442.043	424.06
442.264	423.06
442.486	423.06
442.707	422.06
442.928	428.06
443.149	432.06
443.371	409.06
443.592	436.06
443.813	440.06
444.034	424.06
444.255	453.06
444.476	452.06
444.698	486.06
444.919	482.06
445.14	593.06
445.361	509.06
445.582	448.06
445.803	422.06
446.024	429.06
446.245	397.06
446.466	392.06
446.687	384.06
446.908	397.06
447.129	376.06
447.35	412.06
447.571	382.06
447.792	364.06
448.013	394.06
448.234	385.06
448.455	378.06
448.675	390.06
448.896	383.06
449.117	368.06
449.338	360.06
449.559	346.06
449.779	354.06
450	359.06
450.221	358.06
450.442	370.06
450.662	374.06
450.883	361.06
451.104	386.06
451.324	350.06
451.545	353.06
451.766	377.06
451.986	364.06
452.207	380.06
452.428	348.06
452.648	370.06
452.869	358.06
453.089	354.06
453.31	365.06
453.53	370.06
453.751	365.06
453.971	332.06
454.192	348.06
454.412	345.06
454.633	343.06
454.853	358.06
455.073	363.06
455.294	348.06
455.514	346.06
455.734	358.06
455.955	331.06
456.175	341.06
456.395	342.06
456.616	339.06
456.836	350.06
457.056	342.06
457.276	330.06
457.497	340.06
457.717	344.06
457.937	333.06
458.157	345.06
458.377	355.06
458.598	358.06
458.818	364.06
459.038	370.06
459.258	386.06
459.478	379.06
459.698	401.06
459.918	406.06
460.138	421.06
460.358	452.06
460.578	440.06
460.798	445.06
461.018	463.06
461.238	461.06
461.458	454.06
461.678	438.06
461.898	464.06
462.118	425.06
462.338	484.06
462.558	493.06
462.777	505.06
462.997	522.06
463.217	564.06
463.437	529.06
463.657	493.06
463.876	504.06
464.096	536.06
464.316	514.06
464.536	531.06
464.755	488.06
464.975	489.06
465.195	468.06
465.414	452.06
465.634	412.06
465.854	402.06
466.073	425.06
466.293	393.06
466.512	388.06
466.732	394.06
466.951	393.06
467.171	382.06
467.391	406.06
467.61	396.06
467.829	396.06
468.049	385.06
468.268	376.06
468.488	369.06
468.707	364.06
468.927	380.06
469.146	371.06
469.365	374.06
469.585	401.06
469.804	377.06
470.023	379.06
470.243	375.06
470.462	379.06
470.681	388.06
470.901	399.06
471.12	386.06
471.339	390.06
471.558	378.06
471.777	380.06
471.997	368.06
472.216	373.06
472.435	380.06
472.654	368.06
472.873	361.06
473.092	353.06
473.311	363.06
473.53	361.06
473.749	377.06
473.968	372.06
474.187	371.06
474.406	375.06
474.625	382.06
474.844	379.06
475.063	359.06
475.282	340.06
475.501	358.06
475.72	374.06
475.939	392.06
476.158	388.06
476.377	385.06
476.596	394.06
476.814	388.06
477.033	384.06
477.252	379.06
477.471	398.06
477.69	425.06
477.908	432.06
478.127	403.06
478.346	435.06
478.564	414.06
478.783	437.06
479.002	432.06
479.22	441.06
479.439	424.06
479.658	434.06
479.876	420.06
480.095	414.06
480.313	449.06
480.532	454.06
480.751	468.06
480.969	459.06
481.188	445.06
481.406	410.06
481.624	440.06
481.843	406.06
482.061	390.06
482.28	408.06
482.498	408.06
482.717	406.06
482.935	413.06
483.153	406.06
483.372	429.06
483.59	430.06
483.808	417.06
484.027	421.06
484.245	422.06
484.463	420.06
484.681	443.06
484.9	432.06
485.118	420.06
485.336	420.06
485.554	412.06
485.772	424.06
485.99	446.06
486.209	412.06
486.427	423.06
486.645	438.06
486.863	436.06
487.081	446.06
487.299	426.06
487.517	428.06
487.735	428.06
487.953	437.06
488.171	462.06
488.389	452.06
488.607	417.06
488.825	436.06
489.043	424.06
489.261	423.06
489.479	446.06
489.696	434.06
489.914	423.06
490.132	413.06
490.35	427.06
490.568	420.06
490.786	409.06
491.003	457.06
491.221	440.06
491.439	417.06
491.657	439.06
491.874	432.06
492.092	440.06
492.31	459.06
492.527	455.06
492.745	435.06
492.963	441.06
493.18	443.06
493.398	458.06
493.615	440.06
493.833	461.06
494.05	472.06
494.268	458.06
494.485	460.06
494.703	487.06
494.92	467.06
495.138	470.06
495.355	463.06
495.573	474.06
495.79	463.06
496.008	481.06
496.225	460.06
496.442	475.06
496.66	478.06
496.877	477.06
497.094	496.06
497.312	485.06
497.529	511.06
497.746	517.06
497.963	521.06
498.181	559.06
498.398	556.06
498.615	578.06
498.832	627.06
499.049	668.06
499.267	701.06
499.484	749.06
499.701	803.06
499.918	862.06
500.135	942.06
500.352	1072.06
500.569	1086.06
500.786	1129.06
501.003	1022.06
501.22	930.06
501.437	849.06
501.654	782.06
501.871	710.06
