Data from Fe(NO3)3@0.1M.TitratingCurve.Agarose3%dH2O.NegLispCup.LampEnergy10.LIBS07252019_HRD10591_16-40-06-332.txt Node
Date: Thu Jul 25 16:40:06 EDT 2019
User: cochatt
Spectrometer: HR+D1059
Trigger mode: 1
Integration Time (sec): 1.000000E-1
Scans to average: 1
Electric dark correction enabled: true
Nonlinearity correction enabled: false
Boxcar width: 0
XAxis mode: Wavelengths
Number of Pixels in Spectrum: 2048
>>>>>Begin Spectral Data<<<<<
223.165	-16.31
223.4	-16.31
223.635	-16.31
223.869	0.69
224.104	-11.31
224.338	-10.31
224.573	-18.31
224.808	-12.31
225.042	-7.31
225.277	-9.31
225.511	-0.31
225.746	1.69
225.98	4.69
226.215	9.69
226.449	6.69
226.683	10.69
226.918	27.69
227.152	23.69
227.387	36.69
227.621	47.69
227.856	38.69
228.09	38.69
228.324	55.69
228.559	64.69
228.793	69.69
229.027	77.69
229.262	89.69
229.496	111.69
229.73	95.69
229.964	107.69
230.199	105.69
230.433	118.69
230.667	109.69
230.901	118.69
231.136	125.69
231.37	115.69
231.604	119.69
231.838	126.69
232.072	130.69
232.306	110.69
232.541	122.69
232.775	118.69
233.009	109.69
233.243	128.69
233.477	131.69
233.711	133.69
233.945	119.69
234.179	131.69
234.413	139.69
234.647	130.69
234.881	148.69
235.115	125.69
235.349	132.69
235.583	117.69
235.817	132.69
236.051	121.69
236.285	135.69
236.519	128.69
236.753	123.69
236.987	139.69
237.221	121.69
237.455	128.69
237.689	120.69
237.922	109.69
238.156	134.69
238.39	138.69
238.624	131.69
238.858	140.69
239.091	151.69
239.325	154.69
239.559	141.69
239.793	150.69
240.027	150.69
240.26	134.69
240.494	138.69
240.728	150.69
240.961	143.69
241.195	138.69
241.429	147.69
241.662	140.69
241.896	142.69
242.13	155.69
242.363	157.69
242.597	150.69
242.83	149.69
243.064	146.69
243.298	143.69
243.531	147.69
243.765	147.69
243.998	169.69
244.232	168.69
244.465	170.69
244.699	168.69
244.932	157.69
245.166	166.69
245.399	160.69
245.633	163.69
245.866	165.69
246.099	166.69
246.333	149.69
246.566	174.69
246.8	178.69
247.033	169.69
247.266	163.69
247.5	170.69
247.733	172.69
247.966	177.69
248.2	186.69
248.433	194.69
248.666	180.69
248.899	168.69
249.133	167.69
249.366	178.69
249.599	176.69
249.832	198.69
250.066	187.69
250.299	176.69
250.532	203.69
250.765	204.69
250.998	200.69
251.231	181.69
251.465	183.69
251.698	182.69
251.931	207.69
252.164	201.69
252.397	195.69
252.63	203.69
252.863	214.69
253.096	218.69
253.329	201.69
253.562	188.69
253.795	199.69
254.028	204.69
254.261	206.69
254.494	205.69
254.727	215.69
254.96	204.69
255.193	198.69
255.426	207.69
255.659	227.69
255.892	220.69
256.124	230.69
256.357	201.69
256.59	215.69
256.823	224.69
257.056	225.69
257.289	216.69
257.521	215.69
257.754	214.69
257.987	214.69
258.22	228.69
258.452	217.69
258.685	227.69
258.918	232.69
259.151	221.69
259.383	233.69
259.616	219.69
259.849	226.69
260.081	227.69
260.314	244.69
260.547	222.69
260.779	223.69
261.012	252.69
261.244	235.69
261.477	232.69
261.71	245.69
261.942	230.69
262.175	233.69
262.407	230.69
262.64	240.69
262.872	258.69
263.105	253.69
263.337	242.69
263.57	237.69
263.802	244.69
264.035	237.69
264.267	254.69
264.499	246.69
264.732	262.69
264.964	249.69
265.197	243.69
265.429	255.69
265.661	249.69
265.894	238.69
266.126	246.69
266.358	237.69
266.591	242.69
266.823	271.69
267.055	264.69
267.287	256.69
267.52	253.69
267.752	246.69
267.984	262.69
268.216	267.69
268.448	250.69
268.681	260.69
268.913	276.69
269.145	260.69
269.377	272.69
269.609	269.69
269.841	280.69
270.073	258.69
270.306	270.69
270.538	256.69
270.77	276.69
271.002	274.69
271.234	282.69
271.466	294.69
271.698	284.69
271.93	285.69
272.162	271.69
272.394	289.69
272.626	286.69
272.858	285.69
273.09	284.69
273.322	284.69
273.553	266.69
273.785	278.69
274.017	293.69
274.249	311.69
274.481	289.69
274.713	307.69
274.945	304.69
275.176	324.69
275.408	309.69
275.64	304.69
275.872	316.69
276.104	306.69
276.335	306.69
276.567	306.69
276.799	311.69
277.031	312.69
277.262	292.69
277.494	299.69
277.726	303.69
277.957	330.69
278.189	316.69
278.421	294.69
278.652	324.69
278.884	295.69
279.115	306.69
279.347	317.69
279.579	306.69
279.81	318.69
280.042	322.69
280.273	298.69
280.505	328.69
280.736	319.69
280.968	319.69
281.199	322.69
281.431	330.69
281.662	329.69
281.894	332.69
282.125	337.69
282.356	342.69
282.588	327.69
282.819	333.69
283.051	346.69
283.282	342.69
283.513	367.69
283.745	334.69
283.976	325.69
284.207	345.69
284.439	331.69
284.67	318.69
284.901	355.69
285.132	351.69
285.364	327.69
285.595	340.69
285.826	331.69
286.057	346.69
286.288	351.69
286.52	351.69
286.751	344.69
286.982	336.69
287.213	339.69
287.444	359.69
287.675	357.69
287.906	345.69
288.138	351.69
288.369	351.69
288.6	361.69
288.831	378.69
289.062	360.69
289.293	348.69
289.524	347.69
289.755	367.69
289.986	382.69
290.217	355.69
290.448	367.69
290.679	367.69
290.91	355.69
291.141	356.69
291.371	369.69
291.602	338.69
291.833	342.69
292.064	389.69
292.295	362.69
292.526	379.69
292.757	374.69
292.987	361.69
293.218	356.69
293.449	372.69
293.68	378.69
293.91	363.69
294.141	368.69
294.372	369.69
294.603	369.69
294.833	371.69
295.064	376.69
295.295	368.69
295.525	382.69
295.756	358.69
295.987	342.69
296.217	360.69
296.448	372.69
296.679	382.69
296.909	386.69
297.14	373.69
297.37	390.69
297.601	380.69
297.831	382.69
298.062	379.69
298.292	373.69
298.523	396.69
298.753	399.69
298.984	391.69
299.214	388.69
299.445	392.69
299.675	393.69
299.905	378.69
300.136	389.69
300.366	412.69
300.597	394.69
300.827	384.69
301.057	412.69
301.288	397.69
301.518	402.69
301.748	402.69
301.979	400.69
302.209	410.69
302.439	413.69
302.669	410.69
302.9	398.69
303.13	399.69
303.36	400.69
303.59	391.69
303.82	411.69
304.051	426.69
304.281	431.69
304.511	407.69
304.741	408.69
304.971	405.69
305.201	406.69
305.431	419.69
305.661	386.69
305.891	418.69
306.121	422.69
306.352	414.69
306.582	399.69
306.812	413.69
307.042	407.69
307.272	387.69
307.502	400.69
307.731	414.69
307.961	409.69
308.191	414.69
308.421	398.69
308.651	410.69
308.881	413.69
309.111	420.69
309.341	398.69
309.571	413.69
309.8	422.69
310.03	421.69
310.26	403.69
310.49	395.69
310.72	411.69
310.949	416.69
311.179	412.69
311.409	404.69
311.639	408.69
311.868	419.69
312.098	417.69
312.328	436.69
312.557	415.69
312.787	404.69
313.017	414.69
313.246	423.69
313.476	413.69
313.706	435.69
313.935	443.69
314.165	445.69
314.394	430.69
314.624	444.69
314.853	401.69
315.083	426.69
315.312	427.69
315.542	434.69
315.771	446.69
316.001	423.69
316.23	434.69
316.46	438.69
316.689	410.69
316.919	436.69
317.148	445.69
317.377	437.69
317.607	429.69
317.836	414.69
318.065	420.69
318.295	418.69
318.524	422.69
318.753	431.69
318.983	428.69
319.212	427.69
319.441	428.69
319.67	410.69
319.9	455.69
320.129	446.69
320.358	452.69
320.587	445.69
320.816	428.69
321.046	427.69
321.275	435.69
321.504	435.69
321.733	454.69
321.962	442.69
322.191	444.69
322.42	427.69
322.649	430.69
322.878	447.69
323.108	448.69
323.337	445.69
323.566	442.69
323.795	444.69
324.024	454.69
324.253	443.69
324.482	461.69
324.71	452.69
324.939	472.69
325.168	464.69
325.397	462.69
325.626	465.69
325.855	458.69
326.084	462.69
326.313	461.69
326.542	488.69
326.77	490.69
326.999	484.69
327.228	464.69
327.457	491.69
327.686	471.69
327.914	452.69
328.143	470.69
328.372	494.69
328.6	475.69
328.829	488.69
329.058	465.69
329.287	476.69
329.515	470.69
329.744	467.69
329.972	481.69
330.201	494.69
330.43	498.69
330.658	474.69
330.887	480.69
331.115	478.69
331.344	505.69
331.572	496.69
331.801	479.69
332.03	512.69
332.258	518.69
332.486	540.69
332.715	523.69
332.943	564.69
333.172	565.69
333.4	574.69
333.629	590.69
333.857	608.69
334.085	607.69
334.314	605.69
334.542	610.69
334.771	610.69
334.999	589.69
335.227	579.69
335.455	599.69
335.684	600.69
335.912	571.69
336.14	565.69
336.369	546.69
336.597	568.69
336.825	555.69
337.053	590.69
337.281	566.69
337.51	528.69
337.738	544.69
337.966	515.69
338.194	539.69
338.422	526.69
338.65	530.69
338.878	549.69
339.106	545.69
339.334	518.69
339.562	502.69
339.79	490.69
340.018	494.69
340.246	518.69
340.474	509.69
340.702	491.69
340.93	514.69
341.158	514.69
341.386	487.69
341.614	489.69
341.842	492.69
342.07	492.69
342.298	479.69
342.526	484.69
342.754	511.69
342.981	495.69
343.209	501.69
343.437	528.69
343.665	554.69
343.893	554.69
344.12	558.69
344.348	579.69
344.576	550.69
344.804	524.69
345.031	523.69
345.259	516.69
345.487	518.69
345.714	512.69
345.942	491.69
346.17	500.69
346.397	487.69
346.625	480.69
346.853	479.69
347.08	483.69
347.308	495.69
347.535	491.69
347.763	486.69
347.99	493.69
348.218	503.69
348.445	488.69
348.673	484.69
348.9	496.69
349.128	474.69
349.355	477.69
349.583	479.69
349.81	472.69
350.037	492.69
350.265	487.69
350.492	477.69
350.72	469.69
350.947	483.69
351.174	477.69
351.402	469.69
351.629	473.69
351.856	461.69
352.083	495.69
352.311	463.69
352.538	442.69
352.765	480.69
352.992	471.69
353.22	469.69
353.447	471.69
353.674	475.69
353.901	463.69
354.128	454.69
354.355	457.69
354.583	480.69
354.81	481.69
355.037	469.69
355.264	490.69
355.491	454.69
355.718	472.69
355.945	484.69
356.172	472.69
356.399	475.69
356.626	483.69
356.853	500.69
357.08	467.69
357.307	464.69
357.534	471.69
357.761	477.69
357.988	489.69
358.215	478.69
358.441	473.69
358.668	491.69
358.895	479.69
359.122	462.69
359.349	468.69
359.576	469.69
359.802	472.69
360.029	478.69
360.256	470.69
360.483	488.69
360.709	485.69
360.936	470.69
361.163	482.69
361.39	476.69
361.616	458.69
361.843	473.69
362.07	487.69
362.296	474.69
362.523	487.69
362.749	450.69
362.976	481.69
363.203	491.69
363.429	464.69
363.656	489.69
363.882	471.69
364.109	481.69
364.335	471.69
364.562	481.69
364.788	469.69
365.015	469.69
365.241	473.69
365.468	484.69
365.694	488.69
365.92	470.69
366.147	493.69
366.373	488.69
366.599	475.69
366.826	491.69
367.052	463.69
367.278	484.69
367.505	501.69
367.731	477.69
367.957	473.69
368.184	471.69
368.41	483.69
368.636	502.69
368.862	487.69
369.089	498.69
369.315	520.69
369.541	477.69
369.767	512.69
369.993	504.69
370.219	515.69
370.445	531.69
370.672	512.69
370.898	516.69
371.124	503.69
371.35	511.69
371.576	543.69
371.802	531.69
372.028	524.69
372.254	532.69
372.48	500.69
372.706	539.69
372.932	536.69
373.158	518.69
373.384	523.69
373.61	516.69
373.835	520.69
374.061	520.69
374.287	544.69
374.513	526.69
374.739	549.69
374.965	559.69
375.191	583.69
375.416	591.69
375.642	562.69
375.868	540.69
376.094	578.69
376.319	529.69
376.545	539.69
376.771	542.69
376.997	505.69
377.222	542.69
377.448	521.69
377.674	516.69
377.899	521.69
378.125	514.69
378.35	534.69
378.576	511.69
378.802	537.69
379.027	532.69
379.253	511.69
379.478	525.69
379.704	520.69
379.929	522.69
380.155	522.69
380.38	518.69
380.606	533.69
380.831	532.69
381.057	526.69
381.282	528.69
381.507	512.69
381.733	553.69
381.958	542.69
382.184	543.69
382.409	546.69
382.634	547.69
382.86	573.69
383.085	548.69
383.31	562.69
383.535	568.69
383.761	555.69
383.986	576.69
384.211	582.69
384.436	583.69
384.662	604.69
384.887	615.69
385.112	607.69
385.337	618.69
385.562	615.69
385.787	621.69
386.013	627.69
386.238	622.69
386.463	630.69
386.688	618.69
386.913	593.69
387.138	637.69
387.363	618.69
387.588	616.69
387.813	624.69
388.038	641.69
388.263	623.69
388.488	650.69
388.713	635.69
388.938	618.69
389.163	621.69
389.387	610.69
389.612	627.69
389.837	628.69
390.062	629.69
390.287	637.69
390.512	645.69
390.736	631.69
390.961	638.69
391.186	639.69
391.411	655.69
391.636	690.69
391.86	690.69
392.085	669.69
392.31	682.69
392.534	661.69
392.759	675.69
392.984	683.69
393.208	660.69
393.433	656.69
393.658	676.69
393.882	662.69
394.107	661.69
394.331	683.69
394.556	667.69
394.78	677.69
395.005	692.69
395.229	675.69
395.454	715.69
395.678	688.69
395.903	699.69
396.127	695.69
396.352	681.69
396.576	647.69
396.801	677.69
397.025	690.69
397.249	703.69
397.474	694.69
397.698	713.69
397.922	724.69
398.147	717.69
398.371	724.69
398.595	744.69
398.82	767.69
399.044	800.69
399.268	874.69
399.492	938.69
399.717	1024.69
399.941	1065.69
400.165	982.69
400.389	911.69
400.613	873.69
400.837	824.69
401.062	821.69
401.286	777.69
401.51	782.69
401.734	775.69
401.958	790.69
402.182	824.69
402.406	790.69
402.63	791.69
402.854	816.69
403.078	814.69
403.302	812.69
403.526	860.69
403.75	848.69
403.974	828.69
404.198	830.69
404.422	853.69
404.645	857.69
404.869	833.69
405.093	852.69
405.317	827.69
405.541	856.69
405.765	843.69
405.988	859.69
406.212	835.69
406.436	824.69
406.66	879.69
406.883	899.69
407.107	913.69
407.331	966.69
407.555	982.69
407.778	1012.69
408.002	966.69
408.226	947.69
408.449	934.69
408.673	926.69
408.896	879.69
409.12	874.69
409.344	915.69
409.567	869.69
409.791	916.69
410.014	900.69
410.238	876.69
410.461	898.69
410.685	888.69
410.908	857.69
411.132	847.69
411.355	839.69
411.578	840.69
411.802	821.69
412.025	826.69
412.249	845.69
412.472	858.69
412.695	792.69
412.919	805.69
413.142	813.69
413.365	823.69
413.589	811.69
413.812	778.69
414.035	819.69
414.258	794.69
414.482	807.69
414.705	808.69
414.928	818.69
415.151	821.69
415.374	810.69
415.597	802.69
415.821	801.69
416.044	793.69
416.267	793.69
416.49	761.69
416.713	774.69
416.936	796.69
417.159	767.69
417.382	750.69
417.605	756.69
417.828	783.69
418.051	785.69
418.274	800.69
418.497	774.69
418.72	821.69
418.943	788.69
419.166	826.69
419.389	886.69
419.611	878.69
419.834	818.69
420.057	831.69
420.28	834.69
420.503	784.69
420.726	749.69
420.948	762.69
421.171	778.69
421.394	763.69
421.617	773.69
421.839	774.69
422.062	781.69
422.285	765.69
422.507	775.69
422.73	779.69
422.953	793.69
423.175	792.69
423.398	803.69
423.621	788.69
423.843	835.69
424.066	796.69
424.288	794.69
424.511	777.69
424.733	781.69
424.956	783.69
425.178	776.69
425.401	789.69
425.623	781.69
425.846	747.69
426.068	752.69
426.291	757.69
426.513	735.69
426.735	736.69
426.958	764.69
427.18	730.69
427.402	727.69
427.625	753.69
427.847	713.69
428.069	716.69
428.292	725.69
428.514	721.69
428.736	716.69
428.958	721.69
429.181	728.69
429.403	688.69
429.625	702.69
429.847	701.69
430.069	705.69
430.292	739.69
430.514	698.69
430.736	715.69
430.958	694.69
431.18	686.69
431.402	702.69
431.624	706.69
431.846	730.69
432.068	715.69
432.29	750.69
432.512	728.69
432.734	730.69
432.956	708.69
433.178	699.69
433.4	724.69
433.622	751.69
433.844	746.69
434.066	744.69
434.287	736.69
434.509	771.69
434.731	772.69
434.953	795.69
435.175	781.69
435.397	777.69
435.618	736.69
435.84	752.69
436.062	764.69
436.284	755.69
436.505	724.69
436.727	717.69
436.949	729.69
437.17	718.69
437.392	724.69
437.614	702.69
437.835	683.69
438.057	696.69
438.278	691.69
438.5	691.69
438.721	688.69
438.943	680.69
439.165	693.69
439.386	702.69
439.608	707.69
439.829	705.69
440.05	757.69
440.272	740.69
440.493	746.69
440.715	705.69
440.936	720.69
441.158	743.69
441.379	782.69
441.6	784.69
441.822	791.69
442.043	804.69
442.264	772.69
442.486	768.69
442.707	785.69
442.928	776.69
443.149	759.69
443.371	777.69
443.592	767.69
443.813	763.69
444.034	798.69
444.255	824.69
444.476	855.69
444.698	870.69
444.919	911.69
445.14	962.69
445.361	882.69
445.582	812.69
445.803	824.69
446.024	798.69
446.245	752.69
446.466	744.69
446.687	724.69
446.908	731.69
447.129	715.69
447.35	716.69
447.571	738.69
447.792	700.69
448.013	710.69
448.234	692.69
448.455	694.69
448.675	678.69
448.896	680.69
449.117	666.69
449.338	664.69
449.559	661.69
449.779	667.69
450	676.69
450.221	678.69
450.442	668.69
450.662	681.69
450.883	655.69
451.104	663.69
451.324	692.69
451.545	664.69
451.766	666.69
451.986	669.69
452.207	660.69
452.428	642.69
452.648	634.69
452.869	640.69
453.089	637.69
453.31	666.69
453.53	662.69
453.751	654.69
453.971	622.69
454.192	626.69
454.412	613.69
454.633	626.69
454.853	626.69
455.073	621.69
455.294	648.69
455.514	630.69
455.734	628.69
455.955	600.69
456.175	623.69
456.395	606.69
456.616	612.69
456.836	619.69
457.056	635.69
457.276	628.69
457.497	643.69
457.717	645.69
457.937	644.69
458.157	638.69
458.377	638.69
458.598	642.69
458.818	662.69
459.038	657.69
459.258	681.69
459.478	711.69
459.698	716.69
459.918	752.69
460.138	773.69
460.358	784.69
460.578	801.69
460.798	797.69
461.018	819.69
461.238	798.69
461.458	807.69
461.678	816.69
461.898	843.69
462.118	840.69
462.338	864.69
462.558	866.69
462.777	910.69
462.997	964.69
463.217	1011.69
463.437	998.69
463.657	975.69
463.876	938.69
464.096	935.69
464.316	913.69
464.536	905.69
464.755	899.69
464.975	896.69
465.195	819.69
465.414	814.69
465.634	767.69
465.854	747.69
466.073	747.69
466.293	722.69
466.512	698.69
466.732	715.69
466.951	698.69
467.171	728.69
467.391	713.69
467.61	687.69
467.829	692.69
468.049	703.69
468.268	664.69
468.488	652.69
468.707	678.69
468.927	663.69
469.146	654.69
469.365	688.69
469.585	668.69
469.804	709.69
470.023	668.69
470.243	692.69
470.462	699.69
470.681	709.69
470.901	720.69
471.12	694.69
471.339	669.69
471.558	690.69
471.777	669.69
471.997	678.69
472.216	669.69
472.435	660.69
472.654	620.69
472.873	633.69
473.092	636.69
473.311	648.69
473.53	659.69
473.749	678.69
473.968	647.69
474.187	656.69
474.406	673.69
474.625	668.69
474.844	645.69
475.063	635.69
475.282	660.69
475.501	634.69
475.72	675.69
475.939	656.69
476.158	682.69
476.377	671.69
476.596	677.69
476.814	688.69
477.033	688.69
477.252	683.69
477.471	715.69
477.69	725.69
477.908	723.69
478.127	737.69
478.346	746.69
478.564	750.69
478.783	788.69
479.002	782.69
479.22	775.69
479.439	767.69
479.658	784.69
479.876	764.69
480.095	805.69
480.313	808.69
480.532	820.69
480.751	816.69
480.969	795.69
481.188	771.69
481.406	754.69
481.624	752.69
481.843	730.69
482.061	744.69
482.28	750.69
482.498	729.69
482.717	749.69
482.935	724.69
483.153	744.69
483.372	721.69
483.59	731.69
483.808	734.69
484.027	718.69
484.245	735.69
484.463	736.69
484.681	747.69
484.9	749.69
485.118	748.69
485.336	774.69
485.554	786.69
485.772	779.69
485.99	774.69
486.209	780.69
486.427	782.69
486.645	765.69
486.863	770.69
487.081	772.69
487.299	782.69
487.517	760.69
487.735	784.69
487.953	798.69
488.171	778.69
488.389	760.69
488.607	764.69
488.825	750.69
489.043	730.69
489.261	743.69
489.479	769.69
489.696	739.69
489.914	760.69
490.132	779.69
490.35	770.69
490.568	748.69
490.786	777.69
491.003	777.69
491.221	797.69
491.439	764.69
491.657	792.69
491.874	801.69
492.092	782.69
492.31	794.69
492.527	775.69
492.745	797.69
492.963	778.69
493.18	815.69
493.398	791.69
493.615	805.69
493.833	803.69
494.05	823.69
494.268	821.69
494.485	810.69
494.703	825.69
494.92	837.69
495.138	819.69
495.355	828.69
495.573	810.69
495.79	821.69
496.008	840.69
496.225	830.69
496.442	851.69
496.66	829.69
496.877	850.69
497.094	870.69
497.312	878.69
497.529	917.69
497.746	952.69
497.963	959.69
498.181	1004.69
498.398	1044.69
498.615	1055.69
498.832	1127.69
499.049	1184.69
499.267	1270.69
499.484	1387.69
499.701	1474.69
499.918	1609.69
500.135	1744.69
500.352	1933.69
500.569	2006.69
500.786	1999.69
501.003	1886.69
501.22	1726.69
501.437	1612.69
