Data from Fe(NO3)3@0.0125M.TitratingCurve.Agarose3%dH2O.NegLispCup.LampEnergy10.LIBS07252019_HRD10591_17-00-43-337.txt Node
Date: Thu Jul 25 17:00:43 EDT 2019
User: cochatt
Spectrometer: HR+D1059
Trigger mode: 1
Integration Time (sec): 1.000000E-1
Scans to average: 1
Electric dark correction enabled: true
Nonlinearity correction enabled: false
Boxcar width: 0
XAxis mode: Wavelengths
Number of Pixels in Spectrum: 2048
>>>>>Begin Spectral Data<<<<<
223.165	-24.12
223.4	-24.12
223.635	-24.12
223.869	-7.12
224.104	-18.12
224.338	-18.12
224.573	-13.12
224.808	-11.12
225.042	-11.12
225.277	2.88
225.511	-2.12
225.746	2.88
225.98	3.88
226.215	27.88
226.449	7.88
226.683	17.88
226.918	14.88
227.152	26.88
227.387	32.88
227.621	38.88
227.856	48.88
228.09	57.88
228.324	46.88
228.559	60.88
228.793	50.88
229.027	73.88
229.262	75.88
229.496	87.88
229.73	94.88
229.964	81.88
230.199	101.88
230.433	90.88
230.667	101.88
230.901	93.88
231.136	102.88
231.37	85.88
231.604	86.88
231.838	90.88
232.072	111.88
232.306	108.88
232.541	109.88
232.775	97.88
233.009	104.88
233.243	106.88
233.477	101.88
233.711	89.88
233.945	108.88
234.179	103.88
234.413	102.88
234.647	106.88
234.881	116.88
235.115	97.88
235.349	97.88
235.583	118.88
235.817	109.88
236.051	122.88
236.285	109.88
236.519	105.88
236.753	114.88
236.987	114.88
237.221	103.88
237.455	101.88
237.689	107.88
237.922	117.88
238.156	114.88
238.39	109.88
238.624	118.88
238.858	116.88
239.091	112.88
239.325	108.88
239.559	99.88
239.793	104.88
240.027	111.88
240.26	117.88
240.494	127.88
240.728	120.88
240.961	110.88
241.195	128.88
241.429	106.88
241.662	131.88
241.896	115.88
242.13	126.88
242.363	124.88
242.597	119.88
242.83	118.88
243.064	119.88
243.298	116.88
243.531	127.88
243.765	141.88
243.998	118.88
244.232	119.88
244.465	132.88
244.699	118.88
244.932	126.88
245.166	122.88
245.399	120.88
245.633	109.88
245.866	128.88
246.099	123.88
246.333	136.88
246.566	125.88
246.8	138.88
247.033	115.88
247.266	128.88
247.5	134.88
247.733	126.88
247.966	119.88
248.2	131.88
248.433	130.88
248.666	156.88
248.899	142.88
249.133	140.88
249.366	143.88
249.599	153.88
249.832	129.88
250.066	137.88
250.299	123.88
250.532	135.88
250.765	134.88
250.998	150.88
251.231	136.88
251.465	144.88
251.698	132.88
251.931	131.88
252.164	130.88
252.397	143.88
252.63	131.88
252.863	156.88
253.096	137.88
253.329	136.88
253.562	144.88
253.795	132.88
254.028	153.88
254.261	154.88
254.494	136.88
254.727	150.88
254.96	162.88
255.193	155.88
255.426	142.88
255.659	144.88
255.892	138.88
256.124	130.88
256.357	145.88
256.59	170.88
256.823	159.88
257.056	152.88
257.289	162.88
257.521	146.88
257.754	159.88
257.987	166.88
258.22	148.88
258.452	149.88
258.685	151.88
258.918	171.88
259.151	171.88
259.383	162.88
259.616	171.88
259.849	150.88
260.081	166.88
260.314	180.88
260.547	167.88
260.779	154.88
261.012	182.88
261.244	173.88
261.477	166.88
261.71	163.88
261.942	176.88
262.175	168.88
262.407	158.88
262.64	165.88
262.872	184.88
263.105	188.88
263.337	180.88
263.57	183.88
263.802	169.88
264.035	159.88
264.267	165.88
264.499	162.88
264.732	176.88
264.964	164.88
265.197	178.88
265.429	156.88
265.661	167.88
265.894	166.88
266.126	175.88
266.358	158.88
266.591	180.88
266.823	171.88
267.055	183.88
267.287	191.88
267.52	175.88
267.752	174.88
267.984	167.88
268.216	171.88
268.448	167.88
268.681	180.88
268.913	187.88
269.145	177.88
269.377	172.88
269.609	191.88
269.841	200.88
270.073	176.88
270.306	195.88
270.538	190.88
270.77	193.88
271.002	193.88
271.234	185.88
271.466	208.88
271.698	191.88
271.93	187.88
272.162	182.88
272.394	190.88
272.626	181.88
272.858	183.88
273.09	202.88
273.322	184.88
273.553	201.88
273.785	206.88
274.017	216.88
274.249	233.88
274.481	208.88
274.713	221.88
274.945	225.88
275.176	222.88
275.408	222.88
275.64	221.88
275.872	221.88
276.104	205.88
276.335	202.88
276.567	196.88
276.799	196.88
277.031	216.88
277.262	215.88
277.494	211.88
277.726	197.88
277.957	198.88
278.189	200.88
278.421	216.88
278.652	228.88
278.884	235.88
279.115	195.88
279.347	209.88
279.579	213.88
279.81	202.88
280.042	211.88
280.273	221.88
280.505	199.88
280.736	191.88
280.968	200.88
281.199	213.88
281.431	218.88
281.662	212.88
281.894	222.88
282.125	216.88
282.356	220.88
282.588	216.88
282.819	222.88
283.051	217.88
283.282	237.88
283.513	243.88
283.745	223.88
283.976	205.88
284.207	208.88
284.439	224.88
284.67	221.88
284.901	231.88
285.132	220.88
285.364	202.88
285.595	238.88
285.826	223.88
286.057	237.88
286.288	216.88
286.52	233.88
286.751	222.88
286.982	210.88
287.213	236.88
287.444	227.88
287.675	250.88
287.906	225.88
288.138	250.88
288.369	245.88
288.6	243.88
288.831	235.88
289.062	251.88
289.293	244.88
289.524	221.88
289.755	235.88
289.986	244.88
290.217	239.88
290.448	242.88
290.679	238.88
290.91	235.88
291.141	236.88
291.371	239.88
291.602	238.88
291.833	234.88
292.064	239.88
292.295	232.88
292.526	260.88
292.757	242.88
292.987	238.88
293.218	253.88
293.449	239.88
293.68	247.88
293.91	223.88
294.141	236.88
294.372	240.88
294.603	246.88
294.833	226.88
295.064	247.88
295.295	258.88
295.525	235.88
295.756	263.88
295.987	247.88
296.217	249.88
296.448	232.88
296.679	248.88
296.909	243.88
297.14	268.88
297.37	248.88
297.601	266.88
297.831	268.88
298.062	251.88
298.292	264.88
298.523	251.88
298.753	268.88
298.984	246.88
299.214	266.88
299.445	263.88
299.675	268.88
299.905	274.88
300.136	275.88
300.366	254.88
300.597	252.88
300.827	271.88
301.057	255.88
301.288	277.88
301.518	270.88
301.748	266.88
301.979	277.88
302.209	272.88
302.439	280.88
302.669	276.88
302.9	266.88
303.13	265.88
303.36	274.88
303.59	275.88
303.82	282.88
304.051	265.88
304.281	278.88
304.511	272.88
304.741	281.88
304.971	280.88
305.201	267.88
305.431	271.88
305.661	284.88
305.891	282.88
306.121	291.88
306.352	283.88
306.582	282.88
306.812	288.88
307.042	280.88
307.272	267.88
307.502	278.88
307.731	289.88
307.961	290.88
308.191	265.88
308.421	275.88
308.651	271.88
308.881	278.88
309.111	281.88
309.341	278.88
309.571	282.88
309.8	283.88
310.03	283.88
310.26	277.88
310.49	296.88
310.72	281.88
310.949	295.88
311.179	285.88
311.409	271.88
311.639	281.88
311.868	289.88
312.098	281.88
312.328	291.88
312.557	281.88
312.787	290.88
313.017	286.88
313.246	290.88
313.476	285.88
313.706	288.88
313.935	294.88
314.165	308.88
314.394	271.88
314.624	296.88
314.853	295.88
315.083	312.88
315.312	304.88
315.542	293.88
315.771	306.88
316.001	310.88
316.23	318.88
316.46	313.88
316.689	307.88
316.919	298.88
317.148	303.88
317.377	302.88
317.607	339.88
317.836	315.88
318.065	303.88
318.295	311.88
318.524	290.88
318.753	290.88
318.983	304.88
319.212	316.88
319.441	297.88
319.67	301.88
319.9	309.88
320.129	315.88
320.358	329.88
320.587	321.88
320.816	302.88
321.046	308.88
321.275	318.88
321.504	297.88
321.733	306.88
321.962	316.88
322.191	308.88
322.42	295.88
322.649	318.88
322.878	311.88
323.108	327.88
323.337	316.88
323.566	330.88
323.795	331.88
324.024	322.88
324.253	331.88
324.482	343.88
324.71	349.88
324.939	343.88
325.168	329.88
325.397	320.88
325.626	326.88
325.855	333.88
326.084	347.88
326.313	332.88
326.542	317.88
326.77	333.88
326.999	331.88
327.228	331.88
327.457	323.88
327.686	338.88
327.914	332.88
328.143	317.88
328.372	335.88
328.6	342.88
328.829	334.88
329.058	340.88
329.287	322.88
329.515	322.88
329.744	338.88
329.972	353.88
330.201	336.88
330.43	344.88
330.658	333.88
330.887	344.88
331.115	363.88
331.344	350.88
331.572	347.88
331.801	359.88
332.03	349.88
332.258	353.88
332.486	360.88
332.715	349.88
332.943	362.88
333.172	371.88
333.4	374.88
333.629	359.88
333.857	366.88
334.085	366.88
334.314	346.88
334.542	375.88
334.771	378.88
334.999	363.88
335.227	374.88
335.455	376.88
335.684	408.88
335.912	377.88
336.14	363.88
336.369	377.88
336.597	382.88
336.825	390.88
337.053	375.88
337.281	378.88
337.51	375.88
337.738	352.88
337.966	366.88
338.194	370.88
338.422	370.88
338.65	357.88
338.878	379.88
339.106	355.88
339.334	370.88
339.562	354.88
339.79	382.88
340.018	356.88
340.246	356.88
340.474	362.88
340.702	359.88
340.93	354.88
341.158	360.88
341.386	341.88
341.614	356.88
341.842	365.88
342.07	343.88
342.298	362.88
342.526	364.88
342.754	357.88
342.981	363.88
343.209	371.88
343.437	379.88
343.665	371.88
343.893	383.88
344.12	375.88
344.348	371.88
344.576	370.88
344.804	370.88
345.031	379.88
345.259	367.88
345.487	362.88
345.714	353.88
345.942	360.88
346.17	349.88
346.397	378.88
346.625	346.88
346.853	383.88
347.08	342.88
347.308	359.88
347.535	342.88
347.763	368.88
347.99	361.88
348.218	351.88
348.445	334.88
348.673	359.88
348.9	351.88
349.128	370.88
349.355	366.88
349.583	363.88
349.81	351.88
350.037	330.88
350.265	339.88
350.492	353.88
350.72	350.88
350.947	346.88
351.174	324.88
351.402	337.88
351.629	349.88
351.856	361.88
352.083	344.88
352.311	345.88
352.538	360.88
352.765	342.88
352.992	342.88
353.22	357.88
353.447	332.88
353.674	334.88
353.901	346.88
354.128	335.88
354.355	347.88
354.583	328.88
354.81	348.88
355.037	352.88
355.264	348.88
355.491	336.88
355.718	387.88
355.945	341.88
356.172	357.88
356.399	355.88
356.626	340.88
356.853	365.88
357.08	343.88
357.307	355.88
357.534	354.88
357.761	346.88
357.988	349.88
358.215	355.88
358.441	367.88
358.668	345.88
358.895	348.88
359.122	352.88
359.349	349.88
359.576	351.88
359.802	357.88
360.029	358.88
360.256	355.88
360.483	363.88
360.709	369.88
360.936	370.88
361.163	360.88
361.39	340.88
361.616	347.88
361.843	358.88
362.07	367.88
362.296	374.88
362.523	357.88
362.749	357.88
362.976	347.88
363.203	358.88
363.429	354.88
363.656	361.88
363.882	360.88
364.109	352.88
364.335	353.88
364.562	336.88
364.788	364.88
365.015	359.88
365.241	365.88
365.468	341.88
365.694	378.88
365.92	372.88
366.147	349.88
366.373	361.88
366.599	372.88
366.826	356.88
367.052	372.88
367.278	378.88
367.505	382.88
367.731	374.88
367.957	362.88
368.184	373.88
368.41	359.88
368.636	368.88
368.862	355.88
369.089	360.88
369.315	364.88
369.541	361.88
369.767	388.88
369.993	356.88
370.219	367.88
370.445	376.88
370.672	362.88
370.898	373.88
371.124	390.88
371.35	405.88
371.576	363.88
371.802	364.88
372.028	393.88
372.254	367.88
372.48	392.88
372.706	386.88
372.932	380.88
373.158	388.88
373.384	394.88
373.61	379.88
373.835	402.88
374.061	395.88
374.287	391.88
374.513	392.88
374.739	389.88
374.965	387.88
375.191	389.88
375.416	382.88
375.642	381.88
375.868	391.88
376.094	387.88
376.319	379.88
376.545	386.88
376.771	410.88
376.997	374.88
377.222	370.88
377.448	370.88
377.674	380.88
377.899	376.88
378.125	388.88
378.35	383.88
378.576	395.88
378.802	375.88
379.027	377.88
379.253	386.88
379.478	379.88
379.704	358.88
379.929	396.88
380.155	378.88
380.38	386.88
380.606	396.88
380.831	405.88
381.057	408.88
381.282	391.88
381.507	376.88
381.733	389.88
381.958	389.88
382.184	400.88
382.409	397.88
382.634	395.88
382.86	401.88
383.085	392.88
383.31	399.88
383.535	414.88
383.761	404.88
383.986	421.88
384.211	427.88
384.436	412.88
384.662	392.88
384.887	414.88
385.112	415.88
385.337	415.88
385.562	423.88
385.787	434.88
386.013	430.88
386.238	442.88
386.463	429.88
386.688	452.88
386.913	428.88
387.138	414.88
387.363	432.88
387.588	420.88
387.813	438.88
388.038	436.88
388.263	438.88
388.488	429.88
388.713	438.88
388.938	422.88
389.163	435.88
389.387	440.88
389.612	410.88
389.837	438.88
390.062	431.88
390.287	427.88
390.512	460.88
390.736	430.88
390.961	435.88
391.186	436.88
391.411	446.88
391.636	460.88
391.86	450.88
392.085	440.88
392.31	451.88
392.534	431.88
392.759	469.88
392.984	448.88
393.208	470.88
393.433	466.88
393.658	459.88
393.882	440.88
394.107	429.88
394.331	458.88
394.556	440.88
394.78	437.88
395.005	448.88
395.229	466.88
395.454	467.88
395.678	460.88
395.903	447.88
396.127	453.88
396.352	466.88
396.576	462.88
396.801	489.88
397.025	479.88
397.249	470.88
397.474	472.88
397.698	491.88
397.922	500.88
398.147	470.88
398.371	477.88
398.595	511.88
398.82	493.88
399.044	515.88
399.268	532.88
399.492	546.88
399.717	540.88
399.941	555.88
400.165	550.88
400.389	542.88
400.613	551.88
400.837	532.88
401.062	518.88
401.286	514.88
401.51	512.88
401.734	504.88
401.958	506.88
402.182	503.88
402.406	517.88
402.63	504.88
402.854	506.88
403.078	512.88
403.302	507.88
403.526	510.88
403.75	506.88
403.974	520.88
404.198	500.88
404.422	504.88
404.645	526.88
404.869	524.88
405.093	520.88
405.317	536.88
405.541	512.88
405.765	530.88
405.988	520.88
406.212	546.88
406.436	547.88
406.66	535.88
406.883	525.88
407.107	563.88
407.331	564.88
407.555	589.88
407.778	576.88
408.002	572.88
408.226	581.88
408.449	559.88
408.673	573.88
408.896	575.88
409.12	541.88
409.344	550.88
409.567	538.88
409.791	552.88
410.014	546.88
410.238	547.88
410.461	534.88
410.685	540.88
410.908	550.88
411.132	548.88
411.355	542.88
411.578	517.88
411.802	537.88
412.025	522.88
412.249	519.88
412.472	513.88
412.695	524.88
412.919	504.88
413.142	526.88
413.365	540.88
413.589	522.88
413.812	502.88
414.035	525.88
414.258	517.88
414.482	508.88
414.705	507.88
414.928	509.88
415.151	512.88
415.374	492.88
415.597	496.88
415.821	490.88
416.044	483.88
416.267	485.88
416.49	495.88
416.713	511.88
416.936	482.88
417.159	462.88
417.382	495.88
417.605	481.88
417.828	505.88
418.051	487.88
418.274	482.88
418.497	476.88
418.72	519.88
418.943	490.88
419.166	486.88
419.389	536.88
419.611	525.88
419.834	493.88
420.057	505.88
420.28	503.88
420.503	475.88
420.726	491.88
420.948	479.88
421.171	493.88
421.394	479.88
421.617	490.88
421.839	495.88
422.062	478.88
422.285	488.88
422.507	503.88
422.73	502.88
422.953	478.88
423.175	488.88
423.398	486.88
423.621	493.88
423.843	482.88
424.066	493.88
424.288	476.88
424.511	467.88
424.733	494.88
424.956	459.88
425.178	463.88
425.401	480.88
425.623	466.88
425.846	484.88
426.068	500.88
426.291	487.88
426.513	502.88
426.735	491.88
426.958	508.88
427.18	481.88
427.402	458.88
427.625	467.88
427.847	467.88
428.069	467.88
428.292	493.88
428.514	467.88
428.736	464.88
428.958	467.88
429.181	462.88
429.403	467.88
429.625	463.88
429.847	484.88
430.069	476.88
430.292	483.88
430.514	462.88
430.736	486.88
430.958	495.88
431.18	479.88
431.402	509.88
431.624	486.88
431.846	466.88
432.068	490.88
432.29	495.88
432.512	490.88
432.734	507.88
432.956	488.88
433.178	466.88
433.4	480.88
433.622	473.88
433.844	473.88
434.066	477.88
434.287	467.88
434.509	460.88
434.731	466.88
434.953	480.88
435.175	479.88
435.397	490.88
435.618	487.88
435.84	471.88
436.062	456.88
436.284	463.88
436.505	446.88
436.727	478.88
436.949	464.88
437.17	455.88
437.392	464.88
437.614	461.88
437.835	450.88
438.057	468.88
438.278	454.88
438.5	464.88
438.721	451.88
438.943	470.88
439.165	466.88
439.386	466.88
439.608	461.88
439.829	463.88
440.05	454.88
440.272	500.88
440.493	477.88
440.715	477.88
440.936	476.88
441.158	476.88
441.379	478.88
441.6	484.88
441.822	495.88
442.043	477.88
442.264	479.88
442.486	452.88
442.707	477.88
442.928	469.88
443.149	482.88
443.371	464.88
443.592	495.88
443.813	484.88
444.034	493.88
444.255	495.88
444.476	482.88
444.698	514.88
444.919	506.88
445.14	580.88
445.361	544.88
445.582	495.88
445.803	485.88
446.024	476.88
446.245	491.88
446.466	479.88
446.687	477.88
446.908	460.88
447.129	452.88
447.35	452.88
447.571	451.88
447.792	435.88
448.013	460.88
448.234	461.88
448.455	443.88
448.675	447.88
448.896	444.88
449.117	439.88
449.338	445.88
449.559	442.88
449.779	448.88
450	438.88
450.221	416.88
450.442	427.88
450.662	439.88
450.883	450.88
451.104	455.88
451.324	447.88
451.545	456.88
451.766	448.88
451.986	440.88
452.207	436.88
452.428	455.88
452.648	450.88
452.869	440.88
453.089	421.88
453.31	426.88
453.53	451.88
453.751	415.88
453.971	423.88
454.192	432.88
454.412	427.88
454.633	423.88
454.853	435.88
455.073	440.88
455.294	436.88
455.514	412.88
455.734	407.88
455.955	436.88
456.175	418.88
456.395	436.88
456.616	434.88
456.836	427.88
457.056	433.88
457.276	428.88
457.497	441.88
457.717	426.88
457.937	427.88
458.157	450.88
458.377	423.88
458.598	460.88
458.818	436.88
459.038	466.88
459.258	451.88
459.478	464.88
459.698	465.88
459.918	480.88
460.138	479.88
460.358	485.88
460.578	494.88
460.798	492.88
461.018	494.88
461.238	495.88
461.458	498.88
461.678	511.88
461.898	524.88
462.118	512.88
462.338	519.88
462.558	548.88
462.777	533.88
462.997	532.88
463.217	562.88
463.437	555.88
463.657	518.88
463.876	547.88
464.096	546.88
464.316	538.88
464.536	528.88
464.755	530.88
464.975	521.88
465.195	515.88
465.414	489.88
465.634	480.88
465.854	488.88
466.073	494.88
466.293	484.88
466.512	470.88
466.732	480.88
466.951	465.88
467.171	471.88
467.391	472.88
467.61	461.88
467.829	468.88
468.049	470.88
468.268	487.88
468.488	455.88
468.707	457.88
468.927	476.88
469.146	476.88
469.365	475.88
469.585	468.88
469.804	481.88
470.023	456.88
470.243	466.88
470.462	485.88
470.681	472.88
470.901	472.88
471.12	465.88
471.339	462.88
471.558	485.88
471.777	458.88
471.997	481.88
472.216	485.88
472.435	452.88
472.654	485.88
472.873	476.88
473.092	470.88
473.311	461.88
473.53	472.88
473.749	468.88
473.968	464.88
474.187	464.88
474.406	471.88
474.625	474.88
474.844	492.88
475.063	477.88
475.282	501.88
475.501	472.88
475.72	503.88
475.939	492.88
476.158	491.88
476.377	511.88
476.596	492.88
476.814	505.88
477.033	521.88
477.252	501.88
477.471	515.88
477.69	531.88
477.908	500.88
478.127	511.88
478.346	544.88
478.564	543.88
478.783	550.88
479.002	543.88
479.22	550.88
479.439	552.88
479.658	550.88
479.876	531.88
480.095	558.88
480.313	554.88
480.532	540.88
480.751	561.88
480.969	551.88
481.188	557.88
481.406	572.88
481.624	562.88
481.843	566.88
482.061	543.88
482.28	555.88
482.498	556.88
482.717	569.88
482.935	558.88
483.153	574.88
483.372	572.88
483.59	564.88
483.808	550.88
484.027	528.88
484.245	568.88
484.463	548.88
484.681	572.88
484.9	587.88
485.118	573.88
485.336	560.88
485.554	568.88
485.772	575.88
485.99	578.88
486.209	574.88
486.427	555.88
486.645	570.88
486.863	566.88
487.081	595.88
487.299	589.88
487.517	603.88
487.735	592.88
487.953	585.88
488.171	590.88
488.389	559.88
488.607	588.88
488.825	557.88
489.043	548.88
489.261	579.88
489.479	593.88
489.696	578.88
489.914	598.88
490.132	589.88
490.35	569.88
490.568	575.88
490.786	574.88
491.003	579.88
491.221	580.88
491.439	592.88
491.657	585.88
491.874	615.88
492.092	600.88
492.31	584.88
492.527	598.88
492.745	590.88
492.963	591.88
493.18	599.88
493.398	587.88
493.615	591.88
493.833	598.88
494.05	599.88
494.268	609.88
494.485	616.88
494.703	592.88
494.92	599.88
495.138	632.88
495.355	632.88
495.573	634.88
495.79	620.88
496.008	615.88
496.225	654.88
496.442	632.88
496.66	619.88
496.877	640.88
497.094	642.88
497.312	644.88
497.529	661.88
497.746	679.88
497.963	695.88
498.181	690.88
498.398	713.88
498.615	742.88
498.832	745.88
499.049	788.88
499.267	808.88
499.484	840.88
499.701	832.88
499.918	847.88
500.135	892.88
500.352	920.88
500.569	919.88
500.786	966.88
501.003	900.88
501.22	903.88
501.437	848.88
501.654	831.88
501.871	806.88
