Data from Fe(NO3)3@0.1M.TitratingCurve.Agarose3%dH2O.NegLispCup.LampEnergy10.LIBS07252019_HRD10591_16-40-33-332.txt Node
Date: Thu Jul 25 16:40:33 EDT 2019
User: cochatt
Spectrometer: HR+D1059
Trigger mode: 1
Integration Time (sec): 1.000000E-1
Scans to average: 1
Electric dark correction enabled: true
Nonlinearity correction enabled: false
Boxcar width: 0
XAxis mode: Wavelengths
Number of Pixels in Spectrum: 2048
>>>>>Begin Spectral Data<<<<<
223.165	-13.44
223.4	-13.44
223.635	-13.44
223.869	-31.44
224.104	-13.44
224.338	2.56
224.573	-5.44
224.808	-13.44
225.042	-4.44
225.277	-14.44
225.511	1.56
225.746	4.56
225.98	16.56
226.215	11.56
226.449	11.56
226.683	7.56
226.918	18.56
227.152	21.56
227.387	34.56
227.621	40.56
227.856	51.56
228.09	43.56
228.324	52.56
228.559	44.56
228.793	41.56
229.027	67.56
229.262	74.56
229.496	64.56
229.73	61.56
229.964	84.56
230.199	68.56
230.433	97.56
230.667	106.56
230.901	90.56
231.136	94.56
231.37	102.56
231.604	90.56
231.838	83.56
232.072	96.56
232.306	86.56
232.541	89.56
232.775	86.56
233.009	96.56
233.243	101.56
233.477	83.56
233.711	100.56
233.945	102.56
234.179	84.56
234.413	105.56
234.647	98.56
234.881	98.56
235.115	94.56
235.349	97.56
235.583	105.56
235.817	93.56
236.051	87.56
236.285	90.56
236.519	93.56
236.753	95.56
236.987	91.56
237.221	88.56
237.455	89.56
237.689	94.56
237.922	75.56
238.156	93.56
238.39	87.56
238.624	100.56
238.858	99.56
239.091	101.56
239.325	81.56
239.559	90.56
239.793	98.56
240.027	104.56
240.26	103.56
240.494	102.56
240.728	103.56
240.961	99.56
241.195	99.56
241.429	103.56
241.662	97.56
241.896	88.56
242.13	92.56
242.363	93.56
242.597	98.56
242.83	97.56
243.064	99.56
243.298	99.56
243.531	120.56
243.765	97.56
243.998	111.56
244.232	111.56
244.465	105.56
244.699	93.56
244.932	78.56
245.166	113.56
245.399	106.56
245.633	101.56
245.866	116.56
246.099	118.56
246.333	116.56
246.566	104.56
246.8	106.56
247.033	101.56
247.266	107.56
247.5	103.56
247.733	101.56
247.966	107.56
248.2	111.56
248.433	99.56
248.666	93.56
248.899	107.56
249.133	120.56
249.366	98.56
249.599	113.56
249.832	102.56
250.066	122.56
250.299	114.56
250.532	103.56
250.765	108.56
250.998	99.56
251.231	104.56
251.465	104.56
251.698	106.56
251.931	114.56
252.164	118.56
252.397	123.56
252.63	121.56
252.863	122.56
253.096	125.56
253.329	122.56
253.562	118.56
253.795	123.56
254.028	133.56
254.261	114.56
254.494	119.56
254.727	125.56
254.96	134.56
255.193	131.56
255.426	119.56
255.659	113.56
255.892	121.56
256.124	121.56
256.357	115.56
256.59	122.56
256.823	137.56
257.056	110.56
257.289	122.56
257.521	125.56
257.754	122.56
257.987	114.56
258.22	109.56
258.452	121.56
258.685	143.56
258.918	134.56
259.151	107.56
259.383	128.56
259.616	128.56
259.849	131.56
260.081	147.56
260.314	122.56
260.547	126.56
260.779	125.56
261.012	131.56
261.244	125.56
261.477	130.56
261.71	131.56
261.942	131.56
262.175	134.56
262.407	131.56
262.64	143.56
262.872	125.56
263.105	131.56
263.337	129.56
263.57	123.56
263.802	133.56
264.035	136.56
264.267	146.56
264.499	137.56
264.732	138.56
264.964	135.56
265.197	147.56
265.429	131.56
265.661	142.56
265.894	140.56
266.126	126.56
266.358	140.56
266.591	142.56
266.823	147.56
267.055	130.56
267.287	153.56
267.52	128.56
267.752	123.56
267.984	147.56
268.216	139.56
268.448	149.56
268.681	139.56
268.913	133.56
269.145	137.56
269.377	147.56
269.609	139.56
269.841	147.56
270.073	144.56
270.306	143.56
270.538	127.56
270.77	135.56
271.002	135.56
271.234	151.56
271.466	137.56
271.698	138.56
271.93	150.56
272.162	134.56
272.394	163.56
272.626	151.56
272.858	172.56
273.09	154.56
273.322	161.56
273.553	158.56
273.785	145.56
274.017	147.56
274.249	151.56
274.481	147.56
274.713	149.56
274.945	148.56
275.176	152.56
275.408	154.56
275.64	142.56
275.872	146.56
276.104	140.56
276.335	163.56
276.567	157.56
276.799	154.56
277.031	166.56
277.262	147.56
277.494	168.56
277.726	162.56
277.957	150.56
278.189	149.56
278.421	156.56
278.652	149.56
278.884	144.56
279.115	151.56
279.347	151.56
279.579	150.56
279.81	163.56
280.042	157.56
280.273	155.56
280.505	161.56
280.736	144.56
280.968	165.56
281.199	150.56
281.431	166.56
281.662	168.56
281.894	173.56
282.125	155.56
282.356	174.56
282.588	173.56
282.819	160.56
283.051	165.56
283.282	156.56
283.513	158.56
283.745	172.56
283.976	169.56
284.207	172.56
284.439	150.56
284.67	161.56
284.901	193.56
285.132	159.56
285.364	155.56
285.595	178.56
285.826	163.56
286.057	171.56
286.288	149.56
286.52	169.56
286.751	182.56
286.982	181.56
287.213	175.56
287.444	172.56
287.675	177.56
287.906	163.56
288.138	174.56
288.369	158.56
288.6	180.56
288.831	181.56
289.062	173.56
289.293	172.56
289.524	173.56
289.755	185.56
289.986	169.56
290.217	173.56
290.448	197.56
290.679	173.56
290.91	186.56
291.141	172.56
291.371	157.56
291.602	181.56
291.833	186.56
292.064	179.56
292.295	186.56
292.526	174.56
292.757	181.56
292.987	185.56
293.218	187.56
293.449	186.56
293.68	195.56
293.91	190.56
294.141	193.56
294.372	177.56
294.603	174.56
294.833	193.56
295.064	196.56
295.295	206.56
295.525	183.56
295.756	190.56
295.987	186.56
296.217	195.56
296.448	183.56
296.679	183.56
296.909	185.56
297.14	188.56
297.37	201.56
297.601	183.56
297.831	183.56
298.062	199.56
298.292	183.56
298.523	193.56
298.753	196.56
298.984	190.56
299.214	204.56
299.445	193.56
299.675	192.56
299.905	210.56
300.136	197.56
300.366	185.56
300.597	194.56
300.827	206.56
301.057	216.56
301.288	202.56
301.518	193.56
301.748	214.56
301.979	212.56
302.209	222.56
302.439	213.56
302.669	198.56
302.9	199.56
303.13	188.56
303.36	203.56
303.59	221.56
303.82	215.56
304.051	198.56
304.281	199.56
304.511	210.56
304.741	211.56
304.971	202.56
305.201	201.56
305.431	198.56
305.661	205.56
305.891	217.56
306.121	196.56
306.352	201.56
306.582	201.56
306.812	203.56
307.042	219.56
307.272	211.56
307.502	198.56
307.731	189.56
307.961	196.56
308.191	188.56
308.421	196.56
308.651	194.56
308.881	205.56
309.111	215.56
309.341	197.56
309.571	203.56
309.8	213.56
310.03	213.56
310.26	202.56
310.49	196.56
310.72	198.56
310.949	202.56
311.179	207.56
311.409	210.56
311.639	196.56
311.868	220.56
312.098	215.56
312.328	208.56
312.557	215.56
312.787	218.56
313.017	214.56
313.246	216.56
313.476	214.56
313.706	211.56
313.935	195.56
314.165	214.56
314.394	223.56
314.624	222.56
314.853	214.56
315.083	227.56
315.312	236.56
315.542	211.56
315.771	207.56
316.001	203.56
316.23	206.56
316.46	204.56
316.689	216.56
316.919	211.56
317.148	219.56
317.377	233.56
317.607	215.56
317.836	217.56
318.065	223.56
318.295	218.56
318.524	206.56
318.753	216.56
318.983	223.56
319.212	205.56
319.441	208.56
319.67	234.56
319.9	218.56
320.129	213.56
320.358	225.56
320.587	214.56
320.816	212.56
321.046	204.56
321.275	216.56
321.504	236.56
321.733	219.56
321.962	232.56
322.191	217.56
322.42	224.56
322.649	225.56
322.878	215.56
323.108	217.56
323.337	223.56
323.566	214.56
323.795	213.56
324.024	232.56
324.253	217.56
324.482	232.56
324.71	237.56
324.939	230.56
325.168	234.56
325.397	222.56
325.626	225.56
325.855	230.56
326.084	238.56
326.313	237.56
326.542	236.56
326.77	229.56
326.999	258.56
327.228	233.56
327.457	227.56
327.686	232.56
327.914	237.56
328.143	241.56
328.372	245.56
328.6	242.56
328.829	241.56
329.058	243.56
329.287	241.56
329.515	229.56
329.744	244.56
329.972	248.56
330.201	239.56
330.43	227.56
330.658	248.56
330.887	232.56
331.115	245.56
331.344	241.56
331.572	258.56
331.801	252.56
332.03	267.56
332.258	242.56
332.486	270.56
332.715	277.56
332.943	287.56
333.172	292.56
333.4	294.56
333.629	301.56
333.857	285.56
334.085	299.56
334.314	294.56
334.542	262.56
334.771	287.56
334.999	309.56
335.227	286.56
335.455	277.56
335.684	292.56
335.912	281.56
336.14	284.56
336.369	277.56
336.597	273.56
336.825	288.56
337.053	274.56
337.281	287.56
337.51	277.56
337.738	261.56
337.966	250.56
338.194	259.56
338.422	270.56
338.65	254.56
338.878	254.56
339.106	265.56
339.334	249.56
339.562	263.56
339.79	259.56
340.018	231.56
340.246	251.56
340.474	258.56
340.702	252.56
340.93	270.56
341.158	258.56
341.386	245.56
341.614	253.56
341.842	224.56
342.07	252.56
342.298	243.56
342.526	246.56
342.754	232.56
342.981	257.56
343.209	241.56
343.437	281.56
343.665	283.56
343.893	297.56
344.12	292.56
344.348	275.56
344.576	275.56
344.804	262.56
345.031	255.56
345.259	257.56
345.487	252.56
345.714	264.56
345.942	233.56
346.17	259.56
346.397	250.56
346.625	244.56
346.853	258.56
347.08	244.56
347.308	254.56
347.535	245.56
347.763	243.56
347.99	261.56
348.218	237.56
348.445	261.56
348.673	243.56
348.9	232.56
349.128	244.56
349.355	244.56
349.583	238.56
349.81	257.56
350.037	239.56
350.265	254.56
350.492	260.56
350.72	255.56
350.947	228.56
351.174	238.56
351.402	226.56
351.629	223.56
351.856	234.56
352.083	235.56
352.311	232.56
352.538	245.56
352.765	245.56
352.992	227.56
353.22	231.56
353.447	233.56
353.674	236.56
353.901	224.56
354.128	228.56
354.355	250.56
354.583	223.56
354.81	259.56
355.037	247.56
355.264	251.56
355.491	245.56
355.718	231.56
355.945	238.56
356.172	246.56
356.399	243.56
356.626	251.56
356.853	232.56
357.08	262.56
357.307	243.56
357.534	234.56
357.761	259.56
357.988	248.56
358.215	251.56
358.441	255.56
358.668	235.56
358.895	235.56
359.122	254.56
359.349	258.56
359.576	232.56
359.802	251.56
360.029	238.56
360.256	257.56
360.483	237.56
360.709	225.56
360.936	237.56
361.163	247.56
361.39	242.56
361.616	267.56
361.843	244.56
362.07	234.56
362.296	264.56
362.523	271.56
362.749	252.56
362.976	255.56
363.203	247.56
363.429	264.56
363.656	230.56
363.882	241.56
364.109	241.56
364.335	248.56
364.562	254.56
364.788	242.56
365.015	254.56
365.241	250.56
365.468	244.56
365.694	242.56
365.92	254.56
366.147	267.56
366.373	253.56
366.599	254.56
366.826	249.56
367.052	249.56
367.278	251.56
367.505	237.56
367.731	262.56
367.957	242.56
368.184	263.56
368.41	261.56
368.636	252.56
368.862	262.56
369.089	248.56
369.315	263.56
369.541	269.56
369.767	251.56
369.993	263.56
370.219	261.56
370.445	254.56
370.672	253.56
370.898	258.56
371.124	254.56
371.35	254.56
371.576	278.56
371.802	271.56
372.028	260.56
372.254	268.56
372.48	272.56
372.706	281.56
372.932	266.56
373.158	270.56
373.384	247.56
373.61	286.56
373.835	280.56
374.061	277.56
374.287	283.56
374.513	265.56
374.739	274.56
374.965	294.56
375.191	296.56
375.416	270.56
375.642	286.56
375.868	266.56
376.094	293.56
376.319	264.56
376.545	267.56
376.771	262.56
376.997	265.56
377.222	269.56
377.448	271.56
377.674	258.56
377.899	264.56
378.125	259.56
378.35	263.56
378.576	268.56
378.802	275.56
379.027	261.56
379.253	259.56
379.478	279.56
379.704	277.56
379.929	272.56
380.155	269.56
380.38	289.56
380.606	285.56
380.831	258.56
381.057	279.56
381.282	262.56
381.507	261.56
381.733	280.56
381.958	271.56
382.184	263.56
382.409	295.56
382.634	271.56
382.86	263.56
383.085	269.56
383.31	281.56
383.535	305.56
383.761	301.56
383.986	296.56
384.211	304.56
384.436	300.56
384.662	318.56
384.887	303.56
385.112	320.56
385.337	317.56
385.562	304.56
385.787	310.56
386.013	308.56
386.238	301.56
386.463	310.56
386.688	303.56
386.913	293.56
387.138	300.56
387.363	310.56
387.588	319.56
387.813	323.56
388.038	310.56
388.263	301.56
388.488	319.56
388.713	306.56
388.938	341.56
389.163	305.56
389.387	306.56
389.612	293.56
389.837	281.56
390.062	318.56
390.287	333.56
390.512	306.56
390.736	330.56
390.961	319.56
391.186	317.56
391.411	334.56
391.636	335.56
391.86	354.56
392.085	373.56
392.31	350.56
392.534	330.56
392.759	330.56
392.984	322.56
393.208	316.56
393.433	317.56
393.658	326.56
393.882	330.56
394.107	326.56
394.331	344.56
394.556	310.56
394.78	322.56
395.005	327.56
395.229	338.56
395.454	355.56
395.678	356.56
395.903	333.56
396.127	326.56
396.352	337.56
396.576	332.56
396.801	328.56
397.025	335.56
397.249	338.56
397.474	336.56
397.698	345.56
397.922	355.56
398.147	360.56
398.371	354.56
398.595	375.56
398.82	385.56
399.044	391.56
399.268	441.56
399.492	474.56
399.717	498.56
399.941	474.56
400.165	447.56
400.389	418.56
400.613	398.56
400.837	384.56
401.062	390.56
401.286	371.56
401.51	378.56
401.734	376.56
401.958	387.56
402.182	396.56
402.406	371.56
402.63	398.56
402.854	391.56
403.078	393.56
403.302	404.56
403.526	410.56
403.75	415.56
403.974	407.56
404.198	404.56
404.422	401.56
404.645	411.56
404.869	407.56
405.093	399.56
405.317	409.56
405.541	403.56
405.765	397.56
405.988	402.56
406.212	381.56
406.436	394.56
406.66	411.56
406.883	420.56
407.107	439.56
407.331	439.56
407.555	451.56
407.778	461.56
408.002	445.56
408.226	426.56
408.449	419.56
408.673	434.56
408.896	423.56
409.12	421.56
409.344	404.56
409.567	396.56
409.791	390.56
410.014	407.56
410.238	399.56
410.461	391.56
410.685	398.56
410.908	406.56
411.132	388.56
411.355	382.56
411.578	405.56
411.802	369.56
412.025	407.56
412.249	393.56
412.472	401.56
412.695	378.56
412.919	399.56
413.142	393.56
413.365	385.56
413.589	388.56
413.812	379.56
414.035	385.56
414.258	385.56
414.482	403.56
414.705	385.56
414.928	392.56
415.151	386.56
415.374	365.56
415.597	389.56
415.821	394.56
416.044	376.56
416.267	387.56
416.49	368.56
416.713	355.56
416.936	380.56
417.159	371.56
417.382	382.56
417.605	374.56
417.828	375.56
418.051	394.56
418.274	395.56
418.497	385.56
418.72	383.56
418.943	392.56
419.166	394.56
419.389	416.56
419.611	391.56
419.834	383.56
420.057	377.56
420.28	382.56
420.503	375.56
420.726	371.56
420.948	353.56
421.171	365.56
421.394	382.56
421.617	391.56
421.839	383.56
422.062	379.56
422.285	365.56
422.507	369.56
422.73	378.56
422.953	366.56
423.175	377.56
423.398	412.56
423.621	387.56
423.843	387.56
424.066	378.56
424.288	385.56
424.511	393.56
424.733	377.56
424.956	387.56
425.178	381.56
425.401	387.56
425.623	389.56
425.846	388.56
426.068	371.56
426.291	379.56
426.513	367.56
426.735	358.56
426.958	359.56
427.18	379.56
427.402	369.56
427.625	350.56
427.847	343.56
428.069	338.56
428.292	367.56
428.514	350.56
428.736	361.56
428.958	347.56
429.181	332.56
429.403	341.56
429.625	330.56
429.847	315.56
430.069	311.56
430.292	349.56
430.514	339.56
430.736	342.56
430.958	329.56
431.18	342.56
431.402	360.56
431.624	356.56
431.846	356.56
432.068	343.56
432.29	323.56
432.512	349.56
432.734	355.56
432.956	348.56
433.178	369.56
433.4	371.56
433.622	350.56
433.844	369.56
434.066	366.56
434.287	353.56
434.509	382.56
434.731	371.56
434.953	375.56
435.175	371.56
435.397	380.56
435.618	372.56
435.84	366.56
436.062	345.56
436.284	343.56
436.505	345.56
436.727	343.56
436.949	356.56
437.17	343.56
437.392	346.56
437.614	343.56
437.835	355.56
438.057	348.56
438.278	346.56
438.5	338.56
438.721	350.56
438.943	373.56
439.165	342.56
439.386	367.56
439.608	347.56
439.829	363.56
440.05	358.56
440.272	385.56
440.493	385.56
440.715	378.56
440.936	359.56
441.158	379.56
441.379	385.56
441.6	393.56
441.822	388.56
442.043	397.56
442.264	382.56
442.486	383.56
442.707	383.56
442.928	391.56
443.149	399.56
443.371	372.56
443.592	380.56
443.813	395.56
444.034	397.56
444.255	408.56
444.476	413.56
444.698	445.56
444.919	453.56
445.14	551.56
445.361	481.56
445.582	413.56
445.803	386.56
446.024	389.56
446.245	373.56
446.466	404.56
446.687	379.56
446.908	377.56
447.129	371.56
447.35	356.56
447.571	373.56
447.792	335.56
448.013	345.56
448.234	342.56
448.455	345.56
448.675	357.56
448.896	335.56
449.117	333.56
449.338	325.56
449.559	364.56
449.779	333.56
450	342.56
450.221	326.56
450.442	339.56
450.662	336.56
450.883	339.56
451.104	358.56
451.324	334.56
451.545	324.56
451.766	334.56
451.986	344.56
452.207	340.56
452.428	348.56
452.648	335.56
452.869	332.56
453.089	333.56
453.31	317.56
453.53	335.56
453.751	326.56
453.971	321.56
454.192	328.56
454.412	325.56
454.633	313.56
454.853	323.56
455.073	307.56
455.294	318.56
455.514	314.56
455.734	310.56
455.955	328.56
456.175	296.56
456.395	302.56
456.616	331.56
456.836	306.56
457.056	298.56
457.276	325.56
457.497	318.56
457.717	305.56
457.937	321.56
458.157	314.56
458.377	324.56
458.598	347.56
458.818	321.56
459.038	318.56
459.258	321.56
459.478	344.56
459.698	328.56
459.918	356.56
460.138	386.56
460.358	399.56
460.578	397.56
460.798	415.56
461.018	375.56
461.238	396.56
461.458	393.56
461.678	392.56
461.898	426.56
462.118	400.56
462.338	438.56
462.558	445.56
462.777	459.56
462.997	450.56
463.217	485.56
463.437	472.56
463.657	468.56
463.876	439.56
464.096	441.56
464.316	441.56
464.536	437.56
464.755	429.56
464.975	424.56
465.195	409.56
465.414	378.56
465.634	373.56
465.854	379.56
466.073	365.56
466.293	353.56
466.512	356.56
466.732	336.56
466.951	339.56
467.171	342.56
467.391	335.56
467.61	354.56
467.829	340.56
468.049	355.56
468.268	329.56
468.488	335.56
468.707	328.56
468.927	331.56
469.146	351.56
469.365	355.56
469.585	339.56
469.804	358.56
470.023	355.56
470.243	342.56
470.462	350.56
470.681	337.56
470.901	348.56
471.12	361.56
471.339	361.56
471.558	332.56
471.777	331.56
471.997	331.56
472.216	352.56
472.435	363.56
472.654	318.56
472.873	321.56
473.092	329.56
473.311	319.56
473.53	344.56
473.749	328.56
473.968	323.56
474.187	315.56
474.406	303.56
474.625	335.56
474.844	334.56
475.063	319.56
475.282	305.56
475.501	314.56
475.72	316.56
475.939	327.56
476.158	334.56
476.377	327.56
476.596	335.56
476.814	343.56
477.033	350.56
477.252	334.56
477.471	347.56
477.69	348.56
477.908	370.56
478.127	378.56
478.346	364.56
478.564	377.56
478.783	387.56
479.002	396.56
479.22	387.56
479.439	387.56
479.658	381.56
479.876	378.56
480.095	383.56
480.313	375.56
480.532	390.56
480.751	376.56
480.969	382.56
481.188	374.56
481.406	374.56
481.624	351.56
481.843	377.56
482.061	340.56
482.28	335.56
482.498	359.56
482.717	354.56
482.935	351.56
483.153	350.56
483.372	376.56
483.59	349.56
483.808	367.56
484.027	370.56
484.245	373.56
484.463	369.56
484.681	367.56
484.9	361.56
485.118	369.56
485.336	346.56
485.554	371.56
485.772	358.56
485.99	374.56
486.209	360.56
486.427	359.56
486.645	351.56
486.863	366.56
487.081	370.56
487.299	370.56
487.517	359.56
487.735	380.56
487.953	391.56
488.171	375.56
488.389	387.56
488.607	369.56
488.825	379.56
489.043	369.56
489.261	369.56
489.479	386.56
489.696	379.56
489.914	376.56
490.132	371.56
490.35	366.56
490.568	391.56
490.786	379.56
491.003	363.56
491.221	387.56
491.439	399.56
491.657	370.56
491.874	410.56
492.092	401.56
492.31	396.56
492.527	379.56
492.745	384.56
492.963	398.56
493.18	403.56
493.398	391.56
493.615	403.56
493.833	397.56
494.05	385.56
494.268	425.56
494.485	399.56
494.703	394.56
494.92	394.56
495.138	403.56
495.355	378.56
495.573	399.56
495.79	399.56
496.008	397.56
496.225	389.56
496.442	397.56
496.66	410.56
496.877	428.56
497.094	421.56
497.312	445.56
497.529	427.56
497.746	430.56
497.963	466.56
498.181	473.56
498.398	466.56
498.615	509.56
498.832	515.56
499.049	552.56
499.267	578.56
499.484	626.56
499.701	667.56
499.918	742.56
500.135	812.56
500.352	894.56
500.569	905.56
500.786	910.56
501.003	852.56
501.22	787.56
501.437	714.56
501.654	645.56
501.871	613.56
502.088	567.56
502.305	523.56
