Data from Fe(NO3)3@0.1M.TitratingCurve.Agarose3%dH2O.NegLispCup.LampEnergy10.LIBS07252019_HRD10591_16-38-33-332.txt Node
Date: Thu Jul 25 16:38:33 EDT 2019
User: cochatt
Spectrometer: HR+D1059
Trigger mode: 1
Integration Time (sec): 1.000000E-1
Scans to average: 1
Electric dark correction enabled: true
Nonlinearity correction enabled: false
Boxcar width: 0
XAxis mode: Wavelengths
Number of Pixels in Spectrum: 2048
>>>>>Begin Spectral Data<<<<<
223.165	-25.94
223.4	-25.94
223.635	-25.94
223.869	-28.94
224.104	-6.94
224.338	-17.94
224.573	-8.94
224.808	0.06
225.042	-22.94
225.277	-9.94
225.511	3.06
225.746	3.06
225.98	6.06
226.215	9.06
226.449	15.06
226.683	19.06
226.918	23.06
227.152	43.06
227.387	29.06
227.621	36.06
227.856	42.06
228.09	33.06
228.324	47.06
228.559	61.06
228.793	43.06
229.027	71.06
229.262	72.06
229.496	76.06
229.73	89.06
229.964	85.06
230.199	73.06
230.433	93.06
230.667	84.06
230.901	86.06
231.136	87.06
231.37	102.06
231.604	97.06
231.838	94.06
232.072	100.06
232.306	95.06
232.541	95.06
232.775	94.06
233.009	89.06
233.243	92.06
233.477	83.06
233.711	95.06
233.945	118.06
234.179	109.06
234.413	96.06
234.647	106.06
234.881	81.06
235.115	84.06
235.349	113.06
235.583	90.06
235.817	94.06
236.051	93.06
236.285	88.06
236.519	89.06
236.753	97.06
236.987	89.06
237.221	97.06
237.455	99.06
237.689	98.06
237.922	93.06
238.156	89.06
238.39	86.06
238.624	92.06
238.858	92.06
239.091	97.06
239.325	92.06
239.559	100.06
239.793	92.06
240.027	94.06
240.26	103.06
240.494	108.06
240.728	99.06
240.961	115.06
241.195	85.06
241.429	100.06
241.662	97.06
241.896	92.06
242.13	107.06
242.363	86.06
242.597	107.06
242.83	101.06
243.064	96.06
243.298	97.06
243.531	101.06
243.765	95.06
243.998	103.06
244.232	105.06
244.465	110.06
244.699	101.06
244.932	108.06
245.166	101.06
245.399	116.06
245.633	103.06
245.866	91.06
246.099	108.06
246.333	114.06
246.566	97.06
246.8	100.06
247.033	118.06
247.266	106.06
247.5	119.06
247.733	119.06
247.966	105.06
248.2	117.06
248.433	109.06
248.666	125.06
248.899	116.06
249.133	97.06
249.366	102.06
249.599	106.06
249.832	109.06
250.066	114.06
250.299	115.06
250.532	110.06
250.765	114.06
250.998	113.06
251.231	115.06
251.465	110.06
251.698	110.06
251.931	125.06
252.164	120.06
252.397	118.06
252.63	124.06
252.863	115.06
253.096	115.06
253.329	126.06
253.562	104.06
253.795	110.06
254.028	114.06
254.261	116.06
254.494	129.06
254.727	120.06
254.96	117.06
255.193	114.06
255.426	113.06
255.659	118.06
255.892	131.06
256.124	124.06
256.357	127.06
256.59	126.06
256.823	106.06
257.056	137.06
257.289	116.06
257.521	127.06
257.754	121.06
257.987	117.06
258.22	131.06
258.452	129.06
258.685	132.06
258.918	126.06
259.151	124.06
259.383	143.06
259.616	116.06
259.849	124.06
260.081	130.06
260.314	116.06
260.547	133.06
260.779	125.06
261.012	144.06
261.244	121.06
261.477	134.06
261.71	133.06
261.942	127.06
262.175	139.06
262.407	133.06
262.64	133.06
262.872	124.06
263.105	143.06
263.337	129.06
263.57	134.06
263.802	127.06
264.035	130.06
264.267	129.06
264.499	125.06
264.732	135.06
264.964	139.06
265.197	123.06
265.429	141.06
265.661	142.06
265.894	137.06
266.126	125.06
266.358	133.06
266.591	133.06
266.823	133.06
267.055	136.06
267.287	133.06
267.52	134.06
267.752	139.06
267.984	149.06
268.216	128.06
268.448	127.06
268.681	139.06
268.913	142.06
269.145	132.06
269.377	139.06
269.609	142.06
269.841	134.06
270.073	150.06
270.306	142.06
270.538	142.06
270.77	126.06
271.002	133.06
271.234	142.06
271.466	139.06
271.698	135.06
271.93	148.06
272.162	137.06
272.394	131.06
272.626	139.06
272.858	130.06
273.09	155.06
273.322	164.06
273.553	133.06
273.785	147.06
274.017	140.06
274.249	143.06
274.481	137.06
274.713	150.06
274.945	155.06
275.176	143.06
275.408	138.06
275.64	126.06
275.872	149.06
276.104	167.06
276.335	149.06
276.567	140.06
276.799	143.06
277.031	156.06
277.262	153.06
277.494	158.06
277.726	161.06
277.957	154.06
278.189	137.06
278.421	131.06
278.652	148.06
278.884	156.06
279.115	156.06
279.347	150.06
279.579	151.06
279.81	159.06
280.042	157.06
280.273	139.06
280.505	153.06
280.736	139.06
280.968	151.06
281.199	153.06
281.431	151.06
281.662	158.06
281.894	152.06
282.125	157.06
282.356	157.06
282.588	163.06
282.819	173.06
283.051	165.06
283.282	153.06
283.513	164.06
283.745	165.06
283.976	166.06
284.207	163.06
284.439	168.06
284.67	164.06
284.901	156.06
285.132	149.06
285.364	179.06
285.595	173.06
285.826	149.06
286.057	158.06
286.288	163.06
286.52	162.06
286.751	162.06
286.982	157.06
287.213	166.06
287.444	160.06
287.675	162.06
287.906	162.06
288.138	172.06
288.369	163.06
288.6	168.06
288.831	166.06
289.062	170.06
289.293	165.06
289.524	169.06
289.755	178.06
289.986	167.06
290.217	163.06
290.448	170.06
290.679	165.06
290.91	179.06
291.141	170.06
291.371	162.06
291.602	185.06
291.833	149.06
292.064	168.06
292.295	187.06
292.526	167.06
292.757	155.06
292.987	159.06
293.218	172.06
293.449	177.06
293.68	163.06
293.91	163.06
294.141	184.06
294.372	177.06
294.603	165.06
294.833	151.06
295.064	173.06
295.295	182.06
295.525	185.06
295.756	174.06
295.987	187.06
296.217	171.06
296.448	169.06
296.679	153.06
296.909	168.06
297.14	190.06
297.37	191.06
297.601	188.06
297.831	185.06
298.062	173.06
298.292	187.06
298.523	185.06
298.753	198.06
298.984	171.06
299.214	179.06
299.445	181.06
299.675	186.06
299.905	164.06
300.136	172.06
300.366	184.06
300.597	181.06
300.827	196.06
301.057	178.06
301.288	187.06
301.518	180.06
301.748	198.06
301.979	168.06
302.209	190.06
302.439	182.06
302.669	184.06
302.9	184.06
303.13	186.06
303.36	192.06
303.59	170.06
303.82	187.06
304.051	183.06
304.281	185.06
304.511	163.06
304.741	193.06
304.971	194.06
305.201	177.06
305.431	165.06
305.661	202.06
305.891	183.06
306.121	193.06
306.352	167.06
306.582	188.06
306.812	189.06
307.042	183.06
307.272	173.06
307.502	186.06
307.731	187.06
307.961	186.06
308.191	171.06
308.421	165.06
308.651	187.06
308.881	193.06
309.111	178.06
309.341	192.06
309.571	188.06
309.8	189.06
310.03	206.06
310.26	186.06
310.49	183.06
310.72	185.06
310.949	192.06
311.179	170.06
311.409	181.06
311.639	191.06
311.868	182.06
312.098	192.06
312.328	182.06
312.557	187.06
312.787	185.06
313.017	181.06
313.246	189.06
313.476	191.06
313.706	181.06
313.935	204.06
314.165	207.06
314.394	191.06
314.624	190.06
314.853	173.06
315.083	186.06
315.312	193.06
315.542	187.06
315.771	187.06
316.001	198.06
316.23	203.06
316.46	193.06
316.689	170.06
316.919	193.06
317.148	179.06
317.377	191.06
317.607	191.06
317.836	164.06
318.065	175.06
318.295	184.06
318.524	190.06
318.753	207.06
318.983	201.06
319.212	184.06
319.441	199.06
319.67	189.06
319.9	199.06
320.129	201.06
320.358	209.06
320.587	199.06
320.816	195.06
321.046	198.06
321.275	199.06
321.504	200.06
321.733	171.06
321.962	190.06
322.191	194.06
322.42	191.06
322.649	186.06
322.878	205.06
323.108	199.06
323.337	201.06
323.566	193.06
323.795	175.06
324.024	197.06
324.253	187.06
324.482	201.06
324.71	210.06
324.939	221.06
325.168	197.06
325.397	188.06
325.626	194.06
325.855	221.06
326.084	202.06
326.313	205.06
326.542	215.06
326.77	210.06
326.999	181.06
327.228	215.06
327.457	206.06
327.686	205.06
327.914	210.06
328.143	219.06
328.372	192.06
328.6	196.06
328.829	204.06
329.058	204.06
329.287	217.06
329.515	197.06
329.744	220.06
329.972	213.06
330.201	227.06
330.43	214.06
330.658	205.06
330.887	211.06
331.115	219.06
331.344	217.06
331.572	214.06
331.801	228.06
332.03	226.06
332.258	223.06
332.486	214.06
332.715	226.06
332.943	227.06
333.172	233.06
333.4	234.06
333.629	264.06
333.857	257.06
334.085	251.06
334.314	265.06
334.542	234.06
334.771	239.06
334.999	244.06
335.227	245.06
335.455	234.06
335.684	239.06
335.912	226.06
336.14	228.06
336.369	252.06
336.597	242.06
336.825	249.06
337.053	229.06
337.281	229.06
337.51	224.06
337.738	217.06
337.966	227.06
338.194	223.06
338.422	230.06
338.65	200.06
338.878	220.06
339.106	215.06
339.334	210.06
339.562	226.06
339.79	217.06
340.018	221.06
340.246	218.06
340.474	224.06
340.702	211.06
340.93	231.06
341.158	220.06
341.386	221.06
341.614	209.06
341.842	211.06
342.07	220.06
342.298	215.06
342.526	214.06
342.754	217.06
342.981	209.06
343.209	208.06
343.437	218.06
343.665	227.06
343.893	246.06
344.12	243.06
344.348	229.06
344.576	245.06
344.804	233.06
345.031	215.06
345.259	220.06
345.487	223.06
345.714	221.06
345.942	216.06
346.17	210.06
346.397	204.06
346.625	183.06
346.853	211.06
347.08	194.06
347.308	198.06
347.535	205.06
347.763	193.06
347.99	195.06
348.218	195.06
348.445	207.06
348.673	201.06
348.9	210.06
349.128	192.06
349.355	193.06
349.583	197.06
349.81	197.06
350.037	202.06
350.265	207.06
350.492	210.06
350.72	209.06
350.947	214.06
351.174	209.06
351.402	205.06
351.629	198.06
351.856	200.06
352.083	203.06
352.311	196.06
352.538	189.06
352.765	215.06
352.992	185.06
353.22	205.06
353.447	197.06
353.674	214.06
353.901	215.06
354.128	204.06
354.355	193.06
354.583	193.06
354.81	194.06
355.037	207.06
355.264	177.06
355.491	194.06
355.718	206.06
355.945	204.06
356.172	211.06
356.399	210.06
356.626	205.06
356.853	213.06
357.08	213.06
357.307	200.06
357.534	205.06
357.761	211.06
357.988	210.06
358.215	215.06
358.441	214.06
358.668	208.06
358.895	195.06
359.122	184.06
359.349	189.06
359.576	204.06
359.802	205.06
360.029	199.06
360.256	203.06
360.483	205.06
360.709	219.06
360.936	204.06
361.163	200.06
361.39	203.06
361.616	198.06
361.843	209.06
362.07	205.06
362.296	210.06
362.523	198.06
362.749	196.06
362.976	213.06
363.203	200.06
363.429	190.06
363.656	206.06
363.882	201.06
364.109	195.06
364.335	213.06
364.562	215.06
364.788	198.06
365.015	200.06
365.241	194.06
365.468	199.06
365.694	212.06
365.92	206.06
366.147	185.06
366.373	199.06
366.599	198.06
366.826	217.06
367.052	209.06
367.278	204.06
367.505	216.06
367.731	204.06
367.957	200.06
368.184	201.06
368.41	190.06
368.636	205.06
368.862	213.06
369.089	200.06
369.315	205.06
369.541	212.06
369.767	217.06
369.993	202.06
370.219	196.06
370.445	207.06
370.672	212.06
370.898	219.06
371.124	225.06
371.35	215.06
371.576	226.06
371.802	216.06
372.028	237.06
372.254	234.06
372.48	217.06
372.706	220.06
372.932	238.06
373.158	206.06
373.384	233.06
373.61	230.06
373.835	218.06
374.061	211.06
374.287	229.06
374.513	221.06
374.739	229.06
374.965	244.06
375.191	253.06
375.416	238.06
375.642	253.06
375.868	230.06
376.094	234.06
376.319	227.06
376.545	243.06
376.771	219.06
376.997	217.06
377.222	228.06
377.448	222.06
377.674	220.06
377.899	233.06
378.125	226.06
378.35	232.06
378.576	206.06
378.802	229.06
379.027	221.06
379.253	235.06
379.478	217.06
379.704	214.06
379.929	215.06
380.155	222.06
380.38	212.06
380.606	218.06
380.831	213.06
381.057	228.06
381.282	230.06
381.507	223.06
381.733	236.06
381.958	230.06
382.184	236.06
382.409	227.06
382.634	243.06
382.86	231.06
383.085	243.06
383.31	244.06
383.535	261.06
383.761	248.06
383.986	251.06
384.211	261.06
384.436	259.06
384.662	261.06
384.887	260.06
385.112	278.06
385.337	266.06
385.562	269.06
385.787	250.06
386.013	285.06
386.238	262.06
386.463	280.06
386.688	271.06
386.913	252.06
387.138	254.06
387.363	256.06
387.588	247.06
387.813	256.06
388.038	255.06
388.263	277.06
388.488	277.06
388.713	270.06
388.938	275.06
389.163	285.06
389.387	262.06
389.612	265.06
389.837	279.06
390.062	255.06
390.287	286.06
390.512	256.06
390.736	267.06
390.961	257.06
391.186	268.06
391.411	291.06
391.636	285.06
391.86	281.06
392.085	301.06
392.31	299.06
392.534	294.06
392.759	287.06
392.984	291.06
393.208	281.06
393.433	292.06
393.658	261.06
393.882	276.06
394.107	302.06
394.331	288.06
394.556	296.06
394.78	298.06
395.005	296.06
395.229	280.06
395.454	303.06
395.678	321.06
395.903	289.06
396.127	293.06
396.352	296.06
396.576	287.06
396.801	296.06
397.025	271.06
397.249	295.06
397.474	323.06
397.698	297.06
397.922	323.06
398.147	312.06
398.371	295.06
398.595	321.06
398.82	336.06
399.044	343.06
399.268	380.06
399.492	407.06
399.717	481.06
399.941	459.06
400.165	413.06
400.389	383.06
400.613	352.06
400.837	329.06
401.062	329.06
401.286	347.06
401.51	326.06
401.734	327.06
401.958	329.06
402.182	356.06
402.406	330.06
402.63	343.06
402.854	341.06
403.078	340.06
403.302	364.06
403.526	353.06
403.75	345.06
403.974	366.06
404.198	381.06
404.422	369.06
404.645	365.06
404.869	363.06
405.093	355.06
405.317	339.06
405.541	360.06
405.765	362.06
405.988	370.06
406.212	365.06
406.436	362.06
406.66	364.06
406.883	370.06
407.107	401.06
407.331	417.06
407.555	411.06
407.778	405.06
408.002	398.06
408.226	401.06
408.449	396.06
408.673	383.06
408.896	379.06
409.12	381.06
409.344	373.06
409.567	355.06
409.791	386.06
410.014	352.06
410.238	355.06
410.461	359.06
410.685	344.06
410.908	345.06
411.132	365.06
411.355	330.06
411.578	354.06
411.802	339.06
412.025	364.06
412.249	351.06
412.472	354.06
412.695	322.06
412.919	338.06
413.142	339.06
413.365	360.06
413.589	353.06
413.812	320.06
414.035	341.06
414.258	346.06
414.482	339.06
414.705	370.06
414.928	356.06
415.151	341.06
415.374	330.06
415.597	330.06
415.821	337.06
416.044	334.06
416.267	337.06
416.49	340.06
416.713	314.06
416.936	333.06
417.159	316.06
417.382	318.06
417.605	323.06
417.828	337.06
418.051	335.06
418.274	363.06
418.497	334.06
418.72	345.06
418.943	342.06
419.166	377.06
419.389	397.06
419.611	379.06
419.834	358.06
420.057	325.06
420.28	347.06
420.503	323.06
420.726	346.06
420.948	338.06
421.171	347.06
421.394	339.06
421.617	343.06
421.839	327.06
422.062	349.06
422.285	309.06
422.507	347.06
422.73	337.06
422.953	356.06
423.175	345.06
423.398	353.06
423.621	350.06
423.843	356.06
424.066	357.06
424.288	358.06
424.511	351.06
424.733	360.06
424.956	334.06
425.178	373.06
425.401	314.06
425.623	347.06
425.846	323.06
426.068	330.06
426.291	309.06
426.513	326.06
426.735	321.06
426.958	322.06
427.18	317.06
427.402	290.06
427.625	300.06
427.847	323.06
428.069	305.06
428.292	313.06
428.514	318.06
428.736	299.06
428.958	303.06
429.181	289.06
429.403	296.06
429.625	286.06
429.847	294.06
430.069	286.06
430.292	299.06
430.514	305.06
430.736	301.06
430.958	317.06
431.18	287.06
431.402	313.06
431.624	300.06
431.846	305.06
432.068	305.06
432.29	307.06
432.512	309.06
432.734	307.06
432.956	310.06
433.178	313.06
433.4	301.06
433.622	317.06
433.844	315.06
434.066	311.06
434.287	311.06
434.509	321.06
434.731	321.06
434.953	339.06
435.175	353.06
435.397	328.06
435.618	312.06
435.84	313.06
436.062	289.06
436.284	305.06
436.505	302.06
436.727	321.06
436.949	306.06
437.17	308.06
437.392	310.06
437.614	297.06
437.835	313.06
438.057	291.06
438.278	300.06
438.5	283.06
438.721	290.06
438.943	303.06
439.165	305.06
439.386	305.06
439.608	300.06
439.829	323.06
440.05	311.06
440.272	331.06
440.493	309.06
440.715	316.06
440.936	314.06
441.158	334.06
441.379	319.06
441.6	330.06
441.822	332.06
442.043	343.06
442.264	316.06
442.486	334.06
442.707	339.06
442.928	334.06
443.149	339.06
443.371	343.06
443.592	351.06
443.813	365.06
444.034	354.06
444.255	337.06
444.476	374.06
444.698	397.06
444.919	401.06
445.14	492.06
445.361	411.06
445.582	354.06
445.803	328.06
446.024	317.06
446.245	314.06
446.466	326.06
446.687	330.06
446.908	309.06
447.129	297.06
447.35	314.06
447.571	307.06
447.792	287.06
448.013	291.06
448.234	296.06
448.455	290.06
448.675	291.06
448.896	306.06
449.117	273.06
449.338	286.06
449.559	310.06
449.779	286.06
450	296.06
450.221	297.06
450.442	285.06
450.662	292.06
450.883	306.06
451.104	310.06
451.324	298.06
451.545	306.06
451.766	287.06
451.986	269.06
452.207	290.06
452.428	286.06
452.648	279.06
452.869	296.06
453.089	264.06
453.31	283.06
453.53	271.06
453.751	294.06
453.971	281.06
454.192	270.06
454.412	272.06
454.633	279.06
454.853	284.06
455.073	295.06
455.294	281.06
455.514	255.06
455.734	265.06
455.955	279.06
456.175	260.06
456.395	273.06
456.616	280.06
456.836	266.06
457.056	277.06
457.276	264.06
457.497	279.06
457.717	289.06
457.937	281.06
458.157	276.06
458.377	281.06
458.598	278.06
458.818	266.06
459.038	293.06
459.258	293.06
459.478	294.06
459.698	325.06
459.918	324.06
460.138	330.06
460.358	346.06
460.578	346.06
460.798	350.06
461.018	359.06
461.238	350.06
461.458	359.06
461.678	349.06
461.898	353.06
462.118	354.06
462.338	356.06
462.558	397.06
462.777	386.06
462.997	440.06
463.217	448.06
463.437	443.06
463.657	408.06
463.876	403.06
464.096	411.06
464.316	404.06
464.536	417.06
464.755	389.06
464.975	387.06
465.195	370.06
465.414	349.06
465.634	334.06
465.854	329.06
466.073	313.06
466.293	324.06
466.512	312.06
466.732	305.06
466.951	308.06
467.171	290.06
467.391	310.06
467.61	292.06
467.829	299.06
468.049	298.06
468.268	297.06
468.488	291.06
468.707	298.06
468.927	285.06
469.146	288.06
469.365	287.06
469.585	290.06
469.804	322.06
470.023	306.06
470.243	305.06
470.462	312.06
470.681	320.06
470.901	310.06
471.12	301.06
471.339	287.06
471.558	287.06
471.777	282.06
471.997	295.06
472.216	291.06
472.435	292.06
472.654	289.06
472.873	274.06
473.092	291.06
473.311	294.06
473.53	286.06
473.749	285.06
473.968	293.06
474.187	283.06
474.406	289.06
474.625	274.06
474.844	269.06
475.063	300.06
475.282	283.06
475.501	290.06
475.72	289.06
475.939	276.06
476.158	299.06
476.377	298.06
476.596	298.06
476.814	294.06
477.033	296.06
477.252	306.06
477.471	304.06
477.69	310.06
477.908	303.06
478.127	318.06
478.346	334.06
478.564	331.06
478.783	337.06
479.002	345.06
479.22	328.06
479.439	336.06
479.658	340.06
479.876	325.06
480.095	346.06
480.313	356.06
480.532	349.06
480.751	359.06
480.969	337.06
481.188	320.06
481.406	343.06
481.624	323.06
481.843	315.06
482.061	312.06
482.28	311.06
482.498	328.06
482.717	321.06
482.935	319.06
483.153	316.06
483.372	330.06
483.59	315.06
483.808	319.06
484.027	295.06
484.245	317.06
484.463	317.06
484.681	317.06
484.9	309.06
485.118	337.06
485.336	323.06
485.554	327.06
485.772	327.06
485.99	322.06
486.209	315.06
486.427	318.06
486.645	359.06
486.863	334.06
487.081	323.06
487.299	313.06
487.517	331.06
487.735	345.06
487.953	331.06
488.171	329.06
488.389	341.06
488.607	316.06
488.825	317.06
489.043	323.06
489.261	298.06
489.479	317.06
489.696	299.06
489.914	321.06
490.132	335.06
490.35	333.06
490.568	328.06
490.786	311.06
491.003	327.06
491.221	331.06
491.439	311.06
491.657	355.06
491.874	338.06
492.092	335.06
492.31	334.06
492.527	342.06
492.745	343.06
492.963	336.06
493.18	334.06
493.398	362.06
493.615	342.06
493.833	326.06
494.05	351.06
494.268	337.06
494.485	342.06
494.703	341.06
494.92	339.06
495.138	334.06
495.355	352.06
495.573	358.06
495.79	358.06
496.008	360.06
496.225	335.06
496.442	347.06
496.66	361.06
496.877	357.06
497.094	378.06
497.312	388.06
497.529	378.06
497.746	382.06
497.963	407.06
498.181	413.06
498.398	416.06
498.615	454.06
498.832	457.06
499.049	498.06
499.267	533.06
499.484	566.06
499.701	627.06
499.918	689.06
500.135	773.06
500.352	875.06
500.569	898.06
500.786	874.06
501.003	828.06
501.22	739.06
501.437	661.06
501.654	598.06
501.871	550.06
502.088	506.06
502.305	491.06
