Data from Fe(NO3)3@0.1M.TitratingCurve.Agarose3%dH2O.NegLispCup.LampEnergy10.LIBS07252019_HRD10591_16-41-14-333.txt Node
Date: Thu Jul 25 16:41:14 EDT 2019
User: cochatt
Spectrometer: HR+D1059
Trigger mode: 1
Integration Time (sec): 1.000000E-1
Scans to average: 1
Electric dark correction enabled: true
Nonlinearity correction enabled: false
Boxcar width: 0
XAxis mode: Wavelengths
Number of Pixels in Spectrum: 2048
>>>>>Begin Spectral Data<<<<<
223.165	-16.19
223.4	-16.19
223.635	-16.19
223.869	-21.19
224.104	-21.19
224.338	-29.19
224.573	1.81
224.808	-13.19
225.042	-5.19
225.277	-6.19
225.511	0.81
225.746	0.81
225.98	4.81
226.215	11.81
226.449	4.81
226.683	25.81
226.918	33.81
227.152	27.81
227.387	24.81
227.621	49.81
227.856	43.81
228.09	34.81
228.324	55.81
228.559	51.81
228.793	66.81
229.027	72.81
229.262	71.81
229.496	89.81
229.73	81.81
229.964	72.81
230.199	83.81
230.433	90.81
230.667	80.81
230.901	72.81
231.136	80.81
231.37	85.81
231.604	84.81
231.838	85.81
232.072	83.81
232.306	85.81
232.541	85.81
232.775	89.81
233.009	90.81
233.243	88.81
233.477	90.81
233.711	90.81
233.945	107.81
234.179	109.81
234.413	89.81
234.647	91.81
234.881	89.81
235.115	90.81
235.349	85.81
235.583	78.81
235.817	84.81
236.051	102.81
236.285	69.81
236.519	91.81
236.753	99.81
236.987	84.81
237.221	92.81
237.455	103.81
237.689	96.81
237.922	77.81
238.156	92.81
238.39	77.81
238.624	90.81
238.858	76.81
239.091	97.81
239.325	87.81
239.559	100.81
239.793	87.81
240.027	85.81
240.26	78.81
240.494	92.81
240.728	83.81
240.961	99.81
241.195	114.81
241.429	85.81
241.662	96.81
241.896	101.81
242.13	88.81
242.363	78.81
242.597	74.81
242.83	100.81
243.064	100.81
243.298	89.81
243.531	100.81
243.765	100.81
243.998	95.81
244.232	85.81
244.465	92.81
244.699	84.81
244.932	72.81
245.166	91.81
245.399	89.81
245.633	105.81
245.866	89.81
246.099	91.81
246.333	76.81
246.566	90.81
246.8	100.81
247.033	96.81
247.266	107.81
247.5	108.81
247.733	101.81
247.966	99.81
248.2	97.81
248.433	93.81
248.666	102.81
248.899	103.81
249.133	112.81
249.366	113.81
249.599	98.81
249.832	99.81
250.066	115.81
250.299	112.81
250.532	108.81
250.765	119.81
250.998	114.81
251.231	113.81
251.465	113.81
251.698	105.81
251.931	115.81
252.164	102.81
252.397	110.81
252.63	112.81
252.863	101.81
253.096	102.81
253.329	113.81
253.562	82.81
253.795	116.81
254.028	133.81
254.261	111.81
254.494	106.81
254.727	119.81
254.96	105.81
255.193	119.81
255.426	103.81
255.659	116.81
255.892	86.81
256.124	101.81
256.357	121.81
256.59	119.81
256.823	115.81
257.056	111.81
257.289	115.81
257.521	104.81
257.754	115.81
257.987	106.81
258.22	99.81
258.452	121.81
258.685	121.81
258.918	111.81
259.151	118.81
259.383	111.81
259.616	121.81
259.849	109.81
260.081	124.81
260.314	127.81
260.547	112.81
260.779	109.81
261.012	122.81
261.244	113.81
261.477	121.81
261.71	105.81
261.942	129.81
262.175	118.81
262.407	117.81
262.64	127.81
262.872	114.81
263.105	115.81
263.337	129.81
263.57	125.81
263.802	124.81
264.035	123.81
264.267	125.81
264.499	124.81
264.732	117.81
264.964	125.81
265.197	127.81
265.429	117.81
265.661	131.81
265.894	124.81
266.126	125.81
266.358	126.81
266.591	129.81
266.823	131.81
267.055	107.81
267.287	123.81
267.52	119.81
267.752	123.81
267.984	125.81
268.216	124.81
268.448	120.81
268.681	115.81
268.913	120.81
269.145	118.81
269.377	121.81
269.609	139.81
269.841	127.81
270.073	134.81
270.306	121.81
270.538	128.81
270.77	122.81
271.002	124.81
271.234	132.81
271.466	139.81
271.698	119.81
271.93	131.81
272.162	131.81
272.394	127.81
272.626	129.81
272.858	144.81
273.09	143.81
273.322	126.81
273.553	124.81
273.785	128.81
274.017	129.81
274.249	124.81
274.481	125.81
274.713	130.81
274.945	139.81
275.176	134.81
275.408	146.81
275.64	123.81
275.872	121.81
276.104	131.81
276.335	139.81
276.567	124.81
276.799	140.81
277.031	136.81
277.262	139.81
277.494	145.81
277.726	127.81
277.957	126.81
278.189	123.81
278.421	135.81
278.652	147.81
278.884	140.81
279.115	135.81
279.347	157.81
279.579	151.81
279.81	147.81
280.042	138.81
280.273	134.81
280.505	135.81
280.736	145.81
280.968	136.81
281.199	152.81
281.431	150.81
281.662	140.81
281.894	164.81
282.125	153.81
282.356	147.81
282.588	157.81
282.819	145.81
283.051	146.81
283.282	146.81
283.513	147.81
283.745	148.81
283.976	139.81
284.207	139.81
284.439	152.81
284.67	156.81
284.901	151.81
285.132	147.81
285.364	156.81
285.595	157.81
285.826	155.81
286.057	153.81
286.288	157.81
286.52	154.81
286.751	152.81
286.982	158.81
287.213	146.81
287.444	142.81
287.675	144.81
287.906	161.81
288.138	160.81
288.369	161.81
288.6	150.81
288.831	148.81
289.062	162.81
289.293	152.81
289.524	160.81
289.755	146.81
289.986	167.81
290.217	149.81
290.448	168.81
290.679	168.81
290.91	167.81
291.141	167.81
291.371	163.81
291.602	144.81
291.833	139.81
292.064	161.81
292.295	140.81
292.526	163.81
292.757	174.81
292.987	149.81
293.218	161.81
293.449	159.81
293.68	161.81
293.91	145.81
294.141	152.81
294.372	155.81
294.603	175.81
294.833	163.81
295.064	169.81
295.295	157.81
295.525	167.81
295.756	155.81
295.987	148.81
296.217	163.81
296.448	173.81
296.679	167.81
296.909	173.81
297.14	173.81
297.37	187.81
297.601	167.81
297.831	158.81
298.062	159.81
298.292	176.81
298.523	176.81
298.753	162.81
298.984	170.81
299.214	162.81
299.445	173.81
299.675	171.81
299.905	160.81
300.136	171.81
300.366	170.81
300.597	166.81
300.827	162.81
301.057	180.81
301.288	159.81
301.518	175.81
301.748	166.81
301.979	176.81
302.209	167.81
302.439	183.81
302.669	177.81
302.9	162.81
303.13	159.81
303.36	185.81
303.59	174.81
303.82	189.81
304.051	178.81
304.281	179.81
304.511	192.81
304.741	179.81
304.971	161.81
305.201	183.81
305.431	178.81
305.661	171.81
305.891	168.81
306.121	179.81
306.352	181.81
306.582	172.81
306.812	170.81
307.042	176.81
307.272	168.81
307.502	177.81
307.731	191.81
307.961	168.81
308.191	177.81
308.421	175.81
308.651	179.81
308.881	170.81
309.111	161.81
309.341	180.81
309.571	183.81
309.8	171.81
310.03	164.81
310.26	166.81
310.49	159.81
310.72	179.81
310.949	175.81
311.179	179.81
311.409	187.81
311.639	178.81
311.868	200.81
312.098	176.81
312.328	186.81
312.557	196.81
312.787	176.81
313.017	180.81
313.246	168.81
313.476	183.81
313.706	159.81
313.935	198.81
314.165	186.81
314.394	176.81
314.624	179.81
314.853	186.81
315.083	196.81
315.312	189.81
315.542	184.81
315.771	185.81
316.001	175.81
316.23	190.81
316.46	179.81
316.689	189.81
316.919	184.81
317.148	197.81
317.377	184.81
317.607	196.81
317.836	177.81
318.065	191.81
318.295	205.81
318.524	186.81
318.753	168.81
318.983	185.81
319.212	180.81
319.441	191.81
319.67	179.81
319.9	167.81
320.129	180.81
320.358	184.81
320.587	176.81
320.816	191.81
321.046	166.81
321.275	167.81
321.504	184.81
321.733	169.81
321.962	169.81
322.191	194.81
322.42	195.81
322.649	189.81
322.878	191.81
323.108	184.81
323.337	185.81
323.566	178.81
323.795	188.81
324.024	186.81
324.253	200.81
324.482	184.81
324.71	183.81
324.939	184.81
325.168	180.81
325.397	185.81
325.626	188.81
325.855	193.81
326.084	192.81
326.313	198.81
326.542	208.81
326.77	189.81
326.999	198.81
327.228	200.81
327.457	203.81
327.686	205.81
327.914	200.81
328.143	182.81
328.372	165.81
328.6	188.81
328.829	184.81
329.058	196.81
329.287	215.81
329.515	191.81
329.744	210.81
329.972	193.81
330.201	208.81
330.43	208.81
330.658	222.81
330.887	200.81
331.115	203.81
331.344	212.81
331.572	197.81
331.801	202.81
332.03	216.81
332.258	214.81
332.486	221.81
332.715	215.81
332.943	232.81
333.172	234.81
333.4	240.81
333.629	259.81
333.857	242.81
334.085	235.81
334.314	240.81
334.542	251.81
334.771	235.81
334.999	229.81
335.227	228.81
335.455	223.81
335.684	223.81
335.912	228.81
336.14	220.81
336.369	229.81
336.597	235.81
336.825	230.81
337.053	220.81
337.281	216.81
337.51	231.81
337.738	213.81
337.966	219.81
338.194	211.81
338.422	209.81
338.65	211.81
338.878	227.81
339.106	216.81
339.334	219.81
339.562	223.81
339.79	198.81
340.018	206.81
340.246	205.81
340.474	202.81
340.702	187.81
340.93	209.81
341.158	209.81
341.386	208.81
341.614	200.81
341.842	200.81
342.07	213.81
342.298	211.81
342.526	211.81
342.754	217.81
342.981	205.81
343.209	211.81
343.437	213.81
343.665	232.81
343.893	235.81
344.12	215.81
344.348	224.81
344.576	224.81
344.804	211.81
345.031	229.81
345.259	204.81
345.487	194.81
345.714	210.81
345.942	198.81
346.17	191.81
346.397	197.81
346.625	193.81
346.853	214.81
347.08	204.81
347.308	215.81
347.535	206.81
347.763	199.81
347.99	192.81
348.218	195.81
348.445	206.81
348.673	217.81
348.9	194.81
349.128	196.81
349.355	216.81
349.583	205.81
349.81	209.81
350.037	205.81
350.265	189.81
350.492	210.81
350.72	205.81
350.947	205.81
351.174	182.81
351.402	201.81
351.629	204.81
351.856	181.81
352.083	195.81
352.311	185.81
352.538	186.81
352.765	195.81
352.992	199.81
353.22	179.81
353.447	193.81
353.674	185.81
353.901	203.81
354.128	199.81
354.355	193.81
354.583	187.81
354.81	203.81
355.037	203.81
355.264	191.81
355.491	184.81
355.718	203.81
355.945	211.81
356.172	197.81
356.399	204.81
356.626	208.81
356.853	197.81
357.08	199.81
357.307	210.81
357.534	196.81
357.761	191.81
357.988	203.81
358.215	208.81
358.441	185.81
358.668	209.81
358.895	198.81
359.122	191.81
359.349	188.81
359.576	194.81
359.802	188.81
360.029	211.81
360.256	196.81
360.483	191.81
360.709	216.81
360.936	218.81
361.163	209.81
361.39	192.81
361.616	185.81
361.843	179.81
362.07	212.81
362.296	197.81
362.523	202.81
362.749	202.81
362.976	189.81
363.203	211.81
363.429	187.81
363.656	201.81
363.882	188.81
364.109	194.81
364.335	188.81
364.562	183.81
364.788	195.81
365.015	198.81
365.241	211.81
365.468	192.81
365.694	181.81
365.92	220.81
366.147	195.81
366.373	184.81
366.599	205.81
366.826	196.81
367.052	201.81
367.278	193.81
367.505	193.81
367.731	200.81
367.957	195.81
368.184	183.81
368.41	203.81
368.636	202.81
368.862	217.81
369.089	207.81
369.315	205.81
369.541	198.81
369.767	218.81
369.993	224.81
370.219	197.81
370.445	209.81
370.672	211.81
370.898	213.81
371.124	219.81
371.35	213.81
371.576	216.81
371.802	220.81
372.028	205.81
372.254	213.81
372.48	211.81
372.706	204.81
372.932	219.81
373.158	200.81
373.384	234.81
373.61	217.81
373.835	211.81
374.061	198.81
374.287	221.81
374.513	212.81
374.739	221.81
374.965	229.81
375.191	231.81
375.416	231.81
375.642	219.81
375.868	233.81
376.094	230.81
376.319	229.81
376.545	209.81
376.771	218.81
376.997	225.81
377.222	216.81
377.448	231.81
377.674	216.81
377.899	221.81
378.125	220.81
378.35	199.81
378.576	225.81
378.802	223.81
379.027	193.81
379.253	222.81
379.478	223.81
379.704	216.81
379.929	220.81
380.155	196.81
380.38	199.81
380.606	210.81
380.831	232.81
381.057	221.81
381.282	212.81
381.507	226.81
381.733	227.81
381.958	224.81
382.184	203.81
382.409	216.81
382.634	225.81
382.86	235.81
383.085	243.81
383.31	239.81
383.535	225.81
383.761	233.81
383.986	232.81
384.211	246.81
384.436	237.81
384.662	253.81
384.887	261.81
385.112	253.81
385.337	240.81
385.562	241.81
385.787	244.81
386.013	248.81
386.238	271.81
386.463	250.81
386.688	258.81
386.913	246.81
387.138	244.81
387.363	234.81
387.588	237.81
387.813	260.81
388.038	248.81
388.263	235.81
388.488	234.81
388.713	243.81
388.938	245.81
389.163	250.81
389.387	240.81
389.612	236.81
389.837	251.81
390.062	257.81
390.287	261.81
390.512	244.81
390.736	257.81
390.961	236.81
391.186	263.81
391.411	269.81
391.636	266.81
391.86	292.81
392.085	290.81
392.31	287.81
392.534	266.81
392.759	261.81
392.984	275.81
393.208	274.81
393.433	266.81
393.658	257.81
393.882	261.81
394.107	254.81
394.331	259.81
394.556	277.81
394.78	261.81
395.005	261.81
395.229	280.81
395.454	271.81
395.678	294.81
395.903	279.81
396.127	270.81
396.352	269.81
396.576	285.81
396.801	267.81
397.025	293.81
397.249	273.81
397.474	280.81
397.698	269.81
397.922	278.81
398.147	264.81
398.371	271.81
398.595	287.81
398.82	289.81
399.044	310.81
399.268	345.81
399.492	387.81
399.717	407.81
399.941	413.81
400.165	379.81
400.389	338.81
400.613	308.81
400.837	311.81
401.062	303.81
401.286	301.81
401.51	303.81
401.734	309.81
401.958	312.81
402.182	308.81
402.406	312.81
402.63	325.81
402.854	321.81
403.078	323.81
403.302	337.81
403.526	339.81
403.75	342.81
403.974	344.81
404.198	345.81
404.422	339.81
404.645	334.81
404.869	327.81
405.093	311.81
405.317	325.81
405.541	326.81
405.765	319.81
405.988	329.81
406.212	336.81
406.436	317.81
406.66	320.81
406.883	353.81
407.107	371.81
407.331	377.81
407.555	362.81
407.778	367.81
408.002	385.81
408.226	332.81
408.449	351.81
408.673	354.81
408.896	332.81
409.12	335.81
409.344	328.81
409.567	307.81
409.791	330.81
410.014	341.81
410.238	342.81
410.461	320.81
410.685	335.81
410.908	329.81
411.132	319.81
411.355	320.81
411.578	316.81
411.802	299.81
412.025	313.81
412.249	317.81
412.472	309.81
412.695	300.81
412.919	295.81
413.142	295.81
413.365	305.81
413.589	300.81
413.812	308.81
414.035	319.81
414.258	321.81
414.482	311.81
414.705	319.81
414.928	314.81
415.151	315.81
415.374	290.81
415.597	316.81
415.821	299.81
416.044	305.81
416.267	298.81
416.49	292.81
416.713	313.81
416.936	314.81
417.159	302.81
417.382	308.81
417.605	280.81
417.828	309.81
418.051	321.81
418.274	303.81
418.497	304.81
418.72	314.81
418.943	337.81
419.166	321.81
419.389	337.81
419.611	352.81
419.834	298.81
420.057	311.81
420.28	313.81
420.503	319.81
420.726	299.81
420.948	319.81
421.171	296.81
421.394	294.81
421.617	305.81
421.839	311.81
422.062	330.81
422.285	314.81
422.507	288.81
422.73	322.81
422.953	329.81
423.175	312.81
423.398	321.81
423.621	316.81
423.843	347.81
424.066	329.81
424.288	304.81
424.511	308.81
424.733	332.81
424.956	319.81
425.178	313.81
425.401	309.81
425.623	294.81
425.846	297.81
426.068	309.81
426.291	295.81
426.513	277.81
426.735	291.81
426.958	292.81
427.18	280.81
427.402	314.81
427.625	309.81
427.847	281.81
428.069	282.81
428.292	289.81
428.514	293.81
428.736	303.81
428.958	272.81
429.181	258.81
429.403	285.81
429.625	276.81
429.847	287.81
430.069	286.81
430.292	283.81
430.514	273.81
430.736	291.81
430.958	281.81
431.18	279.81
431.402	280.81
431.624	289.81
431.846	277.81
432.068	293.81
432.29	293.81
432.512	282.81
432.734	272.81
432.956	291.81
433.178	281.81
433.4	287.81
433.622	301.81
433.844	293.81
434.066	280.81
434.287	309.81
434.509	293.81
434.731	310.81
434.953	303.81
435.175	297.81
435.397	319.81
435.618	275.81
435.84	281.81
436.062	294.81
436.284	299.81
436.505	287.81
436.727	311.81
436.949	294.81
437.17	279.81
437.392	285.81
437.614	274.81
437.835	275.81
438.057	267.81
438.278	275.81
438.5	288.81
438.721	289.81
438.943	281.81
439.165	284.81
439.386	284.81
439.608	305.81
439.829	298.81
440.05	291.81
440.272	293.81
440.493	299.81
440.715	307.81
440.936	313.81
441.158	322.81
441.379	303.81
441.6	332.81
441.822	332.81
442.043	327.81
442.264	330.81
442.486	319.81
442.707	335.81
442.928	325.81
443.149	332.81
443.371	301.81
443.592	314.81
443.813	307.81
444.034	324.81
444.255	339.81
444.476	345.81
444.698	359.81
444.919	359.81
445.14	428.81
445.361	389.81
445.582	361.81
445.803	338.81
446.024	339.81
446.245	311.81
446.466	317.81
446.687	301.81
446.908	316.81
447.129	297.81
447.35	285.81
447.571	326.81
447.792	294.81
448.013	290.81
448.234	285.81
448.455	287.81
448.675	303.81
448.896	272.81
449.117	290.81
449.338	277.81
449.559	294.81
449.779	277.81
450	292.81
450.221	288.81
450.442	295.81
450.662	296.81
450.883	284.81
451.104	290.81
451.324	281.81
451.545	282.81
451.766	274.81
451.986	288.81
452.207	281.81
452.428	288.81
452.648	290.81
452.869	267.81
453.089	271.81
453.31	269.81
453.53	255.81
453.751	281.81
453.971	271.81
454.192	256.81
454.412	257.81
454.633	261.81
454.853	269.81
455.073	264.81
455.294	270.81
455.514	276.81
455.734	270.81
455.955	254.81
456.175	259.81
456.395	260.81
456.616	263.81
456.836	255.81
457.056	258.81
457.276	269.81
457.497	264.81
457.717	252.81
457.937	265.81
458.157	256.81
458.377	261.81
458.598	250.81
458.818	251.81
459.038	268.81
459.258	253.81
459.478	295.81
459.698	288.81
459.918	310.81
460.138	325.81
460.358	337.81
460.578	355.81
460.798	319.81
461.018	312.81
461.238	347.81
461.458	301.81
461.678	323.81
461.898	329.81
462.118	319.81
462.338	346.81
462.558	342.81
462.777	360.81
462.997	390.81
463.217	409.81
463.437	385.81
463.657	392.81
463.876	375.81
464.096	361.81
464.316	354.81
464.536	368.81
464.755	357.81
464.975	340.81
465.195	328.81
465.414	289.81
465.634	297.81
465.854	296.81
466.073	299.81
466.293	313.81
466.512	283.81
466.732	281.81
466.951	290.81
467.171	285.81
467.391	283.81
467.61	284.81
467.829	277.81
468.049	295.81
468.268	274.81
468.488	284.81
468.707	284.81
468.927	285.81
469.146	278.81
469.365	298.81
469.585	301.81
469.804	297.81
470.023	283.81
470.243	299.81
470.462	313.81
470.681	296.81
470.901	309.81
471.12	279.81
471.339	290.81
471.558	283.81
471.777	294.81
471.997	305.81
472.216	273.81
472.435	260.81
472.654	277.81
472.873	268.81
473.092	273.81
473.311	268.81
473.53	280.81
473.749	273.81
473.968	273.81
474.187	269.81
474.406	282.81
474.625	270.81
474.844	260.81
475.063	267.81
475.282	264.81
475.501	273.81
475.72	265.81
475.939	276.81
476.158	275.81
476.377	270.81
476.596	301.81
476.814	282.81
477.033	276.81
477.252	270.81
477.471	295.81
477.69	282.81
477.908	309.81
478.127	299.81
478.346	309.81
478.564	305.81
478.783	296.81
479.002	320.81
479.22	317.81
479.439	299.81
479.658	301.81
479.876	286.81
480.095	324.81
480.313	315.81
480.532	292.81
480.751	319.81
480.969	305.81
481.188	303.81
481.406	300.81
481.624	289.81
481.843	296.81
482.061	293.81
482.28	296.81
482.498	293.81
482.717	292.81
482.935	287.81
483.153	289.81
483.372	304.81
483.59	303.81
483.808	315.81
484.027	294.81
484.245	295.81
484.463	303.81
484.681	301.81
484.9	291.81
485.118	298.81
485.336	309.81
485.554	301.81
485.772	290.81
485.99	304.81
486.209	298.81
486.427	288.81
486.645	305.81
486.863	308.81
487.081	313.81
487.299	315.81
487.517	283.81
487.735	314.81
487.953	307.81
488.171	299.81
488.389	302.81
488.607	314.81
488.825	298.81
489.043	314.81
489.261	299.81
489.479	288.81
489.696	287.81
489.914	310.81
490.132	286.81
490.35	306.81
490.568	309.81
490.786	324.81
491.003	324.81
491.221	298.81
491.439	317.81
491.657	319.81
491.874	318.81
492.092	317.81
492.31	329.81
492.527	317.81
492.745	345.81
492.963	337.81
493.18	320.81
493.398	318.81
493.615	332.81
493.833	318.81
494.05	316.81
494.268	305.81
494.485	315.81
494.703	319.81
494.92	316.81
495.138	315.81
495.355	311.81
495.573	332.81
495.79	308.81
496.008	316.81
496.225	318.81
496.442	337.81
496.66	351.81
496.877	324.81
497.094	340.81
497.312	360.81
497.529	352.81
497.746	359.81
497.963	364.81
498.181	363.81
498.398	382.81
498.615	401.81
498.832	406.81
499.049	439.81
499.267	470.81
499.484	496.81
499.701	557.81
499.918	604.81
500.135	676.81
500.352	729.81
500.569	755.81
500.786	730.81
501.003	690.81
501.22	633.81
501.437	575.81
501.654	496.81
501.871	486.81
502.088	450.81
502.305	424.81
502.522	409.81
