Data from Fe(NO3)3@0.0125M.TitratingCurve.Agarose3%dH2O.NegLispCup.LampEnergy10.LIBS07252019_HRD10591_16-59-48-336.txt Node
Date: Thu Jul 25 16:59:48 EDT 2019
User: cochatt
Spectrometer: HR+D1059
Trigger mode: 1
Integration Time (sec): 1.000000E-1
Scans to average: 1
Electric dark correction enabled: true
Nonlinearity correction enabled: false
Boxcar width: 0
XAxis mode: Wavelengths
Number of Pixels in Spectrum: 2048
>>>>>Begin Spectral Data<<<<<
223.165	-29.62
223.4	-29.62
223.635	-29.62
223.869	-11.62
224.104	-18.62
224.338	-28.62
224.573	-12.62
224.808	-9.62
225.042	-6.62
225.277	-1.62
225.511	-16.62
225.746	-3.62
225.98	6.38
226.215	16.38
226.449	29.38
226.683	20.38
226.918	17.38
227.152	49.38
227.387	33.38
227.621	33.38
227.856	42.38
228.09	47.38
228.324	45.38
228.559	50.38
228.793	42.38
229.027	74.38
229.262	84.38
229.496	82.38
229.73	75.38
229.964	88.38
230.199	79.38
230.433	88.38
230.667	95.38
230.901	82.38
231.136	95.38
231.37	104.38
231.604	90.38
231.838	86.38
232.072	89.38
232.306	99.38
232.541	111.38
232.775	92.38
233.009	95.38
233.243	88.38
233.477	85.38
233.711	88.38
233.945	90.38
234.179	89.38
234.413	104.38
234.647	105.38
234.881	97.38
235.115	94.38
235.349	85.38
235.583	96.38
235.817	99.38
236.051	92.38
236.285	95.38
236.519	98.38
236.753	98.38
236.987	106.38
237.221	94.38
237.455	98.38
237.689	113.38
237.922	112.38
238.156	113.38
238.39	110.38
238.624	104.38
238.858	98.38
239.091	96.38
239.325	98.38
239.559	101.38
239.793	96.38
240.027	99.38
240.26	109.38
240.494	117.38
240.728	95.38
240.961	116.38
241.195	96.38
241.429	104.38
241.662	106.38
241.896	106.38
242.13	93.38
242.363	101.38
242.597	114.38
242.83	117.38
243.064	105.38
243.298	106.38
243.531	106.38
243.765	107.38
243.998	107.38
244.232	120.38
244.465	112.38
244.699	118.38
244.932	110.38
245.166	121.38
245.399	108.38
245.633	116.38
245.866	104.38
246.099	122.38
246.333	123.38
246.566	108.38
246.8	110.38
247.033	123.38
247.266	105.38
247.5	111.38
247.733	113.38
247.966	123.38
248.2	119.38
248.433	132.38
248.666	123.38
248.899	121.38
249.133	122.38
249.366	129.38
249.599	127.38
249.832	114.38
250.066	127.38
250.299	129.38
250.532	133.38
250.765	116.38
250.998	113.38
251.231	123.38
251.465	115.38
251.698	126.38
251.931	123.38
252.164	132.38
252.397	141.38
252.63	129.38
252.863	138.38
253.096	135.38
253.329	140.38
253.562	130.38
253.795	139.38
254.028	125.38
254.261	129.38
254.494	136.38
254.727	136.38
254.96	136.38
255.193	129.38
255.426	135.38
255.659	140.38
255.892	142.38
256.124	129.38
256.357	128.38
256.59	127.38
256.823	131.38
257.056	145.38
257.289	120.38
257.521	139.38
257.754	137.38
257.987	152.38
258.22	148.38
258.452	149.38
258.685	139.38
258.918	139.38
259.151	136.38
259.383	146.38
259.616	153.38
259.849	153.38
260.081	160.38
260.314	170.38
260.547	159.38
260.779	138.38
261.012	143.38
261.244	136.38
261.477	146.38
261.71	160.38
261.942	159.38
262.175	153.38
262.407	152.38
262.64	143.38
262.872	146.38
263.105	157.38
263.337	169.38
263.57	157.38
263.802	164.38
264.035	158.38
264.267	151.38
264.499	168.38
264.732	147.38
264.964	145.38
265.197	159.38
265.429	155.38
265.661	153.38
265.894	156.38
266.126	158.38
266.358	149.38
266.591	149.38
266.823	160.38
267.055	155.38
267.287	173.38
267.52	157.38
267.752	162.38
267.984	165.38
268.216	160.38
268.448	161.38
268.681	172.38
268.913	179.38
269.145	157.38
269.377	159.38
269.609	179.38
269.841	156.38
270.073	170.38
270.306	162.38
270.538	168.38
270.77	177.38
271.002	185.38
271.234	156.38
271.466	196.38
271.698	165.38
271.93	163.38
272.162	176.38
272.394	187.38
272.626	177.38
272.858	165.38
273.09	197.38
273.322	175.38
273.553	178.38
273.785	178.38
274.017	189.38
274.249	210.38
274.481	187.38
274.713	196.38
274.945	203.38
275.176	206.38
275.408	203.38
275.64	203.38
275.872	192.38
276.104	192.38
276.335	187.38
276.567	198.38
276.799	180.38
277.031	178.38
277.262	189.38
277.494	203.38
277.726	204.38
277.957	192.38
278.189	206.38
278.421	205.38
278.652	204.38
278.884	208.38
279.115	210.38
279.347	202.38
279.579	200.38
279.81	200.38
280.042	213.38
280.273	190.38
280.505	210.38
280.736	223.38
280.968	212.38
281.199	195.38
281.431	220.38
281.662	211.38
281.894	205.38
282.125	204.38
282.356	214.38
282.588	217.38
282.819	215.38
283.051	205.38
283.282	223.38
283.513	225.38
283.745	227.38
283.976	215.38
284.207	224.38
284.439	236.38
284.67	226.38
284.901	228.38
285.132	246.38
285.364	227.38
285.595	222.38
285.826	219.38
286.057	238.38
286.288	235.38
286.52	243.38
286.751	244.38
286.982	232.38
287.213	241.38
287.444	244.38
287.675	229.38
287.906	232.38
288.138	231.38
288.369	242.38
288.6	248.38
288.831	242.38
289.062	232.38
289.293	259.38
289.524	245.38
289.755	244.38
289.986	252.38
290.217	269.38
290.448	240.38
290.679	249.38
290.91	245.38
291.141	244.38
291.371	247.38
291.602	246.38
291.833	261.38
292.064	250.38
292.295	266.38
292.526	276.38
292.757	253.38
292.987	273.38
293.218	257.38
293.449	265.38
293.68	265.38
293.91	273.38
294.141	263.38
294.372	239.38
294.603	278.38
294.833	270.38
295.064	288.38
295.295	276.38
295.525	282.38
295.756	251.38
295.987	274.38
296.217	281.38
296.448	270.38
296.679	284.38
296.909	291.38
297.14	273.38
297.37	296.38
297.601	283.38
297.831	282.38
298.062	268.38
298.292	243.38
298.523	277.38
298.753	287.38
298.984	289.38
299.214	292.38
299.445	290.38
299.675	295.38
299.905	304.38
300.136	279.38
300.366	305.38
300.597	290.38
300.827	312.38
301.057	309.38
301.288	323.38
301.518	296.38
301.748	297.38
301.979	309.38
302.209	297.38
302.439	317.38
302.669	312.38
302.9	326.38
303.13	304.38
303.36	320.38
303.59	318.38
303.82	324.38
304.051	336.38
304.281	338.38
304.511	321.38
304.741	321.38
304.971	332.38
305.201	335.38
305.431	319.38
305.661	334.38
305.891	318.38
306.121	327.38
306.352	329.38
306.582	323.38
306.812	310.38
307.042	327.38
307.272	322.38
307.502	331.38
307.731	332.38
307.961	330.38
308.191	339.38
308.421	349.38
308.651	323.38
308.881	341.38
309.111	337.38
309.341	340.38
309.571	339.38
309.8	341.38
310.03	354.38
310.26	362.38
310.49	334.38
310.72	362.38
310.949	346.38
311.179	340.38
311.409	336.38
311.639	343.38
311.868	351.38
312.098	375.38
312.328	354.38
312.557	351.38
312.787	370.38
313.017	355.38
313.246	374.38
313.476	361.38
313.706	375.38
313.935	379.38
314.165	373.38
314.394	379.38
314.624	371.38
314.853	381.38
315.083	387.38
315.312	372.38
315.542	372.38
315.771	384.38
316.001	377.38
316.23	362.38
316.46	373.38
316.689	381.38
316.919	376.38
317.148	378.38
317.377	391.38
317.607	393.38
317.836	391.38
318.065	388.38
318.295	388.38
318.524	398.38
318.753	388.38
318.983	409.38
319.212	395.38
319.441	408.38
319.67	385.38
319.9	387.38
320.129	396.38
320.358	396.38
320.587	395.38
320.816	401.38
321.046	383.38
321.275	426.38
321.504	401.38
321.733	396.38
321.962	410.38
322.191	409.38
322.42	405.38
322.649	398.38
322.878	419.38
323.108	400.38
323.337	423.38
323.566	412.38
323.795	419.38
324.024	416.38
324.253	418.38
324.482	400.38
324.71	424.38
324.939	422.38
325.168	422.38
325.397	406.38
325.626	439.38
325.855	417.38
326.084	411.38
326.313	441.38
326.542	419.38
326.77	417.38
326.999	441.38
327.228	425.38
327.457	429.38
327.686	433.38
327.914	410.38
328.143	432.38
328.372	426.38
328.6	419.38
328.829	423.38
329.058	427.38
329.287	434.38
329.515	433.38
329.744	436.38
329.972	428.38
330.201	440.38
330.43	429.38
330.658	422.38
330.887	435.38
331.115	457.38
331.344	442.38
331.572	432.38
331.801	466.38
332.03	451.38
332.258	448.38
332.486	442.38
332.715	448.38
332.943	445.38
333.172	447.38
333.4	448.38
333.629	479.38
333.857	450.38
334.085	456.38
334.314	484.38
334.542	482.38
334.771	456.38
334.999	465.38
335.227	459.38
335.455	473.38
335.684	471.38
335.912	486.38
336.14	479.38
336.369	460.38
336.597	464.38
336.825	483.38
337.053	483.38
337.281	480.38
337.51	478.38
337.738	480.38
337.966	493.38
338.194	462.38
338.422	468.38
338.65	456.38
338.878	474.38
339.106	454.38
339.334	449.38
339.562	459.38
339.79	463.38
340.018	479.38
340.246	473.38
340.474	452.38
340.702	477.38
340.93	464.38
341.158	468.38
341.386	458.38
341.614	466.38
341.842	458.38
342.07	459.38
342.298	464.38
342.526	466.38
342.754	479.38
342.981	449.38
343.209	460.38
343.437	468.38
343.665	465.38
343.893	484.38
344.12	466.38
344.348	482.38
344.576	482.38
344.804	484.38
345.031	468.38
345.259	459.38
345.487	470.38
345.714	484.38
345.942	471.38
346.17	479.38
346.397	474.38
346.625	481.38
346.853	474.38
347.08	448.38
347.308	482.38
347.535	473.38
347.763	471.38
347.99	474.38
348.218	474.38
348.445	454.38
348.673	490.38
348.9	481.38
349.128	492.38
349.355	471.38
349.583	463.38
349.81	466.38
350.037	451.38
350.265	472.38
350.492	472.38
350.72	472.38
350.947	460.38
351.174	467.38
351.402	467.38
351.629	455.38
351.856	466.38
352.083	451.38
352.311	498.38
352.538	473.38
352.765	495.38
352.992	460.38
353.22	472.38
353.447	464.38
353.674	479.38
353.901	492.38
354.128	483.38
354.355	475.38
354.583	493.38
354.81	474.38
355.037	489.38
355.264	486.38
355.491	452.38
355.718	449.38
355.945	481.38
356.172	478.38
356.399	469.38
356.626	461.38
356.853	485.38
357.08	478.38
357.307	481.38
357.534	475.38
357.761	475.38
357.988	500.38
358.215	464.38
358.441	471.38
358.668	489.38
358.895	449.38
359.122	467.38
359.349	512.38
359.576	478.38
359.802	500.38
360.029	481.38
360.256	484.38
360.483	490.38
360.709	486.38
360.936	482.38
361.163	469.38
361.39	507.38
361.616	487.38
361.843	478.38
362.07	504.38
362.296	496.38
362.523	496.38
362.749	484.38
362.976	483.38
363.203	504.38
363.429	475.38
363.656	489.38
363.882	513.38
364.109	508.38
364.335	475.38
364.562	490.38
364.788	495.38
365.015	520.38
365.241	484.38
365.468	514.38
365.694	486.38
365.92	505.38
366.147	500.38
366.373	503.38
366.599	499.38
366.826	485.38
367.052	497.38
367.278	505.38
367.505	516.38
367.731	516.38
367.957	523.38
368.184	511.38
368.41	514.38
368.636	504.38
368.862	501.38
369.089	511.38
369.315	498.38
369.541	525.38
369.767	504.38
369.993	520.38
370.219	503.38
370.445	516.38
370.672	529.38
370.898	517.38
371.124	511.38
371.35	543.38
371.576	539.38
371.802	506.38
372.028	535.38
372.254	524.38
372.48	526.38
372.706	525.38
372.932	527.38
373.158	529.38
373.384	532.38
373.61	543.38
373.835	540.38
374.061	531.38
374.287	549.38
374.513	523.38
374.739	520.38
374.965	544.38
375.191	552.38
375.416	538.38
375.642	529.38
375.868	540.38
376.094	518.38
376.319	520.38
376.545	541.38
376.771	549.38
376.997	519.38
377.222	526.38
377.448	521.38
377.674	536.38
377.899	518.38
378.125	525.38
378.35	548.38
378.576	537.38
378.802	531.38
379.027	539.38
379.253	516.38
379.478	517.38
379.704	531.38
379.929	519.38
380.155	521.38
380.38	540.38
380.606	525.38
380.831	539.38
381.057	530.38
381.282	539.38
381.507	535.38
381.733	560.38
381.958	532.38
382.184	556.38
382.409	544.38
382.634	540.38
382.86	556.38
383.085	552.38
383.31	572.38
383.535	572.38
383.761	540.38
383.986	559.38
384.211	566.38
384.436	570.38
384.662	560.38
384.887	577.38
385.112	571.38
385.337	568.38
385.562	579.38
385.787	573.38
386.013	588.38
386.238	579.38
386.463	557.38
386.688	597.38
386.913	552.38
387.138	564.38
387.363	567.38
387.588	564.38
387.813	573.38
388.038	591.38
388.263	588.38
388.488	567.38
388.713	567.38
388.938	580.38
389.163	567.38
389.387	580.38
389.612	571.38
389.837	576.38
390.062	569.38
390.287	590.38
390.512	583.38
390.736	565.38
390.961	593.38
391.186	549.38
391.411	576.38
391.636	566.38
391.86	589.38
392.085	601.38
392.31	598.38
392.534	588.38
392.759	589.38
392.984	585.38
393.208	595.38
393.433	589.38
393.658	612.38
393.882	594.38
394.107	590.38
394.331	595.38
394.556	585.38
394.78	593.38
395.005	585.38
395.229	582.38
395.454	599.38
395.678	596.38
395.903	594.38
396.127	607.38
396.352	604.38
396.576	596.38
396.801	604.38
397.025	605.38
397.249	598.38
397.474	597.38
397.698	609.38
397.922	632.38
398.147	615.38
398.371	602.38
398.595	617.38
398.82	637.38
399.044	614.38
399.268	628.38
399.492	637.38
399.717	648.38
399.941	652.38
400.165	659.38
400.389	661.38
400.613	652.38
400.837	639.38
401.062	645.38
401.286	620.38
401.51	621.38
401.734	636.38
401.958	641.38
402.182	649.38
402.406	632.38
402.63	634.38
402.854	641.38
403.078	638.38
403.302	633.38
403.526	643.38
403.75	620.38
403.974	659.38
404.198	635.38
404.422	625.38
404.645	628.38
404.869	650.38
405.093	648.38
405.317	636.38
405.541	658.38
405.765	666.38
405.988	664.38
406.212	666.38
406.436	683.38
406.66	664.38
406.883	652.38
407.107	683.38
407.331	681.38
407.555	709.38
407.778	697.38
408.002	687.38
408.226	690.38
408.449	705.38
408.673	682.38
408.896	669.38
409.12	661.38
409.344	680.38
409.567	666.38
409.791	693.38
410.014	656.38
410.238	663.38
410.461	649.38
410.685	653.38
410.908	638.38
411.132	662.38
411.355	639.38
411.578	666.38
411.802	653.38
412.025	660.38
412.249	662.38
412.472	639.38
412.695	651.38
412.919	629.38
413.142	645.38
413.365	644.38
413.589	638.38
413.812	641.38
414.035	630.38
414.258	635.38
414.482	647.38
414.705	646.38
414.928	627.38
415.151	647.38
415.374	651.38
415.597	634.38
415.821	628.38
416.044	617.38
416.267	643.38
416.49	627.38
416.713	635.38
416.936	643.38
417.159	630.38
417.382	615.38
417.605	620.38
417.828	625.38
418.051	621.38
418.274	627.38
418.497	594.38
418.72	608.38
418.943	625.38
419.166	654.38
419.389	688.38
419.611	648.38
419.834	648.38
420.057	638.38
420.28	653.38
420.503	615.38
420.726	587.38
420.948	616.38
421.171	607.38
421.394	632.38
421.617	629.38
421.839	617.38
422.062	628.38
422.285	611.38
422.507	620.38
422.73	626.38
422.953	629.38
423.175	589.38
423.398	644.38
423.621	618.38
423.843	642.38
424.066	625.38
424.288	604.38
424.511	627.38
424.733	623.38
424.956	617.38
425.178	620.38
425.401	603.38
425.623	612.38
425.846	608.38
426.068	612.38
426.291	613.38
426.513	625.38
426.735	603.38
426.958	614.38
427.18	614.38
427.402	636.38
427.625	619.38
427.847	607.38
428.069	590.38
428.292	608.38
428.514	610.38
428.736	607.38
428.958	617.38
429.181	590.38
429.403	610.38
429.625	616.38
429.847	601.38
430.069	618.38
430.292	616.38
430.514	615.38
430.736	629.38
430.958	629.38
431.18	625.38
431.402	600.38
431.624	616.38
431.846	600.38
432.068	598.38
432.29	617.38
432.512	624.38
432.734	604.38
432.956	635.38
433.178	614.38
433.4	612.38
433.622	632.38
433.844	620.38
434.066	590.38
434.287	623.38
434.509	623.38
434.731	623.38
434.953	600.38
435.175	624.38
435.397	626.38
435.618	639.38
435.84	619.38
436.062	608.38
436.284	616.38
436.505	603.38
436.727	620.38
436.949	581.38
437.17	607.38
437.392	616.38
437.614	625.38
437.835	616.38
438.057	605.38
438.278	605.38
438.5	605.38
438.721	595.38
438.943	588.38
439.165	597.38
439.386	616.38
439.608	626.38
439.829	601.38
440.05	604.38
440.272	624.38
440.493	601.38
440.715	624.38
440.936	597.38
441.158	608.38
441.379	614.38
441.6	617.38
441.822	639.38
442.043	613.38
442.264	601.38
442.486	629.38
442.707	611.38
442.928	610.38
443.149	628.38
443.371	617.38
443.592	607.38
443.813	637.38
444.034	623.38
444.255	604.38
444.476	619.38
444.698	642.38
444.919	625.38
445.14	709.38
445.361	644.38
445.582	615.38
445.803	610.38
446.024	613.38
446.245	617.38
446.466	613.38
446.687	603.38
446.908	595.38
447.129	599.38
447.35	590.38
447.571	596.38
447.792	584.38
448.013	598.38
448.234	572.38
448.455	595.38
448.675	575.38
448.896	603.38
449.117	595.38
449.338	594.38
449.559	584.38
449.779	581.38
450	579.38
450.221	576.38
450.442	607.38
450.662	594.38
450.883	577.38
451.104	562.38
451.324	570.38
451.545	584.38
451.766	579.38
451.986	577.38
452.207	580.38
452.428	592.38
452.648	576.38
452.869	566.38
453.089	562.38
453.31	568.38
453.53	584.38
453.751	576.38
453.971	543.38
454.192	553.38
454.412	578.38
454.633	556.38
454.853	570.38
455.073	554.38
455.294	577.38
455.514	561.38
455.734	568.38
455.955	540.38
456.175	552.38
456.395	564.38
456.616	575.38
456.836	567.38
457.056	584.38
457.276	580.38
457.497	570.38
457.717	591.38
457.937	567.38
458.157	571.38
458.377	580.38
458.598	615.38
458.818	598.38
459.038	584.38
459.258	581.38
459.478	611.38
459.698	567.38
459.918	608.38
460.138	602.38
460.358	617.38
460.578	608.38
460.798	629.38
461.018	605.38
461.238	619.38
461.458	642.38
461.678	641.38
461.898	641.38
462.118	592.38
462.338	609.38
462.558	640.38
462.777	665.38
462.997	659.38
463.217	651.38
463.437	658.38
463.657	662.38
463.876	657.38
464.096	685.38
464.316	639.38
464.536	671.38
464.755	650.38
464.975	654.38
465.195	621.38
465.414	645.38
465.634	635.38
465.854	620.38
466.073	615.38
466.293	611.38
466.512	620.38
466.732	636.38
466.951	607.38
467.171	615.38
467.391	596.38
467.61	615.38
467.829	600.38
468.049	636.38
468.268	597.38
468.488	592.38
468.707	597.38
468.927	607.38
469.146	608.38
469.365	632.38
469.585	600.38
469.804	607.38
470.023	603.38
470.243	620.38
470.462	639.38
470.681	633.38
470.901	625.38
471.12	631.38
471.339	614.38
471.558	643.38
471.777	653.38
471.997	629.38
472.216	641.38
472.435	633.38
472.654	651.38
472.873	614.38
473.092	633.38
473.311	633.38
473.53	642.38
473.749	638.38
473.968	638.38
474.187	638.38
474.406	648.38
474.625	652.38
474.844	644.38
475.063	658.38
475.282	644.38
475.501	642.38
475.72	672.38
475.939	665.38
476.158	673.38
476.377	684.38
476.596	667.38
476.814	687.38
477.033	692.38
477.252	689.38
477.471	694.38
477.69	702.38
477.908	698.38
478.127	691.38
478.346	684.38
478.564	707.38
478.783	731.38
479.002	713.38
479.22	753.38
479.439	735.38
479.658	764.38
479.876	739.38
480.095	728.38
480.313	753.38
480.532	751.38
480.751	777.38
480.969	760.38
481.188	740.38
481.406	756.38
481.624	764.38
481.843	741.38
482.061	747.38
482.28	733.38
482.498	738.38
482.717	748.38
482.935	768.38
483.153	778.38
483.372	785.38
483.59	776.38
483.808	755.38
484.027	767.38
484.245	785.38
484.463	787.38
484.681	799.38
484.9	790.38
485.118	785.38
485.336	803.38
485.554	795.38
485.772	792.38
485.99	771.38
486.209	807.38
486.427	787.38
486.645	771.38
486.863	787.38
487.081	797.38
487.299	806.38
487.517	815.38
487.735	816.38
487.953	817.38
488.171	799.38
488.389	815.38
488.607	822.38
488.825	804.38
489.043	785.38
489.261	820.38
489.479	818.38
489.696	823.38
489.914	787.38
490.132	791.38
490.35	792.38
490.568	827.38
490.786	832.38
491.003	793.38
491.221	794.38
491.439	817.38
491.657	812.38
491.874	839.38
492.092	810.38
492.31	824.38
492.527	823.38
492.745	827.38
492.963	846.38
493.18	808.38
493.398	806.38
493.615	837.38
493.833	848.38
494.05	818.38
494.268	819.38
494.485	852.38
494.703	833.38
494.92	825.38
495.138	826.38
495.355	860.38
495.573	837.38
495.79	821.38
496.008	844.38
496.225	855.38
496.442	845.38
496.66	850.38
496.877	852.38
497.094	837.38
497.312	840.38
497.529	861.38
497.746	880.38
497.963	861.38
498.181	869.38
498.398	891.38
498.615	910.38
498.832	905.38
499.049	915.38
499.267	925.38
499.484	944.38
499.701	959.38
499.918	998.38
500.135	999.38
500.352	1029.38
500.569	1007.38
500.786	1019.38
501.003	1018.38
501.22	982.38
501.437	985.38
501.654	967.38
501.871	953.38
502.088	916.38
