Data from Fe(NO3)3@0.05M.TitratingCurve.Agarose3%dH2O.NegLispCup.LampEnergy10.LIBS07252019_HRD10591_16-48-22-334.txt Node
Date: Thu Jul 25 16:48:22 EDT 2019
User: cochatt
Spectrometer: HR+D1059
Trigger mode: 1
Integration Time (sec): 1.000000E-1
Scans to average: 1
Electric dark correction enabled: true
Nonlinearity correction enabled: false
Boxcar width: 0
XAxis mode: Wavelengths
Number of Pixels in Spectrum: 2048
>>>>>Begin Spectral Data<<<<<
223.165	-0.06
223.4	-0.06
223.635	-0.06
223.869	-16.06
224.104	-22.06
224.338	-21.06
224.573	-19.06
224.808	-21.06
225.042	7.94
225.277	4.94
225.511	-12.06
225.746	4.94
225.98	8.94
226.215	0.94
226.449	12.94
226.683	25.94
226.918	24.94
227.152	19.94
227.387	29.94
227.621	27.94
227.856	49.94
228.09	48.94
228.324	50.94
228.559	54.94
228.793	49.94
229.027	84.94
229.262	62.94
229.496	80.94
229.73	89.94
229.964	90.94
230.199	79.94
230.433	78.94
230.667	93.94
230.901	87.94
231.136	95.94
231.37	104.94
231.604	97.94
231.838	102.94
232.072	95.94
232.306	96.94
232.541	96.94
232.775	98.94
233.009	103.94
233.243	100.94
233.477	94.94
233.711	90.94
233.945	94.94
234.179	109.94
234.413	89.94
234.647	98.94
234.881	111.94
235.115	93.94
235.349	98.94
235.583	94.94
235.817	94.94
236.051	87.94
236.285	97.94
236.519	101.94
236.753	93.94
236.987	121.94
237.221	103.94
237.455	98.94
237.689	97.94
237.922	95.94
238.156	104.94
238.39	107.94
238.624	95.94
238.858	114.94
239.091	94.94
239.325	85.94
239.559	99.94
239.793	104.94
240.027	118.94
240.26	110.94
240.494	112.94
240.728	101.94
240.961	113.94
241.195	117.94
241.429	109.94
241.662	104.94
241.896	94.94
242.13	113.94
242.363	111.94
242.597	112.94
242.83	113.94
243.064	92.94
243.298	116.94
243.531	116.94
243.765	100.94
243.998	128.94
244.232	116.94
244.465	106.94
244.699	112.94
244.932	112.94
245.166	106.94
245.399	117.94
245.633	103.94
245.866	104.94
246.099	115.94
246.333	102.94
246.566	103.94
246.8	118.94
247.033	122.94
247.266	120.94
247.5	114.94
247.733	117.94
247.966	116.94
248.2	124.94
248.433	119.94
248.666	122.94
248.899	122.94
249.133	132.94
249.366	126.94
249.599	125.94
249.832	113.94
250.066	114.94
250.299	125.94
250.532	115.94
250.765	121.94
250.998	131.94
251.231	123.94
251.465	116.94
251.698	140.94
251.931	133.94
252.164	128.94
252.397	124.94
252.63	128.94
252.863	136.94
253.096	135.94
253.329	124.94
253.562	137.94
253.795	124.94
254.028	128.94
254.261	125.94
254.494	118.94
254.727	146.94
254.96	130.94
255.193	135.94
255.426	126.94
255.659	115.94
255.892	132.94
256.124	149.94
256.357	145.94
256.59	129.94
256.823	125.94
257.056	143.94
257.289	134.94
257.521	129.94
257.754	148.94
257.987	140.94
258.22	133.94
258.452	144.94
258.685	138.94
258.918	140.94
259.151	124.94
259.383	136.94
259.616	142.94
259.849	151.94
260.081	147.94
260.314	165.94
260.547	135.94
260.779	117.94
261.012	142.94
261.244	138.94
261.477	149.94
261.71	136.94
261.942	148.94
262.175	137.94
262.407	146.94
262.64	142.94
262.872	153.94
263.105	168.94
263.337	153.94
263.57	152.94
263.802	139.94
264.035	144.94
264.267	154.94
264.499	134.94
264.732	148.94
264.964	139.94
265.197	152.94
265.429	150.94
265.661	144.94
265.894	150.94
266.126	164.94
266.358	152.94
266.591	145.94
266.823	132.94
267.055	152.94
267.287	150.94
267.52	137.94
267.752	134.94
267.984	179.94
268.216	146.94
268.448	146.94
268.681	151.94
268.913	133.94
269.145	169.94
269.377	146.94
269.609	148.94
269.841	148.94
270.073	151.94
270.306	166.94
270.538	150.94
270.77	153.94
271.002	155.94
271.234	166.94
271.466	171.94
271.698	155.94
271.93	165.94
272.162	161.94
272.394	178.94
272.626	159.94
272.858	169.94
273.09	173.94
273.322	163.94
273.553	163.94
273.785	163.94
274.017	180.94
274.249	165.94
274.481	163.94
274.713	168.94
274.945	171.94
275.176	175.94
275.408	182.94
275.64	155.94
275.872	171.94
276.104	174.94
276.335	179.94
276.567	153.94
276.799	159.94
277.031	173.94
277.262	180.94
277.494	179.94
277.726	171.94
277.957	184.94
278.189	171.94
278.421	156.94
278.652	163.94
278.884	172.94
279.115	177.94
279.347	186.94
279.579	168.94
279.81	172.94
280.042	170.94
280.273	174.94
280.505	186.94
280.736	183.94
280.968	195.94
281.199	182.94
281.431	203.94
281.662	182.94
281.894	173.94
282.125	182.94
282.356	182.94
282.588	180.94
282.819	181.94
283.051	189.94
283.282	183.94
283.513	182.94
283.745	175.94
283.976	184.94
284.207	172.94
284.439	184.94
284.67	183.94
284.901	192.94
285.132	180.94
285.364	180.94
285.595	177.94
285.826	177.94
286.057	172.94
286.288	200.94
286.52	169.94
286.751	169.94
286.982	195.94
287.213	199.94
287.444	188.94
287.675	209.94
287.906	199.94
288.138	190.94
288.369	186.94
288.6	190.94
288.831	197.94
289.062	200.94
289.293	185.94
289.524	196.94
289.755	195.94
289.986	182.94
290.217	196.94
290.448	211.94
290.679	185.94
290.91	190.94
291.141	185.94
291.371	189.94
291.602	207.94
291.833	210.94
292.064	180.94
292.295	188.94
292.526	188.94
292.757	207.94
292.987	191.94
293.218	188.94
293.449	201.94
293.68	184.94
293.91	192.94
294.141	185.94
294.372	185.94
294.603	203.94
294.833	200.94
295.064	205.94
295.295	196.94
295.525	221.94
295.756	221.94
295.987	194.94
296.217	198.94
296.448	202.94
296.679	185.94
296.909	205.94
297.14	227.94
297.37	224.94
297.601	208.94
297.831	219.94
298.062	204.94
298.292	201.94
298.523	222.94
298.753	230.94
298.984	205.94
299.214	210.94
299.445	200.94
299.675	208.94
299.905	211.94
300.136	203.94
300.366	205.94
300.597	204.94
300.827	206.94
301.057	213.94
301.288	204.94
301.518	189.94
301.748	206.94
301.979	217.94
302.209	213.94
302.439	221.94
302.669	196.94
302.9	196.94
303.13	217.94
303.36	198.94
303.59	212.94
303.82	205.94
304.051	221.94
304.281	223.94
304.511	196.94
304.741	220.94
304.971	208.94
305.201	203.94
305.431	209.94
305.661	233.94
305.891	209.94
306.121	211.94
306.352	215.94
306.582	224.94
306.812	218.94
307.042	219.94
307.272	211.94
307.502	212.94
307.731	218.94
307.961	204.94
308.191	223.94
308.421	217.94
308.651	220.94
308.881	201.94
309.111	209.94
309.341	197.94
309.571	204.94
309.8	216.94
310.03	228.94
310.26	227.94
310.49	216.94
310.72	224.94
310.949	204.94
311.179	201.94
311.409	202.94
311.639	222.94
311.868	223.94
312.098	227.94
312.328	228.94
312.557	218.94
312.787	196.94
313.017	201.94
313.246	214.94
313.476	229.94
313.706	220.94
313.935	223.94
314.165	225.94
314.394	238.94
314.624	233.94
314.853	216.94
315.083	220.94
315.312	230.94
315.542	220.94
315.771	222.94
316.001	214.94
316.23	216.94
316.46	200.94
316.689	221.94
316.919	234.94
317.148	221.94
317.377	206.94
317.607	224.94
317.836	231.94
318.065	229.94
318.295	222.94
318.524	217.94
318.753	204.94
318.983	213.94
319.212	210.94
319.441	207.94
319.67	216.94
319.9	217.94
320.129	232.94
320.358	213.94
320.587	234.94
320.816	225.94
321.046	217.94
321.275	211.94
321.504	217.94
321.733	220.94
321.962	207.94
322.191	230.94
322.42	223.94
322.649	220.94
322.878	214.94
323.108	227.94
323.337	223.94
323.566	232.94
323.795	240.94
324.024	219.94
324.253	223.94
324.482	233.94
324.71	225.94
324.939	241.94
325.168	228.94
325.397	237.94
325.626	244.94
325.855	245.94
326.084	240.94
326.313	246.94
326.542	226.94
326.77	222.94
326.999	235.94
327.228	233.94
327.457	218.94
327.686	229.94
327.914	242.94
328.143	238.94
328.372	245.94
328.6	244.94
328.829	232.94
329.058	233.94
329.287	242.94
329.515	253.94
329.744	256.94
329.972	228.94
330.201	219.94
330.43	243.94
330.658	247.94
330.887	252.94
331.115	264.94
331.344	256.94
331.572	267.94
331.801	262.94
332.03	260.94
332.258	258.94
332.486	280.94
332.715	290.94
332.943	278.94
333.172	279.94
333.4	292.94
333.629	298.94
333.857	297.94
334.085	298.94
334.314	293.94
334.542	296.94
334.771	292.94
334.999	293.94
335.227	314.94
335.455	288.94
335.684	293.94
335.912	300.94
336.14	278.94
336.369	287.94
336.597	284.94
336.825	279.94
337.053	274.94
337.281	275.94
337.51	275.94
337.738	276.94
337.966	264.94
338.194	255.94
338.422	257.94
338.65	270.94
338.878	274.94
339.106	265.94
339.334	254.94
339.562	262.94
339.79	241.94
340.018	230.94
340.246	274.94
340.474	270.94
340.702	240.94
340.93	268.94
341.158	265.94
341.386	273.94
341.614	247.94
341.842	254.94
342.07	243.94
342.298	254.94
342.526	234.94
342.754	256.94
342.981	248.94
343.209	242.94
343.437	261.94
343.665	251.94
343.893	280.94
344.12	307.94
344.348	295.94
344.576	274.94
344.804	265.94
345.031	260.94
345.259	276.94
345.487	243.94
345.714	257.94
345.942	244.94
346.17	238.94
346.397	261.94
346.625	244.94
346.853	242.94
347.08	261.94
347.308	256.94
347.535	250.94
347.763	232.94
347.99	240.94
348.218	221.94
348.445	234.94
348.673	231.94
348.9	256.94
349.128	253.94
349.355	237.94
349.583	233.94
349.81	259.94
350.037	234.94
350.265	244.94
350.492	240.94
350.72	243.94
350.947	250.94
351.174	248.94
351.402	243.94
351.629	236.94
351.856	238.94
352.083	228.94
352.311	228.94
352.538	228.94
352.765	226.94
352.992	241.94
353.22	216.94
353.447	233.94
353.674	245.94
353.901	253.94
354.128	245.94
354.355	228.94
354.583	251.94
354.81	238.94
355.037	246.94
355.264	233.94
355.491	252.94
355.718	242.94
355.945	212.94
356.172	244.94
356.399	244.94
356.626	251.94
356.853	236.94
357.08	234.94
357.307	233.94
357.534	246.94
357.761	234.94
357.988	250.94
358.215	237.94
358.441	237.94
358.668	226.94
358.895	237.94
359.122	241.94
359.349	248.94
359.576	226.94
359.802	248.94
360.029	252.94
360.256	244.94
360.483	237.94
360.709	244.94
360.936	258.94
361.163	238.94
361.39	225.94
361.616	233.94
361.843	255.94
362.07	237.94
362.296	236.94
362.523	241.94
362.749	230.94
362.976	241.94
363.203	237.94
363.429	235.94
363.656	241.94
363.882	244.94
364.109	239.94
364.335	246.94
364.562	238.94
364.788	240.94
365.015	249.94
365.241	256.94
365.468	233.94
365.694	245.94
365.92	233.94
366.147	243.94
366.373	221.94
366.599	231.94
366.826	237.94
367.052	238.94
367.278	220.94
367.505	244.94
367.731	246.94
367.957	241.94
368.184	254.94
368.41	245.94
368.636	261.94
368.862	261.94
369.089	243.94
369.315	260.94
369.541	269.94
369.767	258.94
369.993	237.94
370.219	256.94
370.445	274.94
370.672	259.94
370.898	256.94
371.124	261.94
371.35	260.94
371.576	262.94
371.802	272.94
372.028	273.94
372.254	276.94
372.48	252.94
372.706	269.94
372.932	269.94
373.158	262.94
373.384	268.94
373.61	286.94
373.835	280.94
374.061	271.94
374.287	275.94
374.513	278.94
374.739	289.94
374.965	294.94
375.191	304.94
375.416	291.94
375.642	270.94
375.868	276.94
376.094	284.94
376.319	282.94
376.545	262.94
376.771	280.94
376.997	268.94
377.222	284.94
377.448	261.94
377.674	259.94
377.899	268.94
378.125	264.94
378.35	278.94
378.576	276.94
378.802	265.94
379.027	265.94
379.253	261.94
379.478	278.94
379.704	285.94
379.929	273.94
380.155	277.94
380.38	265.94
380.606	279.94
380.831	256.94
381.057	275.94
381.282	260.94
381.507	290.94
381.733	266.94
381.958	282.94
382.184	278.94
382.409	269.94
382.634	290.94
382.86	298.94
383.085	279.94
383.31	290.94
383.535	287.94
383.761	288.94
383.986	293.94
384.211	311.94
384.436	284.94
384.662	314.94
384.887	316.94
385.112	320.94
385.337	333.94
385.562	316.94
385.787	312.94
386.013	318.94
386.238	328.94
386.463	314.94
386.688	313.94
386.913	299.94
387.138	274.94
387.363	292.94
387.588	322.94
387.813	320.94
388.038	311.94
388.263	331.94
388.488	315.94
388.713	329.94
388.938	323.94
389.163	304.94
389.387	313.94
389.612	321.94
389.837	315.94
390.062	307.94
390.287	300.94
390.512	312.94
390.736	324.94
390.961	319.94
391.186	323.94
391.411	329.94
391.636	347.94
391.86	349.94
392.085	357.94
392.31	359.94
392.534	319.94
392.759	332.94
392.984	352.94
393.208	343.94
393.433	326.94
393.658	349.94
393.882	345.94
394.107	340.94
394.331	359.94
394.556	338.94
394.78	338.94
395.005	323.94
395.229	360.94
395.454	339.94
395.678	356.94
395.903	364.94
396.127	365.94
396.352	348.94
396.576	330.94
396.801	354.94
397.025	346.94
397.249	369.94
397.474	364.94
397.698	348.94
397.922	360.94
398.147	369.94
398.371	362.94
398.595	388.94
398.82	413.94
399.044	402.94
399.268	434.94
399.492	469.94
399.717	516.94
399.941	507.94
400.165	478.94
400.389	440.94
400.613	433.94
400.837	420.94
401.062	408.94
401.286	404.94
401.51	395.94
401.734	397.94
401.958	385.94
402.182	422.94
402.406	388.94
402.63	412.94
402.854	414.94
403.078	406.94
403.302	420.94
403.526	415.94
403.75	433.94
403.974	428.94
404.198	424.94
404.422	435.94
404.645	438.94
404.869	444.94
405.093	432.94
405.317	415.94
405.541	417.94
405.765	412.94
405.988	422.94
406.212	409.94
406.436	444.94
406.66	452.94
406.883	440.94
407.107	480.94
407.331	478.94
407.555	475.94
407.778	493.94
408.002	499.94
408.226	481.94
408.449	454.94
408.673	457.94
408.896	456.94
409.12	435.94
409.344	446.94
409.567	427.94
409.791	454.94
410.014	440.94
410.238	453.94
410.461	433.94
410.685	425.94
410.908	451.94
411.132	419.94
411.355	411.94
411.578	438.94
411.802	402.94
412.025	411.94
412.249	421.94
412.472	423.94
412.695	414.94
412.919	401.94
413.142	428.94
413.365	393.94
413.589	380.94
413.812	404.94
414.035	426.94
414.258	422.94
414.482	404.94
414.705	411.94
414.928	403.94
415.151	434.94
415.374	414.94
415.597	406.94
415.821	390.94
416.044	410.94
416.267	377.94
416.49	409.94
416.713	389.94
416.936	404.94
417.159	384.94
417.382	396.94
417.605	384.94
417.828	400.94
418.051	384.94
418.274	407.94
418.497	410.94
418.72	429.94
418.943	395.94
419.166	432.94
419.389	443.94
419.611	444.94
419.834	407.94
420.057	414.94
420.28	406.94
420.503	400.94
420.726	394.94
420.948	390.94
421.171	403.94
421.394	402.94
421.617	396.94
421.839	415.94
422.062	409.94
422.285	395.94
422.507	406.94
422.73	404.94
422.953	409.94
423.175	408.94
423.398	424.94
423.621	436.94
423.843	409.94
424.066	424.94
424.288	415.94
424.511	408.94
424.733	417.94
424.956	426.94
425.178	401.94
425.401	403.94
425.623	405.94
425.846	384.94
426.068	404.94
426.291	398.94
426.513	391.94
426.735	396.94
426.958	391.94
427.18	369.94
427.402	384.94
427.625	378.94
427.847	369.94
428.069	369.94
428.292	371.94
428.514	371.94
428.736	369.94
428.958	382.94
429.181	360.94
429.403	380.94
429.625	354.94
429.847	370.94
430.069	376.94
430.292	369.94
430.514	369.94
430.736	359.94
430.958	370.94
431.18	380.94
431.402	370.94
431.624	361.94
431.846	378.94
432.068	370.94
432.29	379.94
432.512	370.94
432.734	371.94
432.956	378.94
433.178	357.94
433.4	384.94
433.622	388.94
433.844	382.94
434.066	390.94
434.287	389.94
434.509	381.94
434.731	400.94
434.953	398.94
435.175	395.94
435.397	398.94
435.618	391.94
435.84	376.94
436.062	381.94
436.284	368.94
436.505	378.94
436.727	386.94
436.949	394.94
437.17	353.94
437.392	375.94
437.614	372.94
437.835	340.94
438.057	361.94
438.278	359.94
438.5	369.94
438.721	372.94
438.943	382.94
439.165	368.94
439.386	374.94
439.608	365.94
439.829	388.94
440.05	391.94
440.272	391.94
440.493	391.94
440.715	387.94
440.936	398.94
441.158	393.94
441.379	384.94
441.6	420.94
441.822	448.94
442.043	421.94
442.264	416.94
442.486	407.94
442.707	439.94
442.928	414.94
443.149	406.94
443.371	404.94
443.592	417.94
443.813	417.94
444.034	426.94
444.255	420.94
444.476	443.94
444.698	453.94
444.919	480.94
445.14	573.94
445.361	507.94
445.582	421.94
445.803	411.94
446.024	402.94
446.245	413.94
446.466	414.94
446.687	407.94
446.908	390.94
447.129	386.94
447.35	388.94
447.571	383.94
447.792	377.94
448.013	374.94
448.234	363.94
448.455	371.94
448.675	371.94
448.896	348.94
449.117	368.94
449.338	365.94
449.559	378.94
449.779	343.94
450	364.94
450.221	362.94
450.442	359.94
450.662	364.94
450.883	376.94
451.104	362.94
451.324	371.94
451.545	350.94
451.766	369.94
451.986	369.94
452.207	377.94
452.428	364.94
452.648	364.94
452.869	356.94
453.089	319.94
453.31	360.94
453.53	348.94
453.751	323.94
453.971	344.94
454.192	334.94
454.412	334.94
454.633	339.94
454.853	319.94
455.073	343.94
455.294	333.94
455.514	333.94
455.734	338.94
455.955	338.94
456.175	344.94
456.395	328.94
456.616	331.94
456.836	352.94
457.056	334.94
457.276	335.94
457.497	347.94
457.717	337.94
457.937	356.94
458.157	333.94
458.377	350.94
458.598	344.94
458.818	384.94
459.038	344.94
459.258	387.94
459.478	375.94
459.698	386.94
459.918	379.94
460.138	393.94
460.358	428.94
460.578	413.94
460.798	414.94
461.018	423.94
461.238	413.94
461.458	434.94
461.678	416.94
461.898	441.94
462.118	438.94
462.338	472.94
462.558	452.94
462.777	472.94
462.997	493.94
463.217	509.94
463.437	533.94
463.657	489.94
463.876	492.94
464.096	500.94
464.316	469.94
464.536	495.94
464.755	484.94
464.975	453.94
465.195	433.94
465.414	424.94
465.634	386.94
465.854	405.94
466.073	392.94
466.293	386.94
466.512	390.94
466.732	377.94
466.951	370.94
467.171	366.94
467.391	379.94
467.61	373.94
467.829	378.94
468.049	364.94
468.268	374.94
468.488	368.94
468.707	355.94
468.927	368.94
469.146	361.94
469.365	370.94
469.585	376.94
469.804	356.94
470.023	377.94
470.243	373.94
470.462	377.94
470.681	362.94
470.901	366.94
471.12	383.94
471.339	380.94
471.558	372.94
471.777	353.94
471.997	373.94
472.216	346.94
472.435	368.94
472.654	344.94
472.873	360.94
473.092	344.94
473.311	357.94
473.53	358.94
473.749	346.94
473.968	331.94
474.187	336.94
474.406	336.94
474.625	352.94
474.844	333.94
475.063	325.94
475.282	345.94
475.501	341.94
475.72	354.94
475.939	341.94
476.158	356.94
476.377	356.94
476.596	377.94
476.814	366.94
477.033	366.94
477.252	345.94
477.471	385.94
477.69	378.94
477.908	400.94
478.127	392.94
478.346	402.94
478.564	400.94
478.783	422.94
479.002	408.94
479.22	415.94
479.439	418.94
479.658	407.94
479.876	410.94
480.095	428.94
480.313	438.94
480.532	419.94
480.751	432.94
480.969	416.94
481.188	405.94
481.406	405.94
481.624	388.94
481.843	410.94
482.061	394.94
482.28	404.94
482.498	396.94
482.717	380.94
482.935	392.94
483.153	374.94
483.372	385.94
483.59	392.94
483.808	387.94
484.027	390.94
484.245	416.94
484.463	397.94
484.681	394.94
484.9	399.94
485.118	386.94
485.336	395.94
485.554	412.94
485.772	396.94
485.99	402.94
486.209	407.94
486.427	392.94
486.645	394.94
486.863	404.94
487.081	394.94
487.299	388.94
487.517	403.94
487.735	424.94
487.953	411.94
488.171	401.94
488.389	402.94
488.607	388.94
488.825	380.94
489.043	381.94
489.261	396.94
489.479	410.94
489.696	392.94
489.914	410.94
490.132	397.94
490.35	416.94
490.568	413.94
490.786	401.94
491.003	430.94
491.221	422.94
491.439	414.94
491.657	408.94
491.874	417.94
492.092	413.94
492.31	441.94
492.527	422.94
492.745	418.94
492.963	422.94
493.18	424.94
493.398	432.94
493.615	424.94
493.833	441.94
494.05	419.94
494.268	428.94
494.485	434.94
494.703	428.94
494.92	439.94
495.138	428.94
495.355	438.94
495.573	426.94
495.79	429.94
496.008	411.94
496.225	434.94
496.442	450.94
496.66	438.94
496.877	453.94
497.094	465.94
497.312	471.94
497.529	468.94
497.746	475.94
497.963	483.94
498.181	499.94
498.398	503.94
498.615	554.94
498.832	572.94
499.049	596.94
499.267	638.94
499.484	713.94
499.701	752.94
499.918	824.94
500.135	888.94
500.352	966.94
500.569	1020.94
500.786	1009.94
501.003	935.94
501.22	858.94
501.437	768.94
501.654	706.94
501.871	673.94
502.088	628.94
