Data from Fe(NO3)3@0.05M.TitratingCurve.Agarose3%dH2O.NegLispCup.LampEnergy10.LIBS07252019_HRD10591_16-48-53-334.txt Node
Date: Thu Jul 25 16:48:53 EDT 2019
User: cochatt
Spectrometer: HR+D1059
Trigger mode: 1
Integration Time (sec): 1.000000E-1
Scans to average: 1
Electric dark correction enabled: true
Nonlinearity correction enabled: false
Boxcar width: 0
XAxis mode: Wavelengths
Number of Pixels in Spectrum: 2048
>>>>>Begin Spectral Data<<<<<
223.165	-21.5
223.4	-21.5
223.635	-21.5
223.869	-14.5
224.104	-23.5
224.338	1.5
224.573	-31.5
224.808	-3.5
225.042	-17.5
225.277	-19.5
225.511	-19.5
225.746	24.5
225.98	6.5
226.215	33.5
226.449	24.5
226.683	14.5
226.918	11.5
227.152	34.5
227.387	40.5
227.621	38.5
227.856	38.5
228.09	33.5
228.324	43.5
228.559	74.5
228.793	66.5
229.027	77.5
229.262	93.5
229.496	79.5
229.73	75.5
229.964	80.5
230.199	92.5
230.433	100.5
230.667	99.5
230.901	104.5
231.136	70.5
231.37	105.5
231.604	114.5
231.838	110.5
232.072	108.5
232.306	102.5
232.541	105.5
232.775	110.5
233.009	111.5
233.243	112.5
233.477	117.5
233.711	107.5
233.945	97.5
234.179	118.5
234.413	115.5
234.647	104.5
234.881	111.5
235.115	104.5
235.349	102.5
235.583	109.5
235.817	109.5
236.051	105.5
236.285	105.5
236.519	117.5
236.753	103.5
236.987	127.5
237.221	111.5
237.455	127.5
237.689	117.5
237.922	113.5
238.156	124.5
238.39	129.5
238.624	128.5
238.858	114.5
239.091	123.5
239.325	109.5
239.559	116.5
239.793	124.5
240.027	121.5
240.26	124.5
240.494	110.5
240.728	129.5
240.961	119.5
241.195	128.5
241.429	112.5
241.662	120.5
241.896	128.5
242.13	122.5
242.363	124.5
242.597	119.5
242.83	134.5
243.064	128.5
243.298	127.5
243.531	143.5
243.765	130.5
243.998	124.5
244.232	128.5
244.465	135.5
244.699	119.5
244.932	128.5
245.166	151.5
245.399	124.5
245.633	127.5
245.866	124.5
246.099	128.5
246.333	128.5
246.566	134.5
246.8	134.5
247.033	135.5
247.266	135.5
247.5	136.5
247.733	149.5
247.966	151.5
248.2	138.5
248.433	145.5
248.666	158.5
248.899	156.5
249.133	140.5
249.366	142.5
249.599	146.5
249.832	151.5
250.066	160.5
250.299	152.5
250.532	146.5
250.765	143.5
250.998	146.5
251.231	143.5
251.465	172.5
251.698	161.5
251.931	147.5
252.164	156.5
252.397	140.5
252.63	153.5
252.863	161.5
253.096	156.5
253.329	161.5
253.562	147.5
253.795	172.5
254.028	170.5
254.261	151.5
254.494	165.5
254.727	157.5
254.96	160.5
255.193	155.5
255.426	157.5
255.659	153.5
255.892	168.5
256.124	176.5
256.357	171.5
256.59	176.5
256.823	184.5
257.056	166.5
257.289	166.5
257.521	167.5
257.754	166.5
257.987	178.5
258.22	167.5
258.452	176.5
258.685	180.5
258.918	180.5
259.151	170.5
259.383	162.5
259.616	180.5
259.849	184.5
260.081	184.5
260.314	191.5
260.547	180.5
260.779	179.5
261.012	196.5
261.244	173.5
261.477	189.5
261.71	191.5
261.942	176.5
262.175	196.5
262.407	169.5
262.64	164.5
262.872	192.5
263.105	191.5
263.337	184.5
263.57	190.5
263.802	172.5
264.035	180.5
264.267	202.5
264.499	207.5
264.732	198.5
264.964	186.5
265.197	192.5
265.429	182.5
265.661	202.5
265.894	186.5
266.126	190.5
266.358	186.5
266.591	185.5
266.823	199.5
267.055	192.5
267.287	208.5
267.52	196.5
267.752	187.5
267.984	188.5
268.216	198.5
268.448	194.5
268.681	206.5
268.913	202.5
269.145	204.5
269.377	185.5
269.609	198.5
269.841	196.5
270.073	193.5
270.306	203.5
270.538	198.5
270.77	201.5
271.002	205.5
271.234	198.5
271.466	207.5
271.698	193.5
271.93	206.5
272.162	209.5
272.394	202.5
272.626	211.5
272.858	216.5
273.09	208.5
273.322	204.5
273.553	209.5
273.785	213.5
274.017	241.5
274.249	235.5
274.481	222.5
274.713	221.5
274.945	219.5
275.176	231.5
275.408	216.5
275.64	215.5
275.872	221.5
276.104	220.5
276.335	228.5
276.567	221.5
276.799	246.5
277.031	215.5
277.262	237.5
277.494	221.5
277.726	230.5
277.957	222.5
278.189	216.5
278.421	230.5
278.652	224.5
278.884	227.5
279.115	229.5
279.347	217.5
279.579	237.5
279.81	223.5
280.042	210.5
280.273	245.5
280.505	235.5
280.736	247.5
280.968	229.5
281.199	231.5
281.431	243.5
281.662	248.5
281.894	230.5
282.125	218.5
282.356	239.5
282.588	240.5
282.819	227.5
283.051	258.5
283.282	231.5
283.513	251.5
283.745	257.5
283.976	252.5
284.207	232.5
284.439	241.5
284.67	243.5
284.901	229.5
285.132	238.5
285.364	240.5
285.595	267.5
285.826	244.5
286.057	256.5
286.288	248.5
286.52	246.5
286.751	251.5
286.982	251.5
287.213	261.5
287.444	252.5
287.675	260.5
287.906	257.5
288.138	268.5
288.369	265.5
288.6	254.5
288.831	254.5
289.062	241.5
289.293	270.5
289.524	253.5
289.755	262.5
289.986	251.5
290.217	268.5
290.448	269.5
290.679	260.5
290.91	264.5
291.141	255.5
291.371	259.5
291.602	266.5
291.833	258.5
292.064	263.5
292.295	283.5
292.526	272.5
292.757	247.5
292.987	275.5
293.218	274.5
293.449	274.5
293.68	264.5
293.91	268.5
294.141	237.5
294.372	262.5
294.603	296.5
294.833	288.5
295.064	274.5
295.295	272.5
295.525	263.5
295.756	281.5
295.987	272.5
296.217	268.5
296.448	265.5
296.679	289.5
296.909	260.5
297.14	270.5
297.37	291.5
297.601	285.5
297.831	272.5
298.062	274.5
298.292	277.5
298.523	300.5
298.753	287.5
298.984	276.5
299.214	267.5
299.445	283.5
299.675	295.5
299.905	265.5
300.136	290.5
300.366	272.5
300.597	300.5
300.827	292.5
301.057	306.5
301.288	306.5
301.518	295.5
301.748	314.5
301.979	300.5
302.209	296.5
302.439	289.5
302.669	287.5
302.9	289.5
303.13	284.5
303.36	289.5
303.59	281.5
303.82	300.5
304.051	297.5
304.281	294.5
304.511	306.5
304.741	286.5
304.971	301.5
305.201	285.5
305.431	313.5
305.661	295.5
305.891	293.5
306.121	308.5
306.352	279.5
306.582	304.5
306.812	304.5
307.042	320.5
307.272	286.5
307.502	301.5
307.731	290.5
307.961	288.5
308.191	285.5
308.421	315.5
308.651	286.5
308.881	261.5
309.111	300.5
309.341	276.5
309.571	300.5
309.8	292.5
310.03	296.5
310.26	289.5
310.49	291.5
310.72	285.5
310.949	275.5
311.179	310.5
311.409	306.5
311.639	315.5
311.868	315.5
312.098	310.5
312.328	314.5
312.557	300.5
312.787	311.5
313.017	289.5
313.246	323.5
313.476	306.5
313.706	310.5
313.935	316.5
314.165	306.5
314.394	322.5
314.624	325.5
314.853	312.5
315.083	310.5
315.312	311.5
315.542	318.5
315.771	316.5
316.001	312.5
316.23	323.5
316.46	314.5
316.689	328.5
316.919	328.5
317.148	293.5
317.377	317.5
317.607	308.5
317.836	298.5
318.065	310.5
318.295	322.5
318.524	301.5
318.753	341.5
318.983	308.5
319.212	305.5
319.441	301.5
319.67	312.5
319.9	312.5
320.129	308.5
320.358	325.5
320.587	312.5
320.816	315.5
321.046	313.5
321.275	314.5
321.504	299.5
321.733	314.5
321.962	315.5
322.191	322.5
322.42	318.5
322.649	313.5
322.878	318.5
323.108	330.5
323.337	320.5
323.566	325.5
323.795	342.5
324.024	331.5
324.253	329.5
324.482	320.5
324.71	316.5
324.939	339.5
325.168	342.5
325.397	332.5
325.626	331.5
325.855	347.5
326.084	349.5
326.313	345.5
326.542	333.5
326.77	335.5
326.999	331.5
327.228	343.5
327.457	338.5
327.686	341.5
327.914	318.5
328.143	336.5
328.372	343.5
328.6	328.5
328.829	335.5
329.058	342.5
329.287	340.5
329.515	320.5
329.744	343.5
329.972	361.5
330.201	365.5
330.43	361.5
330.658	333.5
330.887	344.5
331.115	347.5
331.344	356.5
331.572	374.5
331.801	380.5
332.03	377.5
332.258	398.5
332.486	374.5
332.715	380.5
332.943	404.5
333.172	389.5
333.4	412.5
333.629	420.5
333.857	410.5
334.085	422.5
334.314	403.5
334.542	411.5
334.771	404.5
334.999	410.5
335.227	404.5
335.455	424.5
335.684	436.5
335.912	412.5
336.14	385.5
336.369	390.5
336.597	404.5
336.825	384.5
337.053	401.5
337.281	406.5
337.51	400.5
337.738	370.5
337.966	370.5
338.194	384.5
338.422	367.5
338.65	376.5
338.878	373.5
339.106	354.5
339.334	374.5
339.562	362.5
339.79	367.5
340.018	364.5
340.246	363.5
340.474	372.5
340.702	344.5
340.93	358.5
341.158	378.5
341.386	368.5
341.614	353.5
341.842	354.5
342.07	349.5
342.298	360.5
342.526	361.5
342.754	361.5
342.981	370.5
343.209	349.5
343.437	370.5
343.665	410.5
343.893	412.5
344.12	399.5
344.348	406.5
344.576	388.5
344.804	393.5
345.031	374.5
345.259	369.5
345.487	349.5
345.714	356.5
345.942	333.5
346.17	361.5
346.397	341.5
346.625	349.5
346.853	351.5
347.08	356.5
347.308	360.5
347.535	348.5
347.763	330.5
347.99	346.5
348.218	362.5
348.445	342.5
348.673	344.5
348.9	345.5
349.128	352.5
349.355	340.5
349.583	369.5
349.81	339.5
350.037	340.5
350.265	338.5
350.492	317.5
350.72	334.5
350.947	345.5
351.174	336.5
351.402	347.5
351.629	333.5
351.856	318.5
352.083	326.5
352.311	339.5
352.538	340.5
352.765	331.5
352.992	330.5
353.22	338.5
353.447	330.5
353.674	341.5
353.901	339.5
354.128	318.5
354.355	340.5
354.583	331.5
354.81	333.5
355.037	341.5
355.264	345.5
355.491	356.5
355.718	349.5
355.945	353.5
356.172	356.5
356.399	328.5
356.626	324.5
356.853	348.5
357.08	336.5
357.307	349.5
357.534	338.5
357.761	363.5
357.988	370.5
358.215	335.5
358.441	364.5
358.668	328.5
358.895	337.5
359.122	358.5
359.349	325.5
359.576	337.5
359.802	326.5
360.029	342.5
360.256	326.5
360.483	337.5
360.709	334.5
360.936	336.5
361.163	342.5
361.39	352.5
361.616	343.5
361.843	359.5
362.07	350.5
362.296	342.5
362.523	343.5
362.749	345.5
362.976	352.5
363.203	361.5
363.429	354.5
363.656	335.5
363.882	343.5
364.109	364.5
364.335	324.5
364.562	331.5
364.788	334.5
365.015	341.5
365.241	347.5
365.468	362.5
365.694	337.5
365.92	336.5
366.147	354.5
366.373	345.5
366.599	341.5
366.826	357.5
367.052	349.5
367.278	344.5
367.505	342.5
367.731	344.5
367.957	343.5
368.184	356.5
368.41	353.5
368.636	346.5
368.862	349.5
369.089	360.5
369.315	354.5
369.541	368.5
369.767	358.5
369.993	365.5
370.219	350.5
370.445	352.5
370.672	378.5
370.898	370.5
371.124	371.5
371.35	367.5
371.576	371.5
371.802	391.5
372.028	399.5
372.254	374.5
372.48	372.5
372.706	372.5
372.932	392.5
373.158	386.5
373.384	378.5
373.61	395.5
373.835	356.5
374.061	382.5
374.287	386.5
374.513	378.5
374.739	401.5
374.965	409.5
375.191	412.5
375.416	412.5
375.642	397.5
375.868	400.5
376.094	400.5
376.319	393.5
376.545	380.5
376.771	402.5
376.997	389.5
377.222	362.5
377.448	393.5
377.674	373.5
377.899	368.5
378.125	377.5
378.35	368.5
378.576	360.5
378.802	372.5
379.027	372.5
379.253	389.5
379.478	376.5
379.704	390.5
379.929	370.5
380.155	385.5
380.38	371.5
380.606	374.5
380.831	363.5
381.057	386.5
381.282	370.5
381.507	385.5
381.733	380.5
381.958	382.5
382.184	373.5
382.409	406.5
382.634	412.5
382.86	398.5
383.085	414.5
383.31	377.5
383.535	397.5
383.761	416.5
383.986	429.5
384.211	418.5
384.436	441.5
384.662	438.5
384.887	450.5
385.112	430.5
385.337	440.5
385.562	426.5
385.787	444.5
386.013	448.5
386.238	432.5
386.463	413.5
386.688	442.5
386.913	448.5
387.138	429.5
387.363	426.5
387.588	447.5
387.813	459.5
388.038	449.5
388.263	456.5
388.488	439.5
388.713	446.5
388.938	446.5
389.163	433.5
389.387	444.5
389.612	442.5
389.837	459.5
390.062	443.5
390.287	454.5
390.512	457.5
390.736	463.5
390.961	455.5
391.186	454.5
391.411	464.5
391.636	471.5
391.86	493.5
392.085	512.5
392.31	492.5
392.534	477.5
392.759	496.5
392.984	467.5
393.208	484.5
393.433	477.5
393.658	462.5
393.882	462.5
394.107	467.5
394.331	473.5
394.556	454.5
394.78	488.5
395.005	478.5
395.229	481.5
395.454	498.5
395.678	489.5
395.903	491.5
396.127	510.5
396.352	488.5
396.576	469.5
396.801	469.5
397.025	483.5
397.249	503.5
397.474	506.5
397.698	504.5
397.922	514.5
398.147	508.5
398.371	534.5
398.595	554.5
398.82	565.5
399.044	562.5
399.268	612.5
399.492	680.5
399.717	747.5
399.941	731.5
400.165	688.5
400.389	631.5
400.613	580.5
400.837	564.5
401.062	599.5
401.286	578.5
401.51	565.5
401.734	548.5
401.958	562.5
402.182	568.5
402.406	566.5
402.63	547.5
402.854	583.5
403.078	562.5
403.302	586.5
403.526	597.5
403.75	596.5
403.974	607.5
404.198	617.5
404.422	608.5
404.645	610.5
404.869	599.5
405.093	582.5
405.317	593.5
405.541	612.5
405.765	602.5
405.988	586.5
406.212	609.5
406.436	584.5
406.66	611.5
406.883	604.5
407.107	629.5
407.331	648.5
407.555	667.5
407.778	674.5
408.002	675.5
408.226	618.5
408.449	640.5
408.673	628.5
408.896	607.5
409.12	616.5
409.344	592.5
409.567	613.5
409.791	612.5
410.014	612.5
410.238	614.5
410.461	608.5
410.685	599.5
410.908	599.5
411.132	563.5
411.355	556.5
411.578	564.5
411.802	577.5
412.025	578.5
412.249	580.5
412.472	577.5
412.695	580.5
412.919	564.5
413.142	547.5
413.365	550.5
413.589	563.5
413.812	570.5
414.035	574.5
414.258	564.5
414.482	572.5
414.705	574.5
414.928	562.5
415.151	577.5
415.374	571.5
415.597	567.5
415.821	544.5
416.044	532.5
416.267	552.5
416.49	541.5
416.713	548.5
416.936	536.5
417.159	529.5
417.382	545.5
417.605	541.5
417.828	542.5
418.051	544.5
418.274	578.5
418.497	536.5
418.72	553.5
418.943	561.5
419.166	587.5
419.389	584.5
419.611	594.5
419.834	585.5
420.057	576.5
420.28	542.5
420.503	568.5
420.726	536.5
420.948	551.5
421.171	522.5
421.394	527.5
421.617	546.5
421.839	547.5
422.062	551.5
422.285	532.5
422.507	553.5
422.73	554.5
422.953	549.5
423.175	527.5
423.398	568.5
423.621	562.5
423.843	566.5
424.066	561.5
424.288	554.5
424.511	538.5
424.733	553.5
424.956	577.5
425.178	550.5
425.401	548.5
425.623	538.5
425.846	537.5
426.068	537.5
426.291	532.5
426.513	511.5
426.735	524.5
426.958	520.5
427.18	523.5
427.402	532.5
427.625	499.5
427.847	516.5
428.069	511.5
428.292	500.5
428.514	512.5
428.736	500.5
428.958	501.5
429.181	494.5
429.403	512.5
429.625	493.5
429.847	495.5
430.069	500.5
430.292	499.5
430.514	505.5
430.736	531.5
430.958	474.5
431.18	499.5
431.402	502.5
431.624	526.5
431.846	509.5
432.068	497.5
432.29	502.5
432.512	500.5
432.734	514.5
432.956	512.5
433.178	534.5
433.4	525.5
433.622	533.5
433.844	525.5
434.066	513.5
434.287	517.5
434.509	540.5
434.731	534.5
434.953	547.5
435.175	541.5
435.397	547.5
435.618	528.5
435.84	521.5
436.062	533.5
436.284	520.5
436.505	500.5
436.727	512.5
436.949	520.5
437.17	516.5
437.392	500.5
437.614	505.5
437.835	486.5
438.057	485.5
438.278	491.5
438.5	505.5
438.721	500.5
438.943	502.5
439.165	481.5
439.386	490.5
439.608	519.5
439.829	513.5
440.05	529.5
440.272	505.5
440.493	502.5
440.715	515.5
440.936	510.5
441.158	549.5
441.379	520.5
441.6	573.5
441.822	557.5
442.043	569.5
442.264	538.5
442.486	544.5
442.707	542.5
442.928	552.5
443.149	561.5
443.371	545.5
443.592	563.5
443.813	569.5
444.034	571.5
444.255	570.5
444.476	578.5
444.698	587.5
444.919	606.5
445.14	720.5
445.361	638.5
445.582	588.5
445.803	555.5
446.024	530.5
446.245	524.5
446.466	540.5
446.687	516.5
446.908	532.5
447.129	522.5
447.35	504.5
447.571	509.5
447.792	497.5
448.013	483.5
448.234	486.5
448.455	481.5
448.675	487.5
448.896	485.5
449.117	455.5
449.338	496.5
449.559	465.5
449.779	481.5
450	487.5
450.221	471.5
450.442	497.5
450.662	474.5
450.883	499.5
451.104	487.5
451.324	488.5
451.545	487.5
451.766	463.5
451.986	469.5
452.207	460.5
452.428	464.5
452.648	471.5
452.869	471.5
453.089	431.5
453.31	450.5
453.53	457.5
453.751	458.5
453.971	473.5
454.192	463.5
454.412	458.5
454.633	452.5
454.853	445.5
455.073	464.5
455.294	446.5
455.514	438.5
455.734	452.5
455.955	444.5
456.175	445.5
456.395	442.5
456.616	408.5
456.836	423.5
457.056	460.5
457.276	438.5
457.497	453.5
457.717	427.5
457.937	448.5
458.157	454.5
458.377	461.5
458.598	465.5
458.818	466.5
459.038	483.5
459.258	482.5
459.478	517.5
459.698	516.5
459.918	527.5
460.138	564.5
460.358	579.5
460.578	564.5
460.798	583.5
461.018	562.5
461.238	560.5
461.458	572.5
461.678	569.5
461.898	574.5
462.118	599.5
462.338	620.5
462.558	625.5
462.777	634.5
462.997	657.5
463.217	686.5
463.437	716.5
463.657	676.5
463.876	650.5
464.096	644.5
464.316	633.5
464.536	654.5
464.755	650.5
464.975	607.5
465.195	616.5
465.414	560.5
465.634	560.5
465.854	561.5
466.073	538.5
466.293	513.5
466.512	522.5
466.732	523.5
466.951	491.5
467.171	488.5
467.391	500.5
467.61	493.5
467.829	478.5
468.049	499.5
468.268	500.5
468.488	474.5
468.707	500.5
468.927	459.5
469.146	470.5
469.365	474.5
469.585	481.5
469.804	505.5
470.023	500.5
470.243	503.5
470.462	506.5
470.681	515.5
470.901	503.5
471.12	505.5
471.339	498.5
471.558	496.5
471.777	475.5
471.997	475.5
472.216	485.5
472.435	468.5
472.654	462.5
472.873	461.5
473.092	462.5
473.311	461.5
473.53	463.5
473.749	470.5
473.968	473.5
474.187	478.5
474.406	478.5
474.625	484.5
474.844	462.5
475.063	474.5
475.282	477.5
475.501	454.5
475.72	472.5
475.939	467.5
476.158	503.5
476.377	490.5
476.596	478.5
476.814	487.5
477.033	498.5
477.252	504.5
477.471	505.5
477.69	528.5
477.908	546.5
478.127	537.5
478.346	528.5
478.564	568.5
478.783	557.5
479.002	551.5
479.22	554.5
479.439	560.5
479.658	553.5
479.876	540.5
480.095	558.5
480.313	563.5
480.532	590.5
480.751	584.5
480.969	561.5
481.188	535.5
481.406	542.5
481.624	530.5
481.843	555.5
482.061	536.5
482.28	517.5
482.498	530.5
482.717	516.5
482.935	524.5
483.153	548.5
483.372	518.5
483.59	530.5
483.808	526.5
484.027	548.5
484.245	520.5
484.463	541.5
484.681	538.5
484.9	531.5
485.118	544.5
485.336	524.5
485.554	534.5
485.772	543.5
485.99	531.5
486.209	584.5
486.427	540.5
486.645	539.5
486.863	549.5
487.081	548.5
487.299	539.5
487.517	533.5
487.735	533.5
487.953	532.5
488.171	549.5
488.389	553.5
488.607	514.5
488.825	568.5
489.043	535.5
489.261	533.5
489.479	550.5
489.696	562.5
489.914	536.5
490.132	558.5
490.35	562.5
490.568	549.5
490.786	543.5
491.003	555.5
491.221	542.5
491.439	560.5
491.657	580.5
491.874	546.5
492.092	547.5
492.31	583.5
492.527	576.5
492.745	581.5
492.963	565.5
493.18	571.5
493.398	581.5
493.615	582.5
493.833	569.5
494.05	592.5
494.268	568.5
494.485	587.5
494.703	570.5
494.92	583.5
495.138	584.5
495.355	579.5
495.573	597.5
495.79	586.5
496.008	596.5
496.225	584.5
496.442	582.5
496.66	611.5
496.877	610.5
497.094	606.5
497.312	620.5
497.529	636.5
497.746	659.5
497.963	664.5
498.181	677.5
498.398	729.5
498.615	741.5
498.832	797.5
499.049	819.5
499.267	847.5
499.484	932.5
499.701	990.5
499.918	1062.5
500.135	1195.5
500.352	1324.5
500.569	1316.5
500.786	1354.5
501.003	1256.5
501.22	1170.5
501.437	1048.5
501.654	977.5
501.871	894.5
502.088	871.5
502.305	822.5
502.522	790.5
502.739	751.5
502.956	738.5
503.172	727.5
503.389	678.5
503.606	652.5
503.823	658.5
504.04	650.5
504.256	644.5
504.473	649.5
504.69	661.5
504.907	649.5
505.123	608.5
505.34	599.5
505.557	576.5
505.773	552.5
505.99	539.5
506.207	555.5
506.423	548.5
506.64	529.5
506.856	520.5
507.073	505.5
507.289	508.5
507.506	524.5
507.722	529.5
507.939	490.5
508.155	508.5
508.372	488.5
508.588	495.5
508.805	511.5
509.021	470.5
509.238	479.5
509.454	490.5
509.67	473.5
509.887	460.5
510.103	453.5
510.319	467.5
510.536	466.5
510.752	473.5
510.968	483.5
511.184	476.5
511.401	466.5
511.617	472.5
511.833	489.5
512.049	477.5
512.265	453.5
512.481	477.5
512.698	473.5
512.914	488.5
513.13	466.5
513.346	442.5
513.562	477.5
513.778	473.5
513.994	456.5
514.21	449.5
514.426	468.5
514.642	459.5
514.858	477.5
515.074	492.5
515.29	489.5
515.506	487.5
515.721	512.5
515.937	512.5
516.153	513.5
516.369	510.5
516.585	540.5
516.801	531.5
517.016	525.5
517.232	560.5
517.448	591.5
517.664	575.5
517.879	592.5
518.095	580.5
518.311	594.5
518.527	557.5
518.742	535.5
518.958	544.5
519.173	533.5
519.389	502.5
