Data from Fe(NO3)3@0.1M.TitratingCurve.Agarose3%dH2O.NegLispCup.LampEnergy10.LIBS07252019_HRD10591_16-39-55-333.txt Node
Date: Thu Jul 25 16:39:55 EDT 2019
User: cochatt
Spectrometer: HR+D1059
Trigger mode: 1
Integration Time (sec): 1.000000E-1
Scans to average: 1
Electric dark correction enabled: true
Nonlinearity correction enabled: false
Boxcar width: 0
XAxis mode: Wavelengths
Number of Pixels in Spectrum: 2048
>>>>>Begin Spectral Data<<<<<
223.165	-9.75
223.4	-9.75
223.635	-9.75
223.869	-21.75
224.104	-26.75
224.338	-9.75
224.573	-13.75
224.808	-13.75
225.042	11.25
225.277	-6.75
225.511	-6.75
225.746	-12.75
225.98	7.25
226.215	18.25
226.449	3.25
226.683	16.25
226.918	35.25
227.152	30.25
227.387	51.25
227.621	33.25
227.856	41.25
228.09	66.25
228.324	31.25
228.559	63.25
228.793	58.25
229.027	90.25
229.262	59.25
229.496	67.25
229.73	83.25
229.964	98.25
230.199	86.25
230.433	104.25
230.667	106.25
230.901	99.25
231.136	102.25
231.37	100.25
231.604	108.25
231.838	112.25
232.072	91.25
232.306	110.25
232.541	101.25
232.775	100.25
233.009	97.25
233.243	111.25
233.477	105.25
233.711	114.25
233.945	101.25
234.179	108.25
234.413	108.25
234.647	94.25
234.881	104.25
235.115	107.25
235.349	106.25
235.583	90.25
235.817	112.25
236.051	93.25
236.285	120.25
236.519	104.25
236.753	123.25
236.987	110.25
237.221	116.25
237.455	108.25
237.689	101.25
237.922	101.25
238.156	109.25
238.39	103.25
238.624	127.25
238.858	127.25
239.091	113.25
239.325	118.25
239.559	134.25
239.793	117.25
240.027	123.25
240.26	126.25
240.494	121.25
240.728	127.25
240.961	133.25
241.195	131.25
241.429	128.25
241.662	123.25
241.896	122.25
242.13	129.25
242.363	126.25
242.597	121.25
242.83	129.25
243.064	116.25
243.298	137.25
243.531	134.25
243.765	133.25
243.998	131.25
244.232	131.25
244.465	136.25
244.699	121.25
244.932	132.25
245.166	131.25
245.399	137.25
245.633	139.25
245.866	132.25
246.099	125.25
246.333	131.25
246.566	135.25
246.8	140.25
247.033	131.25
247.266	135.25
247.5	155.25
247.733	128.25
247.966	128.25
248.2	140.25
248.433	142.25
248.666	143.25
248.899	148.25
249.133	127.25
249.366	148.25
249.599	141.25
249.832	149.25
250.066	148.25
250.299	143.25
250.532	147.25
250.765	131.25
250.998	155.25
251.231	141.25
251.465	155.25
251.698	148.25
251.931	138.25
252.164	149.25
252.397	159.25
252.63	153.25
252.863	158.25
253.096	153.25
253.329	146.25
253.562	147.25
253.795	158.25
254.028	174.25
254.261	164.25
254.494	169.25
254.727	168.25
254.96	156.25
255.193	161.25
255.426	146.25
255.659	163.25
255.892	182.25
256.124	165.25
256.357	177.25
256.59	180.25
256.823	178.25
257.056	170.25
257.289	179.25
257.521	160.25
257.754	165.25
257.987	186.25
258.22	177.25
258.452	152.25
258.685	162.25
258.918	190.25
259.151	184.25
259.383	194.25
259.616	167.25
259.849	179.25
260.081	182.25
260.314	189.25
260.547	175.25
260.779	185.25
261.012	169.25
261.244	170.25
261.477	188.25
261.71	167.25
261.942	201.25
262.175	170.25
262.407	191.25
262.64	177.25
262.872	201.25
263.105	175.25
263.337	190.25
263.57	184.25
263.802	180.25
264.035	177.25
264.267	166.25
264.499	177.25
264.732	174.25
264.964	189.25
265.197	183.25
265.429	199.25
265.661	201.25
265.894	183.25
266.126	217.25
266.358	181.25
266.591	195.25
266.823	200.25
267.055	194.25
267.287	192.25
267.52	197.25
267.752	197.25
267.984	208.25
268.216	212.25
268.448	199.25
268.681	197.25
268.913	207.25
269.145	213.25
269.377	210.25
269.609	185.25
269.841	193.25
270.073	192.25
270.306	218.25
270.538	202.25
270.77	188.25
271.002	200.25
271.234	224.25
271.466	202.25
271.698	208.25
271.93	215.25
272.162	207.25
272.394	212.25
272.626	218.25
272.858	206.25
273.09	207.25
273.322	212.25
273.553	218.25
273.785	231.25
274.017	229.25
274.249	222.25
274.481	219.25
274.713	208.25
274.945	226.25
275.176	214.25
275.408	219.25
275.64	232.25
275.872	228.25
276.104	226.25
276.335	227.25
276.567	224.25
276.799	222.25
277.031	212.25
277.262	195.25
277.494	216.25
277.726	235.25
277.957	227.25
278.189	236.25
278.421	237.25
278.652	226.25
278.884	226.25
279.115	248.25
279.347	226.25
279.579	253.25
279.81	222.25
280.042	234.25
280.273	237.25
280.505	233.25
280.736	234.25
280.968	219.25
281.199	229.25
281.431	218.25
281.662	233.25
281.894	232.25
282.125	228.25
282.356	264.25
282.588	241.25
282.819	266.25
283.051	266.25
283.282	250.25
283.513	234.25
283.745	257.25
283.976	243.25
284.207	260.25
284.439	235.25
284.67	239.25
284.901	267.25
285.132	244.25
285.364	261.25
285.595	245.25
285.826	255.25
286.057	257.25
286.288	260.25
286.52	257.25
286.751	249.25
286.982	252.25
287.213	257.25
287.444	274.25
287.675	279.25
287.906	249.25
288.138	265.25
288.369	261.25
288.6	267.25
288.831	258.25
289.062	268.25
289.293	271.25
289.524	272.25
289.755	265.25
289.986	278.25
290.217	275.25
290.448	263.25
290.679	267.25
290.91	250.25
291.141	251.25
291.371	262.25
291.602	259.25
291.833	281.25
292.064	235.25
292.295	269.25
292.526	265.25
292.757	268.25
292.987	261.25
293.218	267.25
293.449	263.25
293.68	287.25
293.91	287.25
294.141	254.25
294.372	269.25
294.603	283.25
294.833	278.25
295.064	270.25
295.295	262.25
295.525	268.25
295.756	266.25
295.987	271.25
296.217	273.25
296.448	265.25
296.679	277.25
296.909	284.25
297.14	279.25
297.37	280.25
297.601	302.25
297.831	287.25
298.062	262.25
298.292	293.25
298.523	299.25
298.753	292.25
298.984	296.25
299.214	279.25
299.445	287.25
299.675	290.25
299.905	302.25
300.136	294.25
300.366	292.25
300.597	296.25
300.827	287.25
301.057	301.25
301.288	306.25
301.518	292.25
301.748	289.25
301.979	306.25
302.209	303.25
302.439	302.25
302.669	309.25
302.9	297.25
303.13	299.25
303.36	298.25
303.59	279.25
303.82	293.25
304.051	289.25
304.281	311.25
304.511	309.25
304.741	296.25
304.971	281.25
305.201	294.25
305.431	294.25
305.661	303.25
305.891	302.25
306.121	309.25
306.352	291.25
306.582	284.25
306.812	284.25
307.042	303.25
307.272	302.25
307.502	288.25
307.731	295.25
307.961	310.25
308.191	314.25
308.421	309.25
308.651	302.25
308.881	297.25
309.111	298.25
309.341	303.25
309.571	311.25
309.8	285.25
310.03	298.25
310.26	265.25
310.49	297.25
310.72	278.25
310.949	311.25
311.179	300.25
311.409	305.25
311.639	291.25
311.868	302.25
312.098	332.25
312.328	317.25
312.557	297.25
312.787	321.25
313.017	321.25
313.246	334.25
313.476	303.25
313.706	338.25
313.935	332.25
314.165	310.25
314.394	313.25
314.624	337.25
314.853	316.25
315.083	298.25
315.312	320.25
315.542	316.25
315.771	307.25
316.001	321.25
316.23	320.25
316.46	302.25
316.689	312.25
316.919	323.25
317.148	326.25
317.377	326.25
317.607	299.25
317.836	313.25
318.065	319.25
318.295	333.25
318.524	312.25
318.753	325.25
318.983	315.25
319.212	309.25
319.441	314.25
319.67	298.25
319.9	321.25
320.129	314.25
320.358	325.25
320.587	331.25
320.816	322.25
321.046	335.25
321.275	323.25
321.504	317.25
321.733	315.25
321.962	327.25
322.191	324.25
322.42	312.25
322.649	330.25
322.878	330.25
323.108	317.25
323.337	315.25
323.566	312.25
323.795	345.25
324.024	326.25
324.253	336.25
324.482	328.25
324.71	314.25
324.939	334.25
325.168	334.25
325.397	315.25
325.626	334.25
325.855	333.25
326.084	366.25
326.313	344.25
326.542	359.25
326.77	349.25
326.999	355.25
327.228	327.25
327.457	338.25
327.686	355.25
327.914	342.25
328.143	339.25
328.372	323.25
328.6	331.25
328.829	340.25
329.058	345.25
329.287	362.25
329.515	335.25
329.744	350.25
329.972	366.25
330.201	348.25
330.43	354.25
330.658	353.25
330.887	353.25
331.115	346.25
331.344	351.25
331.572	372.25
331.801	376.25
332.03	364.25
332.258	381.25
332.486	403.25
332.715	389.25
332.943	393.25
333.172	425.25
333.4	429.25
333.629	456.25
333.857	435.25
334.085	451.25
334.314	430.25
334.542	435.25
334.771	413.25
334.999	409.25
335.227	413.25
335.455	422.25
335.684	425.25
335.912	410.25
336.14	404.25
336.369	395.25
336.597	398.25
336.825	418.25
337.053	407.25
337.281	429.25
337.51	416.25
337.738	393.25
337.966	395.25
338.194	409.25
338.422	364.25
338.65	368.25
338.878	385.25
339.106	373.25
339.334	400.25
339.562	386.25
339.79	364.25
340.018	367.25
340.246	368.25
340.474	379.25
340.702	362.25
340.93	364.25
341.158	361.25
341.386	348.25
341.614	381.25
341.842	359.25
342.07	360.25
342.298	360.25
342.526	353.25
342.754	385.25
342.981	363.25
343.209	377.25
343.437	377.25
343.665	393.25
343.893	405.25
344.12	426.25
344.348	412.25
344.576	395.25
344.804	389.25
345.031	390.25
345.259	381.25
345.487	370.25
345.714	361.25
345.942	353.25
346.17	357.25
346.397	359.25
346.625	349.25
346.853	356.25
347.08	347.25
347.308	377.25
347.535	361.25
347.763	339.25
347.99	355.25
348.218	338.25
348.445	346.25
348.673	347.25
348.9	351.25
349.128	353.25
349.355	350.25
349.583	365.25
349.81	345.25
350.037	345.25
350.265	336.25
350.492	332.25
350.72	333.25
350.947	344.25
351.174	343.25
351.402	329.25
351.629	351.25
351.856	330.25
352.083	356.25
352.311	341.25
352.538	351.25
352.765	347.25
352.992	335.25
353.22	337.25
353.447	332.25
353.674	351.25
353.901	360.25
354.128	356.25
354.355	345.25
354.583	336.25
354.81	341.25
355.037	345.25
355.264	346.25
355.491	344.25
355.718	346.25
355.945	350.25
356.172	354.25
356.399	346.25
356.626	325.25
356.853	351.25
357.08	364.25
357.307	355.25
357.534	343.25
357.761	356.25
357.988	345.25
358.215	334.25
358.441	357.25
358.668	350.25
358.895	353.25
359.122	355.25
359.349	349.25
359.576	356.25
359.802	351.25
360.029	350.25
360.256	364.25
360.483	349.25
360.709	372.25
360.936	351.25
361.163	356.25
361.39	365.25
361.616	365.25
361.843	366.25
362.07	358.25
362.296	349.25
362.523	354.25
362.749	361.25
362.976	373.25
363.203	346.25
363.429	361.25
363.656	349.25
363.882	358.25
364.109	339.25
364.335	348.25
364.562	345.25
364.788	353.25
365.015	361.25
365.241	355.25
365.468	325.25
365.694	347.25
365.92	350.25
366.147	357.25
366.373	349.25
366.599	350.25
366.826	347.25
367.052	354.25
367.278	361.25
367.505	354.25
367.731	370.25
367.957	356.25
368.184	370.25
368.41	356.25
368.636	357.25
368.862	344.25
369.089	377.25
369.315	359.25
369.541	368.25
369.767	369.25
369.993	371.25
370.219	355.25
370.445	373.25
370.672	374.25
370.898	385.25
371.124	368.25
371.35	387.25
371.576	389.25
371.802	388.25
372.028	371.25
372.254	393.25
372.48	402.25
372.706	395.25
372.932	387.25
373.158	397.25
373.384	396.25
373.61	377.25
373.835	387.25
374.061	373.25
374.287	399.25
374.513	400.25
374.739	406.25
374.965	417.25
375.191	426.25
375.416	417.25
375.642	397.25
375.868	397.25
376.094	396.25
376.319	417.25
376.545	405.25
376.771	387.25
376.997	374.25
377.222	381.25
377.448	369.25
377.674	379.25
377.899	380.25
378.125	373.25
378.35	398.25
378.576	393.25
378.802	383.25
379.027	397.25
379.253	391.25
379.478	383.25
379.704	378.25
379.929	385.25
380.155	373.25
380.38	381.25
380.606	391.25
380.831	400.25
381.057	377.25
381.282	391.25
381.507	398.25
381.733	394.25
381.958	379.25
382.184	401.25
382.409	394.25
382.634	382.25
382.86	399.25
383.085	405.25
383.31	418.25
383.535	406.25
383.761	402.25
383.986	426.25
384.211	417.25
384.436	430.25
384.662	443.25
384.887	435.25
385.112	436.25
385.337	475.25
385.562	464.25
385.787	452.25
386.013	458.25
386.238	424.25
386.463	436.25
386.688	445.25
386.913	441.25
387.138	436.25
387.363	428.25
387.588	449.25
387.813	474.25
388.038	444.25
388.263	442.25
388.488	478.25
388.713	472.25
388.938	444.25
389.163	465.25
389.387	462.25
389.612	462.25
389.837	457.25
390.062	451.25
390.287	421.25
390.512	452.25
390.736	465.25
390.961	458.25
391.186	483.25
391.411	478.25
391.636	506.25
391.86	479.25
392.085	507.25
392.31	488.25
392.534	494.25
392.759	485.25
392.984	457.25
393.208	474.25
393.433	474.25
393.658	462.25
393.882	483.25
394.107	475.25
394.331	494.25
394.556	471.25
394.78	501.25
395.005	481.25
395.229	494.25
395.454	516.25
395.678	491.25
395.903	511.25
396.127	523.25
396.352	499.25
396.576	488.25
396.801	484.25
397.025	462.25
397.249	521.25
397.474	487.25
397.698	507.25
397.922	507.25
398.147	538.25
398.371	529.25
398.595	549.25
398.82	565.25
399.044	582.25
399.268	622.25
399.492	682.25
399.717	759.25
399.941	736.25
400.165	685.25
400.389	632.25
400.613	606.25
400.837	588.25
401.062	569.25
401.286	557.25
401.51	561.25
401.734	561.25
401.958	568.25
402.182	565.25
402.406	574.25
402.63	563.25
402.854	577.25
403.078	590.25
403.302	603.25
403.526	604.25
403.75	609.25
403.974	608.25
404.198	602.25
404.422	607.25
404.645	615.25
404.869	618.25
405.093	621.25
405.317	606.25
405.541	607.25
405.765	618.25
405.988	587.25
406.212	606.25
406.436	612.25
406.66	626.25
406.883	629.25
407.107	630.25
407.331	668.25
407.555	680.25
407.778	690.25
408.002	645.25
408.226	654.25
408.449	646.25
408.673	646.25
408.896	651.25
409.12	628.25
409.344	635.25
409.567	604.25
409.791	620.25
410.014	607.25
410.238	609.25
410.461	624.25
410.685	588.25
410.908	609.25
411.132	619.25
411.355	605.25
411.578	602.25
411.802	602.25
412.025	595.25
412.249	601.25
412.472	591.25
412.695	569.25
412.919	571.25
413.142	585.25
413.365	551.25
413.589	562.25
413.812	579.25
414.035	576.25
414.258	591.25
414.482	567.25
414.705	561.25
414.928	588.25
415.151	583.25
415.374	554.25
415.597	578.25
415.821	559.25
416.044	525.25
416.267	561.25
416.49	530.25
416.713	556.25
416.936	557.25
417.159	535.25
417.382	542.25
417.605	568.25
417.828	557.25
418.051	568.25
418.274	595.25
418.497	558.25
418.72	574.25
418.943	537.25
419.166	603.25
419.389	629.25
419.611	596.25
419.834	601.25
420.057	595.25
420.28	569.25
420.503	558.25
420.726	572.25
420.948	556.25
421.171	557.25
421.394	574.25
421.617	559.25
421.839	579.25
422.062	590.25
422.285	574.25
422.507	563.25
422.73	562.25
422.953	557.25
423.175	573.25
423.398	573.25
423.621	571.25
423.843	574.25
424.066	591.25
424.288	586.25
424.511	571.25
424.733	577.25
424.956	550.25
425.178	559.25
425.401	539.25
425.623	551.25
425.846	542.25
426.068	540.25
426.291	559.25
426.513	541.25
426.735	532.25
426.958	527.25
427.18	514.25
427.402	516.25
427.625	526.25
427.847	526.25
428.069	513.25
428.292	531.25
428.514	519.25
428.736	502.25
428.958	523.25
429.181	514.25
429.403	516.25
429.625	488.25
429.847	514.25
430.069	511.25
430.292	505.25
430.514	498.25
430.736	518.25
430.958	513.25
431.18	515.25
431.402	487.25
431.624	499.25
431.846	508.25
432.068	501.25
432.29	514.25
432.512	517.25
432.734	517.25
432.956	516.25
433.178	539.25
433.4	505.25
433.622	513.25
433.844	528.25
434.066	518.25
434.287	536.25
434.509	557.25
434.731	541.25
434.953	560.25
435.175	554.25
435.397	553.25
435.618	550.25
435.84	524.25
436.062	529.25
436.284	534.25
436.505	530.25
436.727	536.25
436.949	535.25
437.17	503.25
437.392	512.25
437.614	521.25
437.835	522.25
438.057	491.25
438.278	485.25
438.5	506.25
438.721	497.25
438.943	507.25
439.165	494.25
439.386	513.25
439.608	522.25
439.829	515.25
440.05	525.25
440.272	525.25
440.493	515.25
440.715	534.25
440.936	526.25
441.158	542.25
441.379	557.25
441.6	561.25
441.822	573.25
442.043	565.25
442.264	555.25
442.486	545.25
442.707	566.25
442.928	562.25
443.149	538.25
443.371	538.25
443.592	573.25
443.813	571.25
444.034	580.25
444.255	580.25
444.476	625.25
444.698	608.25
444.919	634.25
445.14	725.25
445.361	661.25
445.582	603.25
445.803	575.25
446.024	558.25
446.245	545.25
446.466	554.25
446.687	538.25
446.908	556.25
447.129	516.25
447.35	488.25
447.571	493.25
447.792	523.25
448.013	499.25
448.234	499.25
448.455	517.25
448.675	505.25
448.896	465.25
449.117	490.25
449.338	494.25
449.559	482.25
449.779	472.25
450	475.25
450.221	499.25
450.442	503.25
450.662	476.25
450.883	491.25
451.104	495.25
451.324	463.25
451.545	482.25
451.766	478.25
451.986	479.25
452.207	509.25
452.428	467.25
452.648	468.25
452.869	468.25
453.089	474.25
453.31	475.25
453.53	470.25
453.751	466.25
453.971	461.25
454.192	453.25
454.412	447.25
454.633	453.25
454.853	456.25
455.073	453.25
455.294	444.25
455.514	455.25
455.734	461.25
455.955	436.25
456.175	445.25
456.395	445.25
456.616	451.25
456.836	441.25
457.056	438.25
457.276	441.25
457.497	460.25
457.717	469.25
457.937	452.25
458.157	457.25
458.377	476.25
458.598	473.25
458.818	495.25
459.038	501.25
459.258	497.25
459.478	516.25
459.698	545.25
459.918	522.25
460.138	578.25
460.358	570.25
460.578	578.25
460.798	581.25
461.018	583.25
461.238	571.25
461.458	583.25
461.678	573.25
461.898	565.25
462.118	590.25
462.338	608.25
462.558	636.25
462.777	647.25
462.997	655.25
463.217	726.25
463.437	735.25
463.657	695.25
463.876	647.25
464.096	671.25
464.316	658.25
464.536	639.25
464.755	642.25
464.975	610.25
465.195	611.25
465.414	595.25
465.634	543.25
465.854	526.25
466.073	522.25
466.293	533.25
466.512	501.25
466.732	511.25
466.951	518.25
467.171	503.25
467.391	531.25
467.61	487.25
467.829	499.25
468.049	507.25
468.268	489.25
468.488	503.25
468.707	499.25
468.927	483.25
469.146	490.25
469.365	481.25
469.585	496.25
469.804	499.25
470.023	509.25
470.243	509.25
470.462	500.25
470.681	549.25
470.901	504.25
471.12	486.25
471.339	476.25
471.558	482.25
471.777	523.25
471.997	474.25
472.216	493.25
472.435	461.25
472.654	478.25
472.873	465.25
473.092	476.25
473.311	467.25
473.53	463.25
473.749	468.25
473.968	476.25
474.187	461.25
474.406	458.25
474.625	468.25
474.844	458.25
475.063	473.25
475.282	473.25
475.501	481.25
475.72	489.25
475.939	469.25
476.158	504.25
476.377	492.25
476.596	496.25
476.814	495.25
477.033	493.25
477.252	475.25
477.471	509.25
477.69	511.25
477.908	507.25
478.127	546.25
478.346	549.25
478.564	563.25
478.783	564.25
479.002	586.25
479.22	571.25
479.439	574.25
479.658	552.25
479.876	569.25
480.095	587.25
480.313	595.25
480.532	601.25
480.751	587.25
480.969	572.25
481.188	558.25
481.406	536.25
481.624	542.25
481.843	540.25
482.061	548.25
482.28	558.25
482.498	559.25
482.717	562.25
482.935	541.25
483.153	546.25
483.372	551.25
483.59	529.25
483.808	527.25
484.027	546.25
484.245	548.25
484.463	516.25
484.681	555.25
484.9	546.25
485.118	558.25
485.336	556.25
485.554	558.25
485.772	542.25
485.99	537.25
486.209	550.25
486.427	550.25
486.645	558.25
486.863	572.25
487.081	548.25
487.299	551.25
487.517	556.25
487.735	554.25
487.953	563.25
488.171	553.25
488.389	555.25
488.607	544.25
488.825	544.25
489.043	554.25
489.261	554.25
489.479	536.25
489.696	566.25
489.914	537.25
490.132	526.25
490.35	538.25
490.568	571.25
490.786	564.25
491.003	563.25
491.221	576.25
491.439	558.25
491.657	574.25
491.874	588.25
492.092	573.25
492.31	582.25
492.527	593.25
492.745	590.25
492.963	583.25
493.18	569.25
493.398	587.25
493.615	592.25
493.833	593.25
494.05	581.25
494.268	579.25
494.485	594.25
494.703	600.25
494.92	595.25
495.138	582.25
495.355	600.25
495.573	593.25
495.79	587.25
496.008	617.25
496.225	589.25
496.442	594.25
496.66	638.25
496.877	623.25
497.094	631.25
497.312	613.25
497.529	654.25
497.746	659.25
497.963	671.25
498.181	739.25
498.398	693.25
498.615	766.25
498.832	776.25
499.049	809.25
499.267	881.25
499.484	945.25
499.701	1013.25
499.918	1090.25
500.135	1205.25
500.352	1307.25
500.569	1333.25
500.786	1347.25
501.003	1271.25
501.22	1175.25
501.437	1080.25
501.654	993.25
