Data from Fe(NO3)3@0.0125M.TitratingCurve.Agarose3%dH2O.NegLispCup.LampEnergy10.LIBS07252019_HRD10591_17-01-02-339.txt Node
Date: Thu Jul 25 17:01:02 EDT 2019
User: cochatt
Spectrometer: HR+D1059
Trigger mode: 1
Integration Time (sec): 1.000000E-1
Scans to average: 1
Electric dark correction enabled: true
Nonlinearity correction enabled: false
Boxcar width: 0
XAxis mode: Wavelengths
Number of Pixels in Spectrum: 2048
>>>>>Begin Spectral Data<<<<<
223.165	-2.81
223.4	-2.81
223.635	-2.81
223.869	-27.81
224.104	-23.81
224.338	-7.81
224.573	-12.81
224.808	-14.81
225.042	-6.81
225.277	-6.81
225.511	3.19
225.746	15.19
225.98	8.19
226.215	3.19
226.449	2.19
226.683	8.19
226.918	23.19
227.152	40.19
227.387	25.19
227.621	38.19
227.856	42.19
228.09	40.19
228.324	41.19
228.559	42.19
228.793	54.19
229.027	68.19
229.262	66.19
229.496	71.19
229.73	67.19
229.964	84.19
230.199	92.19
230.433	80.19
230.667	90.19
230.901	112.19
231.136	99.19
231.37	95.19
231.604	94.19
231.838	92.19
232.072	98.19
232.306	109.19
232.541	102.19
232.775	95.19
233.009	96.19
233.243	97.19
233.477	94.19
233.711	87.19
233.945	94.19
234.179	100.19
234.413	110.19
234.647	104.19
234.881	106.19
235.115	99.19
235.349	93.19
235.583	102.19
235.817	89.19
236.051	113.19
236.285	112.19
236.519	91.19
236.753	112.19
236.987	104.19
237.221	102.19
237.455	95.19
237.689	105.19
237.922	106.19
238.156	92.19
238.39	100.19
238.624	97.19
238.858	99.19
239.091	117.19
239.325	104.19
239.559	110.19
239.793	115.19
240.027	105.19
240.26	118.19
240.494	89.19
240.728	116.19
240.961	107.19
241.195	118.19
241.429	108.19
241.662	109.19
241.896	113.19
242.13	111.19
242.363	103.19
242.597	102.19
242.83	115.19
243.064	121.19
243.298	118.19
243.531	120.19
243.765	113.19
243.998	122.19
244.232	112.19
244.465	118.19
244.699	120.19
244.932	118.19
245.166	117.19
245.399	137.19
245.633	115.19
245.866	127.19
246.099	113.19
246.333	109.19
246.566	111.19
246.8	113.19
247.033	108.19
247.266	122.19
247.5	122.19
247.733	134.19
247.966	126.19
248.2	117.19
248.433	131.19
248.666	128.19
248.899	131.19
249.133	130.19
249.366	140.19
249.599	121.19
249.832	132.19
250.066	137.19
250.299	124.19
250.532	134.19
250.765	136.19
250.998	136.19
251.231	125.19
251.465	130.19
251.698	134.19
251.931	129.19
252.164	154.19
252.397	142.19
252.63	150.19
252.863	138.19
253.096	136.19
253.329	138.19
253.562	143.19
253.795	144.19
254.028	150.19
254.261	157.19
254.494	154.19
254.727	145.19
254.96	147.19
255.193	137.19
255.426	134.19
255.659	142.19
255.892	141.19
256.124	129.19
256.357	137.19
256.59	160.19
256.823	152.19
257.056	144.19
257.289	146.19
257.521	153.19
257.754	136.19
257.987	165.19
258.22	153.19
258.452	148.19
258.685	158.19
258.918	145.19
259.151	150.19
259.383	170.19
259.616	168.19
259.849	164.19
260.081	176.19
260.314	178.19
260.547	152.19
260.779	167.19
261.012	151.19
261.244	176.19
261.477	182.19
261.71	158.19
261.942	176.19
262.175	148.19
262.407	162.19
262.64	154.19
262.872	158.19
263.105	172.19
263.337	178.19
263.57	161.19
263.802	180.19
264.035	172.19
264.267	154.19
264.499	163.19
264.732	159.19
264.964	163.19
265.197	155.19
265.429	173.19
265.661	160.19
265.894	160.19
266.126	178.19
266.358	174.19
266.591	184.19
266.823	168.19
267.055	180.19
267.287	161.19
267.52	182.19
267.752	178.19
267.984	156.19
268.216	190.19
268.448	175.19
268.681	178.19
268.913	173.19
269.145	187.19
269.377	194.19
269.609	180.19
269.841	179.19
270.073	168.19
270.306	188.19
270.538	186.19
270.77	187.19
271.002	174.19
271.234	198.19
271.466	174.19
271.698	182.19
271.93	169.19
272.162	192.19
272.394	203.19
272.626	169.19
272.858	186.19
273.09	190.19
273.322	200.19
273.553	181.19
273.785	216.19
274.017	194.19
274.249	229.19
274.481	204.19
274.713	208.19
274.945	200.19
275.176	213.19
275.408	213.19
275.64	205.19
275.872	215.19
276.104	200.19
276.335	202.19
276.567	205.19
276.799	203.19
277.031	224.19
277.262	191.19
277.494	198.19
277.726	203.19
277.957	208.19
278.189	207.19
278.421	213.19
278.652	214.19
278.884	205.19
279.115	199.19
279.347	202.19
279.579	201.19
279.81	222.19
280.042	224.19
280.273	223.19
280.505	221.19
280.736	212.19
280.968	218.19
281.199	224.19
281.431	210.19
281.662	225.19
281.894	217.19
282.125	225.19
282.356	224.19
282.588	228.19
282.819	211.19
283.051	216.19
283.282	222.19
283.513	220.19
283.745	198.19
283.976	227.19
284.207	226.19
284.439	229.19
284.67	221.19
284.901	229.19
285.132	231.19
285.364	221.19
285.595	227.19
285.826	220.19
286.057	243.19
286.288	209.19
286.52	230.19
286.751	229.19
286.982	238.19
287.213	231.19
287.444	242.19
287.675	220.19
287.906	233.19
288.138	244.19
288.369	247.19
288.6	237.19
288.831	231.19
289.062	221.19
289.293	245.19
289.524	240.19
289.755	240.19
289.986	230.19
290.217	225.19
290.448	239.19
290.679	225.19
290.91	232.19
291.141	238.19
291.371	240.19
291.602	239.19
291.833	238.19
292.064	260.19
292.295	243.19
292.526	253.19
292.757	227.19
292.987	243.19
293.218	255.19
293.449	258.19
293.68	253.19
293.91	256.19
294.141	229.19
294.372	252.19
294.603	248.19
294.833	242.19
295.064	232.19
295.295	256.19
295.525	250.19
295.756	261.19
295.987	262.19
296.217	281.19
296.448	275.19
296.679	245.19
296.909	248.19
297.14	278.19
297.37	253.19
297.601	257.19
297.831	264.19
298.062	267.19
298.292	247.19
298.523	255.19
298.753	270.19
298.984	265.19
299.214	270.19
299.445	256.19
299.675	273.19
299.905	285.19
300.136	277.19
300.366	270.19
300.597	266.19
300.827	269.19
301.057	282.19
301.288	251.19
301.518	272.19
301.748	291.19
301.979	281.19
302.209	289.19
302.439	296.19
302.669	289.19
302.9	281.19
303.13	272.19
303.36	272.19
303.59	276.19
303.82	268.19
304.051	286.19
304.281	276.19
304.511	274.19
304.741	289.19
304.971	297.19
305.201	272.19
305.431	287.19
305.661	286.19
305.891	283.19
306.121	283.19
306.352	290.19
306.582	277.19
306.812	272.19
307.042	288.19
307.272	296.19
307.502	279.19
307.731	283.19
307.961	289.19
308.191	278.19
308.421	292.19
308.651	273.19
308.881	298.19
309.111	301.19
309.341	272.19
309.571	280.19
309.8	288.19
310.03	278.19
310.26	302.19
310.49	291.19
310.72	293.19
310.949	271.19
311.179	279.19
311.409	296.19
311.639	279.19
311.868	294.19
312.098	294.19
312.328	298.19
312.557	298.19
312.787	283.19
313.017	284.19
313.246	313.19
313.476	322.19
313.706	309.19
313.935	289.19
314.165	297.19
314.394	301.19
314.624	302.19
314.853	302.19
315.083	311.19
315.312	316.19
315.542	301.19
315.771	324.19
316.001	312.19
316.23	291.19
316.46	308.19
316.689	314.19
316.919	341.19
317.148	314.19
317.377	312.19
317.607	317.19
317.836	306.19
318.065	296.19
318.295	293.19
318.524	293.19
318.753	305.19
318.983	312.19
319.212	302.19
319.441	311.19
319.67	308.19
319.9	331.19
320.129	311.19
320.358	316.19
320.587	338.19
320.816	311.19
321.046	306.19
321.275	321.19
321.504	329.19
321.733	312.19
321.962	348.19
322.191	321.19
322.42	320.19
322.649	303.19
322.878	310.19
323.108	330.19
323.337	333.19
323.566	340.19
323.795	326.19
324.024	315.19
324.253	300.19
324.482	331.19
324.71	334.19
324.939	342.19
325.168	327.19
325.397	337.19
325.626	343.19
325.855	334.19
326.084	334.19
326.313	328.19
326.542	328.19
326.77	333.19
326.999	339.19
327.228	337.19
327.457	342.19
327.686	343.19
327.914	348.19
328.143	326.19
328.372	344.19
328.6	330.19
328.829	325.19
329.058	329.19
329.287	350.19
329.515	336.19
329.744	349.19
329.972	360.19
330.201	359.19
330.43	358.19
330.658	332.19
330.887	354.19
331.115	364.19
331.344	358.19
331.572	344.19
331.801	347.19
332.03	373.19
332.258	368.19
332.486	364.19
332.715	368.19
332.943	377.19
333.172	386.19
333.4	364.19
333.629	398.19
333.857	385.19
334.085	376.19
334.314	392.19
334.542	398.19
334.771	391.19
334.999	390.19
335.227	384.19
335.455	409.19
335.684	404.19
335.912	406.19
336.14	383.19
336.369	386.19
336.597	391.19
336.825	396.19
337.053	386.19
337.281	365.19
337.51	369.19
337.738	375.19
337.966	378.19
338.194	403.19
338.422	366.19
338.65	370.19
338.878	388.19
339.106	376.19
339.334	376.19
339.562	368.19
339.79	369.19
340.018	374.19
340.246	383.19
340.474	386.19
340.702	369.19
340.93	344.19
341.158	364.19
341.386	365.19
341.614	369.19
341.842	357.19
342.07	373.19
342.298	348.19
342.526	366.19
342.754	370.19
342.981	355.19
343.209	372.19
343.437	374.19
343.665	380.19
343.893	380.19
344.12	387.19
344.348	374.19
344.576	386.19
344.804	375.19
345.031	376.19
345.259	349.19
345.487	357.19
345.714	372.19
345.942	369.19
346.17	351.19
346.397	374.19
346.625	364.19
346.853	353.19
347.08	355.19
347.308	376.19
347.535	351.19
347.763	352.19
347.99	376.19
348.218	356.19
348.445	346.19
348.673	358.19
348.9	370.19
349.128	352.19
349.355	342.19
349.583	345.19
349.81	361.19
350.037	343.19
350.265	362.19
350.492	371.19
350.72	358.19
350.947	344.19
351.174	353.19
351.402	361.19
351.629	352.19
351.856	356.19
352.083	351.19
352.311	372.19
352.538	347.19
352.765	356.19
352.992	352.19
353.22	341.19
353.447	378.19
353.674	346.19
353.901	355.19
354.128	360.19
354.355	349.19
354.583	358.19
354.81	374.19
355.037	345.19
355.264	364.19
355.491	354.19
355.718	350.19
355.945	359.19
356.172	343.19
356.399	360.19
356.626	336.19
356.853	366.19
357.08	363.19
357.307	353.19
357.534	358.19
357.761	365.19
357.988	370.19
358.215	373.19
358.441	365.19
358.668	359.19
358.895	360.19
359.122	354.19
359.349	365.19
359.576	341.19
359.802	357.19
360.029	362.19
360.256	372.19
360.483	349.19
360.709	346.19
360.936	358.19
361.163	376.19
361.39	354.19
361.616	356.19
361.843	355.19
362.07	360.19
362.296	372.19
362.523	349.19
362.749	355.19
362.976	362.19
363.203	368.19
363.429	358.19
363.656	331.19
363.882	356.19
364.109	376.19
364.335	361.19
364.562	364.19
364.788	370.19
365.015	365.19
365.241	381.19
365.468	352.19
365.694	378.19
365.92	367.19
366.147	378.19
366.373	372.19
366.599	377.19
366.826	362.19
367.052	351.19
367.278	356.19
367.505	381.19
367.731	384.19
367.957	367.19
368.184	358.19
368.41	380.19
368.636	386.19
368.862	372.19
369.089	380.19
369.315	394.19
369.541	375.19
369.767	391.19
369.993	379.19
370.219	362.19
370.445	370.19
370.672	389.19
370.898	373.19
371.124	386.19
371.35	393.19
371.576	365.19
371.802	388.19
372.028	390.19
372.254	397.19
372.48	382.19
372.706	385.19
372.932	394.19
373.158	405.19
373.384	407.19
373.61	425.19
373.835	420.19
374.061	394.19
374.287	384.19
374.513	382.19
374.739	387.19
374.965	430.19
375.191	401.19
375.416	404.19
375.642	401.19
375.868	404.19
376.094	392.19
376.319	394.19
376.545	401.19
376.771	380.19
376.997	400.19
377.222	379.19
377.448	391.19
377.674	387.19
377.899	381.19
378.125	357.19
378.35	384.19
378.576	384.19
378.802	382.19
379.027	387.19
379.253	392.19
379.478	390.19
379.704	393.19
379.929	390.19
380.155	379.19
380.38	380.19
380.606	400.19
380.831	400.19
381.057	403.19
381.282	396.19
381.507	378.19
381.733	406.19
381.958	400.19
382.184	413.19
382.409	396.19
382.634	404.19
382.86	398.19
383.085	391.19
383.31	402.19
383.535	423.19
383.761	389.19
383.986	400.19
384.211	414.19
384.436	419.19
384.662	414.19
384.887	434.19
385.112	414.19
385.337	441.19
385.562	423.19
385.787	419.19
386.013	433.19
386.238	432.19
386.463	420.19
386.688	450.19
386.913	424.19
387.138	428.19
387.363	446.19
387.588	438.19
387.813	441.19
388.038	415.19
388.263	423.19
388.488	457.19
388.713	441.19
388.938	427.19
389.163	445.19
389.387	441.19
389.612	452.19
389.837	437.19
390.062	448.19
390.287	440.19
390.512	439.19
390.736	432.19
390.961	443.19
391.186	436.19
391.411	442.19
391.636	453.19
391.86	456.19
392.085	448.19
392.31	438.19
392.534	447.19
392.759	470.19
392.984	467.19
393.208	474.19
393.433	468.19
393.658	487.19
393.882	473.19
394.107	453.19
394.331	460.19
394.556	465.19
394.78	471.19
395.005	465.19
395.229	461.19
395.454	477.19
395.678	471.19
395.903	474.19
396.127	456.19
396.352	473.19
396.576	483.19
396.801	474.19
397.025	458.19
397.249	487.19
397.474	465.19
397.698	470.19
397.922	492.19
398.147	472.19
398.371	494.19
398.595	497.19
398.82	512.19
399.044	523.19
399.268	542.19
399.492	549.19
399.717	564.19
399.941	564.19
400.165	559.19
400.389	560.19
400.613	535.19
400.837	515.19
401.062	519.19
401.286	515.19
401.51	517.19
401.734	496.19
401.958	518.19
402.182	500.19
402.406	511.19
402.63	515.19
402.854	522.19
403.078	500.19
403.302	499.19
403.526	517.19
403.75	495.19
403.974	526.19
404.198	505.19
404.422	510.19
404.645	511.19
404.869	526.19
405.093	529.19
405.317	519.19
405.541	524.19
405.765	524.19
405.988	540.19
406.212	546.19
406.436	537.19
406.66	544.19
406.883	543.19
407.107	561.19
407.331	548.19
407.555	568.19
407.778	553.19
408.002	540.19
408.226	551.19
408.449	558.19
408.673	556.19
408.896	567.19
409.12	567.19
409.344	566.19
409.567	527.19
409.791	534.19
410.014	552.19
410.238	511.19
410.461	524.19
410.685	508.19
410.908	532.19
411.132	519.19
411.355	516.19
411.578	533.19
411.802	537.19
412.025	521.19
412.249	519.19
412.472	522.19
412.695	531.19
412.919	533.19
413.142	511.19
413.365	511.19
413.589	535.19
413.812	523.19
414.035	506.19
414.258	512.19
414.482	515.19
414.705	497.19
414.928	496.19
415.151	486.19
415.374	486.19
415.597	513.19
415.821	484.19
416.044	502.19
416.267	489.19
416.49	492.19
416.713	487.19
416.936	509.19
417.159	478.19
417.382	478.19
417.605	481.19
417.828	503.19
418.051	495.19
418.274	481.19
418.497	488.19
418.72	514.19
418.943	464.19
419.166	491.19
419.389	500.19
419.611	537.19
419.834	502.19
420.057	503.19
420.28	483.19
420.503	472.19
420.726	498.19
420.948	475.19
421.171	476.19
421.394	464.19
421.617	485.19
421.839	463.19
422.062	477.19
422.285	476.19
422.507	481.19
422.73	495.19
422.953	482.19
423.175	482.19
423.398	474.19
423.621	498.19
423.843	489.19
424.066	471.19
424.288	489.19
424.511	475.19
424.733	454.19
424.956	472.19
425.178	470.19
425.401	491.19
425.623	468.19
425.846	476.19
426.068	486.19
426.291	462.19
426.513	454.19
426.735	489.19
426.958	483.19
427.18	468.19
427.402	480.19
427.625	478.19
427.847	455.19
428.069	472.19
428.292	473.19
428.514	457.19
428.736	454.19
428.958	446.19
429.181	489.19
429.403	461.19
429.625	466.19
429.847	443.19
430.069	452.19
430.292	480.19
430.514	446.19
430.736	480.19
430.958	451.19
431.18	476.19
431.402	476.19
431.624	462.19
431.846	470.19
432.068	458.19
432.29	454.19
432.512	466.19
432.734	476.19
432.956	461.19
433.178	468.19
433.4	443.19
433.622	450.19
433.844	457.19
434.066	470.19
434.287	458.19
434.509	462.19
434.731	509.19
434.953	479.19
435.175	462.19
435.397	480.19
435.618	489.19
435.84	478.19
436.062	450.19
436.284	462.19
436.505	461.19
436.727	463.19
436.949	480.19
437.17	454.19
437.392	457.19
437.614	473.19
437.835	444.19
438.057	448.19
438.278	444.19
438.5	455.19
438.721	465.19
438.943	431.19
439.165	442.19
439.386	457.19
439.608	447.19
439.829	466.19
440.05	451.19
440.272	490.19
440.493	456.19
440.715	444.19
440.936	453.19
441.158	453.19
441.379	460.19
441.6	453.19
441.822	480.19
442.043	487.19
442.264	486.19
442.486	480.19
442.707	458.19
442.928	498.19
443.149	470.19
443.371	463.19
443.592	467.19
443.813	489.19
444.034	464.19
444.255	469.19
444.476	484.19
444.698	465.19
444.919	487.19
445.14	565.19
445.361	508.19
445.582	465.19
445.803	482.19
446.024	462.19
446.245	467.19
446.466	471.19
446.687	466.19
446.908	464.19
447.129	455.19
447.35	458.19
447.571	446.19
447.792	418.19
448.013	449.19
448.234	441.19
448.455	430.19
448.675	411.19
448.896	453.19
449.117	412.19
449.338	407.19
449.559	410.19
449.779	418.19
450	422.19
450.221	408.19
450.442	425.19
450.662	429.19
450.883	428.19
451.104	428.19
451.324	414.19
451.545	424.19
451.766	413.19
451.986	420.19
452.207	427.19
452.428	406.19
452.648	426.19
452.869	424.19
453.089	405.19
453.31	424.19
453.53	417.19
453.751	403.19
453.971	400.19
454.192	421.19
454.412	392.19
454.633	402.19
454.853	408.19
455.073	412.19
455.294	417.19
455.514	401.19
455.734	413.19
455.955	402.19
456.175	399.19
456.395	411.19
456.616	409.19
456.836	432.19
457.056	437.19
457.276	410.19
457.497	386.19
457.717	402.19
457.937	410.19
458.157	440.19
458.377	410.19
458.598	432.19
458.818	452.19
459.038	432.19
459.258	421.19
459.478	440.19
459.698	465.19
459.918	450.19
460.138	457.19
460.358	503.19
460.578	462.19
460.798	477.19
461.018	480.19
461.238	466.19
461.458	495.19
461.678	467.19
461.898	506.19
462.118	505.19
462.338	487.19
462.558	498.19
462.777	507.19
462.997	528.19
463.217	531.19
463.437	536.19
463.657	526.19
463.876	516.19
464.096	504.19
464.316	533.19
464.536	510.19
464.755	514.19
464.975	493.19
465.195	494.19
465.414	495.19
465.634	494.19
465.854	454.19
466.073	472.19
466.293	462.19
466.512	453.19
466.732	453.19
466.951	478.19
467.171	463.19
467.391	462.19
467.61	446.19
467.829	436.19
468.049	465.19
468.268	454.19
468.488	438.19
468.707	434.19
468.927	448.19
469.146	448.19
469.365	455.19
469.585	436.19
469.804	444.19
470.023	458.19
470.243	465.19
470.462	464.19
470.681	454.19
470.901	441.19
471.12	461.19
471.339	453.19
471.558	438.19
471.777	453.19
471.997	452.19
472.216	462.19
472.435	450.19
472.654	450.19
472.873	468.19
473.092	471.19
473.311	463.19
473.53	447.19
473.749	469.19
473.968	441.19
474.187	423.19
474.406	456.19
474.625	448.19
474.844	455.19
475.063	463.19
475.282	450.19
475.501	465.19
475.72	466.19
475.939	487.19
476.158	492.19
476.377	469.19
476.596	491.19
476.814	484.19
477.033	485.19
477.252	478.19
477.471	485.19
477.69	504.19
477.908	492.19
478.127	499.19
478.346	509.19
478.564	495.19
478.783	530.19
479.002	511.19
479.22	525.19
479.439	545.19
479.658	541.19
479.876	533.19
480.095	541.19
480.313	537.19
480.532	546.19
480.751	530.19
480.969	535.19
481.188	546.19
481.406	531.19
481.624	546.19
481.843	512.19
482.061	524.19
482.28	527.19
482.498	516.19
482.717	504.19
482.935	524.19
483.153	517.19
483.372	540.19
483.59	553.19
483.808	558.19
484.027	540.19
484.245	559.19
484.463	534.19
484.681	569.19
484.9	572.19
485.118	551.19
485.336	546.19
485.554	549.19
485.772	547.19
485.99	557.19
486.209	549.19
486.427	530.19
486.645	544.19
486.863	570.19
487.081	561.19
487.299	572.19
487.517	582.19
487.735	542.19
487.953	575.19
488.171	553.19
488.389	560.19
488.607	540.19
488.825	551.19
489.043	557.19
489.261	567.19
489.479	558.19
489.696	559.19
489.914	532.19
490.132	552.19
490.35	552.19
490.568	557.19
490.786	553.19
491.003	530.19
491.221	552.19
491.439	556.19
491.657	558.19
491.874	552.19
492.092	562.19
492.31	577.19
492.527	563.19
492.745	580.19
492.963	551.19
493.18	577.19
493.398	576.19
493.615	582.19
493.833	559.19
494.05	573.19
494.268	579.19
494.485	581.19
494.703	579.19
494.92	570.19
495.138	590.19
495.355	569.19
495.573	580.19
495.79	580.19
496.008	587.19
496.225	589.19
496.442	624.19
496.66	623.19
496.877	610.19
497.094	605.19
497.312	626.19
497.529	637.19
497.746	633.19
497.963	665.19
498.181	653.19
498.398	678.19
498.615	654.19
498.832	722.19
499.049	749.19
499.267	768.19
499.484	787.19
499.701	809.19
499.918	836.19
500.135	870.19
500.352	900.19
500.569	898.19
500.786	901.19
501.003	901.19
501.22	867.19
501.437	822.19
501.654	778.19
501.871	753.19
502.088	716.19
