Data from Fe(NO3)3@0.1M.TitratingCurve.Agarose3%dH2O.NegLispCup.LampEnergy10.LIBS07252019_HRD10591_16-37-24-331.txt Node
Date: Thu Jul 25 16:37:24 EDT 2019
User: cochatt
Spectrometer: HR+D1059
Trigger mode: 1
Integration Time (sec): 1.000000E-1
Scans to average: 1
Electric dark correction enabled: true
Nonlinearity correction enabled: false
Boxcar width: 0
XAxis mode: Wavelengths
Number of Pixels in Spectrum: 2048
>>>>>Begin Spectral Data<<<<<
223.165	-15.12
223.4	-15.12
223.635	-15.12
223.869	-14.12
224.104	-17.12
224.338	6.88
224.573	-8.12
224.808	-15.12
225.042	-7.12
225.277	-6.12
225.511	-4.12
225.746	-0.12
225.98	9.88
226.215	14.88
226.449	14.88
226.683	13.88
226.918	20.88
227.152	5.88
227.387	22.88
227.621	24.88
227.856	32.88
228.09	53.88
228.324	44.88
228.559	45.88
228.793	63.88
229.027	58.88
229.262	66.88
229.496	69.88
229.73	74.88
229.964	76.88
230.199	71.88
230.433	88.88
230.667	70.88
230.901	83.88
231.136	98.88
231.37	89.88
231.604	89.88
231.838	91.88
232.072	81.88
232.306	76.88
232.541	81.88
232.775	94.88
233.009	88.88
233.243	87.88
233.477	100.88
233.711	88.88
233.945	90.88
234.179	99.88
234.413	98.88
234.647	99.88
234.881	112.88
235.115	86.88
235.349	88.88
235.583	92.88
235.817	95.88
236.051	93.88
236.285	106.88
236.519	80.88
236.753	88.88
236.987	94.88
237.221	96.88
237.455	98.88
237.689	99.88
237.922	88.88
238.156	94.88
238.39	88.88
238.624	94.88
238.858	86.88
239.091	86.88
239.325	85.88
239.559	95.88
239.793	104.88
240.027	87.88
240.26	108.88
240.494	82.88
240.728	97.88
240.961	84.88
241.195	97.88
241.429	98.88
241.662	93.88
241.896	104.88
242.13	114.88
242.363	83.88
242.597	95.88
242.83	101.88
243.064	87.88
243.298	97.88
243.531	91.88
243.765	91.88
243.998	120.88
244.232	91.88
244.465	103.88
244.699	105.88
244.932	118.88
245.166	90.88
245.399	108.88
245.633	106.88
245.866	87.88
246.099	101.88
246.333	109.88
246.566	89.88
246.8	114.88
247.033	118.88
247.266	110.88
247.5	106.88
247.733	98.88
247.966	118.88
248.2	105.88
248.433	95.88
248.666	114.88
248.899	103.88
249.133	107.88
249.366	113.88
249.599	116.88
249.832	122.88
250.066	114.88
250.299	111.88
250.532	109.88
250.765	100.88
250.998	98.88
251.231	115.88
251.465	104.88
251.698	103.88
251.931	109.88
252.164	116.88
252.397	111.88
252.63	124.88
252.863	116.88
253.096	122.88
253.329	109.88
253.562	132.88
253.795	121.88
254.028	105.88
254.261	124.88
254.494	111.88
254.727	124.88
254.96	120.88
255.193	122.88
255.426	125.88
255.659	126.88
255.892	123.88
256.124	114.88
256.357	122.88
256.59	118.88
256.823	117.88
257.056	114.88
257.289	111.88
257.521	115.88
257.754	123.88
257.987	115.88
258.22	121.88
258.452	138.88
258.685	121.88
258.918	120.88
259.151	129.88
259.383	135.88
259.616	123.88
259.849	138.88
260.081	132.88
260.314	141.88
260.547	130.88
260.779	123.88
261.012	138.88
261.244	146.88
261.477	132.88
261.71	130.88
261.942	119.88
262.175	133.88
262.407	128.88
262.64	123.88
262.872	128.88
263.105	120.88
263.337	132.88
263.57	127.88
263.802	117.88
264.035	130.88
264.267	144.88
264.499	130.88
264.732	141.88
264.964	140.88
265.197	129.88
265.429	151.88
265.661	132.88
265.894	131.88
266.126	133.88
266.358	141.88
266.591	134.88
266.823	122.88
267.055	134.88
267.287	134.88
267.52	122.88
267.752	136.88
267.984	135.88
268.216	136.88
268.448	139.88
268.681	138.88
268.913	143.88
269.145	148.88
269.377	148.88
269.609	124.88
269.841	139.88
270.073	128.88
270.306	141.88
270.538	128.88
270.77	138.88
271.002	132.88
271.234	145.88
271.466	155.88
271.698	147.88
271.93	145.88
272.162	150.88
272.394	157.88
272.626	139.88
272.858	137.88
273.09	150.88
273.322	148.88
273.553	137.88
273.785	157.88
274.017	153.88
274.249	150.88
274.481	168.88
274.713	146.88
274.945	165.88
275.176	154.88
275.408	139.88
275.64	142.88
275.872	174.88
276.104	164.88
276.335	147.88
276.567	160.88
276.799	151.88
277.031	142.88
277.262	145.88
277.494	152.88
277.726	145.88
277.957	146.88
278.189	160.88
278.421	150.88
278.652	153.88
278.884	160.88
279.115	153.88
279.347	143.88
279.579	154.88
279.81	153.88
280.042	149.88
280.273	160.88
280.505	168.88
280.736	180.88
280.968	146.88
281.199	157.88
281.431	149.88
281.662	156.88
281.894	152.88
282.125	158.88
282.356	166.88
282.588	164.88
282.819	160.88
283.051	158.88
283.282	148.88
283.513	162.88
283.745	156.88
283.976	158.88
284.207	144.88
284.439	152.88
284.67	153.88
284.901	175.88
285.132	174.88
285.364	160.88
285.595	168.88
285.826	174.88
286.057	182.88
286.288	156.88
286.52	175.88
286.751	172.88
286.982	177.88
287.213	166.88
287.444	170.88
287.675	157.88
287.906	170.88
288.138	161.88
288.369	172.88
288.6	162.88
288.831	178.88
289.062	193.88
289.293	180.88
289.524	178.88
289.755	178.88
289.986	179.88
290.217	180.88
290.448	159.88
290.679	166.88
290.91	168.88
291.141	174.88
291.371	178.88
291.602	172.88
291.833	157.88
292.064	165.88
292.295	174.88
292.526	167.88
292.757	172.88
292.987	165.88
293.218	178.88
293.449	170.88
293.68	174.88
293.91	173.88
294.141	184.88
294.372	183.88
294.603	174.88
294.833	167.88
295.064	180.88
295.295	185.88
295.525	158.88
295.756	182.88
295.987	168.88
296.217	178.88
296.448	189.88
296.679	174.88
296.909	183.88
297.14	177.88
297.37	187.88
297.601	192.88
297.831	177.88
298.062	196.88
298.292	169.88
298.523	197.88
298.753	176.88
298.984	195.88
299.214	185.88
299.445	188.88
299.675	182.88
299.905	192.88
300.136	198.88
300.366	172.88
300.597	184.88
300.827	176.88
301.057	173.88
301.288	196.88
301.518	187.88
301.748	191.88
301.979	201.88
302.209	192.88
302.439	178.88
302.669	193.88
302.9	188.88
303.13	188.88
303.36	182.88
303.59	200.88
303.82	174.88
304.051	202.88
304.281	179.88
304.511	196.88
304.741	181.88
304.971	188.88
305.201	177.88
305.431	178.88
305.661	182.88
305.891	195.88
306.121	195.88
306.352	200.88
306.582	180.88
306.812	193.88
307.042	196.88
307.272	190.88
307.502	195.88
307.731	190.88
307.961	195.88
308.191	172.88
308.421	180.88
308.651	198.88
308.881	182.88
309.111	189.88
309.341	188.88
309.571	186.88
309.8	182.88
310.03	195.88
310.26	188.88
310.49	192.88
310.72	197.88
310.949	209.88
311.179	190.88
311.409	200.88
311.639	196.88
311.868	198.88
312.098	193.88
312.328	199.88
312.557	194.88
312.787	185.88
313.017	200.88
313.246	196.88
313.476	202.88
313.706	190.88
313.935	188.88
314.165	211.88
314.394	208.88
314.624	210.88
314.853	196.88
315.083	213.88
315.312	208.88
315.542	207.88
315.771	205.88
316.001	206.88
316.23	209.88
316.46	209.88
316.689	204.88
316.919	213.88
317.148	211.88
317.377	192.88
317.607	204.88
317.836	210.88
318.065	199.88
318.295	203.88
318.524	195.88
318.753	196.88
318.983	194.88
319.212	213.88
319.441	190.88
319.67	213.88
319.9	204.88
320.129	203.88
320.358	214.88
320.587	209.88
320.816	203.88
321.046	211.88
321.275	214.88
321.504	192.88
321.733	206.88
321.962	197.88
322.191	200.88
322.42	196.88
322.649	198.88
322.878	209.88
323.108	204.88
323.337	210.88
323.566	195.88
323.795	211.88
324.024	217.88
324.253	212.88
324.482	203.88
324.71	215.88
324.939	207.88
325.168	202.88
325.397	200.88
325.626	192.88
325.855	201.88
326.084	212.88
326.313	224.88
326.542	228.88
326.77	213.88
326.999	234.88
327.228	219.88
327.457	202.88
327.686	226.88
327.914	225.88
328.143	238.88
328.372	216.88
328.6	238.88
328.829	228.88
329.058	214.88
329.287	214.88
329.515	217.88
329.744	214.88
329.972	231.88
330.201	210.88
330.43	236.88
330.658	229.88
330.887	226.88
331.115	234.88
331.344	236.88
331.572	226.88
331.801	222.88
332.03	225.88
332.258	231.88
332.486	228.88
332.715	238.88
332.943	257.88
333.172	257.88
333.4	246.88
333.629	259.88
333.857	262.88
334.085	253.88
334.314	257.88
334.542	260.88
334.771	250.88
334.999	239.88
335.227	251.88
335.455	258.88
335.684	255.88
335.912	246.88
336.14	232.88
336.369	257.88
336.597	230.88
336.825	240.88
337.053	249.88
337.281	228.88
337.51	235.88
337.738	243.88
337.966	257.88
338.194	237.88
338.422	229.88
338.65	219.88
338.878	229.88
339.106	238.88
339.334	224.88
339.562	223.88
339.79	229.88
340.018	224.88
340.246	216.88
340.474	220.88
340.702	216.88
340.93	227.88
341.158	226.88
341.386	240.88
341.614	218.88
341.842	212.88
342.07	209.88
342.298	205.88
342.526	224.88
342.754	207.88
342.981	217.88
343.209	234.88
343.437	231.88
343.665	237.88
343.893	240.88
344.12	267.88
344.348	245.88
344.576	240.88
344.804	236.88
345.031	220.88
345.259	235.88
345.487	222.88
345.714	234.88
345.942	218.88
346.17	198.88
346.397	214.88
346.625	225.88
346.853	223.88
347.08	195.88
347.308	217.88
347.535	217.88
347.763	208.88
347.99	216.88
348.218	223.88
348.445	223.88
348.673	225.88
348.9	231.88
349.128	225.88
349.355	221.88
349.583	228.88
349.81	224.88
350.037	215.88
350.265	213.88
350.492	225.88
350.72	218.88
350.947	226.88
351.174	215.88
351.402	212.88
351.629	223.88
351.856	214.88
352.083	229.88
352.311	208.88
352.538	196.88
352.765	221.88
352.992	224.88
353.22	213.88
353.447	216.88
353.674	217.88
353.901	227.88
354.128	226.88
354.355	226.88
354.583	223.88
354.81	214.88
355.037	229.88
355.264	226.88
355.491	220.88
355.718	216.88
355.945	210.88
356.172	221.88
356.399	206.88
356.626	222.88
356.853	229.88
357.08	225.88
357.307	219.88
357.534	238.88
357.761	227.88
357.988	220.88
358.215	229.88
358.441	217.88
358.668	231.88
358.895	210.88
359.122	223.88
359.349	204.88
359.576	203.88
359.802	223.88
360.029	214.88
360.256	204.88
360.483	200.88
360.709	204.88
360.936	211.88
361.163	224.88
361.39	200.88
361.616	223.88
361.843	217.88
362.07	216.88
362.296	212.88
362.523	218.88
362.749	206.88
362.976	225.88
363.203	240.88
363.429	232.88
363.656	212.88
363.882	221.88
364.109	215.88
364.335	227.88
364.562	224.88
364.788	230.88
365.015	216.88
365.241	219.88
365.468	213.88
365.694	216.88
365.92	219.88
366.147	225.88
366.373	224.88
366.599	206.88
366.826	223.88
367.052	228.88
367.278	221.88
367.505	224.88
367.731	230.88
367.957	216.88
368.184	237.88
368.41	220.88
368.636	213.88
368.862	229.88
369.089	220.88
369.315	218.88
369.541	234.88
369.767	244.88
369.993	226.88
370.219	233.88
370.445	240.88
370.672	246.88
370.898	244.88
371.124	246.88
371.35	244.88
371.576	231.88
371.802	216.88
372.028	229.88
372.254	237.88
372.48	238.88
372.706	253.88
372.932	260.88
373.158	260.88
373.384	250.88
373.61	254.88
373.835	261.88
374.061	270.88
374.287	240.88
374.513	249.88
374.739	265.88
374.965	273.88
375.191	263.88
375.416	270.88
375.642	262.88
375.868	245.88
376.094	260.88
376.319	258.88
376.545	250.88
376.771	257.88
376.997	238.88
377.222	231.88
377.448	244.88
377.674	252.88
377.899	237.88
378.125	241.88
378.35	246.88
378.576	247.88
378.802	242.88
379.027	236.88
379.253	236.88
379.478	232.88
379.704	239.88
379.929	252.88
380.155	248.88
380.38	257.88
380.606	252.88
380.831	262.88
381.057	257.88
381.282	246.88
381.507	252.88
381.733	262.88
381.958	260.88
382.184	267.88
382.409	270.88
382.634	261.88
382.86	255.88
383.085	277.88
383.31	258.88
383.535	286.88
383.761	262.88
383.986	280.88
384.211	291.88
384.436	278.88
384.662	282.88
384.887	264.88
385.112	296.88
385.337	294.88
385.562	284.88
385.787	287.88
386.013	304.88
386.238	297.88
386.463	300.88
386.688	300.88
386.913	285.88
387.138	304.88
387.363	296.88
387.588	300.88
387.813	318.88
388.038	303.88
388.263	304.88
388.488	280.88
388.713	305.88
388.938	295.88
389.163	284.88
389.387	272.88
389.612	284.88
389.837	293.88
390.062	311.88
390.287	270.88
390.512	321.88
390.736	303.88
390.961	285.88
391.186	306.88
391.411	337.88
391.636	340.88
391.86	330.88
392.085	335.88
392.31	310.88
392.534	314.88
392.759	311.88
392.984	332.88
393.208	328.88
393.433	317.88
393.658	328.88
393.882	315.88
394.107	314.88
394.331	316.88
394.556	322.88
394.78	313.88
395.005	316.88
395.229	318.88
395.454	315.88
395.678	341.88
395.903	340.88
396.127	328.88
396.352	329.88
396.576	322.88
396.801	328.88
397.025	342.88
397.249	329.88
397.474	333.88
397.698	323.88
397.922	342.88
398.147	365.88
398.371	346.88
398.595	355.88
398.82	352.88
399.044	389.88
399.268	409.88
399.492	449.88
399.717	471.88
399.941	462.88
400.165	452.88
400.389	424.88
400.613	415.88
400.837	404.88
401.062	355.88
401.286	370.88
401.51	372.88
401.734	369.88
401.958	373.88
402.182	355.88
402.406	374.88
402.63	372.88
402.854	375.88
403.078	387.88
403.302	391.88
403.526	394.88
403.75	391.88
403.974	409.88
404.198	398.88
404.422	390.88
404.645	420.88
404.869	396.88
405.093	406.88
405.317	385.88
405.541	400.88
405.765	388.88
405.988	399.88
406.212	393.88
406.436	402.88
406.66	406.88
406.883	413.88
407.107	438.88
407.331	456.88
407.555	447.88
407.778	457.88
408.002	457.88
408.226	457.88
408.449	421.88
408.673	399.88
408.896	419.88
409.12	416.88
409.344	431.88
409.567	401.88
409.791	412.88
410.014	425.88
410.238	413.88
410.461	410.88
410.685	404.88
410.908	389.88
411.132	393.88
411.355	412.88
411.578	387.88
411.802	381.88
412.025	384.88
412.249	387.88
412.472	376.88
412.695	386.88
412.919	386.88
413.142	365.88
413.365	385.88
413.589	383.88
413.812	381.88
414.035	371.88
414.258	392.88
414.482	365.88
414.705	372.88
414.928	401.88
415.151	374.88
415.374	368.88
415.597	382.88
415.821	360.88
416.044	359.88
416.267	368.88
416.49	373.88
416.713	354.88
416.936	380.88
417.159	352.88
417.382	356.88
417.605	360.88
417.828	380.88
418.051	384.88
418.274	387.88
418.497	371.88
418.72	386.88
418.943	374.88
419.166	385.88
419.389	421.88
419.611	412.88
419.834	382.88
420.057	387.88
420.28	382.88
420.503	374.88
420.726	372.88
420.948	360.88
421.171	376.88
421.394	356.88
421.617	369.88
421.839	390.88
422.062	390.88
422.285	373.88
422.507	372.88
422.73	372.88
422.953	353.88
423.175	388.88
423.398	374.88
423.621	388.88
423.843	381.88
424.066	414.88
424.288	389.88
424.511	392.88
424.733	383.88
424.956	389.88
425.178	381.88
425.401	365.88
425.623	386.88
425.846	352.88
426.068	364.88
426.291	376.88
426.513	355.88
426.735	350.88
426.958	349.88
427.18	353.88
427.402	349.88
427.625	354.88
427.847	352.88
428.069	329.88
428.292	347.88
428.514	329.88
428.736	331.88
428.958	350.88
429.181	348.88
429.403	352.88
429.625	351.88
429.847	351.88
430.069	340.88
430.292	356.88
430.514	346.88
430.736	325.88
430.958	343.88
431.18	332.88
431.402	335.88
431.624	333.88
431.846	350.88
432.068	365.88
432.29	358.88
432.512	353.88
432.734	338.88
432.956	327.88
433.178	350.88
433.4	352.88
433.622	366.88
433.844	368.88
434.066	356.88
434.287	336.88
434.509	356.88
434.731	375.88
434.953	365.88
435.175	384.88
435.397	378.88
435.618	365.88
435.84	344.88
436.062	364.88
436.284	345.88
436.505	352.88
436.727	360.88
436.949	336.88
437.17	341.88
437.392	340.88
437.614	333.88
437.835	337.88
438.057	342.88
438.278	346.88
438.5	361.88
438.721	340.88
438.943	339.88
439.165	347.88
439.386	342.88
439.608	348.88
439.829	352.88
440.05	343.88
440.272	357.88
440.493	342.88
440.715	365.88
440.936	380.88
441.158	365.88
441.379	362.88
441.6	398.88
441.822	364.88
442.043	390.88
442.264	387.88
442.486	377.88
442.707	369.88
442.928	360.88
443.149	391.88
443.371	390.88
443.592	354.88
443.813	352.88
444.034	377.88
444.255	396.88
444.476	406.88
444.698	406.88
444.919	401.88
445.14	524.88
445.361	425.88
445.582	374.88
445.803	361.88
446.024	374.88
446.245	378.88
446.466	357.88
446.687	343.88
446.908	347.88
447.129	358.88
447.35	351.88
447.571	352.88
447.792	337.88
448.013	343.88
448.234	348.88
448.455	333.88
448.675	332.88
448.896	328.88
449.117	314.88
449.338	343.88
449.559	333.88
449.779	335.88
450	312.88
450.221	332.88
450.442	294.88
450.662	313.88
450.883	323.88
451.104	320.88
451.324	330.88
451.545	325.88
451.766	325.88
451.986	331.88
452.207	325.88
452.428	344.88
452.648	320.88
452.869	323.88
453.089	318.88
453.31	302.88
453.53	312.88
453.751	304.88
453.971	313.88
454.192	311.88
454.412	305.88
454.633	313.88
454.853	315.88
455.073	309.88
455.294	304.88
455.514	307.88
455.734	318.88
455.955	314.88
456.175	302.88
456.395	298.88
456.616	297.88
456.836	309.88
457.056	319.88
457.276	306.88
457.497	317.88
457.717	313.88
457.937	305.88
458.157	311.88
458.377	313.88
458.598	300.88
458.818	321.88
459.038	319.88
459.258	339.88
459.478	354.88
459.698	343.88
459.918	357.88
460.138	373.88
460.358	392.88
460.578	382.88
460.798	392.88
461.018	387.88
461.238	381.88
461.458	392.88
461.678	389.88
461.898	399.88
462.118	386.88
462.338	409.88
462.558	420.88
462.777	422.88
462.997	454.88
463.217	477.88
463.437	494.88
463.657	458.88
463.876	415.88
464.096	438.88
464.316	426.88
464.536	432.88
464.755	406.88
464.975	428.88
465.195	397.88
465.414	382.88
465.634	353.88
465.854	358.88
466.073	381.88
466.293	346.88
466.512	347.88
466.732	336.88
466.951	369.88
467.171	352.88
467.391	359.88
467.61	361.88
467.829	329.88
468.049	346.88
468.268	336.88
468.488	348.88
468.707	344.88
468.927	338.88
469.146	356.88
469.365	348.88
469.585	311.88
469.804	334.88
470.023	340.88
470.243	369.88
470.462	346.88
470.681	344.88
470.901	334.88
471.12	348.88
471.339	353.88
471.558	344.88
471.777	348.88
471.997	338.88
472.216	316.88
472.435	337.88
472.654	323.88
472.873	338.88
473.092	320.88
473.311	347.88
473.53	327.88
473.749	325.88
473.968	326.88
474.187	322.88
474.406	338.88
474.625	335.88
474.844	317.88
475.063	339.88
475.282	320.88
475.501	340.88
475.72	348.88
475.939	331.88
476.158	318.88
476.377	343.88
476.596	359.88
476.814	366.88
477.033	347.88
477.252	355.88
477.471	343.88
477.69	366.88
477.908	351.88
478.127	354.88
478.346	359.88
478.564	380.88
478.783	388.88
479.002	388.88
479.22	393.88
479.439	372.88
479.658	377.88
479.876	383.88
480.095	390.88
480.313	408.88
480.532	425.88
480.751	386.88
480.969	417.88
481.188	391.88
481.406	398.88
481.624	400.88
481.843	370.88
482.061	395.88
482.28	373.88
482.498	384.88
482.717	387.88
482.935	378.88
483.153	371.88
483.372	378.88
483.59	368.88
483.808	354.88
484.027	370.88
484.245	377.88
484.463	378.88
484.681	382.88
484.9	391.88
485.118	372.88
485.336	400.88
485.554	382.88
485.772	388.88
485.99	394.88
486.209	375.88
486.427	393.88
486.645	381.88
486.863	383.88
487.081	394.88
487.299	377.88
487.517	382.88
487.735	378.88
487.953	388.88
488.171	402.88
488.389	398.88
488.607	366.88
488.825	385.88
489.043	362.88
489.261	384.88
489.479	390.88
489.696	379.88
489.914	388.88
490.132	394.88
490.35	380.88
490.568	376.88
490.786	384.88
491.003	383.88
491.221	390.88
491.439	397.88
491.657	394.88
491.874	409.88
492.092	410.88
492.31	395.88
492.527	394.88
492.745	410.88
492.963	398.88
493.18	412.88
493.398	407.88
493.615	412.88
493.833	398.88
494.05	423.88
494.268	409.88
494.485	393.88
494.703	410.88
494.92	393.88
495.138	409.88
495.355	412.88
495.573	378.88
495.79	389.88
496.008	426.88
496.225	415.88
496.442	420.88
496.66	424.88
496.877	440.88
497.094	433.88
497.312	436.88
497.529	461.88
497.746	453.88
497.963	466.88
498.181	469.88
498.398	481.88
498.615	518.88
498.832	527.88
499.049	572.88
499.267	621.88
499.484	649.88
499.701	705.88
499.918	739.88
500.135	812.88
500.352	864.88
500.569	907.88
500.786	903.88
501.003	870.88
501.22	822.88
501.437	714.88
501.654	662.88
501.871	608.88
502.088	585.88
502.305	547.88
502.522	551.88
