Data from Fe(NO3)3@0.1M.TitratingCurve.Agarose3%dH2O.NegLispCup.LampEnergy10.LIBS07252019_HRD10591_16-40-52-333.txt Node
Date: Thu Jul 25 16:40:52 EDT 2019
User: cochatt
Spectrometer: HR+D1059
Trigger mode: 1
Integration Time (sec): 1.000000E-1
Scans to average: 1
Electric dark correction enabled: true
Nonlinearity correction enabled: false
Boxcar width: 0
XAxis mode: Wavelengths
Number of Pixels in Spectrum: 2048
>>>>>Begin Spectral Data<<<<<
223.165	-20.12
223.4	-20.12
223.635	-20.12
223.869	-24.12
224.104	-16.12
224.338	-13.12
224.573	-17.12
224.808	-19.12
225.042	-8.12
225.277	-0.12
225.511	3.88
225.746	7.88
225.98	8.88
226.215	10.88
226.449	11.88
226.683	24.88
226.918	20.88
227.152	28.88
227.387	27.88
227.621	40.88
227.856	35.88
228.09	37.88
228.324	42.88
228.559	55.88
228.793	64.88
229.027	85.88
229.262	90.88
229.496	76.88
229.73	88.88
229.964	84.88
230.199	83.88
230.433	99.88
230.667	101.88
230.901	108.88
231.136	96.88
231.37	101.88
231.604	104.88
231.838	99.88
232.072	108.88
232.306	108.88
232.541	111.88
232.775	113.88
233.009	101.88
233.243	97.88
233.477	92.88
233.711	101.88
233.945	103.88
234.179	108.88
234.413	106.88
234.647	112.88
234.881	95.88
235.115	112.88
235.349	95.88
235.583	107.88
235.817	100.88
236.051	100.88
236.285	109.88
236.519	119.88
236.753	103.88
236.987	115.88
237.221	117.88
237.455	106.88
237.689	89.88
237.922	104.88
238.156	102.88
238.39	118.88
238.624	101.88
238.858	106.88
239.091	100.88
239.325	98.88
239.559	123.88
239.793	98.88
240.027	111.88
240.26	101.88
240.494	117.88
240.728	116.88
240.961	121.88
241.195	117.88
241.429	118.88
241.662	113.88
241.896	115.88
242.13	107.88
242.363	112.88
242.597	111.88
242.83	109.88
243.064	115.88
243.298	124.88
243.531	125.88
243.765	133.88
243.998	136.88
244.232	120.88
244.465	130.88
244.699	126.88
244.932	128.88
245.166	126.88
245.399	125.88
245.633	128.88
245.866	141.88
246.099	132.88
246.333	134.88
246.566	128.88
246.8	103.88
247.033	131.88
247.266	131.88
247.5	127.88
247.733	130.88
247.966	118.88
248.2	142.88
248.433	133.88
248.666	140.88
248.899	145.88
249.133	139.88
249.366	129.88
249.599	139.88
249.832	124.88
250.066	133.88
250.299	132.88
250.532	137.88
250.765	139.88
250.998	142.88
251.231	143.88
251.465	146.88
251.698	154.88
251.931	144.88
252.164	144.88
252.397	142.88
252.63	147.88
252.863	146.88
253.096	160.88
253.329	150.88
253.562	147.88
253.795	161.88
254.028	161.88
254.261	168.88
254.494	151.88
254.727	169.88
254.96	159.88
255.193	168.88
255.426	135.88
255.659	157.88
255.892	138.88
256.124	129.88
256.357	153.88
256.59	148.88
256.823	143.88
257.056	169.88
257.289	165.88
257.521	155.88
257.754	164.88
257.987	157.88
258.22	156.88
258.452	167.88
258.685	160.88
258.918	164.88
259.151	165.88
259.383	169.88
259.616	161.88
259.849	188.88
260.081	183.88
260.314	174.88
260.547	169.88
260.779	168.88
261.012	161.88
261.244	165.88
261.477	167.88
261.71	169.88
261.942	184.88
262.175	177.88
262.407	168.88
262.64	169.88
262.872	175.88
263.105	172.88
263.337	163.88
263.57	178.88
263.802	163.88
264.035	163.88
264.267	183.88
264.499	165.88
264.732	177.88
264.964	177.88
265.197	184.88
265.429	184.88
265.661	168.88
265.894	176.88
266.126	179.88
266.358	180.88
266.591	170.88
266.823	191.88
267.055	159.88
267.287	186.88
267.52	199.88
267.752	197.88
267.984	185.88
268.216	197.88
268.448	200.88
268.681	194.88
268.913	187.88
269.145	192.88
269.377	188.88
269.609	166.88
269.841	183.88
270.073	183.88
270.306	202.88
270.538	183.88
270.77	192.88
271.002	173.88
271.234	190.88
271.466	184.88
271.698	196.88
271.93	188.88
272.162	205.88
272.394	193.88
272.626	201.88
272.858	184.88
273.09	189.88
273.322	204.88
273.553	185.88
273.785	191.88
274.017	206.88
274.249	197.88
274.481	199.88
274.713	199.88
274.945	204.88
275.176	210.88
275.408	211.88
275.64	227.88
275.872	211.88
276.104	189.88
276.335	203.88
276.567	199.88
276.799	201.88
277.031	221.88
277.262	212.88
277.494	209.88
277.726	216.88
277.957	207.88
278.189	216.88
278.421	207.88
278.652	215.88
278.884	211.88
279.115	225.88
279.347	232.88
279.579	216.88
279.81	207.88
280.042	218.88
280.273	224.88
280.505	215.88
280.736	197.88
280.968	228.88
281.199	241.88
281.431	220.88
281.662	231.88
281.894	221.88
282.125	215.88
282.356	211.88
282.588	226.88
282.819	221.88
283.051	232.88
283.282	246.88
283.513	240.88
283.745	218.88
283.976	235.88
284.207	229.88
284.439	229.88
284.67	218.88
284.901	217.88
285.132	250.88
285.364	246.88
285.595	245.88
285.826	239.88
286.057	253.88
286.288	225.88
286.52	227.88
286.751	236.88
286.982	244.88
287.213	240.88
287.444	249.88
287.675	247.88
287.906	256.88
288.138	236.88
288.369	231.88
288.6	254.88
288.831	252.88
289.062	255.88
289.293	244.88
289.524	247.88
289.755	258.88
289.986	248.88
290.217	237.88
290.448	250.88
290.679	244.88
290.91	235.88
291.141	259.88
291.371	251.88
291.602	249.88
291.833	249.88
292.064	256.88
292.295	260.88
292.526	259.88
292.757	240.88
292.987	239.88
293.218	236.88
293.449	239.88
293.68	257.88
293.91	260.88
294.141	250.88
294.372	255.88
294.603	269.88
294.833	251.88
295.064	247.88
295.295	252.88
295.525	268.88
295.756	260.88
295.987	232.88
296.217	245.88
296.448	251.88
296.679	260.88
296.909	253.88
297.14	250.88
297.37	274.88
297.601	265.88
297.831	262.88
298.062	251.88
298.292	280.88
298.523	276.88
298.753	268.88
298.984	282.88
299.214	283.88
299.445	263.88
299.675	249.88
299.905	267.88
300.136	276.88
300.366	274.88
300.597	270.88
300.827	269.88
301.057	273.88
301.288	291.88
301.518	267.88
301.748	277.88
301.979	291.88
302.209	282.88
302.439	289.88
302.669	299.88
302.9	273.88
303.13	283.88
303.36	284.88
303.59	285.88
303.82	272.88
304.051	289.88
304.281	275.88
304.511	285.88
304.741	271.88
304.971	282.88
305.201	278.88
305.431	279.88
305.661	271.88
305.891	272.88
306.121	260.88
306.352	291.88
306.582	276.88
306.812	268.88
307.042	282.88
307.272	293.88
307.502	288.88
307.731	292.88
307.961	293.88
308.191	275.88
308.421	288.88
308.651	303.88
308.881	261.88
309.111	275.88
309.341	283.88
309.571	272.88
309.8	287.88
310.03	270.88
310.26	277.88
310.49	285.88
310.72	285.88
310.949	278.88
311.179	279.88
311.409	288.88
311.639	289.88
311.868	283.88
312.098	304.88
312.328	294.88
312.557	312.88
312.787	305.88
313.017	289.88
313.246	304.88
313.476	266.88
313.706	320.88
313.935	303.88
314.165	275.88
314.394	310.88
314.624	299.88
314.853	298.88
315.083	294.88
315.312	291.88
315.542	289.88
315.771	284.88
316.001	308.88
316.23	287.88
316.46	303.88
316.689	296.88
316.919	293.88
317.148	269.88
317.377	305.88
317.607	285.88
317.836	300.88
318.065	312.88
318.295	304.88
318.524	297.88
318.753	284.88
318.983	289.88
319.212	284.88
319.441	300.88
319.67	307.88
319.9	291.88
320.129	307.88
320.358	272.88
320.587	294.88
320.816	299.88
321.046	313.88
321.275	292.88
321.504	309.88
321.733	303.88
321.962	317.88
322.191	300.88
322.42	298.88
322.649	296.88
322.878	295.88
323.108	287.88
323.337	292.88
323.566	305.88
323.795	305.88
324.024	296.88
324.253	298.88
324.482	287.88
324.71	313.88
324.939	318.88
325.168	321.88
325.397	299.88
325.626	311.88
325.855	319.88
326.084	328.88
326.313	307.88
326.542	329.88
326.77	315.88
326.999	314.88
327.228	306.88
327.457	300.88
327.686	319.88
327.914	318.88
328.143	322.88
328.372	351.88
328.6	322.88
328.829	335.88
329.058	326.88
329.287	331.88
329.515	318.88
329.744	337.88
329.972	334.88
330.201	339.88
330.43	333.88
330.658	341.88
330.887	337.88
331.115	344.88
331.344	326.88
331.572	332.88
331.801	345.88
332.03	354.88
332.258	378.88
332.486	385.88
332.715	375.88
332.943	379.88
333.172	384.88
333.4	418.88
333.629	426.88
333.857	415.88
334.085	403.88
334.314	401.88
334.542	409.88
334.771	403.88
334.999	400.88
335.227	392.88
335.455	405.88
335.684	387.88
335.912	376.88
336.14	383.88
336.369	380.88
336.597	395.88
336.825	390.88
337.053	378.88
337.281	363.88
337.51	387.88
337.738	379.88
337.966	360.88
338.194	351.88
338.422	350.88
338.65	340.88
338.878	344.88
339.106	347.88
339.334	346.88
339.562	345.88
339.79	347.88
340.018	341.88
340.246	333.88
340.474	343.88
340.702	319.88
340.93	333.88
341.158	346.88
341.386	343.88
341.614	332.88
341.842	352.88
342.07	336.88
342.298	321.88
342.526	344.88
342.754	352.88
342.981	348.88
343.209	352.88
343.437	367.88
343.665	372.88
343.893	397.88
344.12	408.88
344.348	397.88
344.576	372.88
344.804	344.88
345.031	356.88
345.259	339.88
345.487	336.88
345.714	331.88
345.942	354.88
346.17	344.88
346.397	336.88
346.625	349.88
346.853	334.88
347.08	326.88
347.308	336.88
347.535	334.88
347.763	328.88
347.99	347.88
348.218	340.88
348.445	330.88
348.673	324.88
348.9	340.88
349.128	337.88
349.355	316.88
349.583	337.88
349.81	312.88
350.037	317.88
350.265	323.88
350.492	326.88
350.72	309.88
350.947	328.88
351.174	333.88
351.402	312.88
351.629	333.88
351.856	313.88
352.083	332.88
352.311	333.88
352.538	321.88
352.765	305.88
352.992	313.88
353.22	317.88
353.447	300.88
353.674	319.88
353.901	314.88
354.128	350.88
354.355	309.88
354.583	322.88
354.81	331.88
355.037	326.88
355.264	333.88
355.491	312.88
355.718	316.88
355.945	319.88
356.172	322.88
356.399	313.88
356.626	329.88
356.853	338.88
357.08	323.88
357.307	341.88
357.534	318.88
357.761	316.88
357.988	305.88
358.215	324.88
358.441	333.88
358.668	312.88
358.895	328.88
359.122	295.88
359.349	315.88
359.576	328.88
359.802	343.88
360.029	316.88
360.256	340.88
360.483	337.88
360.709	334.88
360.936	328.88
361.163	335.88
361.39	328.88
361.616	326.88
361.843	296.88
362.07	328.88
362.296	314.88
362.523	309.88
362.749	332.88
362.976	321.88
363.203	317.88
363.429	322.88
363.656	316.88
363.882	319.88
364.109	324.88
364.335	329.88
364.562	337.88
364.788	327.88
365.015	329.88
365.241	353.88
365.468	320.88
365.694	314.88
365.92	325.88
366.147	339.88
366.373	332.88
366.599	315.88
366.826	321.88
367.052	337.88
367.278	314.88
367.505	313.88
367.731	339.88
367.957	317.88
368.184	333.88
368.41	337.88
368.636	329.88
368.862	340.88
369.089	339.88
369.315	323.88
369.541	316.88
369.767	343.88
369.993	334.88
370.219	344.88
370.445	328.88
370.672	349.88
370.898	344.88
371.124	353.88
371.35	366.88
371.576	366.88
371.802	356.88
372.028	341.88
372.254	343.88
372.48	357.88
372.706	385.88
372.932	371.88
373.158	369.88
373.384	373.88
373.61	356.88
373.835	363.88
374.061	348.88
374.287	369.88
374.513	357.88
374.739	387.88
374.965	389.88
375.191	397.88
375.416	386.88
375.642	381.88
375.868	377.88
376.094	371.88
376.319	367.88
376.545	368.88
376.771	344.88
376.997	353.88
377.222	355.88
377.448	370.88
377.674	348.88
377.899	356.88
378.125	364.88
378.35	372.88
378.576	351.88
378.802	372.88
379.027	365.88
379.253	373.88
379.478	349.88
379.704	346.88
379.929	344.88
380.155	346.88
380.38	367.88
380.606	347.88
380.831	323.88
381.057	368.88
381.282	368.88
381.507	349.88
381.733	346.88
381.958	367.88
382.184	367.88
382.409	382.88
382.634	375.88
382.86	368.88
383.085	397.88
383.31	402.88
383.535	375.88
383.761	384.88
383.986	395.88
384.211	385.88
384.436	393.88
384.662	403.88
384.887	411.88
385.112	413.88
385.337	421.88
385.562	396.88
385.787	398.88
386.013	397.88
386.238	432.88
386.463	435.88
386.688	420.88
386.913	433.88
387.138	430.88
387.363	418.88
387.588	422.88
387.813	394.88
388.038	421.88
388.263	412.88
388.488	437.88
388.713	447.88
388.938	415.88
389.163	399.88
389.387	423.88
389.612	426.88
389.837	434.88
390.062	405.88
390.287	422.88
390.512	406.88
390.736	425.88
390.961	438.88
391.186	441.88
391.411	445.88
391.636	453.88
391.86	460.88
392.085	490.88
392.31	459.88
392.534	452.88
392.759	451.88
392.984	444.88
393.208	435.88
393.433	431.88
393.658	449.88
393.882	443.88
394.107	453.88
394.331	442.88
394.556	467.88
394.78	452.88
395.005	449.88
395.229	456.88
395.454	441.88
395.678	482.88
395.903	471.88
396.127	452.88
396.352	448.88
396.576	472.88
396.801	455.88
397.025	438.88
397.249	466.88
397.474	462.88
397.698	468.88
397.922	460.88
398.147	452.88
398.371	477.88
398.595	493.88
398.82	521.88
399.044	557.88
399.268	611.88
399.492	680.88
399.717	732.88
399.941	725.88
400.165	647.88
400.389	604.88
400.613	577.88
400.837	547.88
401.062	519.88
401.286	519.88
401.51	517.88
401.734	529.88
401.958	513.88
402.182	543.88
402.406	544.88
402.63	564.88
402.854	548.88
403.078	545.88
403.302	550.88
403.526	575.88
403.75	573.88
403.974	584.88
404.198	574.88
404.422	593.88
404.645	590.88
404.869	565.88
405.093	579.88
405.317	572.88
405.541	575.88
405.765	571.88
405.988	581.88
406.212	571.88
406.436	567.88
406.66	584.88
406.883	607.88
407.107	646.88
407.331	644.88
407.555	669.88
407.778	641.88
408.002	620.88
408.226	636.88
408.449	624.88
408.673	600.88
408.896	602.88
409.12	599.88
409.344	585.88
409.567	571.88
409.791	597.88
410.014	615.88
410.238	607.88
410.461	599.88
410.685	594.88
410.908	559.88
411.132	556.88
411.355	547.88
411.578	560.88
411.802	559.88
412.025	553.88
412.249	559.88
412.472	560.88
412.695	537.88
412.919	518.88
413.142	548.88
413.365	528.88
413.589	527.88
413.812	556.88
414.035	511.88
414.258	549.88
414.482	504.88
414.705	540.88
414.928	529.88
415.151	534.88
415.374	520.88
415.597	530.88
415.821	535.88
416.044	517.88
416.267	495.88
416.49	488.88
416.713	501.88
416.936	504.88
417.159	552.88
417.382	514.88
417.605	528.88
417.828	530.88
418.051	530.88
418.274	526.88
418.497	556.88
418.72	575.88
418.943	537.88
419.166	556.88
419.389	595.88
419.611	570.88
419.834	565.88
420.057	536.88
420.28	540.88
420.503	522.88
420.726	534.88
420.948	514.88
421.171	513.88
421.394	503.88
421.617	524.88
421.839	515.88
422.062	522.88
422.285	529.88
422.507	550.88
422.73	520.88
422.953	517.88
423.175	541.88
423.398	559.88
423.621	556.88
423.843	562.88
424.066	564.88
424.288	531.88
424.511	543.88
424.733	527.88
424.956	521.88
425.178	526.88
425.401	521.88
425.623	531.88
425.846	505.88
426.068	517.88
426.291	523.88
426.513	519.88
426.735	486.88
426.958	482.88
427.18	482.88
427.402	513.88
427.625	501.88
427.847	492.88
428.069	479.88
428.292	463.88
428.514	451.88
428.736	480.88
428.958	480.88
429.181	466.88
429.403	451.88
429.625	487.88
429.847	471.88
430.069	486.88
430.292	465.88
430.514	471.88
430.736	480.88
430.958	470.88
431.18	479.88
431.402	472.88
431.624	464.88
431.846	490.88
432.068	501.88
432.29	489.88
432.512	446.88
432.734	457.88
432.956	489.88
433.178	498.88
433.4	478.88
433.622	478.88
433.844	479.88
434.066	484.88
434.287	508.88
434.509	493.88
434.731	518.88
434.953	538.88
435.175	519.88
435.397	556.88
435.618	508.88
435.84	487.88
436.062	497.88
436.284	483.88
436.505	481.88
436.727	499.88
436.949	487.88
437.17	482.88
437.392	456.88
437.614	453.88
437.835	458.88
438.057	454.88
438.278	442.88
438.5	479.88
438.721	459.88
438.943	483.88
439.165	478.88
439.386	478.88
439.608	486.88
439.829	475.88
440.05	469.88
440.272	511.88
440.493	470.88
440.715	495.88
440.936	508.88
441.158	509.88
441.379	509.88
441.6	545.88
441.822	560.88
442.043	557.88
442.264	530.88
442.486	511.88
442.707	525.88
442.928	528.88
443.149	529.88
443.371	535.88
443.592	537.88
443.813	529.88
444.034	522.88
444.255	550.88
444.476	578.88
444.698	604.88
444.919	629.88
445.14	696.88
445.361	617.88
445.582	562.88
445.803	511.88
446.024	495.88
446.245	514.88
446.466	489.88
446.687	492.88
446.908	504.88
447.129	497.88
447.35	482.88
447.571	451.88
447.792	469.88
448.013	477.88
448.234	466.88
448.455	472.88
448.675	454.88
448.896	466.88
449.117	452.88
449.338	465.88
449.559	449.88
449.779	450.88
450	466.88
450.221	448.88
450.442	452.88
450.662	474.88
450.883	436.88
451.104	460.88
451.324	460.88
451.545	460.88
451.766	467.88
451.986	476.88
452.207	459.88
452.428	452.88
452.648	448.88
452.869	438.88
453.089	422.88
453.31	426.88
453.53	446.88
453.751	429.88
453.971	452.88
454.192	412.88
454.412	403.88
454.633	423.88
454.853	424.88
455.073	431.88
455.294	408.88
455.514	411.88
455.734	429.88
455.955	424.88
456.175	409.88
456.395	425.88
456.616	404.88
456.836	423.88
457.056	436.88
457.276	425.88
457.497	409.88
457.717	420.88
457.937	402.88
458.157	435.88
458.377	427.88
458.598	431.88
458.818	448.88
459.038	461.88
459.258	477.88
459.478	468.88
459.698	493.88
459.918	497.88
460.138	537.88
460.358	543.88
460.578	543.88
460.798	562.88
461.018	525.88
461.238	533.88
461.458	565.88
461.678	531.88
461.898	548.88
462.118	579.88
462.338	560.88
462.558	623.88
462.777	628.88
462.997	657.88
463.217	700.88
463.437	694.88
463.657	678.88
463.876	623.88
464.096	626.88
464.316	627.88
464.536	644.88
464.755	615.88
464.975	593.88
465.195	568.88
465.414	553.88
465.634	517.88
465.854	486.88
466.073	506.88
466.293	471.88
466.512	473.88
466.732	481.88
466.951	461.88
467.171	441.88
467.391	469.88
467.61	474.88
467.829	454.88
468.049	463.88
468.268	438.88
468.488	439.88
468.707	460.88
468.927	473.88
469.146	447.88
469.365	460.88
469.585	446.88
469.804	446.88
470.023	471.88
470.243	484.88
470.462	477.88
470.681	449.88
470.901	495.88
471.12	456.88
471.339	452.88
471.558	461.88
471.777	444.88
471.997	489.88
472.216	449.88
472.435	448.88
472.654	426.88
472.873	437.88
473.092	432.88
473.311	423.88
473.53	431.88
473.749	435.88
473.968	424.88
474.187	433.88
474.406	419.88
474.625	453.88
474.844	434.88
475.063	418.88
475.282	434.88
475.501	425.88
475.72	444.88
475.939	447.88
476.158	441.88
476.377	439.88
476.596	459.88
476.814	451.88
477.033	459.88
477.252	462.88
477.471	461.88
477.69	488.88
477.908	470.88
478.127	519.88
478.346	515.88
478.564	525.88
478.783	517.88
479.002	514.88
479.22	533.88
479.439	538.88
479.658	519.88
479.876	517.88
480.095	521.88
480.313	556.88
480.532	569.88
480.751	554.88
480.969	510.88
481.188	483.88
481.406	489.88
481.624	508.88
481.843	467.88
482.061	464.88
482.28	479.88
482.498	456.88
482.717	464.88
482.935	478.88
483.153	471.88
483.372	467.88
483.59	481.88
483.808	468.88
484.027	475.88
484.245	467.88
484.463	487.88
484.681	514.88
484.9	477.88
485.118	485.88
485.336	500.88
485.554	490.88
485.772	503.88
485.99	484.88
486.209	505.88
486.427	484.88
486.645	505.88
486.863	513.88
487.081	488.88
487.299	503.88
487.517	517.88
487.735	497.88
487.953	479.88
488.171	542.88
488.389	522.88
488.607	500.88
488.825	501.88
489.043	502.88
489.261	499.88
489.479	479.88
489.696	509.88
489.914	505.88
490.132	498.88
490.35	486.88
490.568	506.88
490.786	516.88
491.003	492.88
491.221	503.88
491.439	511.88
491.657	499.88
491.874	504.88
492.092	505.88
492.31	514.88
492.527	517.88
492.745	521.88
492.963	539.88
493.18	517.88
493.398	535.88
493.615	527.88
493.833	526.88
494.05	531.88
494.268	537.88
494.485	525.88
494.703	530.88
494.92	539.88
495.138	538.88
495.355	533.88
495.573	521.88
495.79	543.88
496.008	534.88
496.225	554.88
496.442	540.88
496.66	558.88
496.877	543.88
497.094	549.88
497.312	575.88
497.529	564.88
497.746	592.88
497.963	610.88
498.181	650.88
498.398	667.88
498.615	680.88
498.832	729.88
499.049	789.88
499.267	816.88
499.484	935.88
499.701	999.88
499.918	1097.88
500.135	1217.88
500.352	1393.88
500.569	1420.88
500.786	1428.88
501.003	1314.88
501.22	1183.88
501.437	1082.88
501.654	957.88
