Data from Fe(NO3)3@0.05M.TitratingCurve.Agarose3%dH2O.NegLispCup.LampEnergy10.LIBS07252019_HRD10591_16-47-26-335.txt Node
Date: Thu Jul 25 16:47:26 EDT 2019
User: cochatt
Spectrometer: HR+D1059
Trigger mode: 1
Integration Time (sec): 1.000000E-1
Scans to average: 1
Electric dark correction enabled: true
Nonlinearity correction enabled: false
Boxcar width: 0
XAxis mode: Wavelengths
Number of Pixels in Spectrum: 2048
>>>>>Begin Spectral Data<<<<<
223.165	2.75
223.4	2.75
223.635	2.75
223.869	-5.25
224.104	-19.25
224.338	-6.25
224.573	-30.25
224.808	-18.25
225.042	-0.25
225.277	-5.25
225.511	2.75
225.746	-5.25
225.98	4.75
226.215	-8.25
226.449	14.75
226.683	6.75
226.918	29.75
227.152	36.75
227.387	35.75
227.621	45.75
227.856	49.75
228.09	39.75
228.324	44.75
228.559	47.75
228.793	52.75
229.027	65.75
229.262	84.75
229.496	96.75
229.73	99.75
229.964	96.75
230.199	78.75
230.433	90.75
230.667	86.75
230.901	103.75
231.136	99.75
231.37	109.75
231.604	110.75
231.838	99.75
232.072	125.75
232.306	99.75
232.541	105.75
232.775	122.75
233.009	97.75
233.243	113.75
233.477	107.75
233.711	108.75
233.945	107.75
234.179	110.75
234.413	98.75
234.647	114.75
234.881	126.75
235.115	111.75
235.349	109.75
235.583	100.75
235.817	102.75
236.051	113.75
236.285	95.75
236.519	117.75
236.753	114.75
236.987	115.75
237.221	102.75
237.455	104.75
237.689	106.75
237.922	117.75
238.156	113.75
238.39	114.75
238.624	122.75
238.858	116.75
239.091	111.75
239.325	133.75
239.559	113.75
239.793	120.75
240.027	132.75
240.26	115.75
240.494	110.75
240.728	120.75
240.961	132.75
241.195	122.75
241.429	99.75
241.662	120.75
241.896	125.75
242.13	125.75
242.363	138.75
242.597	122.75
242.83	117.75
243.064	134.75
243.298	137.75
243.531	105.75
243.765	129.75
243.998	137.75
244.232	118.75
244.465	137.75
244.699	117.75
244.932	117.75
245.166	130.75
245.399	125.75
245.633	115.75
245.866	125.75
246.099	122.75
246.333	141.75
246.566	130.75
246.8	129.75
247.033	130.75
247.266	141.75
247.5	141.75
247.733	162.75
247.966	151.75
248.2	137.75
248.433	143.75
248.666	135.75
248.899	151.75
249.133	157.75
249.366	157.75
249.599	156.75
249.832	143.75
250.066	138.75
250.299	142.75
250.532	140.75
250.765	146.75
250.998	136.75
251.231	127.75
251.465	143.75
251.698	146.75
251.931	147.75
252.164	145.75
252.397	137.75
252.63	158.75
252.863	171.75
253.096	155.75
253.329	146.75
253.562	157.75
253.795	174.75
254.028	174.75
254.261	162.75
254.494	147.75
254.727	159.75
254.96	152.75
255.193	172.75
255.426	145.75
255.659	163.75
255.892	162.75
256.124	157.75
256.357	147.75
256.59	174.75
256.823	168.75
257.056	153.75
257.289	167.75
257.521	160.75
257.754	167.75
257.987	160.75
258.22	167.75
258.452	172.75
258.685	167.75
258.918	191.75
259.151	178.75
259.383	164.75
259.616	178.75
259.849	190.75
260.081	203.75
260.314	210.75
260.547	184.75
260.779	167.75
261.012	197.75
261.244	199.75
261.477	203.75
261.71	211.75
261.942	193.75
262.175	190.75
262.407	190.75
262.64	188.75
262.872	200.75
263.105	202.75
263.337	201.75
263.57	174.75
263.802	172.75
264.035	167.75
264.267	166.75
264.499	179.75
264.732	194.75
264.964	180.75
265.197	191.75
265.429	161.75
265.661	179.75
265.894	170.75
266.126	186.75
266.358	191.75
266.591	201.75
266.823	194.75
267.055	168.75
267.287	180.75
267.52	183.75
267.752	195.75
267.984	187.75
268.216	173.75
268.448	181.75
268.681	185.75
268.913	173.75
269.145	203.75
269.377	185.75
269.609	173.75
269.841	193.75
270.073	189.75
270.306	193.75
270.538	204.75
270.77	181.75
271.002	197.75
271.234	201.75
271.466	200.75
271.698	204.75
271.93	193.75
272.162	181.75
272.394	206.75
272.626	196.75
272.858	197.75
273.09	197.75
273.322	203.75
273.553	198.75
273.785	211.75
274.017	225.75
274.249	241.75
274.481	229.75
274.713	242.75
274.945	247.75
275.176	247.75
275.408	242.75
275.64	245.75
275.872	252.75
276.104	236.75
276.335	215.75
276.567	221.75
276.799	232.75
277.031	223.75
277.262	230.75
277.494	214.75
277.726	205.75
277.957	219.75
278.189	211.75
278.421	217.75
278.652	226.75
278.884	221.75
279.115	225.75
279.347	227.75
279.579	204.75
279.81	223.75
280.042	217.75
280.273	227.75
280.505	219.75
280.736	217.75
280.968	205.75
281.199	217.75
281.431	217.75
281.662	217.75
281.894	234.75
282.125	205.75
282.356	215.75
282.588	238.75
282.819	222.75
283.051	237.75
283.282	231.75
283.513	232.75
283.745	219.75
283.976	216.75
284.207	233.75
284.439	234.75
284.67	234.75
284.901	231.75
285.132	230.75
285.364	246.75
285.595	234.75
285.826	230.75
286.057	245.75
286.288	217.75
286.52	238.75
286.751	251.75
286.982	240.75
287.213	225.75
287.444	239.75
287.675	236.75
287.906	256.75
288.138	248.75
288.369	249.75
288.6	245.75
288.831	260.75
289.062	247.75
289.293	236.75
289.524	244.75
289.755	241.75
289.986	246.75
290.217	261.75
290.448	226.75
290.679	233.75
290.91	247.75
291.141	240.75
291.371	245.75
291.602	242.75
291.833	247.75
292.064	246.75
292.295	265.75
292.526	249.75
292.757	246.75
292.987	255.75
293.218	254.75
293.449	251.75
293.68	239.75
293.91	267.75
294.141	271.75
294.372	237.75
294.603	244.75
294.833	241.75
295.064	248.75
295.295	261.75
295.525	245.75
295.756	251.75
295.987	252.75
296.217	244.75
296.448	246.75
296.679	254.75
296.909	276.75
297.14	266.75
297.37	275.75
297.601	273.75
297.831	268.75
298.062	253.75
298.292	265.75
298.523	286.75
298.753	276.75
298.984	270.75
299.214	248.75
299.445	270.75
299.675	273.75
299.905	271.75
300.136	268.75
300.366	283.75
300.597	283.75
300.827	281.75
301.057	279.75
301.288	277.75
301.518	271.75
301.748	283.75
301.979	284.75
302.209	282.75
302.439	301.75
302.669	283.75
302.9	281.75
303.13	258.75
303.36	263.75
303.59	267.75
303.82	275.75
304.051	270.75
304.281	292.75
304.511	279.75
304.741	286.75
304.971	284.75
305.201	282.75
305.431	287.75
305.661	285.75
305.891	272.75
306.121	304.75
306.352	282.75
306.582	282.75
306.812	263.75
307.042	285.75
307.272	286.75
307.502	257.75
307.731	283.75
307.961	286.75
308.191	285.75
308.421	280.75
308.651	294.75
308.881	282.75
309.111	281.75
309.341	291.75
309.571	298.75
309.8	296.75
310.03	300.75
310.26	300.75
310.49	295.75
310.72	287.75
310.949	287.75
311.179	283.75
311.409	291.75
311.639	293.75
311.868	301.75
312.098	308.75
312.328	289.75
312.557	296.75
312.787	294.75
313.017	310.75
313.246	279.75
313.476	302.75
313.706	317.75
313.935	300.75
314.165	298.75
314.394	302.75
314.624	298.75
314.853	309.75
315.083	294.75
315.312	310.75
315.542	303.75
315.771	289.75
316.001	322.75
316.23	308.75
316.46	293.75
316.689	310.75
316.919	296.75
317.148	287.75
317.377	306.75
317.607	294.75
317.836	301.75
318.065	285.75
318.295	303.75
318.524	306.75
318.753	305.75
318.983	299.75
319.212	276.75
319.441	292.75
319.67	319.75
319.9	303.75
320.129	301.75
320.358	310.75
320.587	304.75
320.816	309.75
321.046	314.75
321.275	297.75
321.504	308.75
321.733	307.75
321.962	298.75
322.191	296.75
322.42	314.75
322.649	317.75
322.878	313.75
323.108	301.75
323.337	303.75
323.566	326.75
323.795	292.75
324.024	305.75
324.253	315.75
324.482	330.75
324.71	297.75
324.939	309.75
325.168	324.75
325.397	328.75
325.626	311.75
325.855	319.75
326.084	320.75
326.313	327.75
326.542	336.75
326.77	322.75
326.999	318.75
327.228	328.75
327.457	330.75
327.686	327.75
327.914	331.75
328.143	329.75
328.372	312.75
328.6	326.75
328.829	341.75
329.058	326.75
329.287	321.75
329.515	333.75
329.744	329.75
329.972	350.75
330.201	323.75
330.43	319.75
330.658	332.75
330.887	340.75
331.115	347.75
331.344	346.75
331.572	326.75
331.801	351.75
332.03	336.75
332.258	358.75
332.486	364.75
332.715	356.75
332.943	375.75
333.172	371.75
333.4	404.75
333.629	395.75
333.857	393.75
334.085	406.75
334.314	398.75
334.542	420.75
334.771	389.75
334.999	390.75
335.227	406.75
335.455	389.75
335.684	367.75
335.912	371.75
336.14	381.75
336.369	382.75
336.597	386.75
336.825	369.75
337.053	387.75
337.281	392.75
337.51	358.75
337.738	377.75
337.966	375.75
338.194	366.75
338.422	353.75
338.65	362.75
338.878	357.75
339.106	362.75
339.334	341.75
339.562	373.75
339.79	344.75
340.018	353.75
340.246	330.75
340.474	341.75
340.702	353.75
340.93	332.75
341.158	338.75
341.386	343.75
341.614	349.75
341.842	334.75
342.07	341.75
342.298	335.75
342.526	333.75
342.754	345.75
342.981	374.75
343.209	357.75
343.437	373.75
343.665	375.75
343.893	391.75
344.12	409.75
344.348	394.75
344.576	375.75
344.804	359.75
345.031	353.75
345.259	352.75
345.487	362.75
345.714	330.75
345.942	339.75
346.17	343.75
346.397	330.75
346.625	328.75
346.853	318.75
347.08	341.75
347.308	332.75
347.535	339.75
347.763	339.75
347.99	347.75
348.218	336.75
348.445	343.75
348.673	335.75
348.9	336.75
349.128	325.75
349.355	335.75
349.583	325.75
349.81	310.75
350.037	337.75
350.265	335.75
350.492	332.75
350.72	309.75
350.947	338.75
351.174	334.75
351.402	341.75
351.629	317.75
351.856	337.75
352.083	339.75
352.311	325.75
352.538	329.75
352.765	335.75
352.992	323.75
353.22	316.75
353.447	333.75
353.674	342.75
353.901	323.75
354.128	334.75
354.355	312.75
354.583	329.75
354.81	309.75
355.037	316.75
355.264	339.75
355.491	314.75
355.718	325.75
355.945	315.75
356.172	334.75
356.399	342.75
356.626	336.75
356.853	356.75
357.08	348.75
357.307	355.75
357.534	339.75
357.761	336.75
357.988	343.75
358.215	355.75
358.441	334.75
358.668	350.75
358.895	327.75
359.122	338.75
359.349	347.75
359.576	337.75
359.802	339.75
360.029	332.75
360.256	349.75
360.483	339.75
360.709	336.75
360.936	330.75
361.163	319.75
361.39	353.75
361.616	351.75
361.843	346.75
362.07	351.75
362.296	343.75
362.523	325.75
362.749	336.75
362.976	346.75
363.203	351.75
363.429	346.75
363.656	319.75
363.882	347.75
364.109	325.75
364.335	336.75
364.562	341.75
364.788	339.75
365.015	336.75
365.241	350.75
365.468	336.75
365.694	348.75
365.92	342.75
366.147	335.75
366.373	340.75
366.599	341.75
366.826	337.75
367.052	345.75
367.278	349.75
367.505	359.75
367.731	339.75
367.957	334.75
368.184	342.75
368.41	333.75
368.636	366.75
368.862	363.75
369.089	357.75
369.315	358.75
369.541	338.75
369.767	344.75
369.993	352.75
370.219	370.75
370.445	348.75
370.672	349.75
370.898	358.75
371.124	369.75
371.35	371.75
371.576	385.75
371.802	347.75
372.028	364.75
372.254	386.75
372.48	372.75
372.706	392.75
372.932	387.75
373.158	383.75
373.384	381.75
373.61	371.75
373.835	393.75
374.061	382.75
374.287	393.75
374.513	380.75
374.739	385.75
374.965	418.75
375.191	408.75
375.416	394.75
375.642	405.75
375.868	381.75
376.094	399.75
376.319	386.75
376.545	391.75
376.771	390.75
376.997	383.75
377.222	391.75
377.448	362.75
377.674	374.75
377.899	377.75
378.125	381.75
378.35	357.75
378.576	366.75
378.802	376.75
379.027	381.75
379.253	373.75
379.478	371.75
379.704	375.75
379.929	366.75
380.155	375.75
380.38	372.75
380.606	380.75
380.831	377.75
381.057	376.75
381.282	389.75
381.507	378.75
381.733	376.75
381.958	379.75
382.184	401.75
382.409	403.75
382.634	405.75
382.86	411.75
383.085	406.75
383.31	395.75
383.535	403.75
383.761	405.75
383.986	410.75
384.211	402.75
384.436	429.75
384.662	434.75
384.887	441.75
385.112	435.75
385.337	458.75
385.562	439.75
385.787	446.75
386.013	452.75
386.238	453.75
386.463	462.75
386.688	458.75
386.913	446.75
387.138	432.75
387.363	456.75
387.588	439.75
387.813	451.75
388.038	445.75
388.263	437.75
388.488	472.75
388.713	465.75
388.938	459.75
389.163	439.75
389.387	426.75
389.612	457.75
389.837	435.75
390.062	431.75
390.287	456.75
390.512	430.75
390.736	455.75
390.961	429.75
391.186	467.75
391.411	460.75
391.636	468.75
391.86	487.75
392.085	487.75
392.31	475.75
392.534	489.75
392.759	473.75
392.984	457.75
393.208	492.75
393.433	487.75
393.658	466.75
393.882	478.75
394.107	461.75
394.331	473.75
394.556	470.75
394.78	461.75
395.005	456.75
395.229	478.75
395.454	492.75
395.678	485.75
395.903	485.75
396.127	490.75
396.352	489.75
396.576	454.75
396.801	507.75
397.025	505.75
397.249	521.75
397.474	505.75
397.698	498.75
397.922	489.75
398.147	516.75
398.371	501.75
398.595	529.75
398.82	534.75
399.044	563.75
399.268	595.75
399.492	682.75
399.717	732.75
399.941	695.75
400.165	681.75
400.389	634.75
400.613	590.75
400.837	602.75
401.062	540.75
401.286	553.75
401.51	561.75
401.734	563.75
401.958	548.75
402.182	552.75
402.406	567.75
402.63	567.75
402.854	574.75
403.078	563.75
403.302	577.75
403.526	578.75
403.75	590.75
403.974	594.75
404.198	577.75
404.422	598.75
404.645	587.75
404.869	611.75
405.093	590.75
405.317	590.75
405.541	604.75
405.765	621.75
405.988	567.75
406.212	593.75
406.436	591.75
406.66	587.75
406.883	591.75
407.107	645.75
407.331	659.75
407.555	655.75
407.778	664.75
408.002	639.75
408.226	645.75
408.449	618.75
408.673	609.75
408.896	613.75
409.12	600.75
409.344	607.75
409.567	583.75
409.791	605.75
410.014	577.75
410.238	569.75
410.461	586.75
410.685	615.75
410.908	591.75
411.132	582.75
411.355	565.75
411.578	581.75
411.802	557.75
412.025	573.75
412.249	611.75
412.472	589.75
412.695	543.75
412.919	557.75
413.142	563.75
413.365	556.75
413.589	555.75
413.812	565.75
414.035	553.75
414.258	551.75
414.482	574.75
414.705	548.75
414.928	570.75
415.151	550.75
415.374	555.75
415.597	560.75
415.821	549.75
416.044	540.75
416.267	532.75
416.49	535.75
416.713	533.75
416.936	539.75
417.159	534.75
417.382	541.75
417.605	532.75
417.828	558.75
418.051	533.75
418.274	545.75
418.497	548.75
418.72	572.75
418.943	553.75
419.166	585.75
419.389	599.75
419.611	573.75
419.834	570.75
420.057	577.75
420.28	553.75
420.503	540.75
420.726	535.75
420.948	536.75
421.171	539.75
421.394	562.75
421.617	535.75
421.839	555.75
422.062	557.75
422.285	540.75
422.507	568.75
422.73	528.75
422.953	534.75
423.175	555.75
423.398	582.75
423.621	551.75
423.843	547.75
424.066	571.75
424.288	551.75
424.511	545.75
424.733	543.75
424.956	549.75
425.178	553.75
425.401	550.75
425.623	557.75
425.846	543.75
426.068	533.75
426.291	538.75
426.513	515.75
426.735	530.75
426.958	522.75
427.18	525.75
427.402	518.75
427.625	515.75
427.847	517.75
428.069	516.75
428.292	513.75
428.514	525.75
428.736	509.75
428.958	516.75
429.181	501.75
429.403	495.75
429.625	499.75
429.847	485.75
430.069	517.75
430.292	502.75
430.514	507.75
430.736	501.75
430.958	505.75
431.18	519.75
431.402	514.75
431.624	501.75
431.846	508.75
432.068	492.75
432.29	536.75
432.512	513.75
432.734	523.75
432.956	517.75
433.178	519.75
433.4	502.75
433.622	513.75
433.844	550.75
434.066	525.75
434.287	542.75
434.509	538.75
434.731	545.75
434.953	542.75
435.175	535.75
435.397	554.75
435.618	539.75
435.84	522.75
436.062	504.75
436.284	525.75
436.505	521.75
436.727	524.75
436.949	528.75
437.17	520.75
437.392	508.75
437.614	502.75
437.835	487.75
438.057	505.75
438.278	521.75
438.5	503.75
438.721	493.75
438.943	507.75
439.165	504.75
439.386	514.75
439.608	513.75
439.829	511.75
440.05	514.75
440.272	503.75
440.493	521.75
440.715	553.75
440.936	535.75
441.158	538.75
441.379	549.75
441.6	575.75
441.822	576.75
442.043	549.75
442.264	563.75
442.486	583.75
442.707	564.75
442.928	554.75
443.149	547.75
443.371	551.75
443.592	530.75
443.813	550.75
444.034	563.75
444.255	588.75
444.476	596.75
444.698	629.75
444.919	614.75
445.14	700.75
445.361	612.75
445.582	577.75
445.803	575.75
446.024	553.75
446.245	550.75
446.466	545.75
446.687	535.75
446.908	531.75
447.129	520.75
447.35	488.75
447.571	511.75
447.792	503.75
448.013	478.75
448.234	502.75
448.455	517.75
448.675	480.75
448.896	485.75
449.117	485.75
449.338	486.75
449.559	493.75
449.779	461.75
450	483.75
450.221	490.75
450.442	498.75
450.662	483.75
450.883	493.75
451.104	485.75
451.324	493.75
451.545	490.75
451.766	491.75
451.986	469.75
452.207	465.75
452.428	467.75
452.648	499.75
452.869	467.75
453.089	469.75
453.31	469.75
453.53	447.75
453.751	457.75
453.971	457.75
454.192	461.75
454.412	462.75
454.633	471.75
454.853	464.75
455.073	444.75
455.294	466.75
455.514	451.75
455.734	473.75
455.955	451.75
456.175	450.75
456.395	461.75
456.616	444.75
456.836	464.75
457.056	477.75
457.276	441.75
457.497	445.75
457.717	465.75
457.937	462.75
458.157	477.75
458.377	446.75
458.598	470.75
458.818	490.75
459.038	475.75
459.258	501.75
459.478	533.75
459.698	532.75
459.918	547.75
460.138	563.75
460.358	568.75
460.578	574.75
460.798	568.75
461.018	589.75
461.238	576.75
461.458	572.75
461.678	579.75
461.898	612.75
462.118	590.75
462.338	622.75
462.558	625.75
462.777	631.75
462.997	668.75
463.217	686.75
463.437	710.75
463.657	700.75
463.876	690.75
464.096	671.75
464.316	669.75
464.536	641.75
464.755	635.75
464.975	616.75
465.195	599.75
465.414	583.75
465.634	547.75
465.854	550.75
466.073	550.75
466.293	527.75
466.512	517.75
466.732	531.75
466.951	541.75
467.171	511.75
467.391	499.75
467.61	511.75
467.829	494.75
468.049	509.75
468.268	485.75
468.488	488.75
468.707	497.75
468.927	507.75
469.146	503.75
469.365	514.75
469.585	524.75
469.804	523.75
470.023	542.75
470.243	503.75
470.462	521.75
470.681	516.75
470.901	517.75
471.12	509.75
471.339	524.75
471.558	515.75
471.777	547.75
471.997	532.75
472.216	527.75
472.435	501.75
472.654	515.75
472.873	489.75
473.092	500.75
473.311	499.75
473.53	490.75
473.749	525.75
473.968	494.75
474.187	521.75
474.406	501.75
474.625	505.75
474.844	499.75
475.063	501.75
475.282	493.75
475.501	509.75
475.72	491.75
475.939	497.75
476.158	491.75
476.377	538.75
476.596	534.75
476.814	517.75
477.033	519.75
477.252	509.75
477.471	539.75
477.69	543.75
477.908	563.75
478.127	597.75
478.346	577.75
478.564	579.75
478.783	578.75
479.002	602.75
479.22	613.75
479.439	612.75
479.658	581.75
479.876	574.75
480.095	613.75
480.313	607.75
480.532	621.75
480.751	592.75
480.969	609.75
481.188	606.75
481.406	605.75
481.624	614.75
481.843	602.75
482.061	562.75
482.28	597.75
482.498	589.75
482.717	553.75
482.935	558.75
483.153	580.75
483.372	584.75
483.59	594.75
483.808	584.75
484.027	573.75
484.245	579.75
484.463	554.75
484.681	581.75
484.9	593.75
485.118	583.75
485.336	605.75
485.554	573.75
485.772	608.75
485.99	604.75
486.209	585.75
486.427	585.75
486.645	570.75
486.863	569.75
487.081	580.75
487.299	591.75
487.517	573.75
487.735	602.75
487.953	601.75
488.171	600.75
488.389	627.75
488.607	582.75
488.825	587.75
489.043	569.75
489.261	585.75
489.479	580.75
489.696	591.75
489.914	631.75
490.132	597.75
490.35	593.75
490.568	614.75
490.786	604.75
491.003	613.75
491.221	599.75
491.439	613.75
491.657	633.75
491.874	631.75
492.092	627.75
492.31	636.75
492.527	635.75
492.745	610.75
492.963	627.75
493.18	614.75
493.398	614.75
493.615	611.75
493.833	624.75
494.05	626.75
494.268	636.75
494.485	632.75
494.703	615.75
494.92	621.75
495.138	637.75
495.355	648.75
495.573	647.75
495.79	623.75
496.008	629.75
496.225	656.75
496.442	646.75
496.66	642.75
496.877	678.75
497.094	700.75
497.312	685.75
497.529	693.75
497.746	709.75
497.963	704.75
498.181	720.75
498.398	756.75
498.615	803.75
498.832	834.75
499.049	889.75
499.267	885.75
499.484	980.75
499.701	1034.75
499.918	1081.75
500.135	1174.75
500.352	1294.75
500.569	1325.75
500.786	1334.75
501.003	1277.75
501.22	1187.75
501.437	1086.75
501.654	1012.75
