Data from Fe(NO3)3@0.0125M.TitratingCurve.Agarose3%dH2O.NegLispCup.LampEnergy10.LIBS07252019_HRD10591_16-58-51-337.txt Node
Date: Thu Jul 25 16:58:51 EDT 2019
User: cochatt
Spectrometer: HR+D1059
Trigger mode: 1
Integration Time (sec): 1.000000E-1
Scans to average: 1
Electric dark correction enabled: true
Nonlinearity correction enabled: false
Boxcar width: 0
XAxis mode: Wavelengths
Number of Pixels in Spectrum: 2048
>>>>>Begin Spectral Data<<<<<
223.165	-18
223.4	-18
223.635	-18
223.869	-3
224.104	-19
224.338	-19
224.573	-13
224.808	-12
225.042	-7
225.277	-8
225.511	-18
225.746	0
225.98	17
226.215	18
226.449	15
226.683	20
226.918	23
227.152	24
227.387	28
227.621	33
227.856	48
228.09	51
228.324	40
228.559	48
228.793	73
229.027	103
229.262	110
229.496	113
229.73	109
229.964	119
230.199	132
230.433	131
230.667	128
230.901	124
231.136	127
231.37	132
231.604	129
231.838	137
232.072	129
232.306	144
232.541	138
232.775	138
233.009	138
233.243	130
233.477	136
233.711	150
233.945	162
234.179	165
234.413	143
234.647	167
234.881	159
235.115	149
235.349	139
235.583	147
235.817	154
236.051	150
236.285	168
236.519	148
236.753	157
236.987	141
237.221	160
237.455	166
237.689	160
237.922	156
238.156	154
238.39	152
238.624	152
238.858	164
239.091	162
239.325	174
239.559	151
239.793	176
240.027	188
240.26	176
240.494	185
240.728	172
240.961	185
241.195	185
241.429	185
241.662	178
241.896	170
242.13	186
242.363	189
242.597	191
242.83	184
243.064	190
243.298	210
243.531	199
243.765	193
243.998	205
244.232	200
244.465	196
244.699	201
244.932	198
245.166	205
245.399	201
245.633	206
245.866	194
246.099	206
246.333	221
246.566	222
246.8	221
247.033	219
247.266	233
247.5	220
247.733	222
247.966	239
248.2	241
248.433	233
248.666	214
248.899	231
249.133	248
249.366	253
249.599	239
249.832	249
250.066	229
250.299	238
250.532	238
250.765	244
250.998	267
251.231	252
251.465	257
251.698	257
251.931	253
252.164	249
252.397	261
252.63	276
252.863	266
253.096	273
253.329	269
253.562	274
253.795	266
254.028	255
254.261	280
254.494	276
254.727	290
254.96	285
255.193	286
255.426	265
255.659	279
255.892	295
256.124	291
256.357	281
256.59	292
256.823	300
257.056	310
257.289	298
257.521	301
257.754	309
257.987	287
258.22	306
258.452	301
258.685	293
258.918	298
259.151	294
259.383	317
259.616	316
259.849	318
260.081	337
260.314	352
260.547	325
260.779	329
261.012	345
261.244	338
261.477	338
261.71	329
261.942	333
262.175	327
262.407	351
262.64	320
262.872	353
263.105	357
263.337	342
263.57	348
263.802	350
264.035	340
264.267	353
264.499	343
264.732	351
264.964	342
265.197	351
265.429	328
265.661	370
265.894	353
266.126	366
266.358	373
266.591	365
266.823	355
267.055	372
267.287	357
267.52	364
267.752	360
267.984	360
268.216	364
268.448	365
268.681	367
268.913	382
269.145	371
269.377	356
269.609	396
269.841	396
270.073	395
270.306	393
270.538	378
270.77	400
271.002	384
271.234	416
271.466	416
271.698	394
271.93	407
272.162	400
272.394	407
272.626	429
272.858	408
273.09	407
273.322	420
273.553	433
273.785	405
274.017	440
274.249	455
274.481	456
274.713	455
274.945	452
275.176	449
275.408	448
275.64	428
275.872	454
276.104	445
276.335	417
276.567	439
276.799	430
277.031	441
277.262	448
277.494	453
277.726	465
277.957	457
278.189	458
278.421	445
278.652	460
278.884	453
279.115	467
279.347	489
279.579	474
279.81	469
280.042	456
280.273	476
280.505	476
280.736	457
280.968	456
281.199	462
281.431	502
281.662	490
281.894	494
282.125	480
282.356	481
282.588	476
282.819	514
283.051	492
283.282	484
283.513	490
283.745	492
283.976	506
284.207	514
284.439	514
284.67	528
284.901	514
285.132	532
285.364	498
285.595	511
285.826	535
286.057	543
286.288	512
286.52	529
286.751	520
286.982	550
287.213	536
287.444	543
287.675	543
287.906	556
288.138	558
288.369	531
288.6	555
288.831	544
289.062	544
289.293	556
289.524	553
289.755	555
289.986	538
290.217	576
290.448	552
290.679	572
290.91	567
291.141	562
291.371	561
291.602	577
291.833	565
292.064	551
292.295	556
292.526	551
292.757	570
292.987	565
293.218	573
293.449	585
293.68	568
293.91	568
294.141	577
294.372	578
294.603	574
294.833	578
295.064	568
295.295	588
295.525	578
295.756	578
295.987	587
296.217	601
296.448	589
296.679	576
296.909	572
297.14	609
297.37	599
297.601	602
297.831	582
298.062	601
298.292	630
298.523	594
298.753	604
298.984	608
299.214	629
299.445	590
299.675	633
299.905	591
300.136	613
300.366	601
300.597	623
300.827	622
301.057	611
301.288	641
301.518	616
301.748	646
301.979	631
302.209	654
302.439	642
302.669	637
302.9	641
303.13	625
303.36	636
303.59	645
303.82	657
304.051	664
304.281	662
304.511	642
304.741	659
304.971	657
305.201	669
305.431	678
305.661	654
305.891	681
306.121	672
306.352	674
306.582	665
306.812	653
307.042	661
307.272	672
307.502	641
307.731	675
307.961	644
308.191	690
308.421	658
308.651	655
308.881	659
309.111	665
309.341	686
309.571	663
309.8	666
310.03	668
310.26	685
310.49	684
310.72	691
310.949	684
311.179	690
311.409	669
311.639	706
311.868	718
312.098	730
312.328	712
312.557	698
312.787	693
313.017	693
313.246	748
313.476	710
313.706	732
313.935	741
314.165	715
314.394	728
314.624	745
314.853	719
315.083	736
315.312	744
315.542	758
315.771	749
316.001	761
316.23	753
316.46	760
316.689	754
316.919	756
317.148	742
317.377	734
317.607	754
317.836	737
318.065	761
318.295	748
318.524	756
318.753	772
318.983	739
319.212	768
319.441	745
319.67	780
319.9	757
320.129	742
320.358	764
320.587	770
320.816	777
321.046	746
321.275	772
321.504	748
321.733	757
321.962	777
322.191	791
322.42	793
322.649	785
322.878	765
323.108	775
323.337	773
323.566	780
323.795	818
324.024	813
324.253	779
324.482	784
324.71	808
324.939	806
325.168	809
325.397	786
325.626	804
325.855	796
326.084	841
326.313	837
326.542	822
326.77	822
326.999	800
327.228	825
327.457	822
327.686	833
327.914	814
328.143	798
328.372	824
328.6	796
328.829	837
329.058	825
329.287	832
329.515	842
329.744	849
329.972	841
330.201	858
330.43	849
330.658	831
330.887	837
331.115	831
331.344	834
331.572	835
331.801	876
332.03	844
332.258	852
332.486	848
332.715	857
332.943	850
333.172	866
333.4	885
333.629	892
333.857	902
334.085	881
334.314	872
334.542	879
334.771	907
334.999	903
335.227	901
335.455	908
335.684	898
335.912	913
336.14	916
336.369	899
336.597	917
336.825	921
337.053	938
337.281	913
337.51	904
337.738	889
337.966	891
338.194	888
338.422	908
338.65	886
338.878	902
339.106	888
339.334	882
339.562	886
339.79	890
340.018	890
340.246	869
340.474	890
340.702	902
340.93	899
341.158	886
341.386	882
341.614	868
341.842	882
342.07	868
342.298	906
342.526	892
342.754	896
342.981	871
343.209	871
343.437	869
343.665	897
343.893	904
344.12	918
344.348	902
344.576	881
344.804	886
345.031	882
345.259	912
345.487	850
345.714	874
345.942	891
346.17	882
346.397	882
346.625	873
346.853	861
347.08	861
347.308	895
347.535	865
347.763	850
347.99	865
348.218	867
348.445	849
348.673	879
348.9	854
349.128	857
349.355	825
349.583	836
349.81	827
350.037	874
350.265	864
350.492	867
350.72	853
350.947	852
351.174	847
351.402	847
351.629	853
351.856	861
352.083	851
352.311	843
352.538	853
352.765	856
352.992	848
353.22	841
353.447	857
353.674	842
353.901	846
354.128	866
354.355	857
354.583	847
354.81	842
355.037	838
355.264	853
355.491	852
355.718	852
355.945	832
356.172	856
356.399	846
356.626	864
356.853	871
357.08	831
357.307	850
357.534	849
357.761	852
357.988	861
358.215	854
358.441	839
358.668	852
358.895	867
359.122	886
359.349	851
359.576	882
359.802	862
360.029	844
360.256	846
360.483	850
360.709	854
360.936	850
361.163	855
361.39	855
361.616	842
361.843	851
362.07	872
362.296	885
362.523	864
362.749	878
362.976	900
363.203	868
363.429	863
363.656	848
363.882	865
364.109	871
364.335	879
364.562	893
364.788	879
365.015	880
365.241	861
365.468	869
365.694	884
365.92	882
366.147	861
366.373	879
366.599	888
366.826	908
367.052	890
367.278	861
367.505	884
367.731	890
367.957	882
368.184	867
368.41	892
368.636	898
368.862	904
369.089	893
369.315	889
369.541	883
369.767	902
369.993	887
370.219	912
370.445	901
370.672	912
370.898	942
371.124	898
371.35	916
371.576	927
371.802	908
372.028	950
372.254	914
372.48	898
372.706	896
372.932	918
373.158	943
373.384	931
373.61	919
373.835	911
374.061	934
374.287	930
374.513	954
374.739	936
374.965	968
375.191	929
375.416	940
375.642	920
375.868	944
376.094	924
376.319	924
376.545	896
376.771	912
376.997	920
377.222	900
377.448	905
377.674	953
377.899	918
378.125	924
378.35	922
378.576	906
378.802	916
379.027	901
379.253	897
379.478	905
379.704	896
379.929	910
380.155	921
380.38	897
380.606	915
380.831	885
381.057	932
381.282	906
381.507	924
381.733	933
381.958	912
382.184	936
382.409	954
382.634	950
382.86	941
383.085	949
383.31	954
383.535	938
383.761	938
383.986	958
384.211	957
384.436	935
384.662	968
384.887	958
385.112	970
385.337	980
385.562	975
385.787	956
386.013	997
386.238	972
386.463	985
386.688	983
386.913	966
387.138	979
387.363	996
387.588	1009
387.813	1018
388.038	984
388.263	988
388.488	1015
388.713	1017
388.938	1025
389.163	1002
389.387	1034
389.612	997
389.837	1008
390.062	983
390.287	1008
390.512	1044
390.736	1029
390.961	1002
391.186	1011
391.411	1044
391.636	1013
391.86	1043
392.085	1022
392.31	1057
392.534	1024
392.759	1040
392.984	1034
393.208	1031
393.433	1022
393.658	1046
393.882	1031
394.107	1014
394.331	1016
394.556	1035
394.78	1052
395.005	1026
395.229	1029
395.454	1041
395.678	1035
395.903	1074
396.127	1058
396.352	1049
396.576	1033
396.801	1071
397.025	1078
397.249	1096
397.474	1064
397.698	1061
397.922	1079
398.147	1082
398.371	1101
398.595	1093
398.82	1123
399.044	1135
399.268	1137
399.492	1152
399.717	1163
399.941	1199
400.165	1218
400.389	1188
400.613	1184
400.837	1148
401.062	1132
401.286	1161
401.51	1133
401.734	1120
401.958	1143
402.182	1129
402.406	1148
402.63	1127
402.854	1139
403.078	1129
403.302	1070
403.526	1092
403.75	1112
403.974	1102
404.198	1134
404.422	1092
404.645	1103
404.869	1118
405.093	1138
405.317	1120
405.541	1136
405.765	1145
405.988	1146
406.212	1150
406.436	1161
406.66	1172
406.883	1144
407.107	1181
407.331	1196
407.555	1192
407.778	1206
408.002	1194
408.226	1191
408.449	1217
408.673	1170
408.896	1184
409.12	1191
409.344	1180
409.567	1152
409.791	1141
410.014	1162
410.238	1136
410.461	1144
410.685	1121
410.908	1129
411.132	1144
411.355	1152
411.578	1124
411.802	1168
412.025	1126
412.249	1119
412.472	1139
412.695	1140
412.919	1145
413.142	1117
413.365	1105
413.589	1107
413.812	1061
414.035	1094
414.258	1083
414.482	1104
414.705	1118
414.928	1092
415.151	1101
415.374	1109
415.597	1082
415.821	1105
416.044	1095
416.267	1087
416.49	1071
416.713	1089
416.936	1062
417.159	1057
417.382	1053
417.605	1044
417.828	1057
418.051	1029
418.274	1050
418.497	1020
418.72	1041
418.943	1042
419.166	1086
419.389	1109
419.611	1137
419.834	1098
420.057	1082
420.28	1036
420.503	1046
420.726	1011
420.948	1025
421.171	1025
421.394	1045
421.617	1027
421.839	1042
422.062	1044
422.285	1050
422.507	1028
422.73	1049
422.953	1030
423.175	1020
423.398	1052
423.621	1032
423.843	1051
424.066	1022
424.288	1028
424.511	1040
424.733	1012
424.956	1036
425.178	1021
425.401	1030
425.623	1033
425.846	1013
426.068	1022
426.291	1014
426.513	1023
426.735	1038
426.958	998
427.18	1022
427.402	1024
427.625	1005
427.847	1026
428.069	1009
428.292	1000
428.514	1016
428.736	1022
428.958	1039
429.181	1020
429.403	1013
429.625	1016
429.847	990
430.069	1009
430.292	1030
430.514	1000
430.736	1021
430.958	1033
431.18	1030
431.402	1037
431.624	1010
431.846	981
432.068	985
432.29	1024
432.512	993
432.734	1049
432.956	1028
433.178	1032
433.4	1004
433.622	987
433.844	1025
434.066	1007
434.287	994
434.509	1013
434.731	1010
434.953	1010
435.175	1031
435.397	1052
435.618	1008
435.84	1016
436.062	1004
436.284	1015
436.505	986
436.727	991
436.949	1013
437.17	993
437.392	1014
437.614	1022
437.835	964
438.057	975
438.278	976
438.5	981
438.721	967
438.943	985
439.165	974
439.386	989
439.608	997
439.829	997
440.05	978
440.272	966
440.493	994
440.715	990
440.936	989
441.158	974
441.379	998
441.6	982
441.822	1013
442.043	1006
442.264	1024
442.486	984
442.707	986
442.928	998
443.149	1015
443.371	976
443.592	991
443.813	999
444.034	976
444.255	1000
444.476	1002
444.698	993
444.919	1051
445.14	1097
445.361	1011
445.582	997
445.803	1008
446.024	999
446.245	1006
446.466	1004
446.687	979
446.908	981
447.129	958
447.35	946
447.571	953
447.792	927
448.013	937
448.234	933
448.455	928
448.675	945
448.896	945
449.117	906
449.338	910
449.559	905
449.779	920
450	926
450.221	888
450.442	908
450.662	912
450.883	922
451.104	932
451.324	892
451.545	920
451.766	909
451.986	901
452.207	903
452.428	925
452.648	939
452.869	879
453.089	890
453.31	918
453.53	897
453.751	881
453.971	891
454.192	907
454.412	870
454.633	888
454.853	867
455.073	912
455.294	916
455.514	913
455.734	884
455.955	880
456.175	897
456.395	884
456.616	885
456.836	895
457.056	913
457.276	872
457.497	905
457.717	880
457.937	912
458.157	917
458.377	904
458.598	918
458.818	910
459.038	914
459.258	945
459.478	964
459.698	961
459.918	957
460.138	942
460.358	993
460.578	980
460.798	989
461.018	1013
461.238	991
461.458	1010
461.678	986
461.898	1029
462.118	1027
462.338	1024
462.558	1029
462.777	1042
462.997	1059
463.217	1049
463.437	1078
463.657	1062
463.876	1052
464.096	1043
464.316	1037
464.536	1040
464.755	1047
464.975	1029
465.195	1000
465.414	999
465.634	997
465.854	1009
466.073	992
466.293	996
466.512	974
466.732	976
466.951	961
467.171	964
467.391	973
467.61	937
467.829	950
468.049	954
468.268	969
468.488	941
468.707	936
468.927	976
469.146	973
469.365	957
469.585	946
469.804	938
470.023	956
470.243	937
470.462	960
470.681	952
470.901	971
471.12	966
471.339	994
471.558	944
471.777	982
471.997	975
472.216	972
472.435	993
472.654	977
472.873	1009
473.092	1000
473.311	1007
473.53	1006
473.749	988
473.968	993
474.187	1014
474.406	992
474.625	1022
474.844	1030
475.063	984
475.282	1015
475.501	995
475.72	1016
475.939	1016
476.158	1031
476.377	1044
476.596	1052
476.814	1080
477.033	1060
477.252	1081
477.471	1098
477.69	1076
477.908	1074
478.127	1118
478.346	1097
478.564	1116
478.783	1113
479.002	1137
479.22	1112
479.439	1146
479.658	1108
479.876	1153
480.095	1132
480.313	1141
480.532	1136
480.751	1163
480.969	1148
481.188	1192
481.406	1152
481.624	1185
481.843	1146
482.061	1162
482.28	1208
482.498	1182
482.717	1170
482.935	1182
483.153	1196
483.372	1200
483.59	1178
483.808	1181
484.027	1182
484.245	1238
484.463	1178
484.681	1186
484.9	1205
485.118	1226
485.336	1222
485.554	1228
485.772	1214
485.99	1222
486.209	1203
486.427	1205
486.645	1244
486.863	1250
487.081	1199
487.299	1208
487.517	1220
487.735	1237
487.953	1268
488.171	1253
488.389	1196
488.607	1228
488.825	1209
489.043	1212
489.261	1185
489.479	1244
489.696	1211
489.914	1236
490.132	1233
490.35	1255
490.568	1226
490.786	1230
491.003	1231
491.221	1287
491.439	1257
491.657	1226
491.874	1257
492.092	1224
492.31	1232
492.527	1260
492.745	1249
492.963	1260
493.18	1271
493.398	1258
493.615	1232
493.833	1234
494.05	1245
494.268	1249
494.485	1229
494.703	1260
494.92	1303
495.138	1289
495.355	1288
495.573	1301
495.79	1303
496.008	1298
496.225	1318
496.442	1298
496.66	1313
496.877	1312
497.094	1301
497.312	1328
497.529	1365
497.746	1322
497.963	1374
498.181	1410
498.398	1436
498.615	1444
498.832	1500
499.049	1472
499.267	1520
499.484	1531
499.701	1586
499.918	1569
500.135	1646
500.352	1648
500.569	1643
500.786	1667
501.003	1634
501.22	1672
501.437	1631
501.654	1509
501.871	1531
502.088	1488
502.305	1508
502.522	1461
502.739	1459
502.956	1390
503.172	1408
503.389	1372
503.606	1300
503.823	1340
504.04	1310
504.256	1353
504.473	1284
504.69	1302
504.907	1289
505.123	1267
505.34	1247
505.557	1218
505.773	1193
505.99	1218
506.207	1160
506.423	1198
506.64	1168
506.856	1160
507.073	1171
507.289	1160
507.506	1140
507.722	1116
507.939	1116
508.155	1123
508.372	1121
508.588	1098
508.805	1102
509.021	1089
509.238	1099
509.454	1069
509.67	1091
509.887	1077
510.103	1085
510.319	1065
510.536	1070
510.752	1044
510.968	1044
511.184	1049
511.401	1044
511.617	1043
511.833	1064
512.049	1070
512.265	1057
512.481	1052
512.698	1034
512.914	1054
513.13	1049
513.346	1040
513.562	1039
513.778	1046
513.994	1031
514.21	1064
514.426	1059
514.642	1033
514.858	1049
515.074	1034
515.29	1057
515.506	1041
515.721	1068
515.937	1073
516.153	1059
516.369	1046
516.585	1075
516.801	1102
517.016	1091
517.232	1099
517.448	1107
517.664	1096
517.879	1086
518.095	1054
518.311	1104
518.527	1074
518.742	1068
518.958	1084
519.173	1057
519.389	1038
519.605	1049
519.82	1044
520.036	1023
520.251	1030
520.467	1017
520.682	1019
520.898	1018
521.113	978
521.329	1027
521.544	985
521.76	1014
521.975	985
522.19	973
522.406	952
522.621	965
522.836	968
523.052	993
523.267	996
523.482	962
523.698	965
523.913	968
524.128	1004
524.343	965
524.559	962
524.774	937
524.989	981
525.204	956
525.419	934
525.634	952
525.849	949
526.064	932
526.28	941
526.495	924
526.71	912
526.925	936
527.14	958
527.355	907
527.57	902
527.785	906
527.999	946
528.214	920
528.429	905
528.644	937
528.859	927
529.074	899
529.289	915
529.503	942
529.718	919
529.933	901
530.148	932
530.363	913
530.577	894
530.792	930
531.007	936
531.221	942
531.436	903
531.651	918
531.865	900
532.08	921
532.295	906
532.509	872
532.724	914
532.938	898
533.153	895
533.367	888
533.582	895
533.796	859
534.011	868
534.225	889
534.44	856
534.654	872
534.868	894
535.083	886
535.297	863
535.511	870
535.726	861
535.94	831
536.154	870
536.369	865
536.583	842
536.797	840
537.011	869
537.225	840
537.44	856
537.654	853
537.868	841
538.082	858
538.296	810
538.51	828
538.724	863
538.938	852
539.153	831
539.367	835
539.581	846
539.795	836
540.009	801
540.222	812
540.436	812
540.65	839
540.864	826
541.078	838
541.292	823
541.506	830
541.72	829
541.934	836
542.147	841
542.361	845
542.575	824
542.789	828
543.002	810
543.216	800
543.43	840
543.644	816
543.857	802
544.071	814
544.285	834
544.498	824
544.712	808
544.925	820
545.139	819
545.352	803
545.566	803
545.779	813
545.993	812
546.206	822
546.42	817
546.633	803
546.847	799
547.06	797
547.274	778
547.487	817
547.7	800
547.914	806
548.127	787
548.34	816
548.554	779
548.767	812
548.98	794
549.193	792
549.407	796
549.62	814
549.833	790
550.046	767
550.259	825
550.473	792
550.686	812
550.899	789
551.112	809
551.325	808
551.538	788
551.751	776
551.964	785
552.177	786
552.39	755
552.603	777
552.816	775
553.029	770
553.242	771
553.455	802
553.667	770
553.88	788
554.093	734
554.306	782
554.519	748
554.732	770
554.944	740
555.157	748
555.37	761
555.583	703
