Data from Fe(NO3)3@0.1M.TitratingCurve.Agarose3%dH2O.NegLispCup.LampEnergy10.LIBS07252019_HRD10591_16-42-07-333.txt Node
Date: Thu Jul 25 16:42:07 EDT 2019
User: cochatt
Spectrometer: HR+D1059
Trigger mode: 1
Integration Time (sec): 1.000000E-1
Scans to average: 1
Electric dark correction enabled: true
Nonlinearity correction enabled: false
Boxcar width: 0
XAxis mode: Wavelengths
Number of Pixels in Spectrum: 2048
>>>>>Begin Spectral Data<<<<<
223.165	-23.94
223.4	-23.94
223.635	-23.94
223.869	-20.94
224.104	-6.94
224.338	-7.94
224.573	-17.94
224.808	2.06
225.042	-18.94
225.277	-14.94
225.511	-3.94
225.746	12.06
225.98	1.06
226.215	16.06
226.449	11.06
226.683	11.06
226.918	28.06
227.152	34.06
227.387	28.06
227.621	37.06
227.856	48.06
228.09	46.06
228.324	36.06
228.559	63.06
228.793	63.06
229.027	63.06
229.262	65.06
229.496	71.06
229.73	76.06
229.964	92.06
230.199	84.06
230.433	89.06
230.667	94.06
230.901	76.06
231.136	89.06
231.37	92.06
231.604	87.06
231.838	92.06
232.072	91.06
232.306	63.06
232.541	86.06
232.775	105.06
233.009	99.06
233.243	85.06
233.477	82.06
233.711	85.06
233.945	97.06
234.179	91.06
234.413	90.06
234.647	100.06
234.881	91.06
235.115	98.06
235.349	100.06
235.583	89.06
235.817	89.06
236.051	92.06
236.285	98.06
236.519	85.06
236.753	86.06
236.987	81.06
237.221	69.06
237.455	97.06
237.689	95.06
237.922	89.06
238.156	91.06
238.39	88.06
238.624	85.06
238.858	110.06
239.091	94.06
239.325	91.06
239.559	87.06
239.793	90.06
240.027	98.06
240.26	89.06
240.494	89.06
240.728	73.06
240.961	96.06
241.195	97.06
241.429	86.06
241.662	92.06
241.896	85.06
242.13	83.06
242.363	92.06
242.597	106.06
242.83	83.06
243.064	85.06
243.298	97.06
243.531	94.06
243.765	105.06
243.998	105.06
244.232	83.06
244.465	83.06
244.699	89.06
244.932	86.06
245.166	80.06
245.399	96.06
245.633	113.06
245.866	102.06
246.099	93.06
246.333	106.06
246.566	94.06
246.8	97.06
247.033	119.06
247.266	88.06
247.5	101.06
247.733	112.06
247.966	97.06
248.2	118.06
248.433	95.06
248.666	97.06
248.899	98.06
249.133	91.06
249.366	98.06
249.599	102.06
249.832	112.06
250.066	114.06
250.299	97.06
250.532	96.06
250.765	103.06
250.998	101.06
251.231	89.06
251.465	106.06
251.698	104.06
251.931	117.06
252.164	114.06
252.397	108.06
252.63	109.06
252.863	97.06
253.096	106.06
253.329	104.06
253.562	96.06
253.795	105.06
254.028	113.06
254.261	114.06
254.494	103.06
254.727	119.06
254.96	91.06
255.193	109.06
255.426	119.06
255.659	120.06
255.892	110.06
256.124	110.06
256.357	107.06
256.59	107.06
256.823	101.06
257.056	107.06
257.289	98.06
257.521	115.06
257.754	107.06
257.987	109.06
258.22	114.06
258.452	97.06
258.685	109.06
258.918	110.06
259.151	117.06
259.383	116.06
259.616	105.06
259.849	111.06
260.081	107.06
260.314	114.06
260.547	112.06
260.779	114.06
261.012	123.06
261.244	105.06
261.477	123.06
261.71	113.06
261.942	116.06
262.175	126.06
262.407	118.06
262.64	118.06
262.872	109.06
263.105	119.06
263.337	126.06
263.57	115.06
263.802	114.06
264.035	118.06
264.267	124.06
264.499	113.06
264.732	126.06
264.964	113.06
265.197	128.06
265.429	120.06
265.661	136.06
265.894	123.06
266.126	120.06
266.358	114.06
266.591	124.06
266.823	118.06
267.055	117.06
267.287	129.06
267.52	118.06
267.752	138.06
267.984	116.06
268.216	128.06
268.448	122.06
268.681	130.06
268.913	131.06
269.145	125.06
269.377	116.06
269.609	116.06
269.841	123.06
270.073	133.06
270.306	127.06
270.538	124.06
270.77	120.06
271.002	127.06
271.234	130.06
271.466	135.06
271.698	126.06
271.93	126.06
272.162	128.06
272.394	112.06
272.626	131.06
272.858	133.06
273.09	121.06
273.322	124.06
273.553	126.06
273.785	113.06
274.017	121.06
274.249	118.06
274.481	140.06
274.713	132.06
274.945	125.06
275.176	114.06
275.408	126.06
275.64	126.06
275.872	127.06
276.104	134.06
276.335	139.06
276.567	128.06
276.799	140.06
277.031	132.06
277.262	155.06
277.494	117.06
277.726	132.06
277.957	135.06
278.189	135.06
278.421	125.06
278.652	138.06
278.884	122.06
279.115	126.06
279.347	129.06
279.579	124.06
279.81	131.06
280.042	142.06
280.273	162.06
280.505	140.06
280.736	137.06
280.968	124.06
281.199	135.06
281.431	148.06
281.662	128.06
281.894	134.06
282.125	130.06
282.356	137.06
282.588	133.06
282.819	137.06
283.051	122.06
283.282	123.06
283.513	146.06
283.745	141.06
283.976	124.06
284.207	146.06
284.439	155.06
284.67	143.06
284.901	133.06
285.132	146.06
285.364	130.06
285.595	138.06
285.826	154.06
286.057	161.06
286.288	148.06
286.52	149.06
286.751	147.06
286.982	143.06
287.213	141.06
287.444	140.06
287.675	154.06
287.906	148.06
288.138	164.06
288.369	142.06
288.6	146.06
288.831	150.06
289.062	145.06
289.293	157.06
289.524	141.06
289.755	157.06
289.986	150.06
290.217	132.06
290.448	139.06
290.679	164.06
290.91	153.06
291.141	150.06
291.371	160.06
291.602	158.06
291.833	162.06
292.064	145.06
292.295	148.06
292.526	142.06
292.757	156.06
292.987	153.06
293.218	174.06
293.449	154.06
293.68	156.06
293.91	156.06
294.141	153.06
294.372	154.06
294.603	149.06
294.833	150.06
295.064	165.06
295.295	165.06
295.525	170.06
295.756	176.06
295.987	147.06
296.217	157.06
296.448	156.06
296.679	161.06
296.909	147.06
297.14	159.06
297.37	162.06
297.601	162.06
297.831	152.06
298.062	173.06
298.292	167.06
298.523	147.06
298.753	170.06
298.984	149.06
299.214	165.06
299.445	181.06
299.675	165.06
299.905	140.06
300.136	168.06
300.366	166.06
300.597	170.06
300.827	163.06
301.057	160.06
301.288	156.06
301.518	165.06
301.748	163.06
301.979	181.06
302.209	169.06
302.439	165.06
302.669	164.06
302.9	164.06
303.13	156.06
303.36	171.06
303.59	177.06
303.82	173.06
304.051	172.06
304.281	172.06
304.511	150.06
304.741	174.06
304.971	170.06
305.201	162.06
305.431	157.06
305.661	167.06
305.891	159.06
306.121	163.06
306.352	166.06
306.582	154.06
306.812	161.06
307.042	166.06
307.272	182.06
307.502	170.06
307.731	167.06
307.961	171.06
308.191	168.06
308.421	169.06
308.651	157.06
308.881	160.06
309.111	156.06
309.341	158.06
309.571	152.06
309.8	163.06
310.03	159.06
310.26	170.06
310.49	176.06
310.72	166.06
310.949	182.06
311.179	185.06
311.409	195.06
311.639	192.06
311.868	176.06
312.098	177.06
312.328	188.06
312.557	173.06
312.787	174.06
313.017	165.06
313.246	171.06
313.476	169.06
313.706	169.06
313.935	161.06
314.165	185.06
314.394	169.06
314.624	172.06
314.853	163.06
315.083	178.06
315.312	179.06
315.542	195.06
315.771	182.06
316.001	163.06
316.23	177.06
316.46	186.06
316.689	167.06
316.919	164.06
317.148	180.06
317.377	195.06
317.607	188.06
317.836	165.06
318.065	174.06
318.295	160.06
318.524	180.06
318.753	172.06
318.983	188.06
319.212	183.06
319.441	181.06
319.67	184.06
319.9	182.06
320.129	174.06
320.358	196.06
320.587	174.06
320.816	170.06
321.046	178.06
321.275	165.06
321.504	186.06
321.733	180.06
321.962	181.06
322.191	173.06
322.42	178.06
322.649	179.06
322.878	189.06
323.108	182.06
323.337	190.06
323.566	185.06
323.795	187.06
324.024	195.06
324.253	186.06
324.482	187.06
324.71	194.06
324.939	192.06
325.168	201.06
325.397	196.06
325.626	182.06
325.855	199.06
326.084	200.06
326.313	193.06
326.542	194.06
326.77	185.06
326.999	188.06
327.228	199.06
327.457	196.06
327.686	188.06
327.914	188.06
328.143	203.06
328.372	184.06
328.6	198.06
328.829	194.06
329.058	211.06
329.287	180.06
329.515	188.06
329.744	189.06
329.972	183.06
330.201	214.06
330.43	191.06
330.658	193.06
330.887	196.06
331.115	206.06
331.344	196.06
331.572	204.06
331.801	206.06
332.03	203.06
332.258	229.06
332.486	216.06
332.715	214.06
332.943	229.06
333.172	232.06
333.4	240.06
333.629	236.06
333.857	242.06
334.085	231.06
334.314	236.06
334.542	243.06
334.771	227.06
334.999	220.06
335.227	226.06
335.455	234.06
335.684	241.06
335.912	230.06
336.14	208.06
336.369	224.06
336.597	222.06
336.825	234.06
337.053	219.06
337.281	215.06
337.51	199.06
337.738	217.06
337.966	213.06
338.194	214.06
338.422	204.06
338.65	210.06
338.878	211.06
339.106	199.06
339.334	210.06
339.562	210.06
339.79	217.06
340.018	197.06
340.246	186.06
340.474	205.06
340.702	206.06
340.93	201.06
341.158	184.06
341.386	203.06
341.614	204.06
341.842	206.06
342.07	199.06
342.298	200.06
342.526	201.06
342.754	197.06
342.981	219.06
343.209	212.06
343.437	221.06
343.665	222.06
343.893	235.06
344.12	225.06
344.348	210.06
344.576	215.06
344.804	226.06
345.031	206.06
345.259	195.06
345.487	197.06
345.714	206.06
345.942	208.06
346.17	221.06
346.397	192.06
346.625	196.06
346.853	189.06
347.08	202.06
347.308	199.06
347.535	215.06
347.763	201.06
347.99	198.06
348.218	208.06
348.445	189.06
348.673	197.06
348.9	190.06
349.128	188.06
349.355	198.06
349.583	204.06
349.81	211.06
350.037	196.06
350.265	183.06
350.492	208.06
350.72	197.06
350.947	188.06
351.174	200.06
351.402	200.06
351.629	202.06
351.856	191.06
352.083	203.06
352.311	192.06
352.538	197.06
352.765	198.06
352.992	205.06
353.22	209.06
353.447	186.06
353.674	196.06
353.901	195.06
354.128	188.06
354.355	202.06
354.583	195.06
354.81	211.06
355.037	212.06
355.264	214.06
355.491	196.06
355.718	197.06
355.945	195.06
356.172	188.06
356.399	188.06
356.626	203.06
356.853	206.06
357.08	201.06
357.307	192.06
357.534	200.06
357.761	195.06
357.988	195.06
358.215	193.06
358.441	203.06
358.668	206.06
358.895	206.06
359.122	200.06
359.349	188.06
359.576	201.06
359.802	219.06
360.029	195.06
360.256	192.06
360.483	203.06
360.709	189.06
360.936	212.06
361.163	202.06
361.39	192.06
361.616	194.06
361.843	195.06
362.07	198.06
362.296	203.06
362.523	204.06
362.749	190.06
362.976	204.06
363.203	203.06
363.429	198.06
363.656	193.06
363.882	212.06
364.109	196.06
364.335	201.06
364.562	203.06
364.788	194.06
365.015	191.06
365.241	226.06
365.468	203.06
365.694	196.06
365.92	206.06
366.147	205.06
366.373	197.06
366.599	204.06
366.826	202.06
367.052	205.06
367.278	205.06
367.505	212.06
367.731	212.06
367.957	190.06
368.184	203.06
368.41	206.06
368.636	205.06
368.862	197.06
369.089	212.06
369.315	210.06
369.541	206.06
369.767	212.06
369.993	212.06
370.219	219.06
370.445	200.06
370.672	216.06
370.898	200.06
371.124	207.06
371.35	205.06
371.576	216.06
371.802	205.06
372.028	210.06
372.254	217.06
372.48	216.06
372.706	226.06
372.932	238.06
373.158	232.06
373.384	238.06
373.61	220.06
373.835	223.06
374.061	235.06
374.287	224.06
374.513	233.06
374.739	242.06
374.965	240.06
375.191	220.06
375.416	212.06
375.642	213.06
375.868	206.06
376.094	237.06
376.319	204.06
376.545	223.06
376.771	209.06
376.997	218.06
377.222	217.06
377.448	212.06
377.674	218.06
377.899	216.06
378.125	204.06
378.35	234.06
378.576	223.06
378.802	218.06
379.027	211.06
379.253	220.06
379.478	212.06
379.704	217.06
379.929	224.06
380.155	229.06
380.38	215.06
380.606	216.06
380.831	217.06
381.057	232.06
381.282	203.06
381.507	226.06
381.733	217.06
381.958	214.06
382.184	206.06
382.409	232.06
382.634	240.06
382.86	232.06
383.085	215.06
383.31	230.06
383.535	253.06
383.761	233.06
383.986	231.06
384.211	216.06
384.436	235.06
384.662	237.06
384.887	225.06
385.112	233.06
385.337	228.06
385.562	262.06
385.787	245.06
386.013	252.06
386.238	254.06
386.463	260.06
386.688	248.06
386.913	248.06
387.138	249.06
387.363	250.06
387.588	255.06
387.813	246.06
388.038	245.06
388.263	248.06
388.488	246.06
388.713	253.06
388.938	258.06
389.163	244.06
389.387	230.06
389.612	240.06
389.837	249.06
390.062	258.06
390.287	256.06
390.512	250.06
390.736	278.06
390.961	238.06
391.186	247.06
391.411	267.06
391.636	270.06
391.86	275.06
392.085	286.06
392.31	262.06
392.534	265.06
392.759	253.06
392.984	254.06
393.208	268.06
393.433	268.06
393.658	257.06
393.882	276.06
394.107	260.06
394.331	274.06
394.556	262.06
394.78	271.06
395.005	283.06
395.229	269.06
395.454	277.06
395.678	267.06
395.903	262.06
396.127	269.06
396.352	261.06
396.576	258.06
396.801	271.06
397.025	277.06
397.249	277.06
397.474	286.06
397.698	258.06
397.922	297.06
398.147	274.06
398.371	290.06
398.595	290.06
398.82	300.06
399.044	316.06
399.268	348.06
399.492	379.06
399.717	385.06
399.941	371.06
400.165	362.06
400.389	322.06
400.613	301.06
400.837	300.06
401.062	291.06
401.286	305.06
401.51	308.06
401.734	296.06
401.958	317.06
402.182	282.06
402.406	294.06
402.63	318.06
402.854	306.06
403.078	308.06
403.302	301.06
403.526	313.06
403.75	329.06
403.974	321.06
404.198	319.06
404.422	314.06
404.645	332.06
404.869	329.06
405.093	322.06
405.317	315.06
405.541	329.06
405.765	334.06
405.988	316.06
406.212	309.06
406.436	325.06
406.66	342.06
406.883	343.06
407.107	334.06
407.331	352.06
407.555	351.06
407.778	372.06
408.002	342.06
408.226	317.06
408.449	344.06
408.673	345.06
408.896	335.06
409.12	345.06
409.344	332.06
409.567	324.06
409.791	309.06
410.014	310.06
410.238	317.06
410.461	320.06
410.685	319.06
410.908	309.06
411.132	331.06
411.355	314.06
411.578	322.06
411.802	332.06
412.025	297.06
412.249	333.06
412.472	312.06
412.695	313.06
412.919	310.06
413.142	318.06
413.365	315.06
413.589	290.06
413.812	310.06
414.035	320.06
414.258	291.06
414.482	305.06
414.705	312.06
414.928	316.06
415.151	315.06
415.374	301.06
415.597	310.06
415.821	301.06
416.044	291.06
416.267	283.06
416.49	293.06
416.713	284.06
416.936	315.06
417.159	292.06
417.382	314.06
417.605	310.06
417.828	304.06
418.051	288.06
418.274	313.06
418.497	319.06
418.72	292.06
418.943	309.06
419.166	326.06
419.389	326.06
419.611	336.06
419.834	316.06
420.057	338.06
420.28	313.06
420.503	301.06
420.726	301.06
420.948	319.06
421.171	310.06
421.394	312.06
421.617	307.06
421.839	295.06
422.062	304.06
422.285	292.06
422.507	306.06
422.73	309.06
422.953	311.06
423.175	321.06
423.398	321.06
423.621	315.06
423.843	306.06
424.066	294.06
424.288	315.06
424.511	306.06
424.733	320.06
424.956	306.06
425.178	307.06
425.401	300.06
425.623	273.06
425.846	295.06
426.068	299.06
426.291	300.06
426.513	290.06
426.735	300.06
426.958	293.06
427.18	293.06
427.402	307.06
427.625	289.06
427.847	306.06
428.069	286.06
428.292	296.06
428.514	286.06
428.736	284.06
428.958	273.06
429.181	283.06
429.403	278.06
429.625	247.06
429.847	272.06
430.069	288.06
430.292	280.06
430.514	268.06
430.736	281.06
430.958	268.06
431.18	285.06
431.402	294.06
431.624	296.06
431.846	282.06
432.068	271.06
432.29	280.06
432.512	267.06
432.734	274.06
432.956	286.06
433.178	299.06
433.4	307.06
433.622	296.06
433.844	298.06
434.066	294.06
434.287	291.06
434.509	317.06
434.731	301.06
434.953	295.06
435.175	312.06
435.397	309.06
435.618	296.06
435.84	306.06
436.062	288.06
436.284	297.06
436.505	300.06
436.727	290.06
436.949	299.06
437.17	288.06
437.392	274.06
437.614	270.06
437.835	269.06
438.057	289.06
438.278	277.06
438.5	281.06
438.721	292.06
438.943	276.06
439.165	296.06
439.386	312.06
439.608	316.06
439.829	309.06
440.05	321.06
440.272	306.06
440.493	297.06
440.715	304.06
440.936	304.06
441.158	316.06
441.379	313.06
441.6	313.06
441.822	314.06
442.043	324.06
442.264	323.06
442.486	316.06
442.707	328.06
442.928	312.06
443.149	314.06
443.371	312.06
443.592	310.06
443.813	314.06
444.034	322.06
444.255	345.06
444.476	332.06
444.698	340.06
444.919	361.06
445.14	418.06
445.361	364.06
445.582	328.06
445.803	320.06
446.024	298.06
446.245	311.06
446.466	310.06
446.687	291.06
446.908	292.06
447.129	273.06
447.35	308.06
447.571	293.06
447.792	300.06
448.013	302.06
448.234	298.06
448.455	305.06
448.675	308.06
448.896	280.06
449.117	281.06
449.338	279.06
449.559	294.06
449.779	268.06
450	268.06
450.221	282.06
450.442	299.06
450.662	270.06
450.883	280.06
451.104	282.06
451.324	279.06
451.545	270.06
451.766	291.06
451.986	279.06
452.207	292.06
452.428	285.06
452.648	269.06
452.869	261.06
453.089	271.06
453.31	271.06
453.53	263.06
453.751	254.06
453.971	276.06
454.192	269.06
454.412	261.06
454.633	267.06
454.853	260.06
455.073	246.06
455.294	255.06
455.514	238.06
455.734	258.06
455.955	252.06
456.175	253.06
456.395	262.06
456.616	259.06
456.836	251.06
457.056	243.06
457.276	239.06
457.497	281.06
457.717	265.06
457.937	244.06
458.157	280.06
458.377	250.06
458.598	270.06
458.818	268.06
459.038	277.06
459.258	272.06
459.478	281.06
459.698	288.06
459.918	316.06
460.138	300.06
460.358	328.06
460.578	324.06
460.798	328.06
461.018	308.06
461.238	334.06
461.458	320.06
461.678	308.06
461.898	321.06
462.118	329.06
462.338	353.06
462.558	356.06
462.777	359.06
462.997	357.06
463.217	394.06
463.437	396.06
463.657	373.06
463.876	372.06
464.096	353.06
464.316	361.06
464.536	374.06
464.755	344.06
464.975	334.06
465.195	330.06
465.414	321.06
465.634	307.06
465.854	302.06
466.073	293.06
466.293	292.06
466.512	280.06
466.732	277.06
466.951	301.06
467.171	294.06
467.391	300.06
467.61	292.06
467.829	283.06
468.049	304.06
468.268	279.06
468.488	292.06
468.707	288.06
468.927	260.06
469.146	277.06
469.365	280.06
469.585	289.06
469.804	276.06
470.023	280.06
470.243	272.06
470.462	292.06
470.681	310.06
470.901	310.06
471.12	291.06
471.339	301.06
471.558	297.06
471.777	287.06
471.997	275.06
472.216	266.06
472.435	288.06
472.654	275.06
472.873	274.06
473.092	296.06
473.311	282.06
473.53	282.06
473.749	294.06
473.968	277.06
474.187	264.06
474.406	285.06
474.625	268.06
474.844	278.06
475.063	273.06
475.282	272.06
475.501	290.06
475.72	272.06
475.939	296.06
476.158	268.06
476.377	277.06
476.596	292.06
476.814	265.06
477.033	285.06
477.252	295.06
477.471	304.06
477.69	308.06
477.908	302.06
478.127	301.06
478.346	316.06
478.564	317.06
478.783	288.06
479.002	301.06
479.22	293.06
479.439	324.06
479.658	326.06
479.876	307.06
480.095	314.06
480.313	321.06
480.532	334.06
480.751	334.06
480.969	320.06
481.188	316.06
481.406	305.06
481.624	299.06
481.843	296.06
482.061	297.06
482.28	304.06
482.498	296.06
482.717	286.06
482.935	302.06
483.153	313.06
483.372	309.06
483.59	299.06
483.808	291.06
484.027	315.06
484.245	314.06
484.463	286.06
484.681	311.06
484.9	312.06
485.118	312.06
485.336	301.06
485.554	310.06
485.772	301.06
485.99	317.06
486.209	298.06
486.427	312.06
486.645	308.06
486.863	313.06
487.081	304.06
487.299	310.06
487.517	310.06
487.735	316.06
487.953	319.06
488.171	310.06
488.389	301.06
488.607	308.06
488.825	310.06
489.043	311.06
489.261	292.06
489.479	315.06
489.696	300.06
489.914	304.06
490.132	300.06
490.35	322.06
490.568	331.06
490.786	314.06
491.003	320.06
491.221	319.06
491.439	309.06
491.657	335.06
491.874	325.06
492.092	315.06
492.31	330.06
492.527	333.06
492.745	338.06
492.963	339.06
493.18	340.06
493.398	326.06
493.615	336.06
493.833	322.06
494.05	342.06
494.268	316.06
494.485	340.06
494.703	321.06
494.92	326.06
495.138	331.06
495.355	322.06
495.573	349.06
495.79	333.06
496.008	323.06
496.225	332.06
496.442	341.06
496.66	326.06
496.877	342.06
497.094	333.06
497.312	338.06
497.529	352.06
497.746	359.06
497.963	356.06
498.181	378.06
498.398	403.06
498.615	408.06
498.832	440.06
499.049	438.06
499.267	466.06
499.484	510.06
499.701	523.06
499.918	583.06
500.135	665.06
500.352	692.06
500.569	720.06
500.786	670.06
501.003	667.06
501.22	622.06
501.437	531.06
501.654	499.06
501.871	470.06
502.088	453.06
502.305	427.06
502.522	420.06
502.739	429.06
