Data from Fe(NO3)3@0.1M.TitratingCurve.Agarose3%dH2O.NegLispCup.LampEnergy10.LIBS07252019_HRD10591_16-38-31-331.txt Node
Date: Thu Jul 25 16:38:31 EDT 2019
User: cochatt
Spectrometer: HR+D1059
Trigger mode: 1
Integration Time (sec): 1.000000E-1
Scans to average: 1
Electric dark correction enabled: true
Nonlinearity correction enabled: false
Boxcar width: 0
XAxis mode: Wavelengths
Number of Pixels in Spectrum: 2048
>>>>>Begin Spectral Data<<<<<
223.165	-24.25
223.4	-24.25
223.635	-24.25
223.869	-27.25
224.104	-25.25
224.338	0.75
224.573	1.75
224.808	-11.25
225.042	-4.25
225.277	-2.25
225.511	-5.25
225.746	8.75
225.98	-1.25
226.215	12.75
226.449	17.75
226.683	14.75
226.918	28.75
227.152	15.75
227.387	33.75
227.621	29.75
227.856	36.75
228.09	45.75
228.324	53.75
228.559	49.75
228.793	67.75
229.027	82.75
229.262	78.75
229.496	68.75
229.73	86.75
229.964	85.75
230.199	87.75
230.433	86.75
230.667	93.75
230.901	91.75
231.136	84.75
231.37	113.75
231.604	91.75
231.838	82.75
232.072	89.75
232.306	94.75
232.541	98.75
232.775	96.75
233.009	84.75
233.243	98.75
233.477	115.75
233.711	100.75
233.945	99.75
234.179	97.75
234.413	94.75
234.647	93.75
234.881	107.75
235.115	103.75
235.349	109.75
235.583	115.75
235.817	105.75
236.051	102.75
236.285	105.75
236.519	96.75
236.753	86.75
236.987	112.75
237.221	102.75
237.455	110.75
237.689	119.75
237.922	112.75
238.156	107.75
238.39	100.75
238.624	112.75
238.858	101.75
239.091	112.75
239.325	114.75
239.559	101.75
239.793	124.75
240.027	113.75
240.26	99.75
240.494	120.75
240.728	96.75
240.961	123.75
241.195	120.75
241.429	119.75
241.662	120.75
241.896	122.75
242.13	121.75
242.363	104.75
242.597	103.75
242.83	117.75
243.064	119.75
243.298	119.75
243.531	114.75
243.765	114.75
243.998	104.75
244.232	122.75
244.465	109.75
244.699	132.75
244.932	125.75
245.166	131.75
245.399	135.75
245.633	126.75
245.866	130.75
246.099	133.75
246.333	119.75
246.566	122.75
246.8	126.75
247.033	131.75
247.266	120.75
247.5	121.75
247.733	135.75
247.966	137.75
248.2	122.75
248.433	139.75
248.666	132.75
248.899	134.75
249.133	131.75
249.366	138.75
249.599	127.75
249.832	131.75
250.066	122.75
250.299	124.75
250.532	142.75
250.765	132.75
250.998	136.75
251.231	139.75
251.465	142.75
251.698	142.75
251.931	137.75
252.164	145.75
252.397	131.75
252.63	128.75
252.863	146.75
253.096	144.75
253.329	133.75
253.562	152.75
253.795	148.75
254.028	155.75
254.261	145.75
254.494	134.75
254.727	146.75
254.96	139.75
255.193	148.75
255.426	160.75
255.659	140.75
255.892	146.75
256.124	138.75
256.357	130.75
256.59	140.75
256.823	152.75
257.056	148.75
257.289	149.75
257.521	151.75
257.754	165.75
257.987	157.75
258.22	153.75
258.452	162.75
258.685	163.75
258.918	146.75
259.151	154.75
259.383	147.75
259.616	137.75
259.849	158.75
260.081	166.75
260.314	172.75
260.547	154.75
260.779	164.75
261.012	156.75
261.244	151.75
261.477	161.75
261.71	160.75
261.942	148.75
262.175	166.75
262.407	177.75
262.64	166.75
262.872	173.75
263.105	168.75
263.337	178.75
263.57	170.75
263.802	170.75
264.035	178.75
264.267	173.75
264.499	160.75
264.732	168.75
264.964	172.75
265.197	182.75
265.429	169.75
265.661	159.75
265.894	174.75
266.126	180.75
266.358	180.75
266.591	169.75
266.823	188.75
267.055	172.75
267.287	158.75
267.52	186.75
267.752	169.75
267.984	181.75
268.216	188.75
268.448	182.75
268.681	160.75
268.913	182.75
269.145	188.75
269.377	181.75
269.609	188.75
269.841	171.75
270.073	185.75
270.306	168.75
270.538	180.75
270.77	178.75
271.002	201.75
271.234	183.75
271.466	186.75
271.698	188.75
271.93	184.75
272.162	191.75
272.394	187.75
272.626	196.75
272.858	171.75
273.09	189.75
273.322	197.75
273.553	182.75
273.785	210.75
274.017	199.75
274.249	182.75
274.481	192.75
274.713	194.75
274.945	196.75
275.176	190.75
275.408	188.75
275.64	203.75
275.872	201.75
276.104	201.75
276.335	204.75
276.567	188.75
276.799	205.75
277.031	197.75
277.262	210.75
277.494	203.75
277.726	202.75
277.957	216.75
278.189	199.75
278.421	184.75
278.652	189.75
278.884	218.75
279.115	203.75
279.347	221.75
279.579	219.75
279.81	202.75
280.042	212.75
280.273	210.75
280.505	199.75
280.736	222.75
280.968	212.75
281.199	199.75
281.431	210.75
281.662	215.75
281.894	213.75
282.125	210.75
282.356	221.75
282.588	227.75
282.819	211.75
283.051	239.75
283.282	209.75
283.513	196.75
283.745	218.75
283.976	212.75
284.207	228.75
284.439	220.75
284.67	212.75
284.901	222.75
285.132	214.75
285.364	213.75
285.595	210.75
285.826	220.75
286.057	211.75
286.288	214.75
286.52	232.75
286.751	237.75
286.982	219.75
287.213	240.75
287.444	226.75
287.675	232.75
287.906	230.75
288.138	233.75
288.369	236.75
288.6	221.75
288.831	223.75
289.062	232.75
289.293	228.75
289.524	232.75
289.755	233.75
289.986	236.75
290.217	231.75
290.448	235.75
290.679	246.75
290.91	243.75
291.141	227.75
291.371	230.75
291.602	237.75
291.833	236.75
292.064	241.75
292.295	224.75
292.526	225.75
292.757	215.75
292.987	236.75
293.218	225.75
293.449	230.75
293.68	235.75
293.91	226.75
294.141	252.75
294.372	240.75
294.603	237.75
294.833	250.75
295.064	235.75
295.295	229.75
295.525	251.75
295.756	243.75
295.987	251.75
296.217	247.75
296.448	257.75
296.679	234.75
296.909	256.75
297.14	247.75
297.37	241.75
297.601	250.75
297.831	262.75
298.062	243.75
298.292	266.75
298.523	278.75
298.753	270.75
298.984	257.75
299.214	256.75
299.445	242.75
299.675	243.75
299.905	267.75
300.136	264.75
300.366	237.75
300.597	262.75
300.827	247.75
301.057	274.75
301.288	256.75
301.518	270.75
301.748	262.75
301.979	270.75
302.209	274.75
302.439	270.75
302.669	260.75
302.9	273.75
303.13	258.75
303.36	285.75
303.59	259.75
303.82	260.75
304.051	264.75
304.281	270.75
304.511	283.75
304.741	268.75
304.971	265.75
305.201	283.75
305.431	264.75
305.661	256.75
305.891	253.75
306.121	285.75
306.352	260.75
306.582	270.75
306.812	255.75
307.042	272.75
307.272	267.75
307.502	278.75
307.731	240.75
307.961	265.75
308.191	267.75
308.421	268.75
308.651	273.75
308.881	270.75
309.111	244.75
309.341	260.75
309.571	248.75
309.8	244.75
310.03	275.75
310.26	266.75
310.49	269.75
310.72	260.75
310.949	266.75
311.179	267.75
311.409	258.75
311.639	271.75
311.868	270.75
312.098	278.75
312.328	259.75
312.557	292.75
312.787	256.75
313.017	278.75
313.246	285.75
313.476	278.75
313.706	283.75
313.935	280.75
314.165	291.75
314.394	291.75
314.624	266.75
314.853	284.75
315.083	286.75
315.312	293.75
315.542	283.75
315.771	289.75
316.001	289.75
316.23	281.75
316.46	285.75
316.689	273.75
316.919	278.75
317.148	276.75
317.377	290.75
317.607	264.75
317.836	280.75
318.065	271.75
318.295	279.75
318.524	266.75
318.753	281.75
318.983	297.75
319.212	286.75
319.441	273.75
319.67	280.75
319.9	288.75
320.129	290.75
320.358	276.75
320.587	285.75
320.816	267.75
321.046	274.75
321.275	268.75
321.504	299.75
321.733	290.75
321.962	285.75
322.191	290.75
322.42	282.75
322.649	286.75
322.878	283.75
323.108	291.75
323.337	280.75
323.566	274.75
323.795	294.75
324.024	296.75
324.253	276.75
324.482	282.75
324.71	292.75
324.939	297.75
325.168	292.75
325.397	304.75
325.626	301.75
325.855	297.75
326.084	300.75
326.313	302.75
326.542	315.75
326.77	321.75
326.999	306.75
327.228	284.75
327.457	306.75
327.686	288.75
327.914	290.75
328.143	300.75
328.372	296.75
328.6	304.75
328.829	316.75
329.058	307.75
329.287	298.75
329.515	315.75
329.744	300.75
329.972	292.75
330.201	316.75
330.43	299.75
330.658	333.75
330.887	319.75
331.115	300.75
331.344	312.75
331.572	323.75
331.801	342.75
332.03	330.75
332.258	347.75
332.486	364.75
332.715	344.75
332.943	357.75
333.172	371.75
333.4	391.75
333.629	376.75
333.857	399.75
334.085	406.75
334.314	388.75
334.542	389.75
334.771	381.75
334.999	370.75
335.227	365.75
335.455	378.75
335.684	368.75
335.912	363.75
336.14	368.75
336.369	351.75
336.597	358.75
336.825	355.75
337.053	353.75
337.281	347.75
337.51	343.75
337.738	360.75
337.966	347.75
338.194	329.75
338.422	341.75
338.65	352.75
338.878	324.75
339.106	333.75
339.334	334.75
339.562	313.75
339.79	308.75
340.018	335.75
340.246	322.75
340.474	333.75
340.702	317.75
340.93	320.75
341.158	318.75
341.386	297.75
341.614	317.75
341.842	306.75
342.07	309.75
342.298	320.75
342.526	316.75
342.754	316.75
342.981	320.75
343.209	322.75
343.437	342.75
343.665	348.75
343.893	348.75
344.12	387.75
344.348	373.75
344.576	354.75
344.804	347.75
345.031	322.75
345.259	330.75
345.487	324.75
345.714	333.75
345.942	317.75
346.17	305.75
346.397	309.75
346.625	298.75
346.853	304.75
347.08	314.75
347.308	314.75
347.535	298.75
347.763	311.75
347.99	308.75
348.218	318.75
348.445	316.75
348.673	309.75
348.9	324.75
349.128	312.75
349.355	304.75
349.583	317.75
349.81	298.75
350.037	278.75
350.265	313.75
350.492	304.75
350.72	295.75
350.947	306.75
351.174	306.75
351.402	299.75
351.629	329.75
351.856	299.75
352.083	308.75
352.311	312.75
352.538	292.75
352.765	312.75
352.992	310.75
353.22	297.75
353.447	288.75
353.674	300.75
353.901	307.75
354.128	319.75
354.355	293.75
354.583	290.75
354.81	287.75
355.037	290.75
355.264	323.75
355.491	300.75
355.718	299.75
355.945	313.75
356.172	316.75
356.399	298.75
356.626	304.75
356.853	293.75
357.08	304.75
357.307	294.75
357.534	292.75
357.761	305.75
357.988	294.75
358.215	300.75
358.441	291.75
358.668	286.75
358.895	297.75
359.122	307.75
359.349	311.75
359.576	294.75
359.802	294.75
360.029	311.75
360.256	282.75
360.483	298.75
360.709	289.75
360.936	301.75
361.163	328.75
361.39	301.75
361.616	318.75
361.843	300.75
362.07	301.75
362.296	284.75
362.523	300.75
362.749	310.75
362.976	293.75
363.203	287.75
363.429	300.75
363.656	296.75
363.882	307.75
364.109	297.75
364.335	280.75
364.562	302.75
364.788	308.75
365.015	304.75
365.241	309.75
365.468	311.75
365.694	305.75
365.92	292.75
366.147	297.75
366.373	313.75
366.599	336.75
366.826	308.75
367.052	313.75
367.278	291.75
367.505	303.75
367.731	304.75
367.957	305.75
368.184	290.75
368.41	300.75
368.636	313.75
368.862	306.75
369.089	309.75
369.315	322.75
369.541	316.75
369.767	309.75
369.993	322.75
370.219	320.75
370.445	308.75
370.672	318.75
370.898	335.75
371.124	325.75
371.35	341.75
371.576	319.75
371.802	320.75
372.028	336.75
372.254	346.75
372.48	328.75
372.706	344.75
372.932	351.75
373.158	358.75
373.384	333.75
373.61	332.75
373.835	324.75
374.061	321.75
374.287	335.75
374.513	336.75
374.739	328.75
374.965	340.75
375.191	354.75
375.416	348.75
375.642	355.75
375.868	355.75
376.094	346.75
376.319	339.75
376.545	335.75
376.771	327.75
376.997	333.75
377.222	333.75
377.448	339.75
377.674	324.75
377.899	330.75
378.125	324.75
378.35	332.75
378.576	344.75
378.802	349.75
379.027	338.75
379.253	314.75
379.478	320.75
379.704	310.75
379.929	324.75
380.155	336.75
380.38	348.75
380.606	311.75
380.831	327.75
381.057	353.75
381.282	331.75
381.507	313.75
381.733	297.75
381.958	320.75
382.184	336.75
382.409	339.75
382.634	360.75
382.86	358.75
383.085	346.75
383.31	356.75
383.535	356.75
383.761	374.75
383.986	375.75
384.211	368.75
384.436	380.75
384.662	376.75
384.887	389.75
385.112	399.75
385.337	399.75
385.562	385.75
385.787	398.75
386.013	388.75
386.238	412.75
386.463	390.75
386.688	401.75
386.913	380.75
387.138	386.75
387.363	394.75
387.588	386.75
387.813	414.75
388.038	402.75
388.263	386.75
388.488	408.75
388.713	398.75
388.938	395.75
389.163	405.75
389.387	390.75
389.612	372.75
389.837	389.75
390.062	396.75
390.287	388.75
390.512	388.75
390.736	396.75
390.961	390.75
391.186	409.75
391.411	425.75
391.636	442.75
391.86	427.75
392.085	436.75
392.31	438.75
392.534	460.75
392.759	436.75
392.984	409.75
393.208	410.75
393.433	402.75
393.658	407.75
393.882	397.75
394.107	429.75
394.331	425.75
394.556	448.75
394.78	444.75
395.005	434.75
395.229	440.75
395.454	434.75
395.678	446.75
395.903	428.75
396.127	438.75
396.352	427.75
396.576	422.75
396.801	436.75
397.025	439.75
397.249	439.75
397.474	447.75
397.698	451.75
397.922	458.75
398.147	456.75
398.371	464.75
398.595	488.75
398.82	496.75
399.044	512.75
399.268	558.75
399.492	639.75
399.717	664.75
399.941	671.75
400.165	604.75
400.389	596.75
400.613	554.75
400.837	520.75
401.062	518.75
401.286	489.75
401.51	517.75
401.734	500.75
401.958	499.75
402.182	497.75
402.406	496.75
402.63	498.75
402.854	537.75
403.078	525.75
403.302	532.75
403.526	541.75
403.75	561.75
403.974	564.75
404.198	547.75
404.422	516.75
404.645	523.75
404.869	544.75
405.093	539.75
405.317	544.75
405.541	540.75
405.765	525.75
405.988	534.75
406.212	529.75
406.436	516.75
406.66	544.75
406.883	555.75
407.107	579.75
407.331	614.75
407.555	634.75
407.778	606.75
408.002	611.75
408.226	587.75
408.449	584.75
408.673	576.75
408.896	551.75
409.12	537.75
409.344	565.75
409.567	551.75
409.791	554.75
410.014	559.75
410.238	540.75
410.461	544.75
410.685	554.75
410.908	529.75
411.132	535.75
411.355	518.75
411.578	538.75
411.802	537.75
412.025	510.75
412.249	521.75
412.472	537.75
412.695	500.75
412.919	510.75
413.142	517.75
413.365	489.75
413.589	501.75
413.812	499.75
414.035	497.75
414.258	502.75
414.482	501.75
414.705	507.75
414.928	493.75
415.151	524.75
415.374	484.75
415.597	468.75
415.821	506.75
416.044	490.75
416.267	477.75
416.49	479.75
416.713	492.75
416.936	511.75
417.159	480.75
417.382	478.75
417.605	471.75
417.828	496.75
418.051	505.75
418.274	491.75
418.497	492.75
418.72	521.75
418.943	517.75
419.166	532.75
419.389	567.75
419.611	536.75
419.834	513.75
420.057	518.75
420.28	479.75
420.503	507.75
420.726	496.75
420.948	490.75
421.171	506.75
421.394	500.75
421.617	485.75
421.839	489.75
422.062	484.75
422.285	502.75
422.507	481.75
422.73	506.75
422.953	496.75
423.175	486.75
423.398	501.75
423.621	512.75
423.843	508.75
424.066	502.75
424.288	516.75
424.511	491.75
424.733	489.75
424.956	504.75
425.178	490.75
425.401	498.75
425.623	500.75
425.846	473.75
426.068	472.75
426.291	468.75
426.513	476.75
426.735	467.75
426.958	472.75
427.18	467.75
427.402	471.75
427.625	452.75
427.847	454.75
428.069	445.75
428.292	442.75
428.514	436.75
428.736	437.75
428.958	444.75
429.181	424.75
429.403	445.75
429.625	429.75
429.847	443.75
430.069	453.75
430.292	448.75
430.514	451.75
430.736	445.75
430.958	446.75
431.18	442.75
431.402	430.75
431.624	430.75
431.846	440.75
432.068	448.75
432.29	478.75
432.512	436.75
432.734	440.75
432.956	451.75
433.178	452.75
433.4	453.75
433.622	460.75
433.844	438.75
434.066	442.75
434.287	439.75
434.509	459.75
434.731	464.75
434.953	483.75
435.175	488.75
435.397	482.75
435.618	472.75
435.84	462.75
436.062	456.75
436.284	432.75
436.505	440.75
436.727	444.75
436.949	454.75
437.17	434.75
437.392	440.75
437.614	444.75
437.835	423.75
438.057	446.75
438.278	432.75
438.5	432.75
438.721	420.75
438.943	441.75
439.165	430.75
439.386	440.75
439.608	445.75
439.829	442.75
440.05	443.75
440.272	449.75
440.493	434.75
440.715	466.75
440.936	454.75
441.158	472.75
441.379	466.75
441.6	458.75
441.822	481.75
442.043	483.75
442.264	490.75
442.486	491.75
442.707	479.75
442.928	496.75
443.149	482.75
443.371	476.75
443.592	504.75
443.813	479.75
444.034	488.75
444.255	496.75
444.476	504.75
444.698	562.75
444.919	567.75
445.14	646.75
445.361	564.75
445.582	497.75
445.803	518.75
446.024	489.75
446.245	485.75
446.466	461.75
446.687	463.75
446.908	471.75
447.129	450.75
447.35	426.75
447.571	444.75
447.792	434.75
448.013	422.75
448.234	415.75
448.455	417.75
448.675	406.75
448.896	415.75
449.117	396.75
449.338	408.75
449.559	405.75
449.779	387.75
450	405.75
450.221	416.75
450.442	432.75
450.662	395.75
450.883	415.75
451.104	422.75
451.324	403.75
451.545	426.75
451.766	387.75
451.986	398.75
452.207	426.75
452.428	419.75
452.648	377.75
452.869	412.75
453.089	395.75
453.31	403.75
453.53	391.75
453.751	402.75
453.971	407.75
454.192	402.75
454.412	395.75
454.633	416.75
454.853	398.75
455.073	392.75
455.294	398.75
455.514	393.75
455.734	400.75
455.955	387.75
456.175	400.75
456.395	392.75
456.616	388.75
456.836	380.75
457.056	398.75
457.276	358.75
457.497	384.75
457.717	386.75
457.937	393.75
458.157	382.75
458.377	411.75
458.598	397.75
458.818	422.75
459.038	436.75
459.258	435.75
459.478	452.75
459.698	440.75
459.918	449.75
460.138	480.75
460.358	473.75
460.578	488.75
460.798	501.75
461.018	502.75
461.238	515.75
461.458	529.75
461.678	506.75
461.898	516.75
462.118	510.75
462.338	542.75
462.558	570.75
462.777	592.75
462.997	606.75
463.217	681.75
463.437	658.75
463.657	612.75
463.876	564.75
464.096	589.75
464.316	580.75
464.536	587.75
464.755	573.75
464.975	541.75
465.195	538.75
465.414	511.75
465.634	479.75
465.854	469.75
466.073	474.75
466.293	451.75
466.512	448.75
466.732	427.75
466.951	430.75
467.171	427.75
467.391	438.75
467.61	426.75
467.829	434.75
468.049	424.75
468.268	420.75
468.488	426.75
468.707	402.75
468.927	390.75
469.146	411.75
469.365	418.75
469.585	428.75
469.804	434.75
470.023	425.75
470.243	436.75
470.462	437.75
470.681	437.75
470.901	445.75
471.12	418.75
471.339	424.75
471.558	419.75
471.777	423.75
471.997	402.75
472.216	404.75
472.435	412.75
472.654	408.75
472.873	412.75
473.092	411.75
473.311	409.75
473.53	398.75
473.749	399.75
473.968	391.75
474.187	402.75
474.406	400.75
474.625	378.75
474.844	401.75
475.063	405.75
475.282	393.75
475.501	414.75
475.72	404.75
475.939	408.75
476.158	411.75
476.377	402.75
476.596	406.75
476.814	427.75
477.033	423.75
477.252	418.75
477.471	424.75
477.69	422.75
477.908	473.75
478.127	470.75
478.346	462.75
478.564	467.75
478.783	474.75
479.002	481.75
479.22	483.75
479.439	467.75
479.658	489.75
479.876	483.75
480.095	501.75
480.313	505.75
480.532	509.75
480.751	515.75
480.969	487.75
481.188	489.75
481.406	480.75
481.624	448.75
481.843	442.75
482.061	457.75
482.28	441.75
482.498	449.75
482.717	448.75
482.935	433.75
483.153	441.75
483.372	463.75
483.59	445.75
483.808	464.75
484.027	440.75
484.245	464.75
484.463	437.75
484.681	446.75
484.9	481.75
485.118	487.75
485.336	458.75
485.554	453.75
485.772	467.75
485.99	445.75
486.209	460.75
486.427	492.75
486.645	461.75
486.863	457.75
487.081	452.75
487.299	476.75
487.517	449.75
487.735	477.75
487.953	466.75
488.171	486.75
488.389	457.75
488.607	448.75
488.825	469.75
489.043	468.75
489.261	460.75
489.479	445.75
489.696	459.75
489.914	472.75
490.132	463.75
490.35	446.75
490.568	476.75
490.786	473.75
491.003	454.75
491.221	459.75
491.439	486.75
491.657	462.75
491.874	496.75
492.092	479.75
492.31	481.75
492.527	484.75
492.745	469.75
492.963	504.75
493.18	482.75
493.398	491.75
493.615	476.75
493.833	497.75
494.05	492.75
494.268	496.75
494.485	504.75
494.703	498.75
494.92	493.75
495.138	485.75
495.355	484.75
495.573	487.75
495.79	482.75
496.008	506.75
496.225	498.75
496.442	528.75
496.66	533.75
496.877	532.75
497.094	523.75
497.312	533.75
497.529	562.75
497.746	552.75
497.963	594.75
498.181	619.75
498.398	621.75
498.615	663.75
498.832	681.75
499.049	719.75
499.267	816.75
499.484	839.75
499.701	939.75
499.918	1040.75
500.135	1158.75
500.352	1262.75
500.569	1316.75
500.786	1290.75
501.003	1213.75
501.22	1110.75
501.437	995.75
501.654	882.75
501.871	834.75
