Data from Fe(NO3)3@0.05M.TitratingCurve.Agarose3%dH2O.NegLispCup.LampEnergy10.LIBS07252019_HRD10591_16-47-23-334.txt Node
Date: Thu Jul 25 16:47:23 EDT 2019
User: cochatt
Spectrometer: HR+D1059
Trigger mode: 1
Integration Time (sec): 1.000000E-1
Scans to average: 1
Electric dark correction enabled: true
Nonlinearity correction enabled: false
Boxcar width: 0
XAxis mode: Wavelengths
Number of Pixels in Spectrum: 2048
>>>>>Begin Spectral Data<<<<<
223.165	-4.69
223.4	-4.69
223.635	-4.69
223.869	-20.69
224.104	-26.69
224.338	-19.69
224.573	-13.69
224.808	0.31
225.042	-8.69
225.277	-0.69
225.511	1.31
225.746	12.31
225.98	-7.69
226.215	2.31
226.449	22.31
226.683	15.31
226.918	27.31
227.152	21.31
227.387	33.31
227.621	30.31
227.856	50.31
228.09	41.31
228.324	63.31
228.559	66.31
228.793	66.31
229.027	80.31
229.262	91.31
229.496	102.31
229.73	94.31
229.964	90.31
230.199	99.31
230.433	107.31
230.667	97.31
230.901	107.31
231.136	92.31
231.37	98.31
231.604	115.31
231.838	112.31
232.072	127.31
232.306	119.31
232.541	120.31
232.775	111.31
233.009	116.31
233.243	113.31
233.477	108.31
233.711	105.31
233.945	116.31
234.179	98.31
234.413	106.31
234.647	115.31
234.881	109.31
235.115	114.31
235.349	120.31
235.583	115.31
235.817	120.31
236.051	121.31
236.285	114.31
236.519	118.31
236.753	111.31
236.987	116.31
237.221	114.31
237.455	130.31
237.689	126.31
237.922	105.31
238.156	118.31
238.39	108.31
238.624	124.31
238.858	125.31
239.091	117.31
239.325	123.31
239.559	116.31
239.793	111.31
240.027	128.31
240.26	126.31
240.494	129.31
240.728	121.31
240.961	137.31
241.195	123.31
241.429	128.31
241.662	118.31
241.896	123.31
242.13	125.31
242.363	117.31
242.597	107.31
242.83	120.31
243.064	126.31
243.298	112.31
243.531	141.31
243.765	116.31
243.998	128.31
244.232	142.31
244.465	133.31
244.699	135.31
244.932	126.31
245.166	150.31
245.399	130.31
245.633	143.31
245.866	121.31
246.099	126.31
246.333	138.31
246.566	148.31
246.8	122.31
247.033	142.31
247.266	146.31
247.5	142.31
247.733	140.31
247.966	144.31
248.2	135.31
248.433	155.31
248.666	144.31
248.899	146.31
249.133	160.31
249.366	152.31
249.599	151.31
249.832	163.31
250.066	155.31
250.299	145.31
250.532	162.31
250.765	137.31
250.998	143.31
251.231	140.31
251.465	150.31
251.698	148.31
251.931	140.31
252.164	151.31
252.397	148.31
252.63	149.31
252.863	159.31
253.096	156.31
253.329	170.31
253.562	156.31
253.795	163.31
254.028	166.31
254.261	157.31
254.494	166.31
254.727	157.31
254.96	180.31
255.193	178.31
255.426	163.31
255.659	156.31
255.892	160.31
256.124	175.31
256.357	172.31
256.59	172.31
256.823	170.31
257.056	162.31
257.289	158.31
257.521	163.31
257.754	165.31
257.987	171.31
258.22	164.31
258.452	168.31
258.685	167.31
258.918	178.31
259.151	171.31
259.383	184.31
259.616	188.31
259.849	192.31
260.081	183.31
260.314	192.31
260.547	190.31
260.779	179.31
261.012	170.31
261.244	188.31
261.477	176.31
261.71	187.31
261.942	178.31
262.175	186.31
262.407	196.31
262.64	184.31
262.872	180.31
263.105	195.31
263.337	188.31
263.57	175.31
263.802	182.31
264.035	190.31
264.267	202.31
264.499	168.31
264.732	186.31
264.964	176.31
265.197	182.31
265.429	199.31
265.661	168.31
265.894	192.31
266.126	191.31
266.358	175.31
266.591	197.31
266.823	199.31
267.055	185.31
267.287	190.31
267.52	190.31
267.752	194.31
267.984	200.31
268.216	191.31
268.448	201.31
268.681	200.31
268.913	201.31
269.145	195.31
269.377	203.31
269.609	191.31
269.841	198.31
270.073	203.31
270.306	197.31
270.538	194.31
270.77	202.31
271.002	208.31
271.234	203.31
271.466	196.31
271.698	205.31
271.93	207.31
272.162	207.31
272.394	219.31
272.626	200.31
272.858	213.31
273.09	207.31
273.322	210.31
273.553	202.31
273.785	208.31
274.017	208.31
274.249	209.31
274.481	230.31
274.713	227.31
274.945	231.31
275.176	235.31
275.408	236.31
275.64	231.31
275.872	214.31
276.104	223.31
276.335	219.31
276.567	221.31
276.799	234.31
277.031	229.31
277.262	229.31
277.494	225.31
277.726	212.31
277.957	204.31
278.189	230.31
278.421	222.31
278.652	223.31
278.884	231.31
279.115	222.31
279.347	228.31
279.579	218.31
279.81	205.31
280.042	231.31
280.273	244.31
280.505	230.31
280.736	245.31
280.968	238.31
281.199	243.31
281.431	242.31
281.662	232.31
281.894	235.31
282.125	233.31
282.356	247.31
282.588	232.31
282.819	256.31
283.051	255.31
283.282	239.31
283.513	264.31
283.745	257.31
283.976	248.31
284.207	239.31
284.439	237.31
284.67	237.31
284.901	246.31
285.132	238.31
285.364	251.31
285.595	266.31
285.826	260.31
286.057	237.31
286.288	265.31
286.52	276.31
286.751	249.31
286.982	268.31
287.213	248.31
287.444	248.31
287.675	256.31
287.906	248.31
288.138	248.31
288.369	255.31
288.6	264.31
288.831	250.31
289.062	279.31
289.293	252.31
289.524	269.31
289.755	270.31
289.986	259.31
290.217	246.31
290.448	260.31
290.679	273.31
290.91	259.31
291.141	258.31
291.371	273.31
291.602	258.31
291.833	259.31
292.064	255.31
292.295	259.31
292.526	243.31
292.757	258.31
292.987	235.31
293.218	254.31
293.449	260.31
293.68	247.31
293.91	249.31
294.141	261.31
294.372	278.31
294.603	271.31
294.833	270.31
295.064	269.31
295.295	278.31
295.525	260.31
295.756	273.31
295.987	262.31
296.217	277.31
296.448	264.31
296.679	270.31
296.909	283.31
297.14	266.31
297.37	283.31
297.601	274.31
297.831	278.31
298.062	275.31
298.292	298.31
298.523	272.31
298.753	290.31
298.984	285.31
299.214	272.31
299.445	287.31
299.675	290.31
299.905	290.31
300.136	279.31
300.366	282.31
300.597	276.31
300.827	303.31
301.057	292.31
301.288	283.31
301.518	300.31
301.748	287.31
301.979	293.31
302.209	308.31
302.439	287.31
302.669	291.31
302.9	290.31
303.13	287.31
303.36	294.31
303.59	304.31
303.82	320.31
304.051	316.31
304.281	299.31
304.511	293.31
304.741	291.31
304.971	302.31
305.201	286.31
305.431	308.31
305.661	312.31
305.891	296.31
306.121	285.31
306.352	285.31
306.582	292.31
306.812	302.31
307.042	290.31
307.272	297.31
307.502	302.31
307.731	300.31
307.961	292.31
308.191	286.31
308.421	292.31
308.651	290.31
308.881	300.31
309.111	295.31
309.341	291.31
309.571	319.31
309.8	273.31
310.03	287.31
310.26	304.31
310.49	277.31
310.72	284.31
310.949	314.31
311.179	299.31
311.409	307.31
311.639	299.31
311.868	293.31
312.098	309.31
312.328	308.31
312.557	303.31
312.787	306.31
313.017	298.31
313.246	306.31
313.476	323.31
313.706	319.31
313.935	316.31
314.165	319.31
314.394	315.31
314.624	313.31
314.853	312.31
315.083	320.31
315.312	337.31
315.542	331.31
315.771	322.31
316.001	310.31
316.23	342.31
316.46	322.31
316.689	306.31
316.919	333.31
317.148	304.31
317.377	319.31
317.607	325.31
317.836	318.31
318.065	323.31
318.295	303.31
318.524	313.31
318.753	307.31
318.983	301.31
319.212	323.31
319.441	323.31
319.67	324.31
319.9	320.31
320.129	309.31
320.358	309.31
320.587	322.31
320.816	324.31
321.046	315.31
321.275	335.31
321.504	319.31
321.733	331.31
321.962	313.31
322.191	319.31
322.42	314.31
322.649	330.31
322.878	306.31
323.108	317.31
323.337	318.31
323.566	331.31
323.795	329.31
324.024	327.31
324.253	316.31
324.482	316.31
324.71	330.31
324.939	314.31
325.168	344.31
325.397	327.31
325.626	326.31
325.855	337.31
326.084	352.31
326.313	359.31
326.542	356.31
326.77	339.31
326.999	322.31
327.228	327.31
327.457	342.31
327.686	336.31
327.914	328.31
328.143	351.31
328.372	355.31
328.6	342.31
328.829	331.31
329.058	349.31
329.287	333.31
329.515	332.31
329.744	340.31
329.972	345.31
330.201	334.31
330.43	363.31
330.658	352.31
330.887	357.31
331.115	373.31
331.344	366.31
331.572	342.31
331.801	350.31
332.03	366.31
332.258	363.31
332.486	403.31
332.715	355.31
332.943	375.31
333.172	385.31
333.4	390.31
333.629	435.31
333.857	434.31
334.085	424.31
334.314	434.31
334.542	418.31
334.771	406.31
334.999	416.31
335.227	430.31
335.455	407.31
335.684	416.31
335.912	415.31
336.14	414.31
336.369	395.31
336.597	388.31
336.825	412.31
337.053	394.31
337.281	393.31
337.51	382.31
337.738	388.31
337.966	388.31
338.194	374.31
338.422	383.31
338.65	378.31
338.878	358.31
339.106	367.31
339.334	364.31
339.562	367.31
339.79	371.31
340.018	365.31
340.246	382.31
340.474	356.31
340.702	351.31
340.93	363.31
341.158	362.31
341.386	373.31
341.614	361.31
341.842	347.31
342.07	334.31
342.298	378.31
342.526	374.31
342.754	359.31
342.981	351.31
343.209	376.31
343.437	372.31
343.665	387.31
343.893	408.31
344.12	429.31
344.348	419.31
344.576	395.31
344.804	399.31
345.031	380.31
345.259	373.31
345.487	376.31
345.714	348.31
345.942	352.31
346.17	332.31
346.397	356.31
346.625	371.31
346.853	340.31
347.08	327.31
347.308	344.31
347.535	354.31
347.763	359.31
347.99	352.31
348.218	348.31
348.445	347.31
348.673	344.31
348.9	338.31
349.128	350.31
349.355	353.31
349.583	351.31
349.81	338.31
350.037	347.31
350.265	360.31
350.492	351.31
350.72	363.31
350.947	354.31
351.174	354.31
351.402	344.31
351.629	331.31
351.856	347.31
352.083	347.31
352.311	343.31
352.538	334.31
352.765	341.31
352.992	327.31
353.22	335.31
353.447	347.31
353.674	341.31
353.901	348.31
354.128	343.31
354.355	337.31
354.583	350.31
354.81	337.31
355.037	344.31
355.264	326.31
355.491	345.31
355.718	328.31
355.945	355.31
356.172	354.31
356.399	336.31
356.626	357.31
356.853	348.31
357.08	357.31
357.307	355.31
357.534	368.31
357.761	346.31
357.988	348.31
358.215	351.31
358.441	363.31
358.668	350.31
358.895	336.31
359.122	342.31
359.349	326.31
359.576	342.31
359.802	345.31
360.029	341.31
360.256	326.31
360.483	349.31
360.709	348.31
360.936	345.31
361.163	355.31
361.39	342.31
361.616	350.31
361.843	354.31
362.07	360.31
362.296	361.31
362.523	338.31
362.749	333.31
362.976	340.31
363.203	345.31
363.429	351.31
363.656	351.31
363.882	357.31
364.109	342.31
364.335	348.31
364.562	355.31
364.788	352.31
365.015	349.31
365.241	362.31
365.468	334.31
365.694	334.31
365.92	361.31
366.147	331.31
366.373	339.31
366.599	336.31
366.826	345.31
367.052	345.31
367.278	354.31
367.505	345.31
367.731	345.31
367.957	334.31
368.184	355.31
368.41	350.31
368.636	367.31
368.862	386.31
369.089	352.31
369.315	386.31
369.541	352.31
369.767	361.31
369.993	361.31
370.219	362.31
370.445	395.31
370.672	387.31
370.898	371.31
371.124	391.31
371.35	386.31
371.576	362.31
371.802	361.31
372.028	370.31
372.254	392.31
372.48	388.31
372.706	377.31
372.932	386.31
373.158	389.31
373.384	406.31
373.61	392.31
373.835	389.31
374.061	382.31
374.287	415.31
374.513	389.31
374.739	416.31
374.965	416.31
375.191	407.31
375.416	428.31
375.642	406.31
375.868	396.31
376.094	403.31
376.319	407.31
376.545	424.31
376.771	402.31
376.997	383.31
377.222	388.31
377.448	393.31
377.674	373.31
377.899	392.31
378.125	382.31
378.35	388.31
378.576	390.31
378.802	380.31
379.027	404.31
379.253	375.31
379.478	375.31
379.704	356.31
379.929	376.31
380.155	386.31
380.38	395.31
380.606	413.31
380.831	382.31
381.057	395.31
381.282	402.31
381.507	402.31
381.733	401.31
381.958	409.31
382.184	425.31
382.409	407.31
382.634	411.31
382.86	415.31
383.085	411.31
383.31	413.31
383.535	418.31
383.761	415.31
383.986	428.31
384.211	426.31
384.436	441.31
384.662	432.31
384.887	452.31
385.112	413.31
385.337	420.31
385.562	472.31
385.787	446.31
386.013	459.31
386.238	471.31
386.463	452.31
386.688	473.31
386.913	446.31
387.138	457.31
387.363	454.31
387.588	470.31
387.813	487.31
388.038	472.31
388.263	439.31
388.488	465.31
388.713	475.31
388.938	479.31
389.163	459.31
389.387	471.31
389.612	449.31
389.837	463.31
390.062	463.31
390.287	466.31
390.512	457.31
390.736	466.31
390.961	475.31
391.186	485.31
391.411	493.31
391.636	503.31
391.86	511.31
392.085	505.31
392.31	514.31
392.534	519.31
392.759	503.31
392.984	498.31
393.208	510.31
393.433	488.31
393.658	502.31
393.882	479.31
394.107	504.31
394.331	494.31
394.556	498.31
394.78	503.31
395.005	498.31
395.229	495.31
395.454	504.31
395.678	522.31
395.903	492.31
396.127	524.31
396.352	516.31
396.576	520.31
396.801	508.31
397.025	487.31
397.249	512.31
397.474	551.31
397.698	532.31
397.922	533.31
398.147	528.31
398.371	550.31
398.595	578.31
398.82	572.31
399.044	631.31
399.268	636.31
399.492	709.31
399.717	735.31
399.941	738.31
400.165	698.31
400.389	678.31
400.613	639.31
400.837	625.31
401.062	587.31
401.286	574.31
401.51	598.31
401.734	582.31
401.958	581.31
402.182	562.31
402.406	587.31
402.63	589.31
402.854	606.31
403.078	597.31
403.302	580.31
403.526	592.31
403.75	599.31
403.974	602.31
404.198	624.31
404.422	615.31
404.645	601.31
404.869	617.31
405.093	610.31
405.317	612.31
405.541	609.31
405.765	621.31
405.988	609.31
406.212	630.31
406.436	626.31
406.66	639.31
406.883	634.31
407.107	662.31
407.331	678.31
407.555	698.31
407.778	683.31
408.002	702.31
408.226	687.31
408.449	668.31
408.673	656.31
408.896	623.31
409.12	637.31
409.344	643.31
409.567	640.31
409.791	626.31
410.014	637.31
410.238	631.31
410.461	650.31
410.685	613.31
410.908	623.31
411.132	614.31
411.355	591.31
411.578	612.31
411.802	607.31
412.025	605.31
412.249	611.31
412.472	623.31
412.695	600.31
412.919	600.31
413.142	604.31
413.365	591.31
413.589	590.31
413.812	601.31
414.035	570.31
414.258	574.31
414.482	592.31
414.705	606.31
414.928	609.31
415.151	582.31
415.374	587.31
415.597	584.31
415.821	579.31
416.044	569.31
416.267	587.31
416.49	554.31
416.713	587.31
416.936	576.31
417.159	579.31
417.382	572.31
417.605	605.31
417.828	555.31
418.051	591.31
418.274	566.31
418.497	570.31
418.72	570.31
418.943	567.31
419.166	594.31
419.389	630.31
419.611	619.31
419.834	602.31
420.057	590.31
420.28	606.31
420.503	572.31
420.726	579.31
420.948	560.31
421.171	566.31
421.394	572.31
421.617	559.31
421.839	564.31
422.062	588.31
422.285	579.31
422.507	579.31
422.73	569.31
422.953	576.31
423.175	573.31
423.398	593.31
423.621	586.31
423.843	575.31
424.066	569.31
424.288	583.31
424.511	604.31
424.733	588.31
424.956	591.31
425.178	568.31
425.401	601.31
425.623	579.31
425.846	538.31
426.068	550.31
426.291	572.31
426.513	522.31
426.735	555.31
426.958	573.31
427.18	547.31
427.402	546.31
427.625	527.31
427.847	543.31
428.069	528.31
428.292	559.31
428.514	554.31
428.736	527.31
428.958	528.31
429.181	531.31
429.403	520.31
429.625	534.31
429.847	534.31
430.069	509.31
430.292	536.31
430.514	514.31
430.736	520.31
430.958	529.31
431.18	537.31
431.402	541.31
431.624	531.31
431.846	524.31
432.068	525.31
432.29	536.31
432.512	547.31
432.734	535.31
432.956	523.31
433.178	560.31
433.4	536.31
433.622	555.31
433.844	538.31
434.066	541.31
434.287	549.31
434.509	557.31
434.731	571.31
434.953	586.31
435.175	569.31
435.397	578.31
435.618	539.31
435.84	536.31
436.062	558.31
436.284	551.31
436.505	528.31
436.727	529.31
436.949	525.31
437.17	538.31
437.392	531.31
437.614	517.31
437.835	534.31
438.057	512.31
438.278	521.31
438.5	531.31
438.721	501.31
438.943	518.31
439.165	517.31
439.386	538.31
439.608	549.31
439.829	531.31
440.05	540.31
440.272	562.31
440.493	547.31
440.715	542.31
440.936	534.31
441.158	574.31
441.379	576.31
441.6	586.31
441.822	583.31
442.043	592.31
442.264	573.31
442.486	575.31
442.707	591.31
442.928	574.31
443.149	578.31
443.371	580.31
443.592	586.31
443.813	591.31
444.034	592.31
444.255	603.31
444.476	586.31
444.698	602.31
444.919	622.31
445.14	692.31
445.361	608.31
445.582	601.31
445.803	602.31
446.024	540.31
446.245	555.31
446.466	548.31
446.687	561.31
446.908	574.31
447.129	540.31
447.35	534.31
447.571	536.31
447.792	537.31
448.013	521.31
448.234	503.31
448.455	506.31
448.675	504.31
448.896	512.31
449.117	470.31
449.338	505.31
449.559	485.31
449.779	491.31
450	501.31
450.221	540.31
450.442	538.31
450.662	510.31
450.883	486.31
451.104	506.31
451.324	486.31
451.545	508.31
451.766	526.31
451.986	512.31
452.207	500.31
452.428	484.31
452.648	479.31
452.869	468.31
453.089	471.31
453.31	495.31
453.53	471.31
453.751	483.31
453.971	474.31
454.192	493.31
454.412	462.31
454.633	463.31
454.853	496.31
455.073	481.31
455.294	469.31
455.514	494.31
455.734	457.31
455.955	469.31
456.175	499.31
456.395	470.31
456.616	447.31
456.836	464.31
457.056	460.31
457.276	458.31
457.497	478.31
457.717	468.31
457.937	487.31
458.157	476.31
458.377	487.31
458.598	524.31
458.818	510.31
459.038	502.31
459.258	501.31
459.478	510.31
459.698	539.31
459.918	557.31
460.138	582.31
460.358	612.31
460.578	597.31
460.798	596.31
461.018	598.31
461.238	579.31
461.458	613.31
461.678	598.31
461.898	619.31
462.118	614.31
462.338	642.31
462.558	654.31
462.777	682.31
462.997	703.31
463.217	729.31
463.437	738.31
463.657	670.31
463.876	677.31
464.096	690.31
464.316	680.31
464.536	662.31
464.755	653.31
464.975	639.31
465.195	634.31
465.414	591.31
465.634	571.31
465.854	575.31
466.073	562.31
466.293	564.31
466.512	510.31
466.732	521.31
466.951	544.31
467.171	531.31
467.391	540.31
467.61	520.31
467.829	532.31
468.049	520.31
468.268	500.31
468.488	511.31
468.707	511.31
468.927	511.31
469.146	531.31
469.365	520.31
469.585	525.31
469.804	521.31
470.023	528.31
470.243	516.31
470.462	524.31
470.681	532.31
470.901	531.31
471.12	542.31
471.339	524.31
471.558	525.31
471.777	526.31
471.997	505.31
472.216	529.31
472.435	488.31
472.654	482.31
472.873	498.31
473.092	518.31
473.311	533.31
473.53	476.31
473.749	478.31
473.968	503.31
474.187	510.31
474.406	507.31
474.625	525.31
474.844	502.31
475.063	510.31
475.282	479.31
475.501	514.31
475.72	510.31
475.939	533.31
476.158	528.31
476.377	537.31
476.596	534.31
476.814	555.31
477.033	551.31
477.252	531.31
477.471	565.31
477.69	560.31
477.908	558.31
478.127	571.31
478.346	574.31
478.564	587.31
478.783	603.31
479.002	597.31
479.22	602.31
479.439	600.31
479.658	601.31
479.876	591.31
480.095	591.31
480.313	629.31
480.532	608.31
480.751	627.31
480.969	630.31
481.188	626.31
481.406	612.31
481.624	578.31
481.843	591.31
482.061	572.31
482.28	583.31
482.498	559.31
482.717	565.31
482.935	588.31
483.153	558.31
483.372	568.31
483.59	584.31
483.808	605.31
484.027	579.31
484.245	574.31
484.463	566.31
484.681	601.31
484.9	584.31
485.118	588.31
485.336	566.31
485.554	574.31
485.772	580.31
485.99	591.31
486.209	595.31
486.427	590.31
486.645	590.31
486.863	608.31
487.081	569.31
487.299	576.31
487.517	584.31
487.735	595.31
487.953	593.31
488.171	582.31
488.389	616.31
488.607	573.31
488.825	568.31
489.043	574.31
489.261	588.31
489.479	595.31
489.696	560.31
489.914	574.31
490.132	584.31
490.35	586.31
490.568	604.31
490.786	608.31
491.003	598.31
491.221	627.31
491.439	614.31
491.657	608.31
491.874	596.31
492.092	636.31
492.31	620.31
492.527	631.31
492.745	616.31
492.963	622.31
493.18	611.31
493.398	615.31
493.615	640.31
493.833	627.31
494.05	639.31
494.268	630.31
494.485	638.31
494.703	630.31
494.92	613.31
495.138	646.31
495.355	660.31
495.573	650.31
495.79	631.31
496.008	628.31
496.225	639.31
496.442	646.31
496.66	666.31
496.877	679.31
497.094	675.31
497.312	696.31
497.529	715.31
497.746	688.31
497.963	718.31
498.181	769.31
498.398	801.31
498.615	815.31
498.832	876.31
499.049	895.31
499.267	914.31
499.484	1000.31
499.701	1076.31
499.918	1102.31
500.135	1225.31
500.352	1344.31
500.569	1368.31
500.786	1348.31
501.003	1287.31
501.22	1227.31
501.437	1124.31
501.654	1054.31
