Data from Fe(NO3)3@0.05M.TitratingCurve.Agarose3%dH2O.NegLispCup.LampEnergy10.LIBS07252019_HRD10591_16-48-57-334.txt Node
Date: Thu Jul 25 16:48:57 EDT 2019
User: cochatt
Spectrometer: HR+D1059
Trigger mode: 1
Integration Time (sec): 1.000000E-1
Scans to average: 1
Electric dark correction enabled: true
Nonlinearity correction enabled: false
Boxcar width: 0
XAxis mode: Wavelengths
Number of Pixels in Spectrum: 2048
>>>>>Begin Spectral Data<<<<<
223.165	-16.5
223.4	-16.5
223.635	-16.5
223.869	-20.5
224.104	-29.5
224.338	-24.5
224.573	-19.5
224.808	-0.5
225.042	-5.5
225.277	2.5
225.511	2.5
225.746	18.5
225.98	3.5
226.215	11.5
226.449	2.5
226.683	20.5
226.918	25.5
227.152	29.5
227.387	42.5
227.621	44.5
227.856	46.5
228.09	43.5
228.324	57.5
228.559	50.5
228.793	51.5
229.027	81.5
229.262	81.5
229.496	79.5
229.73	80.5
229.964	110.5
230.199	81.5
230.433	89.5
230.667	89.5
230.901	83.5
231.136	92.5
231.37	94.5
231.604	99.5
231.838	107.5
232.072	97.5
232.306	100.5
232.541	103.5
232.775	96.5
233.009	85.5
233.243	94.5
233.477	115.5
233.711	96.5
233.945	105.5
234.179	94.5
234.413	92.5
234.647	99.5
234.881	102.5
235.115	99.5
235.349	86.5
235.583	100.5
235.817	104.5
236.051	92.5
236.285	106.5
236.519	102.5
236.753	97.5
236.987	90.5
237.221	102.5
237.455	103.5
237.689	83.5
237.922	100.5
238.156	98.5
238.39	85.5
238.624	100.5
238.858	115.5
239.091	104.5
239.325	106.5
239.559	100.5
239.793	121.5
240.027	110.5
240.26	113.5
240.494	116.5
240.728	95.5
240.961	93.5
241.195	101.5
241.429	106.5
241.662	105.5
241.896	110.5
242.13	97.5
242.363	98.5
242.597	108.5
242.83	108.5
243.064	98.5
243.298	126.5
243.531	120.5
243.765	127.5
243.998	106.5
244.232	107.5
244.465	95.5
244.699	111.5
244.932	115.5
245.166	111.5
245.399	114.5
245.633	103.5
245.866	118.5
246.099	121.5
246.333	131.5
246.566	124.5
246.8	118.5
247.033	110.5
247.266	124.5
247.5	116.5
247.733	131.5
247.966	100.5
248.2	117.5
248.433	131.5
248.666	113.5
248.899	129.5
249.133	126.5
249.366	121.5
249.599	114.5
249.832	117.5
250.066	124.5
250.299	120.5
250.532	123.5
250.765	122.5
250.998	126.5
251.231	133.5
251.465	120.5
251.698	125.5
251.931	128.5
252.164	130.5
252.397	138.5
252.63	134.5
252.863	131.5
253.096	132.5
253.329	135.5
253.562	127.5
253.795	127.5
254.028	135.5
254.261	147.5
254.494	136.5
254.727	137.5
254.96	122.5
255.193	121.5
255.426	144.5
255.659	138.5
255.892	134.5
256.124	130.5
256.357	144.5
256.59	141.5
256.823	133.5
257.056	144.5
257.289	136.5
257.521	136.5
257.754	138.5
257.987	117.5
258.22	148.5
258.452	146.5
258.685	161.5
258.918	135.5
259.151	133.5
259.383	147.5
259.616	135.5
259.849	137.5
260.081	144.5
260.314	167.5
260.547	151.5
260.779	159.5
261.012	155.5
261.244	154.5
261.477	168.5
261.71	151.5
261.942	139.5
262.175	177.5
262.407	147.5
262.64	164.5
262.872	143.5
263.105	150.5
263.337	168.5
263.57	146.5
263.802	152.5
264.035	146.5
264.267	167.5
264.499	150.5
264.732	139.5
264.964	155.5
265.197	158.5
265.429	156.5
265.661	152.5
265.894	162.5
266.126	162.5
266.358	175.5
266.591	154.5
266.823	169.5
267.055	151.5
267.287	170.5
267.52	159.5
267.752	149.5
267.984	162.5
268.216	153.5
268.448	168.5
268.681	160.5
268.913	167.5
269.145	175.5
269.377	164.5
269.609	165.5
269.841	165.5
270.073	171.5
270.306	170.5
270.538	164.5
270.77	165.5
271.002	169.5
271.234	161.5
271.466	176.5
271.698	161.5
271.93	165.5
272.162	154.5
272.394	163.5
272.626	160.5
272.858	169.5
273.09	167.5
273.322	174.5
273.553	176.5
273.785	170.5
274.017	178.5
274.249	184.5
274.481	183.5
274.713	188.5
274.945	176.5
275.176	174.5
275.408	184.5
275.64	178.5
275.872	182.5
276.104	170.5
276.335	175.5
276.567	167.5
276.799	180.5
277.031	181.5
277.262	161.5
277.494	179.5
277.726	184.5
277.957	186.5
278.189	180.5
278.421	190.5
278.652	183.5
278.884	197.5
279.115	202.5
279.347	169.5
279.579	180.5
279.81	186.5
280.042	179.5
280.273	184.5
280.505	203.5
280.736	190.5
280.968	202.5
281.199	198.5
281.431	190.5
281.662	192.5
281.894	196.5
282.125	188.5
282.356	206.5
282.588	194.5
282.819	195.5
283.051	188.5
283.282	180.5
283.513	207.5
283.745	194.5
283.976	181.5
284.207	214.5
284.439	183.5
284.67	195.5
284.901	187.5
285.132	181.5
285.364	183.5
285.595	202.5
285.826	196.5
286.057	195.5
286.288	179.5
286.52	208.5
286.751	210.5
286.982	209.5
287.213	203.5
287.444	203.5
287.675	198.5
287.906	196.5
288.138	198.5
288.369	205.5
288.6	211.5
288.831	202.5
289.062	217.5
289.293	202.5
289.524	200.5
289.755	208.5
289.986	207.5
290.217	198.5
290.448	224.5
290.679	208.5
290.91	215.5
291.141	204.5
291.371	201.5
291.602	214.5
291.833	205.5
292.064	213.5
292.295	211.5
292.526	214.5
292.757	213.5
292.987	215.5
293.218	213.5
293.449	195.5
293.68	201.5
293.91	214.5
294.141	208.5
294.372	205.5
294.603	215.5
294.833	212.5
295.064	212.5
295.295	200.5
295.525	219.5
295.756	215.5
295.987	230.5
296.217	231.5
296.448	227.5
296.679	215.5
296.909	217.5
297.14	209.5
297.37	210.5
297.601	211.5
297.831	226.5
298.062	212.5
298.292	226.5
298.523	219.5
298.753	226.5
298.984	219.5
299.214	220.5
299.445	221.5
299.675	226.5
299.905	226.5
300.136	214.5
300.366	225.5
300.597	233.5
300.827	212.5
301.057	228.5
301.288	225.5
301.518	225.5
301.748	225.5
301.979	236.5
302.209	238.5
302.439	246.5
302.669	216.5
302.9	235.5
303.13	216.5
303.36	212.5
303.59	220.5
303.82	239.5
304.051	230.5
304.281	233.5
304.511	230.5
304.741	218.5
304.971	231.5
305.201	226.5
305.431	222.5
305.661	225.5
305.891	223.5
306.121	242.5
306.352	238.5
306.582	241.5
306.812	231.5
307.042	210.5
307.272	222.5
307.502	215.5
307.731	239.5
307.961	235.5
308.191	238.5
308.421	244.5
308.651	237.5
308.881	214.5
309.111	216.5
309.341	223.5
309.571	240.5
309.8	224.5
310.03	238.5
310.26	220.5
310.49	238.5
310.72	240.5
310.949	243.5
311.179	230.5
311.409	228.5
311.639	250.5
311.868	237.5
312.098	231.5
312.328	229.5
312.557	240.5
312.787	232.5
313.017	243.5
313.246	234.5
313.476	241.5
313.706	238.5
313.935	245.5
314.165	250.5
314.394	241.5
314.624	258.5
314.853	249.5
315.083	239.5
315.312	233.5
315.542	225.5
315.771	256.5
316.001	240.5
316.23	248.5
316.46	239.5
316.689	230.5
316.919	242.5
317.148	250.5
317.377	249.5
317.607	235.5
317.836	238.5
318.065	237.5
318.295	246.5
318.524	251.5
318.753	236.5
318.983	248.5
319.212	240.5
319.441	253.5
319.67	246.5
319.9	267.5
320.129	226.5
320.358	262.5
320.587	232.5
320.816	240.5
321.046	236.5
321.275	241.5
321.504	241.5
321.733	234.5
321.962	221.5
322.191	248.5
322.42	256.5
322.649	233.5
322.878	243.5
323.108	240.5
323.337	227.5
323.566	238.5
323.795	238.5
324.024	259.5
324.253	246.5
324.482	246.5
324.71	270.5
324.939	263.5
325.168	241.5
325.397	251.5
325.626	248.5
325.855	267.5
326.084	266.5
326.313	256.5
326.542	264.5
326.77	254.5
326.999	270.5
327.228	247.5
327.457	247.5
327.686	256.5
327.914	269.5
328.143	252.5
328.372	266.5
328.6	263.5
328.829	264.5
329.058	264.5
329.287	268.5
329.515	242.5
329.744	260.5
329.972	264.5
330.201	275.5
330.43	292.5
330.658	279.5
330.887	266.5
331.115	281.5
331.344	255.5
331.572	268.5
331.801	279.5
332.03	281.5
332.258	286.5
332.486	281.5
332.715	296.5
332.943	304.5
333.172	288.5
333.4	322.5
333.629	334.5
333.857	327.5
334.085	329.5
334.314	317.5
334.542	323.5
334.771	337.5
334.999	306.5
335.227	323.5
335.455	307.5
335.684	335.5
335.912	322.5
336.14	318.5
336.369	311.5
336.597	304.5
336.825	298.5
337.053	300.5
337.281	303.5
337.51	291.5
337.738	286.5
337.966	280.5
338.194	297.5
338.422	287.5
338.65	288.5
338.878	295.5
339.106	291.5
339.334	294.5
339.562	284.5
339.79	280.5
340.018	278.5
340.246	287.5
340.474	276.5
340.702	261.5
340.93	262.5
341.158	261.5
341.386	284.5
341.614	257.5
341.842	292.5
342.07	269.5
342.298	282.5
342.526	273.5
342.754	288.5
342.981	276.5
343.209	266.5
343.437	275.5
343.665	293.5
343.893	304.5
344.12	310.5
344.348	306.5
344.576	305.5
344.804	294.5
345.031	287.5
345.259	272.5
345.487	269.5
345.714	282.5
345.942	276.5
346.17	279.5
346.397	270.5
346.625	248.5
346.853	258.5
347.08	281.5
347.308	285.5
347.535	273.5
347.763	277.5
347.99	288.5
348.218	268.5
348.445	279.5
348.673	255.5
348.9	270.5
349.128	266.5
349.355	274.5
349.583	278.5
349.81	286.5
350.037	259.5
350.265	267.5
350.492	267.5
350.72	263.5
350.947	272.5
351.174	254.5
351.402	256.5
351.629	246.5
351.856	259.5
352.083	270.5
352.311	272.5
352.538	258.5
352.765	269.5
352.992	262.5
353.22	251.5
353.447	267.5
353.674	274.5
353.901	262.5
354.128	259.5
354.355	262.5
354.583	272.5
354.81	257.5
355.037	238.5
355.264	269.5
355.491	251.5
355.718	266.5
355.945	263.5
356.172	279.5
356.399	243.5
356.626	257.5
356.853	269.5
357.08	263.5
357.307	258.5
357.534	257.5
357.761	258.5
357.988	267.5
358.215	269.5
358.441	266.5
358.668	266.5
358.895	260.5
359.122	246.5
359.349	246.5
359.576	268.5
359.802	252.5
360.029	250.5
360.256	236.5
360.483	248.5
360.709	251.5
360.936	258.5
361.163	251.5
361.39	241.5
361.616	274.5
361.843	253.5
362.07	271.5
362.296	265.5
362.523	276.5
362.749	266.5
362.976	286.5
363.203	257.5
363.429	262.5
363.656	261.5
363.882	275.5
364.109	267.5
364.335	266.5
364.562	251.5
364.788	255.5
365.015	257.5
365.241	258.5
365.468	274.5
365.694	262.5
365.92	268.5
366.147	248.5
366.373	273.5
366.599	258.5
366.826	265.5
367.052	248.5
367.278	272.5
367.505	263.5
367.731	276.5
367.957	261.5
368.184	261.5
368.41	275.5
368.636	274.5
368.862	239.5
369.089	288.5
369.315	277.5
369.541	267.5
369.767	280.5
369.993	294.5
370.219	276.5
370.445	287.5
370.672	263.5
370.898	277.5
371.124	290.5
371.35	277.5
371.576	284.5
371.802	283.5
372.028	291.5
372.254	288.5
372.48	299.5
372.706	297.5
372.932	299.5
373.158	295.5
373.384	278.5
373.61	295.5
373.835	304.5
374.061	299.5
374.287	298.5
374.513	290.5
374.739	312.5
374.965	302.5
375.191	328.5
375.416	340.5
375.642	302.5
375.868	312.5
376.094	299.5
376.319	301.5
376.545	307.5
376.771	283.5
376.997	306.5
377.222	292.5
377.448	290.5
377.674	283.5
377.899	282.5
378.125	284.5
378.35	287.5
378.576	285.5
378.802	279.5
379.027	292.5
379.253	287.5
379.478	282.5
379.704	291.5
379.929	307.5
380.155	282.5
380.38	285.5
380.606	291.5
380.831	287.5
381.057	291.5
381.282	285.5
381.507	297.5
381.733	286.5
381.958	298.5
382.184	304.5
382.409	288.5
382.634	307.5
382.86	297.5
383.085	308.5
383.31	289.5
383.535	321.5
383.761	311.5
383.986	320.5
384.211	318.5
384.436	325.5
384.662	328.5
384.887	335.5
385.112	341.5
385.337	359.5
385.562	327.5
385.787	341.5
386.013	350.5
386.238	338.5
386.463	347.5
386.688	352.5
386.913	339.5
387.138	338.5
387.363	330.5
387.588	341.5
387.813	346.5
388.038	350.5
388.263	350.5
388.488	331.5
388.713	360.5
388.938	355.5
389.163	337.5
389.387	328.5
389.612	338.5
389.837	354.5
390.062	339.5
390.287	328.5
390.512	366.5
390.736	360.5
390.961	370.5
391.186	356.5
391.411	366.5
391.636	344.5
391.86	364.5
392.085	368.5
392.31	373.5
392.534	367.5
392.759	368.5
392.984	374.5
393.208	368.5
393.433	372.5
393.658	353.5
393.882	363.5
394.107	372.5
394.331	360.5
394.556	368.5
394.78	384.5
395.005	357.5
395.229	339.5
395.454	385.5
395.678	382.5
395.903	392.5
396.127	392.5
396.352	373.5
396.576	374.5
396.801	374.5
397.025	385.5
397.249	395.5
397.474	392.5
397.698	393.5
397.922	382.5
398.147	412.5
398.371	402.5
398.595	419.5
398.82	396.5
399.044	447.5
399.268	465.5
399.492	515.5
399.717	557.5
399.941	552.5
400.165	548.5
400.389	486.5
400.613	477.5
400.837	425.5
401.062	441.5
401.286	437.5
401.51	431.5
401.734	416.5
401.958	419.5
402.182	423.5
402.406	422.5
402.63	434.5
402.854	421.5
403.078	430.5
403.302	439.5
403.526	468.5
403.75	448.5
403.974	470.5
404.198	459.5
404.422	470.5
404.645	478.5
404.869	466.5
405.093	455.5
405.317	451.5
405.541	476.5
405.765	452.5
405.988	456.5
406.212	465.5
406.436	459.5
406.66	496.5
406.883	501.5
407.107	514.5
407.331	500.5
407.555	530.5
407.778	515.5
408.002	521.5
408.226	515.5
408.449	504.5
408.673	480.5
408.896	513.5
409.12	486.5
409.344	500.5
409.567	484.5
409.791	481.5
410.014	470.5
410.238	485.5
410.461	485.5
410.685	463.5
410.908	472.5
411.132	453.5
411.355	471.5
411.578	448.5
411.802	434.5
412.025	448.5
412.249	438.5
412.472	441.5
412.695	449.5
412.919	425.5
413.142	435.5
413.365	436.5
413.589	432.5
413.812	433.5
414.035	436.5
414.258	406.5
414.482	438.5
414.705	452.5
414.928	451.5
415.151	448.5
415.374	453.5
415.597	443.5
415.821	406.5
416.044	429.5
416.267	437.5
416.49	418.5
416.713	426.5
416.936	430.5
417.159	406.5
417.382	414.5
417.605	429.5
417.828	433.5
418.051	425.5
418.274	395.5
418.497	428.5
418.72	452.5
418.943	436.5
419.166	464.5
419.389	487.5
419.611	456.5
419.834	447.5
420.057	459.5
420.28	425.5
420.503	413.5
420.726	446.5
420.948	431.5
421.171	449.5
421.394	424.5
421.617	432.5
421.839	434.5
422.062	432.5
422.285	421.5
422.507	436.5
422.73	440.5
422.953	433.5
423.175	427.5
423.398	420.5
423.621	444.5
423.843	449.5
424.066	443.5
424.288	450.5
424.511	439.5
424.733	431.5
424.956	419.5
425.178	433.5
425.401	443.5
425.623	441.5
425.846	427.5
426.068	421.5
426.291	429.5
426.513	396.5
426.735	404.5
426.958	414.5
427.18	408.5
427.402	416.5
427.625	414.5
427.847	417.5
428.069	411.5
428.292	393.5
428.514	399.5
428.736	386.5
428.958	411.5
429.181	378.5
429.403	396.5
429.625	393.5
429.847	397.5
430.069	377.5
430.292	414.5
430.514	385.5
430.736	379.5
430.958	384.5
431.18	387.5
431.402	397.5
431.624	380.5
431.846	407.5
432.068	386.5
432.29	408.5
432.512	411.5
432.734	402.5
432.956	391.5
433.178	415.5
433.4	416.5
433.622	412.5
433.844	417.5
434.066	411.5
434.287	421.5
434.509	400.5
434.731	418.5
434.953	440.5
435.175	449.5
435.397	436.5
435.618	392.5
435.84	420.5
436.062	393.5
436.284	422.5
436.505	403.5
436.727	391.5
436.949	414.5
437.17	403.5
437.392	425.5
437.614	400.5
437.835	378.5
438.057	387.5
438.278	388.5
438.5	406.5
438.721	393.5
438.943	396.5
439.165	401.5
439.386	401.5
439.608	411.5
439.829	409.5
440.05	404.5
440.272	378.5
440.493	418.5
440.715	427.5
440.936	412.5
441.158	407.5
441.379	432.5
441.6	430.5
441.822	424.5
442.043	451.5
442.264	438.5
442.486	420.5
442.707	414.5
442.928	446.5
443.149	430.5
443.371	434.5
443.592	447.5
443.813	443.5
444.034	456.5
444.255	460.5
444.476	465.5
444.698	506.5
444.919	491.5
445.14	619.5
445.361	531.5
445.582	459.5
445.803	439.5
446.024	443.5
446.245	442.5
446.466	430.5
446.687	394.5
446.908	422.5
447.129	402.5
447.35	401.5
447.571	416.5
447.792	368.5
448.013	374.5
448.234	395.5
448.455	397.5
448.675	394.5
448.896	396.5
449.117	385.5
449.338	368.5
449.559	365.5
449.779	386.5
450	387.5
450.221	385.5
450.442	382.5
450.662	391.5
450.883	401.5
451.104	400.5
451.324	396.5
451.545	400.5
451.766	417.5
451.986	386.5
452.207	394.5
452.428	386.5
452.648	370.5
452.869	355.5
453.089	351.5
453.31	370.5
453.53	376.5
453.751	353.5
453.971	354.5
454.192	376.5
454.412	362.5
454.633	374.5
454.853	361.5
455.073	362.5
455.294	370.5
455.514	364.5
455.734	364.5
455.955	363.5
456.175	369.5
456.395	382.5
456.616	358.5
456.836	362.5
457.056	346.5
457.276	343.5
457.497	336.5
457.717	369.5
457.937	356.5
458.157	371.5
458.377	371.5
458.598	378.5
458.818	384.5
459.038	364.5
459.258	386.5
459.478	418.5
459.698	407.5
459.918	424.5
460.138	426.5
460.358	438.5
460.578	467.5
460.798	459.5
461.018	470.5
461.238	464.5
461.458	458.5
461.678	446.5
461.898	453.5
462.118	460.5
462.338	470.5
462.558	487.5
462.777	506.5
462.997	500.5
463.217	546.5
463.437	561.5
463.657	570.5
463.876	548.5
464.096	507.5
464.316	509.5
464.536	526.5
464.755	499.5
464.975	495.5
465.195	472.5
465.414	446.5
465.634	427.5
465.854	419.5
466.073	427.5
466.293	408.5
466.512	404.5
466.732	419.5
466.951	392.5
467.171	403.5
467.391	409.5
467.61	364.5
467.829	400.5
468.049	410.5
468.268	386.5
468.488	369.5
468.707	387.5
468.927	384.5
469.146	397.5
469.365	396.5
469.585	378.5
469.804	412.5
470.023	408.5
470.243	403.5
470.462	425.5
470.681	416.5
470.901	402.5
471.12	407.5
471.339	388.5
471.558	380.5
471.777	376.5
471.997	389.5
472.216	380.5
472.435	370.5
472.654	366.5
472.873	383.5
473.092	366.5
473.311	363.5
473.53	360.5
473.749	369.5
473.968	355.5
474.187	368.5
474.406	366.5
474.625	369.5
474.844	359.5
475.063	366.5
475.282	369.5
475.501	389.5
475.72	382.5
475.939	396.5
476.158	372.5
476.377	378.5
476.596	397.5
476.814	376.5
477.033	374.5
477.252	391.5
477.471	406.5
477.69	406.5
477.908	423.5
478.127	421.5
478.346	434.5
478.564	422.5
478.783	440.5
479.002	440.5
479.22	425.5
479.439	454.5
479.658	422.5
479.876	425.5
480.095	429.5
480.313	452.5
480.532	462.5
480.751	444.5
480.969	421.5
481.188	459.5
481.406	435.5
481.624	416.5
481.843	430.5
482.061	415.5
482.28	411.5
482.498	421.5
482.717	404.5
482.935	429.5
483.153	420.5
483.372	425.5
483.59	425.5
483.808	423.5
484.027	413.5
484.245	417.5
484.463	431.5
484.681	418.5
484.9	417.5
485.118	433.5
485.336	427.5
485.554	423.5
485.772	434.5
485.99	417.5
486.209	440.5
486.427	435.5
486.645	420.5
486.863	438.5
487.081	427.5
487.299	420.5
487.517	428.5
487.735	435.5
487.953	438.5
488.171	438.5
488.389	419.5
488.607	430.5
488.825	427.5
489.043	419.5
489.261	424.5
489.479	436.5
489.696	440.5
489.914	441.5
490.132	454.5
490.35	441.5
490.568	434.5
490.786	452.5
491.003	420.5
491.221	436.5
491.439	433.5
491.657	447.5
491.874	443.5
492.092	447.5
492.31	450.5
492.527	469.5
492.745	446.5
492.963	473.5
493.18	454.5
493.398	445.5
493.615	458.5
493.833	442.5
494.05	450.5
494.268	438.5
494.485	458.5
494.703	463.5
494.92	478.5
495.138	435.5
495.355	484.5
495.573	454.5
495.79	450.5
496.008	476.5
496.225	465.5
496.442	464.5
496.66	462.5
496.877	490.5
497.094	486.5
497.312	487.5
497.529	492.5
497.746	505.5
497.963	532.5
498.181	569.5
498.398	522.5
498.615	601.5
498.832	609.5
499.049	649.5
499.267	701.5
499.484	724.5
499.701	763.5
499.918	835.5
500.135	933.5
500.352	996.5
500.569	1043.5
500.786	1019.5
501.003	988.5
501.22	930.5
501.437	850.5
501.654	756.5
501.871	703.5
502.088	678.5
502.305	628.5
502.522	600.5
502.739	588.5
502.956	565.5
503.172	540.5
503.389	539.5
503.606	511.5
503.823	499.5
504.04	516.5
504.256	505.5
504.473	511.5
504.69	506.5
504.907	520.5
505.123	487.5
505.34	468.5
505.557	455.5
505.773	432.5
505.99	426.5
506.207	418.5
506.423	396.5
506.64	400.5
506.856	400.5
507.073	399.5
507.289	393.5
507.506	387.5
507.722	411.5
507.939	396.5
508.155	379.5
508.372	371.5
508.588	376.5
508.805	399.5
509.021	380.5
509.238	378.5
509.454	393.5
509.67	382.5
509.887	390.5
510.103	362.5
510.319	368.5
510.536	373.5
510.752	359.5
510.968	345.5
511.184	379.5
511.401	368.5
511.617	377.5
511.833	358.5
512.049	372.5
512.265	382.5
512.481	353.5
512.698	372.5
512.914	369.5
513.13	358.5
513.346	358.5
513.562	352.5
513.778	368.5
513.994	379.5
514.21	370.5
514.426	374.5
514.642	385.5
514.858	375.5
515.074	370.5
515.29	368.5
515.506	390.5
515.721	382.5
515.937	398.5
516.153	384.5
516.369	397.5
516.585	395.5
516.801	417.5
517.016	433.5
517.232	454.5
517.448	442.5
517.664	465.5
517.879	452.5
518.095	460.5
518.311	454.5
518.527	437.5
518.742	429.5
518.958	442.5
519.173	405.5
519.389	405.5
519.605	412.5
519.82	402.5
520.036	399.5
