Data from Fe(NO3)3@0.1M.TitratingCurve.Agarose3%dH2O.NegLispCup.LampEnergy10.LIBS07252019_HRD10591_16-41-19-333.txt Node
Date: Thu Jul 25 16:41:19 EDT 2019
User: cochatt
Spectrometer: HR+D1059
Trigger mode: 1
Integration Time (sec): 1.000000E-1
Scans to average: 1
Electric dark correction enabled: true
Nonlinearity correction enabled: false
Boxcar width: 0
XAxis mode: Wavelengths
Number of Pixels in Spectrum: 2048
>>>>>Begin Spectral Data<<<<<
223.165	-9.5
223.4	-9.5
223.635	-9.5
223.869	-17.5
224.104	-18.5
224.338	-17.5
224.573	-16.5
224.808	-9.5
225.042	-6.5
225.277	-6.5
225.511	-16.5
225.746	6.5
225.98	5.5
226.215	10.5
226.449	20.5
226.683	18.5
226.918	32.5
227.152	24.5
227.387	30.5
227.621	37.5
227.856	37.5
228.09	35.5
228.324	52.5
228.559	56.5
228.793	56.5
229.027	81.5
229.262	69.5
229.496	72.5
229.73	92.5
229.964	97.5
230.199	87.5
230.433	93.5
230.667	93.5
230.901	99.5
231.136	91.5
231.37	96.5
231.604	89.5
231.838	101.5
232.072	81.5
232.306	98.5
232.541	91.5
232.775	90.5
233.009	102.5
233.243	104.5
233.477	115.5
233.711	98.5
233.945	103.5
234.179	98.5
234.413	101.5
234.647	109.5
234.881	107.5
235.115	104.5
235.349	95.5
235.583	95.5
235.817	102.5
236.051	98.5
236.285	95.5
236.519	95.5
236.753	93.5
236.987	100.5
237.221	99.5
237.455	100.5
237.689	111.5
237.922	87.5
238.156	97.5
238.39	90.5
238.624	104.5
238.858	100.5
239.091	107.5
239.325	110.5
239.559	109.5
239.793	119.5
240.027	117.5
240.26	105.5
240.494	102.5
240.728	105.5
240.961	105.5
241.195	116.5
241.429	113.5
241.662	111.5
241.896	94.5
242.13	109.5
242.363	113.5
242.597	118.5
242.83	104.5
243.064	109.5
243.298	105.5
243.531	107.5
243.765	122.5
243.998	122.5
244.232	123.5
244.465	125.5
244.699	116.5
244.932	120.5
245.166	127.5
245.399	132.5
245.633	124.5
245.866	127.5
246.099	123.5
246.333	117.5
246.566	118.5
246.8	117.5
247.033	120.5
247.266	102.5
247.5	111.5
247.733	111.5
247.966	128.5
248.2	129.5
248.433	117.5
248.666	111.5
248.899	123.5
249.133	123.5
249.366	133.5
249.599	129.5
249.832	134.5
250.066	145.5
250.299	139.5
250.532	134.5
250.765	130.5
250.998	149.5
251.231	119.5
251.465	137.5
251.698	146.5
251.931	129.5
252.164	131.5
252.397	152.5
252.63	123.5
252.863	145.5
253.096	143.5
253.329	144.5
253.562	143.5
253.795	137.5
254.028	147.5
254.261	142.5
254.494	145.5
254.727	145.5
254.96	145.5
255.193	137.5
255.426	130.5
255.659	131.5
255.892	154.5
256.124	159.5
256.357	146.5
256.59	153.5
256.823	149.5
257.056	129.5
257.289	147.5
257.521	152.5
257.754	158.5
257.987	138.5
258.22	135.5
258.452	147.5
258.685	163.5
258.918	157.5
259.151	140.5
259.383	155.5
259.616	148.5
259.849	165.5
260.081	163.5
260.314	177.5
260.547	189.5
260.779	161.5
261.012	157.5
261.244	152.5
261.477	173.5
261.71	154.5
261.942	157.5
262.175	149.5
262.407	160.5
262.64	159.5
262.872	169.5
263.105	173.5
263.337	156.5
263.57	154.5
263.802	178.5
264.035	145.5
264.267	170.5
264.499	167.5
264.732	174.5
264.964	165.5
265.197	184.5
265.429	154.5
265.661	167.5
265.894	163.5
266.126	172.5
266.358	178.5
266.591	162.5
266.823	160.5
267.055	170.5
267.287	165.5
267.52	167.5
267.752	177.5
267.984	186.5
268.216	167.5
268.448	173.5
268.681	178.5
268.913	176.5
269.145	185.5
269.377	183.5
269.609	175.5
269.841	189.5
270.073	168.5
270.306	182.5
270.538	187.5
270.77	185.5
271.002	181.5
271.234	186.5
271.466	180.5
271.698	168.5
271.93	179.5
272.162	191.5
272.394	166.5
272.626	179.5
272.858	201.5
273.09	182.5
273.322	185.5
273.553	185.5
273.785	182.5
274.017	190.5
274.249	199.5
274.481	188.5
274.713	190.5
274.945	184.5
275.176	201.5
275.408	182.5
275.64	209.5
275.872	178.5
276.104	202.5
276.335	196.5
276.567	193.5
276.799	179.5
277.031	203.5
277.262	207.5
277.494	194.5
277.726	207.5
277.957	202.5
278.189	223.5
278.421	193.5
278.652	206.5
278.884	185.5
279.115	198.5
279.347	209.5
279.579	204.5
279.81	190.5
280.042	196.5
280.273	229.5
280.505	211.5
280.736	217.5
280.968	188.5
281.199	207.5
281.431	212.5
281.662	197.5
281.894	213.5
282.125	226.5
282.356	224.5
282.588	201.5
282.819	202.5
283.051	206.5
283.282	202.5
283.513	223.5
283.745	204.5
283.976	219.5
284.207	215.5
284.439	202.5
284.67	227.5
284.901	215.5
285.132	203.5
285.364	221.5
285.595	211.5
285.826	186.5
286.057	232.5
286.288	230.5
286.52	207.5
286.751	214.5
286.982	221.5
287.213	248.5
287.444	228.5
287.675	235.5
287.906	255.5
288.138	217.5
288.369	223.5
288.6	219.5
288.831	233.5
289.062	222.5
289.293	230.5
289.524	222.5
289.755	233.5
289.986	240.5
290.217	227.5
290.448	243.5
290.679	230.5
290.91	245.5
291.141	235.5
291.371	235.5
291.602	240.5
291.833	240.5
292.064	240.5
292.295	246.5
292.526	236.5
292.757	241.5
292.987	234.5
293.218	251.5
293.449	224.5
293.68	234.5
293.91	235.5
294.141	231.5
294.372	225.5
294.603	242.5
294.833	257.5
295.064	254.5
295.295	247.5
295.525	238.5
295.756	226.5
295.987	223.5
296.217	238.5
296.448	234.5
296.679	237.5
296.909	227.5
297.14	245.5
297.37	254.5
297.601	243.5
297.831	231.5
298.062	252.5
298.292	246.5
298.523	248.5
298.753	269.5
298.984	242.5
299.214	262.5
299.445	267.5
299.675	239.5
299.905	241.5
300.136	254.5
300.366	254.5
300.597	255.5
300.827	258.5
301.057	261.5
301.288	265.5
301.518	266.5
301.748	275.5
301.979	260.5
302.209	258.5
302.439	270.5
302.669	272.5
302.9	265.5
303.13	263.5
303.36	258.5
303.59	255.5
303.82	258.5
304.051	264.5
304.281	280.5
304.511	258.5
304.741	258.5
304.971	267.5
305.201	272.5
305.431	252.5
305.661	250.5
305.891	261.5
306.121	253.5
306.352	262.5
306.582	257.5
306.812	255.5
307.042	261.5
307.272	267.5
307.502	259.5
307.731	276.5
307.961	259.5
308.191	267.5
308.421	284.5
308.651	239.5
308.881	257.5
309.111	261.5
309.341	267.5
309.571	251.5
309.8	257.5
310.03	261.5
310.26	262.5
310.49	250.5
310.72	263.5
310.949	245.5
311.179	267.5
311.409	271.5
311.639	268.5
311.868	274.5
312.098	264.5
312.328	283.5
312.557	277.5
312.787	275.5
313.017	279.5
313.246	298.5
313.476	279.5
313.706	271.5
313.935	277.5
314.165	293.5
314.394	275.5
314.624	273.5
314.853	288.5
315.083	282.5
315.312	280.5
315.542	267.5
315.771	261.5
316.001	287.5
316.23	273.5
316.46	273.5
316.689	267.5
316.919	283.5
317.148	280.5
317.377	294.5
317.607	275.5
317.836	283.5
318.065	289.5
318.295	258.5
318.524	288.5
318.753	280.5
318.983	263.5
319.212	282.5
319.441	276.5
319.67	271.5
319.9	276.5
320.129	279.5
320.358	280.5
320.587	281.5
320.816	284.5
321.046	279.5
321.275	274.5
321.504	283.5
321.733	290.5
321.962	258.5
322.191	292.5
322.42	277.5
322.649	276.5
322.878	282.5
323.108	283.5
323.337	286.5
323.566	282.5
323.795	282.5
324.024	282.5
324.253	286.5
324.482	291.5
324.71	291.5
324.939	299.5
325.168	291.5
325.397	295.5
325.626	295.5
325.855	286.5
326.084	302.5
326.313	296.5
326.542	295.5
326.77	296.5
326.999	290.5
327.228	302.5
327.457	289.5
327.686	308.5
327.914	303.5
328.143	315.5
328.372	304.5
328.6	292.5
328.829	305.5
329.058	305.5
329.287	299.5
329.515	311.5
329.744	334.5
329.972	299.5
330.201	315.5
330.43	303.5
330.658	303.5
330.887	326.5
331.115	315.5
331.344	309.5
331.572	322.5
331.801	331.5
332.03	320.5
332.258	327.5
332.486	341.5
332.715	327.5
332.943	351.5
333.172	373.5
333.4	381.5
333.629	392.5
333.857	369.5
334.085	385.5
334.314	385.5
334.542	376.5
334.771	367.5
334.999	379.5
335.227	380.5
335.455	377.5
335.684	377.5
335.912	362.5
336.14	364.5
336.369	359.5
336.597	357.5
336.825	366.5
337.053	349.5
337.281	352.5
337.51	353.5
337.738	355.5
337.966	343.5
338.194	351.5
338.422	339.5
338.65	344.5
338.878	332.5
339.106	326.5
339.334	329.5
339.562	328.5
339.79	307.5
340.018	319.5
340.246	326.5
340.474	319.5
340.702	329.5
340.93	341.5
341.158	322.5
341.386	345.5
341.614	325.5
341.842	326.5
342.07	305.5
342.298	321.5
342.526	304.5
342.754	318.5
342.981	317.5
343.209	341.5
343.437	346.5
343.665	354.5
343.893	393.5
344.12	385.5
344.348	374.5
344.576	346.5
344.804	337.5
345.031	338.5
345.259	322.5
345.487	331.5
345.714	336.5
345.942	317.5
346.17	314.5
346.397	318.5
346.625	317.5
346.853	305.5
347.08	298.5
347.308	326.5
347.535	315.5
347.763	295.5
347.99	311.5
348.218	328.5
348.445	317.5
348.673	322.5
348.9	295.5
349.128	326.5
349.355	326.5
349.583	294.5
349.81	318.5
350.037	305.5
350.265	323.5
350.492	304.5
350.72	309.5
350.947	301.5
351.174	304.5
351.402	307.5
351.629	288.5
351.856	293.5
352.083	297.5
352.311	309.5
352.538	295.5
352.765	303.5
352.992	291.5
353.22	288.5
353.447	305.5
353.674	290.5
353.901	305.5
354.128	315.5
354.355	298.5
354.583	305.5
354.81	305.5
355.037	308.5
355.264	305.5
355.491	296.5
355.718	281.5
355.945	312.5
356.172	315.5
356.399	305.5
356.626	310.5
356.853	302.5
357.08	318.5
357.307	317.5
357.534	305.5
357.761	329.5
357.988	328.5
358.215	315.5
358.441	303.5
358.668	314.5
358.895	293.5
359.122	310.5
359.349	293.5
359.576	313.5
359.802	314.5
360.029	309.5
360.256	303.5
360.483	297.5
360.709	296.5
360.936	316.5
361.163	323.5
361.39	298.5
361.616	325.5
361.843	307.5
362.07	303.5
362.296	315.5
362.523	304.5
362.749	295.5
362.976	309.5
363.203	302.5
363.429	311.5
363.656	309.5
363.882	302.5
364.109	300.5
364.335	309.5
364.562	297.5
364.788	312.5
365.015	321.5
365.241	305.5
365.468	303.5
365.694	306.5
365.92	312.5
366.147	291.5
366.373	280.5
366.599	297.5
366.826	301.5
367.052	294.5
367.278	305.5
367.505	327.5
367.731	299.5
367.957	312.5
368.184	318.5
368.41	313.5
368.636	329.5
368.862	315.5
369.089	323.5
369.315	320.5
369.541	327.5
369.767	316.5
369.993	306.5
370.219	321.5
370.445	317.5
370.672	330.5
370.898	335.5
371.124	327.5
371.35	325.5
371.576	322.5
371.802	334.5
372.028	331.5
372.254	325.5
372.48	342.5
372.706	350.5
372.932	326.5
373.158	343.5
373.384	329.5
373.61	341.5
373.835	343.5
374.061	344.5
374.287	349.5
374.513	349.5
374.739	336.5
374.965	352.5
375.191	371.5
375.416	353.5
375.642	361.5
375.868	353.5
376.094	362.5
376.319	355.5
376.545	344.5
376.771	338.5
376.997	346.5
377.222	332.5
377.448	334.5
377.674	335.5
377.899	343.5
378.125	327.5
378.35	320.5
378.576	333.5
378.802	345.5
379.027	326.5
379.253	330.5
379.478	315.5
379.704	336.5
379.929	352.5
380.155	333.5
380.38	319.5
380.606	322.5
380.831	333.5
381.057	336.5
381.282	340.5
381.507	337.5
381.733	347.5
381.958	333.5
382.184	358.5
382.409	348.5
382.634	359.5
382.86	350.5
383.085	341.5
383.31	350.5
383.535	355.5
383.761	365.5
383.986	373.5
384.211	375.5
384.436	377.5
384.662	371.5
384.887	388.5
385.112	387.5
385.337	380.5
385.562	397.5
385.787	417.5
386.013	396.5
386.238	372.5
386.463	398.5
386.688	379.5
386.913	389.5
387.138	410.5
387.363	398.5
387.588	417.5
387.813	410.5
388.038	398.5
388.263	386.5
388.488	388.5
388.713	408.5
388.938	395.5
389.163	393.5
389.387	397.5
389.612	385.5
389.837	390.5
390.062	376.5
390.287	373.5
390.512	385.5
390.736	390.5
390.961	410.5
391.186	401.5
391.411	425.5
391.636	423.5
391.86	433.5
392.085	429.5
392.31	440.5
392.534	422.5
392.759	399.5
392.984	407.5
393.208	423.5
393.433	419.5
393.658	402.5
393.882	400.5
394.107	425.5
394.331	437.5
394.556	416.5
394.78	404.5
395.005	448.5
395.229	417.5
395.454	435.5
395.678	431.5
395.903	455.5
396.127	429.5
396.352	438.5
396.576	406.5
396.801	417.5
397.025	447.5
397.249	413.5
397.474	429.5
397.698	434.5
397.922	449.5
398.147	433.5
398.371	456.5
398.595	474.5
398.82	477.5
399.044	486.5
399.268	563.5
399.492	600.5
399.717	651.5
399.941	665.5
400.165	603.5
400.389	553.5
400.613	534.5
400.837	494.5
401.062	474.5
401.286	485.5
401.51	506.5
401.734	473.5
401.958	513.5
402.182	499.5
402.406	475.5
402.63	501.5
402.854	500.5
403.078	520.5
403.302	520.5
403.526	532.5
403.75	520.5
403.974	533.5
404.198	531.5
404.422	546.5
404.645	539.5
404.869	535.5
405.093	535.5
405.317	531.5
405.541	548.5
405.765	544.5
405.988	531.5
406.212	535.5
406.436	536.5
406.66	550.5
406.883	554.5
407.107	568.5
407.331	599.5
407.555	614.5
407.778	610.5
408.002	606.5
408.226	583.5
408.449	596.5
408.673	581.5
408.896	558.5
409.12	559.5
409.344	589.5
409.567	548.5
409.791	571.5
410.014	541.5
410.238	531.5
410.461	537.5
410.685	534.5
410.908	528.5
411.132	518.5
411.355	507.5
411.578	526.5
411.802	534.5
412.025	504.5
412.249	525.5
412.472	508.5
412.695	529.5
412.919	471.5
413.142	507.5
413.365	480.5
413.589	508.5
413.812	509.5
414.035	507.5
414.258	493.5
414.482	505.5
414.705	501.5
414.928	499.5
415.151	506.5
415.374	515.5
415.597	502.5
415.821	474.5
416.044	501.5
416.267	505.5
416.49	463.5
416.713	478.5
416.936	483.5
417.159	478.5
417.382	488.5
417.605	469.5
417.828	494.5
418.051	503.5
418.274	497.5
418.497	458.5
418.72	513.5
418.943	515.5
419.166	516.5
419.389	557.5
419.611	529.5
419.834	511.5
420.057	496.5
420.28	498.5
420.503	502.5
420.726	485.5
420.948	493.5
421.171	479.5
421.394	497.5
421.617	498.5
421.839	498.5
422.062	484.5
422.285	469.5
422.507	488.5
422.73	487.5
422.953	514.5
423.175	507.5
423.398	497.5
423.621	486.5
423.843	519.5
424.066	505.5
424.288	495.5
424.511	482.5
424.733	489.5
424.956	496.5
425.178	494.5
425.401	505.5
425.623	514.5
425.846	478.5
426.068	472.5
426.291	455.5
426.513	461.5
426.735	471.5
426.958	470.5
427.18	472.5
427.402	466.5
427.625	471.5
427.847	437.5
428.069	450.5
428.292	457.5
428.514	453.5
428.736	449.5
428.958	455.5
429.181	419.5
429.403	429.5
429.625	456.5
429.847	427.5
430.069	430.5
430.292	443.5
430.514	466.5
430.736	449.5
430.958	452.5
431.18	444.5
431.402	426.5
431.624	448.5
431.846	442.5
432.068	423.5
432.29	449.5
432.512	456.5
432.734	467.5
432.956	453.5
433.178	465.5
433.4	458.5
433.622	452.5
433.844	456.5
434.066	459.5
434.287	478.5
434.509	458.5
434.731	476.5
434.953	485.5
435.175	459.5
435.397	490.5
435.618	476.5
435.84	459.5
436.062	460.5
436.284	461.5
436.505	451.5
436.727	465.5
436.949	440.5
437.17	433.5
437.392	446.5
437.614	452.5
437.835	416.5
438.057	414.5
438.278	443.5
438.5	437.5
438.721	425.5
438.943	442.5
439.165	455.5
439.386	445.5
439.608	468.5
439.829	462.5
440.05	470.5
440.272	449.5
440.493	451.5
440.715	464.5
440.936	453.5
441.158	470.5
441.379	462.5
441.6	502.5
441.822	503.5
442.043	508.5
442.264	484.5
442.486	493.5
442.707	496.5
442.928	489.5
443.149	472.5
443.371	496.5
443.592	499.5
443.813	505.5
444.034	501.5
444.255	512.5
444.476	529.5
444.698	555.5
444.919	582.5
445.14	632.5
445.361	565.5
445.582	530.5
445.803	486.5
446.024	477.5
446.245	486.5
446.466	477.5
446.687	465.5
446.908	461.5
447.129	439.5
447.35	476.5
447.571	455.5
447.792	446.5
448.013	445.5
448.234	435.5
448.455	406.5
448.675	431.5
448.896	422.5
449.117	439.5
449.338	422.5
449.559	429.5
449.779	415.5
450	421.5
450.221	431.5
450.442	435.5
450.662	413.5
450.883	419.5
451.104	443.5
451.324	427.5
451.545	449.5
451.766	427.5
451.986	420.5
452.207	422.5
452.428	416.5
452.648	413.5
452.869	429.5
453.089	402.5
453.31	397.5
453.53	403.5
453.751	413.5
453.971	397.5
454.192	395.5
454.412	402.5
454.633	391.5
454.853	413.5
455.073	413.5
455.294	412.5
455.514	407.5
455.734	408.5
455.955	399.5
456.175	381.5
456.395	387.5
456.616	378.5
456.836	399.5
457.056	414.5
457.276	391.5
457.497	390.5
457.717	406.5
457.937	405.5
458.157	401.5
458.377	411.5
458.598	397.5
458.818	399.5
459.038	414.5
459.258	426.5
459.478	452.5
459.698	448.5
459.918	485.5
460.138	466.5
460.358	486.5
460.578	508.5
460.798	500.5
461.018	521.5
461.238	513.5
461.458	475.5
461.678	488.5
461.898	488.5
462.118	520.5
462.338	531.5
462.558	536.5
462.777	564.5
462.997	605.5
463.217	646.5
463.437	600.5
463.657	584.5
463.876	575.5
464.096	560.5
464.316	568.5
464.536	581.5
464.755	562.5
464.975	541.5
465.195	543.5
465.414	496.5
465.634	467.5
465.854	472.5
466.073	473.5
466.293	443.5
466.512	456.5
466.732	422.5
466.951	424.5
467.171	435.5
467.391	457.5
467.61	430.5
467.829	438.5
468.049	450.5
468.268	415.5
468.488	435.5
468.707	416.5
468.927	415.5
469.146	411.5
469.365	419.5
469.585	424.5
469.804	440.5
470.023	463.5
470.243	458.5
470.462	461.5
470.681	433.5
470.901	442.5
471.12	449.5
471.339	441.5
471.558	437.5
471.777	442.5
471.997	425.5
472.216	427.5
472.435	427.5
472.654	421.5
472.873	395.5
473.092	403.5
473.311	410.5
473.53	403.5
473.749	407.5
473.968	422.5
474.187	410.5
474.406	399.5
474.625	419.5
474.844	399.5
475.063	396.5
475.282	419.5
475.501	418.5
475.72	427.5
475.939	407.5
476.158	407.5
476.377	414.5
476.596	432.5
476.814	404.5
477.033	425.5
477.252	434.5
477.471	438.5
477.69	454.5
477.908	451.5
478.127	459.5
478.346	493.5
478.564	495.5
478.783	487.5
479.002	500.5
479.22	473.5
479.439	466.5
479.658	480.5
479.876	487.5
480.095	479.5
480.313	523.5
480.532	522.5
480.751	507.5
480.969	470.5
481.188	471.5
481.406	466.5
481.624	484.5
481.843	443.5
482.061	432.5
482.28	464.5
482.498	472.5
482.717	464.5
482.935	462.5
483.153	450.5
483.372	458.5
483.59	464.5
483.808	445.5
484.027	449.5
484.245	440.5
484.463	463.5
484.681	467.5
484.9	480.5
485.118	481.5
485.336	459.5
485.554	466.5
485.772	487.5
485.99	482.5
486.209	480.5
486.427	477.5
486.645	440.5
486.863	454.5
487.081	471.5
487.299	486.5
487.517	472.5
487.735	519.5
487.953	474.5
488.171	480.5
488.389	480.5
488.607	466.5
488.825	458.5
489.043	477.5
489.261	466.5
489.479	487.5
489.696	471.5
489.914	453.5
490.132	463.5
490.35	471.5
490.568	473.5
490.786	460.5
491.003	472.5
491.221	480.5
491.439	485.5
491.657	475.5
491.874	487.5
492.092	486.5
492.31	469.5
492.527	488.5
492.745	488.5
492.963	488.5
493.18	492.5
493.398	482.5
493.615	525.5
493.833	496.5
494.05	507.5
494.268	490.5
494.485	468.5
494.703	497.5
494.92	495.5
495.138	482.5
495.355	509.5
495.573	513.5
495.79	481.5
496.008	509.5
496.225	511.5
496.442	537.5
496.66	519.5
496.877	542.5
497.094	545.5
497.312	540.5
497.529	546.5
497.746	572.5
497.963	551.5
498.181	616.5
498.398	617.5
498.615	634.5
498.832	702.5
499.049	733.5
499.267	763.5
499.484	832.5
499.701	904.5
499.918	968.5
500.135	1084.5
500.352	1206.5
500.569	1217.5
500.786	1185.5
501.003	1142.5
501.22	1036.5
501.437	950.5
501.654	864.5
501.871	800.5
502.088	743.5
502.305	710.5
502.522	658.5
502.739	678.5
502.956	635.5
503.172	596.5
503.389	591.5
503.606	587.5
503.823	560.5
504.04	563.5
504.256	575.5
504.473	580.5
504.69	593.5
504.907	573.5
505.123	516.5
505.34	523.5
505.557	507.5
505.773	481.5
505.99	465.5
506.207	481.5
506.423	462.5
506.64	456.5
506.856	473.5
507.073	439.5
507.289	427.5
507.506	450.5
507.722	437.5
507.939	434.5
508.155	432.5
508.372	414.5
508.588	429.5
508.805	440.5
509.021	417.5
509.238	402.5
509.454	418.5
509.67	421.5
509.887	409.5
510.103	415.5
510.319	407.5
510.536	407.5
510.752	390.5
510.968	408.5
511.184	394.5
511.401	414.5
511.617	371.5
511.833	395.5
512.049	393.5
512.265	417.5
512.481	412.5
512.698	408.5
512.914	406.5
513.13	403.5
513.346	415.5
513.562	403.5
513.778	415.5
513.994	418.5
514.21	422.5
514.426	407.5
514.642	434.5
514.858	417.5
515.074	417.5
515.29	428.5
515.506	401.5
515.721	433.5
515.937	418.5
516.153	433.5
516.369	440.5
516.585	444.5
516.801	468.5
517.016	475.5
517.232	487.5
517.448	497.5
517.664	523.5
517.879	512.5
518.095	514.5
518.311	507.5
518.527	494.5
518.742	498.5
518.958	469.5
519.173	466.5
519.389	441.5
519.605	436.5
519.82	446.5
