Data from Fe(NO3)3@0.1M.TitratingCurve.Agarose3%dH2O.NegLispCup.LampEnergy10.LIBS07252019_HRD10591_16-39-14-332.txt Node
Date: Thu Jul 25 16:39:14 EDT 2019
User: cochatt
Spectrometer: HR+D1059
Trigger mode: 1
Integration Time (sec): 1.000000E-1
Scans to average: 1
Electric dark correction enabled: true
Nonlinearity correction enabled: false
Boxcar width: 0
XAxis mode: Wavelengths
Number of Pixels in Spectrum: 2048
>>>>>Begin Spectral Data<<<<<
223.165	-13.19
223.4	-13.19
223.635	-13.19
223.869	1.81
224.104	-10.19
224.338	-20.19
224.573	-16.19
224.808	-15.19
225.042	-18.19
225.277	-13.19
225.511	-7.19
225.746	6.81
225.98	-5.19
226.215	11.81
226.449	2.81
226.683	19.81
226.918	30.81
227.152	44.81
227.387	41.81
227.621	45.81
227.856	36.81
228.09	47.81
228.324	36.81
228.559	58.81
228.793	60.81
229.027	64.81
229.262	78.81
229.496	78.81
229.73	88.81
229.964	88.81
230.199	72.81
230.433	93.81
230.667	88.81
230.901	105.81
231.136	85.81
231.37	104.81
231.604	91.81
231.838	100.81
232.072	96.81
232.306	90.81
232.541	82.81
232.775	107.81
233.009	120.81
233.243	90.81
233.477	99.81
233.711	97.81
233.945	101.81
234.179	88.81
234.413	99.81
234.647	99.81
234.881	116.81
235.115	98.81
235.349	93.81
235.583	114.81
235.817	105.81
236.051	94.81
236.285	110.81
236.519	90.81
236.753	106.81
236.987	92.81
237.221	103.81
237.455	95.81
237.689	96.81
237.922	91.81
238.156	100.81
238.39	90.81
238.624	98.81
238.858	101.81
239.091	105.81
239.325	112.81
239.559	113.81
239.793	102.81
240.027	105.81
240.26	117.81
240.494	105.81
240.728	94.81
240.961	95.81
241.195	120.81
241.429	103.81
241.662	91.81
241.896	123.81
242.13	103.81
242.363	102.81
242.597	120.81
242.83	99.81
243.064	122.81
243.298	115.81
243.531	121.81
243.765	117.81
243.998	122.81
244.232	108.81
244.465	114.81
244.699	114.81
244.932	116.81
245.166	140.81
245.399	127.81
245.633	115.81
245.866	119.81
246.099	126.81
246.333	127.81
246.566	113.81
246.8	119.81
247.033	123.81
247.266	127.81
247.5	120.81
247.733	123.81
247.966	135.81
248.2	125.81
248.433	104.81
248.666	115.81
248.899	109.81
249.133	116.81
249.366	113.81
249.599	128.81
249.832	134.81
250.066	126.81
250.299	119.81
250.532	134.81
250.765	119.81
250.998	120.81
251.231	129.81
251.465	129.81
251.698	118.81
251.931	136.81
252.164	122.81
252.397	123.81
252.63	134.81
252.863	118.81
253.096	141.81
253.329	140.81
253.562	146.81
253.795	148.81
254.028	137.81
254.261	120.81
254.494	136.81
254.727	144.81
254.96	140.81
255.193	135.81
255.426	132.81
255.659	134.81
255.892	143.81
256.124	159.81
256.357	135.81
256.59	138.81
256.823	134.81
257.056	145.81
257.289	130.81
257.521	143.81
257.754	142.81
257.987	130.81
258.22	137.81
258.452	142.81
258.685	146.81
258.918	152.81
259.151	138.81
259.383	160.81
259.616	153.81
259.849	142.81
260.081	156.81
260.314	152.81
260.547	143.81
260.779	146.81
261.012	142.81
261.244	148.81
261.477	135.81
261.71	152.81
261.942	144.81
262.175	166.81
262.407	167.81
262.64	168.81
262.872	161.81
263.105	144.81
263.337	168.81
263.57	152.81
263.802	159.81
264.035	161.81
264.267	178.81
264.499	154.81
264.732	148.81
264.964	166.81
265.197	163.81
265.429	154.81
265.661	159.81
265.894	154.81
266.126	154.81
266.358	152.81
266.591	148.81
266.823	186.81
267.055	156.81
267.287	158.81
267.52	152.81
267.752	150.81
267.984	167.81
268.216	164.81
268.448	174.81
268.681	185.81
268.913	164.81
269.145	188.81
269.377	166.81
269.609	166.81
269.841	163.81
270.073	166.81
270.306	172.81
270.538	169.81
270.77	192.81
271.002	176.81
271.234	180.81
271.466	172.81
271.698	174.81
271.93	174.81
272.162	176.81
272.394	175.81
272.626	168.81
272.858	166.81
273.09	174.81
273.322	170.81
273.553	193.81
273.785	192.81
274.017	181.81
274.249	195.81
274.481	192.81
274.713	203.81
274.945	194.81
275.176	179.81
275.408	163.81
275.64	186.81
275.872	170.81
276.104	191.81
276.335	180.81
276.567	182.81
276.799	187.81
277.031	190.81
277.262	184.81
277.494	170.81
277.726	173.81
277.957	200.81
278.189	172.81
278.421	211.81
278.652	172.81
278.884	184.81
279.115	215.81
279.347	196.81
279.579	184.81
279.81	190.81
280.042	173.81
280.273	196.81
280.505	183.81
280.736	207.81
280.968	200.81
281.199	196.81
281.431	182.81
281.662	188.81
281.894	207.81
282.125	190.81
282.356	203.81
282.588	191.81
282.819	208.81
283.051	195.81
283.282	200.81
283.513	208.81
283.745	179.81
283.976	208.81
284.207	198.81
284.439	192.81
284.67	211.81
284.901	197.81
285.132	194.81
285.364	205.81
285.595	195.81
285.826	213.81
286.057	197.81
286.288	194.81
286.52	208.81
286.751	225.81
286.982	204.81
287.213	208.81
287.444	226.81
287.675	228.81
287.906	210.81
288.138	222.81
288.369	206.81
288.6	225.81
288.831	226.81
289.062	216.81
289.293	227.81
289.524	230.81
289.755	208.81
289.986	228.81
290.217	225.81
290.448	214.81
290.679	242.81
290.91	214.81
291.141	215.81
291.371	228.81
291.602	215.81
291.833	208.81
292.064	213.81
292.295	222.81
292.526	224.81
292.757	239.81
292.987	238.81
293.218	232.81
293.449	226.81
293.68	223.81
293.91	238.81
294.141	215.81
294.372	244.81
294.603	234.81
294.833	237.81
295.064	216.81
295.295	234.81
295.525	220.81
295.756	230.81
295.987	255.81
296.217	219.81
296.448	220.81
296.679	231.81
296.909	224.81
297.14	231.81
297.37	242.81
297.601	244.81
297.831	236.81
298.062	241.81
298.292	232.81
298.523	219.81
298.753	247.81
298.984	235.81
299.214	258.81
299.445	251.81
299.675	229.81
299.905	242.81
300.136	242.81
300.366	239.81
300.597	260.81
300.827	259.81
301.057	262.81
301.288	244.81
301.518	256.81
301.748	262.81
301.979	252.81
302.209	262.81
302.439	244.81
302.669	268.81
302.9	257.81
303.13	255.81
303.36	250.81
303.59	245.81
303.82	268.81
304.051	242.81
304.281	254.81
304.511	249.81
304.741	265.81
304.971	255.81
305.201	239.81
305.431	257.81
305.661	252.81
305.891	252.81
306.121	259.81
306.352	262.81
306.582	248.81
306.812	261.81
307.042	271.81
307.272	247.81
307.502	247.81
307.731	251.81
307.961	259.81
308.191	231.81
308.421	256.81
308.651	261.81
308.881	247.81
309.111	243.81
309.341	239.81
309.571	243.81
309.8	252.81
310.03	235.81
310.26	249.81
310.49	255.81
310.72	243.81
310.949	258.81
311.179	241.81
311.409	267.81
311.639	263.81
311.868	253.81
312.098	258.81
312.328	259.81
312.557	282.81
312.787	259.81
313.017	250.81
313.246	271.81
313.476	268.81
313.706	265.81
313.935	283.81
314.165	275.81
314.394	287.81
314.624	279.81
314.853	258.81
315.083	275.81
315.312	282.81
315.542	289.81
315.771	278.81
316.001	268.81
316.23	274.81
316.46	274.81
316.689	268.81
316.919	259.81
317.148	290.81
317.377	262.81
317.607	257.81
317.836	263.81
318.065	259.81
318.295	275.81
318.524	275.81
318.753	274.81
318.983	271.81
319.212	280.81
319.441	266.81
319.67	250.81
319.9	282.81
320.129	274.81
320.358	267.81
320.587	272.81
320.816	262.81
321.046	292.81
321.275	289.81
321.504	279.81
321.733	272.81
321.962	295.81
322.191	265.81
322.42	276.81
322.649	272.81
322.878	262.81
323.108	267.81
323.337	283.81
323.566	286.81
323.795	279.81
324.024	276.81
324.253	277.81
324.482	275.81
324.71	292.81
324.939	306.81
325.168	284.81
325.397	269.81
325.626	270.81
325.855	271.81
326.084	290.81
326.313	306.81
326.542	283.81
326.77	292.81
326.999	307.81
327.228	280.81
327.457	280.81
327.686	288.81
327.914	302.81
328.143	310.81
328.372	293.81
328.6	297.81
328.829	296.81
329.058	291.81
329.287	300.81
329.515	299.81
329.744	303.81
329.972	294.81
330.201	309.81
330.43	320.81
330.658	323.81
330.887	308.81
331.115	322.81
331.344	313.81
331.572	320.81
331.801	328.81
332.03	322.81
332.258	327.81
332.486	334.81
332.715	347.81
332.943	358.81
333.172	352.81
333.4	363.81
333.629	368.81
333.857	372.81
334.085	381.81
334.314	387.81
334.542	377.81
334.771	361.81
334.999	350.81
335.227	374.81
335.455	372.81
335.684	349.81
335.912	359.81
336.14	353.81
336.369	338.81
336.597	349.81
336.825	368.81
337.053	339.81
337.281	334.81
337.51	332.81
337.738	335.81
337.966	340.81
338.194	325.81
338.422	320.81
338.65	352.81
338.878	325.81
339.106	320.81
339.334	333.81
339.562	326.81
339.79	309.81
340.018	332.81
340.246	315.81
340.474	310.81
340.702	307.81
340.93	306.81
341.158	316.81
341.386	297.81
341.614	315.81
341.842	319.81
342.07	330.81
342.298	314.81
342.526	307.81
342.754	300.81
342.981	321.81
343.209	330.81
343.437	353.81
343.665	358.81
343.893	361.81
344.12	383.81
344.348	367.81
344.576	330.81
344.804	320.81
345.031	312.81
345.259	318.81
345.487	322.81
345.714	296.81
345.942	323.81
346.17	342.81
346.397	314.81
346.625	302.81
346.853	293.81
347.08	282.81
347.308	303.81
347.535	318.81
347.763	304.81
347.99	312.81
348.218	319.81
348.445	290.81
348.673	299.81
348.9	306.81
349.128	323.81
349.355	306.81
349.583	314.81
349.81	310.81
350.037	302.81
350.265	320.81
350.492	313.81
350.72	315.81
350.947	299.81
351.174	305.81
351.402	298.81
351.629	288.81
351.856	310.81
352.083	323.81
352.311	310.81
352.538	297.81
352.765	304.81
352.992	318.81
353.22	307.81
353.447	310.81
353.674	318.81
353.901	309.81
354.128	307.81
354.355	318.81
354.583	291.81
354.81	289.81
355.037	309.81
355.264	304.81
355.491	319.81
355.718	293.81
355.945	302.81
356.172	300.81
356.399	308.81
356.626	313.81
356.853	327.81
357.08	298.81
357.307	295.81
357.534	298.81
357.761	317.81
357.988	324.81
358.215	314.81
358.441	312.81
358.668	318.81
358.895	308.81
359.122	301.81
359.349	305.81
359.576	308.81
359.802	326.81
360.029	308.81
360.256	302.81
360.483	295.81
360.709	310.81
360.936	306.81
361.163	315.81
361.39	313.81
361.616	295.81
361.843	311.81
362.07	324.81
362.296	330.81
362.523	307.81
362.749	300.81
362.976	311.81
363.203	309.81
363.429	301.81
363.656	305.81
363.882	314.81
364.109	292.81
364.335	315.81
364.562	320.81
364.788	308.81
365.015	328.81
365.241	320.81
365.468	307.81
365.694	307.81
365.92	315.81
366.147	314.81
366.373	316.81
366.599	312.81
366.826	297.81
367.052	304.81
367.278	302.81
367.505	305.81
367.731	311.81
367.957	309.81
368.184	311.81
368.41	323.81
368.636	321.81
368.862	316.81
369.089	306.81
369.315	339.81
369.541	326.81
369.767	332.81
369.993	321.81
370.219	311.81
370.445	318.81
370.672	328.81
370.898	309.81
371.124	335.81
371.35	325.81
371.576	333.81
371.802	339.81
372.028	332.81
372.254	359.81
372.48	360.81
372.706	355.81
372.932	357.81
373.158	354.81
373.384	360.81
373.61	340.81
373.835	349.81
374.061	352.81
374.287	338.81
374.513	356.81
374.739	384.81
374.965	384.81
375.191	378.81
375.416	374.81
375.642	360.81
375.868	357.81
376.094	341.81
376.319	347.81
376.545	342.81
376.771	361.81
376.997	319.81
377.222	342.81
377.448	331.81
377.674	338.81
377.899	335.81
378.125	310.81
378.35	323.81
378.576	348.81
378.802	342.81
379.027	347.81
379.253	342.81
379.478	343.81
379.704	337.81
379.929	337.81
380.155	331.81
380.38	342.81
380.606	331.81
380.831	372.81
381.057	345.81
381.282	328.81
381.507	352.81
381.733	349.81
381.958	363.81
382.184	356.81
382.409	361.81
382.634	368.81
382.86	351.81
383.085	372.81
383.31	365.81
383.535	375.81
383.761	367.81
383.986	377.81
384.211	397.81
384.436	392.81
384.662	395.81
384.887	392.81
385.112	400.81
385.337	417.81
385.562	425.81
385.787	411.81
386.013	426.81
386.238	424.81
386.463	416.81
386.688	408.81
386.913	401.81
387.138	371.81
387.363	380.81
387.588	409.81
387.813	404.81
388.038	398.81
388.263	397.81
388.488	397.81
388.713	407.81
388.938	410.81
389.163	398.81
389.387	392.81
389.612	407.81
389.837	416.81
390.062	411.81
390.287	383.81
390.512	390.81
390.736	411.81
390.961	417.81
391.186	411.81
391.411	420.81
391.636	425.81
391.86	455.81
392.085	467.81
392.31	426.81
392.534	430.81
392.759	426.81
392.984	436.81
393.208	410.81
393.433	436.81
393.658	444.81
393.882	420.81
394.107	419.81
394.331	430.81
394.556	430.81
394.78	460.81
395.005	440.81
395.229	441.81
395.454	439.81
395.678	460.81
395.903	443.81
396.127	418.81
396.352	441.81
396.576	432.81
396.801	423.81
397.025	441.81
397.249	443.81
397.474	463.81
397.698	457.81
397.922	473.81
398.147	448.81
398.371	481.81
398.595	499.81
398.82	514.81
399.044	534.81
399.268	602.81
399.492	664.81
399.717	689.81
399.941	698.81
400.165	608.81
400.389	576.81
400.613	532.81
400.837	495.81
401.062	504.81
401.286	480.81
401.51	495.81
401.734	489.81
401.958	501.81
402.182	501.81
402.406	517.81
402.63	526.81
402.854	532.81
403.078	537.81
403.302	540.81
403.526	586.81
403.75	565.81
403.974	556.81
404.198	559.81
404.422	536.81
404.645	553.81
404.869	549.81
405.093	554.81
405.317	535.81
405.541	554.81
405.765	554.81
405.988	554.81
406.212	544.81
406.436	548.81
406.66	568.81
406.883	583.81
407.107	596.81
407.331	624.81
407.555	648.81
407.778	634.81
408.002	610.81
408.226	595.81
408.449	566.81
408.673	584.81
408.896	572.81
409.12	574.81
409.344	560.81
409.567	552.81
409.791	529.81
410.014	550.81
410.238	567.81
410.461	554.81
410.685	539.81
410.908	533.81
411.132	527.81
411.355	517.81
411.578	524.81
411.802	515.81
412.025	517.81
412.249	536.81
412.472	516.81
412.695	525.81
412.919	516.81
413.142	517.81
413.365	519.81
413.589	525.81
413.812	505.81
414.035	517.81
414.258	509.81
414.482	495.81
414.705	535.81
414.928	527.81
415.151	513.81
415.374	542.81
415.597	530.81
415.821	499.81
416.044	480.81
416.267	494.81
416.49	494.81
416.713	502.81
416.936	525.81
417.159	504.81
417.382	484.81
417.605	478.81
417.828	480.81
418.051	506.81
418.274	506.81
418.497	503.81
418.72	523.81
418.943	532.81
419.166	534.81
419.389	569.81
419.611	534.81
419.834	553.81
420.057	520.81
420.28	510.81
420.503	511.81
420.726	513.81
420.948	501.81
421.171	478.81
421.394	512.81
421.617	528.81
421.839	489.81
422.062	526.81
422.285	480.81
422.507	516.81
422.73	521.81
422.953	507.81
423.175	514.81
423.398	542.81
423.621	535.81
423.843	523.81
424.066	526.81
424.288	534.81
424.511	533.81
424.733	510.81
424.956	499.81
425.178	506.81
425.401	510.81
425.623	510.81
425.846	487.81
426.068	488.81
426.291	480.81
426.513	480.81
426.735	487.81
426.958	498.81
427.18	469.81
427.402	487.81
427.625	483.81
427.847	455.81
428.069	457.81
428.292	488.81
428.514	487.81
428.736	446.81
428.958	462.81
429.181	460.81
429.403	454.81
429.625	454.81
429.847	458.81
430.069	458.81
430.292	434.81
430.514	455.81
430.736	450.81
430.958	472.81
431.18	450.81
431.402	449.81
431.624	470.81
431.846	470.81
432.068	443.81
432.29	465.81
432.512	456.81
432.734	455.81
432.956	474.81
433.178	470.81
433.4	470.81
433.622	462.81
433.844	467.81
434.066	459.81
434.287	474.81
434.509	507.81
434.731	509.81
434.953	518.81
435.175	495.81
435.397	497.81
435.618	488.81
435.84	456.81
436.062	466.81
436.284	467.81
436.505	472.81
436.727	488.81
436.949	457.81
437.17	478.81
437.392	472.81
437.614	460.81
437.835	458.81
438.057	447.81
438.278	454.81
438.5	472.81
438.721	473.81
438.943	448.81
439.165	474.81
439.386	469.81
439.608	455.81
439.829	472.81
440.05	473.81
440.272	480.81
440.493	453.81
440.715	473.81
440.936	479.81
441.158	490.81
441.379	524.81
441.6	535.81
441.822	534.81
442.043	526.81
442.264	502.81
442.486	519.81
442.707	517.81
442.928	507.81
443.149	537.81
443.371	506.81
443.592	515.81
443.813	530.81
444.034	523.81
444.255	539.81
444.476	548.81
444.698	564.81
444.919	581.81
445.14	695.81
445.361	612.81
445.582	528.81
445.803	518.81
446.024	499.81
446.245	520.81
446.466	508.81
446.687	492.81
446.908	495.81
447.129	477.81
447.35	467.81
447.571	462.81
447.792	450.81
448.013	453.81
448.234	448.81
448.455	459.81
448.675	437.81
448.896	456.81
449.117	437.81
449.338	471.81
449.559	455.81
449.779	450.81
450	450.81
450.221	441.81
450.442	444.81
450.662	443.81
450.883	443.81
451.104	438.81
451.324	422.81
451.545	435.81
451.766	430.81
451.986	442.81
452.207	423.81
452.428	433.81
452.648	425.81
452.869	418.81
453.089	423.81
453.31	411.81
453.53	397.81
453.751	419.81
453.971	411.81
454.192	409.81
454.412	415.81
454.633	415.81
454.853	417.81
455.073	404.81
455.294	411.81
455.514	409.81
455.734	400.81
455.955	406.81
456.175	409.81
456.395	395.81
456.616	394.81
456.836	415.81
457.056	398.81
457.276	382.81
457.497	410.81
457.717	403.81
457.937	414.81
458.157	411.81
458.377	420.81
458.598	422.81
458.818	427.81
459.038	455.81
459.258	446.81
459.478	452.81
459.698	479.81
459.918	472.81
460.138	486.81
460.358	521.81
460.578	528.81
460.798	530.81
461.018	541.81
461.238	540.81
461.458	546.81
461.678	518.81
461.898	544.81
462.118	531.81
462.338	562.81
462.558	577.81
462.777	588.81
462.997	634.81
463.217	665.81
463.437	643.81
463.657	632.81
463.876	584.81
464.096	604.81
464.316	598.81
464.536	603.81
464.755	590.81
464.975	576.81
465.195	518.81
465.414	516.81
465.634	494.81
465.854	484.81
466.073	485.81
466.293	478.81
466.512	462.81
466.732	460.81
466.951	457.81
467.171	478.81
467.391	444.81
467.61	438.81
467.829	467.81
468.049	444.81
468.268	438.81
468.488	449.81
468.707	438.81
468.927	443.81
469.146	473.81
469.365	440.81
469.585	430.81
469.804	452.81
470.023	455.81
470.243	448.81
470.462	459.81
470.681	460.81
470.901	468.81
471.12	462.81
471.339	439.81
471.558	444.81
471.777	441.81
471.997	434.81
472.216	427.81
472.435	413.81
472.654	451.81
472.873	432.81
473.092	420.81
473.311	437.81
473.53	436.81
473.749	426.81
473.968	419.81
474.187	425.81
474.406	408.81
474.625	424.81
474.844	421.81
475.063	427.81
475.282	426.81
475.501	436.81
475.72	439.81
475.939	444.81
476.158	443.81
476.377	467.81
476.596	437.81
476.814	455.81
477.033	458.81
477.252	453.81
477.471	451.81
477.69	481.81
477.908	482.81
478.127	482.81
478.346	504.81
478.564	488.81
478.783	489.81
479.002	523.81
479.22	495.81
479.439	519.81
479.658	513.81
479.876	492.81
480.095	515.81
480.313	533.81
480.532	550.81
480.751	551.81
480.969	523.81
481.188	525.81
481.406	496.81
481.624	484.81
481.843	490.81
482.061	467.81
482.28	492.81
482.498	483.81
482.717	468.81
482.935	483.81
483.153	468.81
483.372	473.81
483.59	483.81
483.808	496.81
484.027	491.81
484.245	483.81
484.463	492.81
484.681	451.81
484.9	488.81
485.118	486.81
485.336	487.81
485.554	482.81
485.772	487.81
485.99	497.81
486.209	505.81
486.427	478.81
486.645	492.81
486.863	495.81
487.081	481.81
487.299	489.81
487.517	501.81
487.735	496.81
487.953	530.81
488.171	516.81
488.389	499.81
488.607	470.81
488.825	480.81
489.043	481.81
489.261	492.81
489.479	496.81
489.696	520.81
489.914	487.81
490.132	503.81
490.35	515.81
490.568	486.81
490.786	524.81
491.003	494.81
491.221	526.81
491.439	484.81
491.657	510.81
491.874	489.81
492.092	510.81
492.31	534.81
492.527	512.81
492.745	521.81
492.963	518.81
493.18	512.81
493.398	513.81
493.615	494.81
493.833	520.81
494.05	512.81
494.268	536.81
494.485	517.81
494.703	518.81
494.92	520.81
495.138	533.81
495.355	521.81
495.573	550.81
495.79	538.81
496.008	542.81
496.225	538.81
496.442	536.81
496.66	577.81
496.877	558.81
497.094	579.81
497.312	578.81
497.529	580.81
497.746	603.81
497.963	599.81
498.181	616.81
498.398	647.81
498.615	675.81
498.832	747.81
499.049	753.81
499.267	802.81
499.484	898.81
499.701	979.81
499.918	1027.81
500.135	1187.81
500.352	1253.81
500.569	1330.81
500.786	1272.81
501.003	1193.81
501.22	1115.81
501.437	986.81
501.654	900.81
501.871	820.81
