Data from Fe(NO3)3@0.1M.TitratingCurve.Agarose3%dH2O.NegLispCup.LampEnergy10.LIBS07252019_HRD10591_16-42-06-333.txt Node
Date: Thu Jul 25 16:42:06 EDT 2019
User: cochatt
Spectrometer: HR+D1059
Trigger mode: 1
Integration Time (sec): 1.000000E-1
Scans to average: 1
Electric dark correction enabled: true
Nonlinearity correction enabled: false
Boxcar width: 0
XAxis mode: Wavelengths
Number of Pixels in Spectrum: 2048
>>>>>Begin Spectral Data<<<<<
223.165	-24.19
223.4	-24.19
223.635	-24.19
223.869	-18.19
224.104	-9.19
224.338	-17.19
224.573	-10.19
224.808	-10.19
225.042	-7.19
225.277	-1.19
225.511	-0.19
225.746	1.81
225.98	15.81
226.215	4.81
226.449	9.81
226.683	21.81
226.918	13.81
227.152	29.81
227.387	38.81
227.621	38.81
227.856	53.81
228.09	50.81
228.324	41.81
228.559	61.81
228.793	61.81
229.027	64.81
229.262	87.81
229.496	77.81
229.73	83.81
229.964	62.81
230.199	72.81
230.433	79.81
230.667	86.81
230.901	87.81
231.136	75.81
231.37	82.81
231.604	88.81
231.838	89.81
232.072	74.81
232.306	82.81
232.541	85.81
232.775	79.81
233.009	87.81
233.243	88.81
233.477	88.81
233.711	95.81
233.945	87.81
234.179	83.81
234.413	91.81
234.647	76.81
234.881	77.81
235.115	92.81
235.349	87.81
235.583	77.81
235.817	81.81
236.051	73.81
236.285	93.81
236.519	79.81
236.753	76.81
236.987	85.81
237.221	83.81
237.455	84.81
237.689	86.81
237.922	80.81
238.156	91.81
238.39	92.81
238.624	83.81
238.858	86.81
239.091	84.81
239.325	90.81
239.559	97.81
239.793	87.81
240.027	81.81
240.26	87.81
240.494	82.81
240.728	88.81
240.961	93.81
241.195	88.81
241.429	76.81
241.662	86.81
241.896	93.81
242.13	75.81
242.363	101.81
242.597	89.81
242.83	76.81
243.064	94.81
243.298	92.81
243.531	85.81
243.765	93.81
243.998	113.81
244.232	94.81
244.465	93.81
244.699	90.81
244.932	94.81
245.166	89.81
245.399	105.81
245.633	89.81
245.866	92.81
246.099	80.81
246.333	94.81
246.566	92.81
246.8	91.81
247.033	98.81
247.266	99.81
247.5	93.81
247.733	96.81
247.966	97.81
248.2	86.81
248.433	103.81
248.666	100.81
248.899	92.81
249.133	92.81
249.366	104.81
249.599	100.81
249.832	89.81
250.066	93.81
250.299	98.81
250.532	107.81
250.765	88.81
250.998	96.81
251.231	103.81
251.465	94.81
251.698	98.81
251.931	98.81
252.164	91.81
252.397	95.81
252.63	91.81
252.863	102.81
253.096	91.81
253.329	107.81
253.562	83.81
253.795	118.81
254.028	95.81
254.261	113.81
254.494	103.81
254.727	99.81
254.96	101.81
255.193	101.81
255.426	87.81
255.659	87.81
255.892	101.81
256.124	108.81
256.357	112.81
256.59	104.81
256.823	104.81
257.056	102.81
257.289	113.81
257.521	101.81
257.754	93.81
257.987	102.81
258.22	103.81
258.452	104.81
258.685	87.81
258.918	95.81
259.151	100.81
259.383	94.81
259.616	107.81
259.849	113.81
260.081	108.81
260.314	110.81
260.547	89.81
260.779	119.81
261.012	98.81
261.244	121.81
261.477	107.81
261.71	113.81
261.942	96.81
262.175	107.81
262.407	119.81
262.64	118.81
262.872	107.81
263.105	105.81
263.337	104.81
263.57	104.81
263.802	110.81
264.035	103.81
264.267	103.81
264.499	96.81
264.732	97.81
264.964	121.81
265.197	107.81
265.429	113.81
265.661	126.81
265.894	115.81
266.126	121.81
266.358	114.81
266.591	105.81
266.823	110.81
267.055	110.81
267.287	108.81
267.52	113.81
267.752	122.81
267.984	113.81
268.216	115.81
268.448	120.81
268.681	123.81
268.913	111.81
269.145	105.81
269.377	125.81
269.609	113.81
269.841	116.81
270.073	114.81
270.306	119.81
270.538	109.81
270.77	114.81
271.002	93.81
271.234	107.81
271.466	122.81
271.698	117.81
271.93	129.81
272.162	115.81
272.394	131.81
272.626	131.81
272.858	118.81
273.09	104.81
273.322	118.81
273.553	120.81
273.785	122.81
274.017	109.81
274.249	118.81
274.481	129.81
274.713	136.81
274.945	123.81
275.176	106.81
275.408	121.81
275.64	123.81
275.872	124.81
276.104	122.81
276.335	122.81
276.567	116.81
276.799	123.81
277.031	118.81
277.262	109.81
277.494	117.81
277.726	119.81
277.957	116.81
278.189	118.81
278.421	126.81
278.652	126.81
278.884	129.81
279.115	113.81
279.347	132.81
279.579	138.81
279.81	116.81
280.042	138.81
280.273	130.81
280.505	129.81
280.736	122.81
280.968	122.81
281.199	128.81
281.431	127.81
281.662	131.81
281.894	132.81
282.125	141.81
282.356	137.81
282.588	129.81
282.819	130.81
283.051	124.81
283.282	125.81
283.513	117.81
283.745	130.81
283.976	128.81
284.207	132.81
284.439	138.81
284.67	147.81
284.901	120.81
285.132	150.81
285.364	132.81
285.595	120.81
285.826	128.81
286.057	135.81
286.288	126.81
286.52	124.81
286.751	143.81
286.982	119.81
287.213	129.81
287.444	128.81
287.675	134.81
287.906	122.81
288.138	133.81
288.369	144.81
288.6	133.81
288.831	153.81
289.062	144.81
289.293	139.81
289.524	131.81
289.755	119.81
289.986	150.81
290.217	147.81
290.448	141.81
290.679	132.81
290.91	142.81
291.141	135.81
291.371	130.81
291.602	122.81
291.833	148.81
292.064	122.81
292.295	136.81
292.526	141.81
292.757	128.81
292.987	132.81
293.218	152.81
293.449	125.81
293.68	142.81
293.91	149.81
294.141	120.81
294.372	147.81
294.603	133.81
294.833	146.81
295.064	139.81
295.295	153.81
295.525	132.81
295.756	149.81
295.987	143.81
296.217	141.81
296.448	148.81
296.679	151.81
296.909	159.81
297.14	147.81
297.37	150.81
297.601	142.81
297.831	145.81
298.062	133.81
298.292	135.81
298.523	150.81
298.753	138.81
298.984	125.81
299.214	131.81
299.445	129.81
299.675	133.81
299.905	140.81
300.136	140.81
300.366	147.81
300.597	157.81
300.827	159.81
301.057	155.81
301.288	166.81
301.518	151.81
301.748	153.81
301.979	163.81
302.209	156.81
302.439	162.81
302.669	157.81
302.9	154.81
303.13	142.81
303.36	159.81
303.59	138.81
303.82	158.81
304.051	150.81
304.281	149.81
304.511	139.81
304.741	156.81
304.971	164.81
305.201	163.81
305.431	149.81
305.661	157.81
305.891	146.81
306.121	140.81
306.352	153.81
306.582	154.81
306.812	156.81
307.042	149.81
307.272	135.81
307.502	147.81
307.731	156.81
307.961	155.81
308.191	149.81
308.421	163.81
308.651	149.81
308.881	149.81
309.111	156.81
309.341	158.81
309.571	149.81
309.8	162.81
310.03	150.81
310.26	167.81
310.49	144.81
310.72	155.81
310.949	159.81
311.179	151.81
311.409	161.81
311.639	154.81
311.868	152.81
312.098	154.81
312.328	170.81
312.557	170.81
312.787	178.81
313.017	172.81
313.246	137.81
313.476	143.81
313.706	167.81
313.935	161.81
314.165	163.81
314.394	162.81
314.624	153.81
314.853	179.81
315.083	157.81
315.312	178.81
315.542	167.81
315.771	158.81
316.001	146.81
316.23	164.81
316.46	164.81
316.689	163.81
316.919	157.81
317.148	156.81
317.377	165.81
317.607	171.81
317.836	150.81
318.065	168.81
318.295	165.81
318.524	157.81
318.753	157.81
318.983	158.81
319.212	151.81
319.441	147.81
319.67	146.81
319.9	151.81
320.129	140.81
320.358	150.81
320.587	171.81
320.816	148.81
321.046	155.81
321.275	154.81
321.504	167.81
321.733	174.81
321.962	145.81
322.191	165.81
322.42	169.81
322.649	156.81
322.878	142.81
323.108	171.81
323.337	159.81
323.566	164.81
323.795	183.81
324.024	166.81
324.253	170.81
324.482	153.81
324.71	163.81
324.939	168.81
325.168	179.81
325.397	169.81
325.626	172.81
325.855	193.81
326.084	168.81
326.313	167.81
326.542	177.81
326.77	160.81
326.999	181.81
327.228	165.81
327.457	169.81
327.686	173.81
327.914	183.81
328.143	168.81
328.372	158.81
328.6	163.81
328.829	171.81
329.058	163.81
329.287	190.81
329.515	169.81
329.744	181.81
329.972	165.81
330.201	174.81
330.43	177.81
330.658	167.81
330.887	163.81
331.115	179.81
331.344	185.81
331.572	169.81
331.801	183.81
332.03	183.81
332.258	178.81
332.486	180.81
332.715	190.81
332.943	198.81
333.172	204.81
333.4	210.81
333.629	203.81
333.857	218.81
334.085	216.81
334.314	210.81
334.542	211.81
334.771	206.81
334.999	193.81
335.227	195.81
335.455	183.81
335.684	196.81
335.912	191.81
336.14	187.81
336.369	193.81
336.597	191.81
336.825	197.81
337.053	197.81
337.281	183.81
337.51	187.81
337.738	182.81
337.966	190.81
338.194	177.81
338.422	181.81
338.65	177.81
338.878	176.81
339.106	192.81
339.334	197.81
339.562	177.81
339.79	189.81
340.018	184.81
340.246	175.81
340.474	178.81
340.702	175.81
340.93	166.81
341.158	180.81
341.386	183.81
341.614	196.81
341.842	180.81
342.07	189.81
342.298	161.81
342.526	177.81
342.754	186.81
342.981	172.81
343.209	198.81
343.437	184.81
343.665	202.81
343.893	159.81
344.12	213.81
344.348	193.81
344.576	188.81
344.804	190.81
345.031	188.81
345.259	171.81
345.487	187.81
345.714	175.81
345.942	174.81
346.17	178.81
346.397	195.81
346.625	184.81
346.853	180.81
347.08	189.81
347.308	187.81
347.535	164.81
347.763	179.81
347.99	163.81
348.218	179.81
348.445	180.81
348.673	180.81
348.9	195.81
349.128	189.81
349.355	184.81
349.583	187.81
349.81	178.81
350.037	182.81
350.265	189.81
350.492	176.81
350.72	176.81
350.947	171.81
351.174	171.81
351.402	183.81
351.629	180.81
351.856	175.81
352.083	171.81
352.311	178.81
352.538	157.81
352.765	182.81
352.992	157.81
353.22	174.81
353.447	170.81
353.674	162.81
353.901	180.81
354.128	177.81
354.355	171.81
354.583	191.81
354.81	171.81
355.037	174.81
355.264	182.81
355.491	179.81
355.718	163.81
355.945	182.81
356.172	188.81
356.399	167.81
356.626	168.81
356.853	183.81
357.08	159.81
357.307	164.81
357.534	188.81
357.761	175.81
357.988	179.81
358.215	174.81
358.441	186.81
358.668	183.81
358.895	173.81
359.122	179.81
359.349	162.81
359.576	169.81
359.802	180.81
360.029	184.81
360.256	183.81
360.483	179.81
360.709	196.81
360.936	198.81
361.163	186.81
361.39	170.81
361.616	185.81
361.843	184.81
362.07	197.81
362.296	189.81
362.523	181.81
362.749	185.81
362.976	179.81
363.203	186.81
363.429	177.81
363.656	173.81
363.882	197.81
364.109	181.81
364.335	178.81
364.562	186.81
364.788	182.81
365.015	184.81
365.241	169.81
365.468	189.81
365.694	173.81
365.92	182.81
366.147	186.81
366.373	191.81
366.599	197.81
366.826	185.81
367.052	175.81
367.278	187.81
367.505	177.81
367.731	200.81
367.957	183.81
368.184	184.81
368.41	182.81
368.636	197.81
368.862	185.81
369.089	186.81
369.315	192.81
369.541	186.81
369.767	199.81
369.993	193.81
370.219	172.81
370.445	198.81
370.672	182.81
370.898	197.81
371.124	195.81
371.35	191.81
371.576	187.81
371.802	206.81
372.028	203.81
372.254	200.81
372.48	193.81
372.706	189.81
372.932	200.81
373.158	189.81
373.384	199.81
373.61	201.81
373.835	197.81
374.061	177.81
374.287	202.81
374.513	205.81
374.739	186.81
374.965	209.81
375.191	211.81
375.416	210.81
375.642	197.81
375.868	181.81
376.094	203.81
376.319	209.81
376.545	183.81
376.771	205.81
376.997	196.81
377.222	206.81
377.448	193.81
377.674	206.81
377.899	199.81
378.125	185.81
378.35	193.81
378.576	193.81
378.802	181.81
379.027	191.81
379.253	194.81
379.478	191.81
379.704	183.81
379.929	202.81
380.155	187.81
380.38	187.81
380.606	191.81
380.831	197.81
381.057	197.81
381.282	207.81
381.507	222.81
381.733	204.81
381.958	202.81
382.184	203.81
382.409	196.81
382.634	218.81
382.86	201.81
383.085	183.81
383.31	213.81
383.535	215.81
383.761	219.81
383.986	212.81
384.211	224.81
384.436	207.81
384.662	224.81
384.887	229.81
385.112	213.81
385.337	226.81
385.562	226.81
385.787	222.81
386.013	229.81
386.238	234.81
386.463	207.81
386.688	222.81
386.913	237.81
387.138	217.81
387.363	206.81
387.588	215.81
387.813	217.81
388.038	220.81
388.263	236.81
388.488	212.81
388.713	219.81
388.938	214.81
389.163	211.81
389.387	213.81
389.612	217.81
389.837	220.81
390.062	223.81
390.287	236.81
390.512	226.81
390.736	224.81
390.961	228.81
391.186	221.81
391.411	210.81
391.636	222.81
391.86	229.81
392.085	250.81
392.31	238.81
392.534	234.81
392.759	230.81
392.984	214.81
393.208	232.81
393.433	234.81
393.658	242.81
393.882	220.81
394.107	241.81
394.331	231.81
394.556	243.81
394.78	234.81
395.005	252.81
395.229	227.81
395.454	243.81
395.678	230.81
395.903	239.81
396.127	237.81
396.352	247.81
396.576	223.81
396.801	231.81
397.025	244.81
397.249	238.81
397.474	262.81
397.698	246.81
397.922	231.81
398.147	231.81
398.371	245.81
398.595	241.81
398.82	258.81
399.044	274.81
399.268	289.81
399.492	341.81
399.717	362.81
399.941	346.81
400.165	307.81
400.389	263.81
400.613	283.81
400.837	257.81
401.062	252.81
401.286	268.81
401.51	249.81
401.734	274.81
401.958	265.81
402.182	269.81
402.406	258.81
402.63	271.81
402.854	269.81
403.078	295.81
403.302	282.81
403.526	278.81
403.75	286.81
403.974	295.81
404.198	280.81
404.422	292.81
404.645	297.81
404.869	271.81
405.093	292.81
405.317	283.81
405.541	286.81
405.765	278.81
405.988	274.81
406.212	271.81
406.436	289.81
406.66	300.81
406.883	301.81
407.107	313.81
407.331	310.81
407.555	298.81
407.778	314.81
408.002	299.81
408.226	289.81
408.449	293.81
408.673	290.81
408.896	289.81
409.12	274.81
409.344	315.81
409.567	279.81
409.791	275.81
410.014	280.81
410.238	286.81
410.461	281.81
410.685	283.81
410.908	255.81
411.132	272.81
411.355	269.81
411.578	256.81
411.802	285.81
412.025	281.81
412.249	277.81
412.472	270.81
412.695	276.81
412.919	285.81
413.142	270.81
413.365	289.81
413.589	253.81
413.812	270.81
414.035	255.81
414.258	262.81
414.482	255.81
414.705	266.81
414.928	279.81
415.151	266.81
415.374	285.81
415.597	268.81
415.821	288.81
416.044	257.81
416.267	281.81
416.49	250.81
416.713	262.81
416.936	257.81
417.159	275.81
417.382	267.81
417.605	266.81
417.828	259.81
418.051	279.81
418.274	272.81
418.497	265.81
418.72	277.81
418.943	268.81
419.166	296.81
419.389	304.81
419.611	287.81
419.834	270.81
420.057	261.81
420.28	283.81
420.503	272.81
420.726	283.81
420.948	270.81
421.171	267.81
421.394	248.81
421.617	288.81
421.839	269.81
422.062	289.81
422.285	265.81
422.507	294.81
422.73	280.81
422.953	274.81
423.175	276.81
423.398	278.81
423.621	284.81
423.843	266.81
424.066	283.81
424.288	291.81
424.511	281.81
424.733	272.81
424.956	287.81
425.178	273.81
425.401	261.81
425.623	281.81
425.846	259.81
426.068	260.81
426.291	257.81
426.513	262.81
426.735	262.81
426.958	260.81
427.18	258.81
427.402	268.81
427.625	258.81
427.847	255.81
428.069	263.81
428.292	260.81
428.514	251.81
428.736	248.81
428.958	258.81
429.181	238.81
429.403	238.81
429.625	261.81
429.847	267.81
430.069	247.81
430.292	263.81
430.514	246.81
430.736	251.81
430.958	246.81
431.18	260.81
431.402	235.81
431.624	251.81
431.846	251.81
432.068	254.81
432.29	251.81
432.512	247.81
432.734	244.81
432.956	266.81
433.178	263.81
433.4	259.81
433.622	262.81
433.844	257.81
434.066	271.81
434.287	260.81
434.509	245.81
434.731	260.81
434.953	287.81
435.175	276.81
435.397	243.81
435.618	276.81
435.84	243.81
436.062	258.81
436.284	248.81
436.505	244.81
436.727	260.81
436.949	262.81
437.17	272.81
437.392	247.81
437.614	263.81
437.835	260.81
438.057	258.81
438.278	262.81
438.5	275.81
438.721	268.81
438.943	261.81
439.165	255.81
439.386	261.81
439.608	267.81
439.829	270.81
440.05	265.81
440.272	281.81
440.493	278.81
440.715	275.81
440.936	286.81
441.158	281.81
441.379	269.81
441.6	277.81
441.822	294.81
442.043	287.81
442.264	306.81
442.486	303.81
442.707	297.81
442.928	285.81
443.149	286.81
443.371	280.81
443.592	311.81
443.813	277.81
444.034	286.81
444.255	325.81
444.476	326.81
444.698	320.81
444.919	322.81
445.14	388.81
445.361	328.81
445.582	286.81
445.803	272.81
446.024	282.81
446.245	297.81
446.466	289.81
446.687	277.81
446.908	260.81
447.129	267.81
447.35	271.81
447.571	259.81
447.792	281.81
448.013	248.81
448.234	268.81
448.455	261.81
448.675	261.81
448.896	247.81
449.117	262.81
449.338	252.81
449.559	239.81
449.779	248.81
450	254.81
450.221	260.81
450.442	241.81
450.662	233.81
450.883	258.81
451.104	254.81
451.324	269.81
451.545	238.81
451.766	249.81
451.986	260.81
452.207	230.81
452.428	239.81
452.648	258.81
452.869	236.81
453.089	252.81
453.31	237.81
453.53	236.81
453.751	230.81
453.971	218.81
454.192	236.81
454.412	227.81
454.633	233.81
454.853	243.81
455.073	229.81
455.294	241.81
455.514	219.81
455.734	234.81
455.955	244.81
456.175	226.81
456.395	225.81
456.616	250.81
456.836	245.81
457.056	247.81
457.276	242.81
457.497	235.81
457.717	222.81
457.937	243.81
458.157	238.81
458.377	236.81
458.598	244.81
458.818	251.81
459.038	235.81
459.258	250.81
459.478	257.81
459.698	261.81
459.918	262.81
460.138	270.81
460.358	281.81
460.578	305.81
460.798	285.81
461.018	282.81
461.238	292.81
461.458	280.81
461.678	301.81
461.898	317.81
462.118	297.81
462.338	294.81
462.558	312.81
462.777	317.81
462.997	313.81
463.217	356.81
463.437	358.81
463.657	322.81
463.876	325.81
464.096	328.81
464.316	301.81
464.536	337.81
464.755	317.81
464.975	303.81
465.195	282.81
465.414	283.81
465.634	279.81
465.854	279.81
466.073	279.81
466.293	263.81
466.512	265.81
466.732	261.81
466.951	265.81
467.171	265.81
467.391	264.81
467.61	243.81
467.829	257.81
468.049	267.81
468.268	252.81
468.488	263.81
468.707	259.81
468.927	258.81
469.146	268.81
469.365	246.81
469.585	246.81
469.804	258.81
470.023	284.81
470.243	268.81
470.462	261.81
470.681	258.81
470.901	253.81
471.12	246.81
471.339	262.81
471.558	249.81
471.777	247.81
471.997	241.81
472.216	246.81
472.435	243.81
472.654	249.81
472.873	233.81
473.092	244.81
473.311	236.81
473.53	234.81
473.749	260.81
473.968	246.81
474.187	245.81
474.406	252.81
474.625	238.81
474.844	257.81
475.063	245.81
475.282	228.81
475.501	243.81
475.72	253.81
475.939	234.81
476.158	245.81
476.377	255.81
476.596	234.81
476.814	245.81
477.033	245.81
477.252	238.81
477.471	248.81
477.69	275.81
477.908	284.81
478.127	263.81
478.346	274.81
478.564	290.81
478.783	279.81
479.002	283.81
479.22	278.81
479.439	291.81
479.658	282.81
479.876	296.81
480.095	280.81
480.313	297.81
480.532	281.81
480.751	282.81
480.969	271.81
481.188	278.81
481.406	292.81
481.624	272.81
481.843	256.81
482.061	253.81
482.28	269.81
482.498	271.81
482.717	264.81
482.935	268.81
483.153	261.81
483.372	264.81
483.59	269.81
483.808	249.81
484.027	267.81
484.245	283.81
484.463	261.81
484.681	267.81
484.9	280.81
485.118	282.81
485.336	267.81
485.554	265.81
485.772	269.81
485.99	272.81
486.209	264.81
486.427	271.81
486.645	267.81
486.863	294.81
487.081	283.81
487.299	268.81
487.517	285.81
487.735	293.81
487.953	277.81
488.171	268.81
488.389	277.81
488.607	271.81
488.825	268.81
489.043	273.81
489.261	280.81
489.479	280.81
489.696	278.81
489.914	284.81
490.132	291.81
490.35	278.81
490.568	287.81
490.786	293.81
491.003	285.81
491.221	279.81
491.439	281.81
491.657	295.81
491.874	272.81
492.092	300.81
492.31	297.81
492.527	289.81
492.745	314.81
492.963	296.81
493.18	298.81
493.398	297.81
493.615	294.81
493.833	309.81
494.05	290.81
494.268	285.81
494.485	287.81
494.703	296.81
494.92	305.81
495.138	286.81
495.355	294.81
495.573	277.81
495.79	279.81
496.008	318.81
496.225	298.81
496.442	287.81
496.66	309.81
496.877	302.81
497.094	307.81
497.312	308.81
497.529	307.81
497.746	317.81
497.963	328.81
498.181	334.81
498.398	351.81
498.615	349.81
498.832	387.81
499.049	393.81
499.267	426.81
499.484	454.81
499.701	494.81
499.918	524.81
500.135	579.81
500.352	614.81
500.569	649.81
500.786	633.81
501.003	596.81
501.22	522.81
501.437	475.81
501.654	452.81
501.871	417.81
502.088	388.81
502.305	364.81
502.522	357.81
502.739	360.81
502.956	335.81
503.172	335.81
