Data from Fe(NO3)3@0.025M.TitratingCurve.Agarose3%dH2O.NegLispCup.LampEnergy10.LIBS07252019_HRD10591_16-54-09-335.txt Node
Date: Thu Jul 25 16:54:09 EDT 2019
User: cochatt
Spectrometer: HR+D1059
Trigger mode: 1
Integration Time (sec): 1.000000E-1
Scans to average: 1
Electric dark correction enabled: true
Nonlinearity correction enabled: false
Boxcar width: 0
XAxis mode: Wavelengths
Number of Pixels in Spectrum: 2048
>>>>>Begin Spectral Data<<<<<
223.165	-26.69
223.4	-26.69
223.635	-26.69
223.869	-12.69
224.104	-20.69
224.338	-26.69
224.573	-3.69
224.808	-9.69
225.042	3.31
225.277	-14.69
225.511	6.31
225.746	9.31
225.98	4.31
226.215	8.31
226.449	14.31
226.683	22.31
226.918	18.31
227.152	28.31
227.387	35.31
227.621	49.31
227.856	52.31
228.09	52.31
228.324	52.31
228.559	56.31
228.793	58.31
229.027	68.31
229.262	87.31
229.496	96.31
229.73	81.31
229.964	98.31
230.199	107.31
230.433	93.31
230.667	97.31
230.901	101.31
231.136	102.31
231.37	104.31
231.604	106.31
231.838	110.31
232.072	111.31
232.306	116.31
232.541	107.31
232.775	113.31
233.009	107.31
233.243	116.31
233.477	111.31
233.711	113.31
233.945	103.31
234.179	115.31
234.413	124.31
234.647	111.31
234.881	114.31
235.115	125.31
235.349	117.31
235.583	131.31
235.817	104.31
236.051	117.31
236.285	119.31
236.519	124.31
236.753	117.31
236.987	123.31
237.221	130.31
237.455	128.31
237.689	126.31
237.922	112.31
238.156	123.31
238.39	119.31
238.624	126.31
238.858	122.31
239.091	139.31
239.325	127.31
239.559	113.31
239.793	127.31
240.027	131.31
240.26	131.31
240.494	116.31
240.728	139.31
240.961	124.31
241.195	126.31
241.429	123.31
241.662	121.31
241.896	130.31
242.13	133.31
242.363	128.31
242.597	116.31
242.83	130.31
243.064	139.31
243.298	135.31
243.531	149.31
243.765	137.31
243.998	142.31
244.232	128.31
244.465	124.31
244.699	149.31
244.932	135.31
245.166	140.31
245.399	151.31
245.633	131.31
245.866	142.31
246.099	131.31
246.333	147.31
246.566	136.31
246.8	143.31
247.033	149.31
247.266	145.31
247.5	136.31
247.733	144.31
247.966	143.31
248.2	152.31
248.433	133.31
248.666	149.31
248.899	149.31
249.133	157.31
249.366	152.31
249.599	149.31
249.832	159.31
250.066	171.31
250.299	152.31
250.532	157.31
250.765	144.31
250.998	139.31
251.231	141.31
251.465	159.31
251.698	153.31
251.931	156.31
252.164	180.31
252.397	169.31
252.63	158.31
252.863	168.31
253.096	165.31
253.329	165.31
253.562	163.31
253.795	182.31
254.028	183.31
254.261	172.31
254.494	167.31
254.727	174.31
254.96	168.31
255.193	174.31
255.426	155.31
255.659	165.31
255.892	181.31
256.124	161.31
256.357	183.31
256.59	185.31
256.823	171.31
257.056	165.31
257.289	161.31
257.521	172.31
257.754	177.31
257.987	171.31
258.22	173.31
258.452	168.31
258.685	186.31
258.918	188.31
259.151	177.31
259.383	179.31
259.616	185.31
259.849	179.31
260.081	199.31
260.314	189.31
260.547	188.31
260.779	183.31
261.012	191.31
261.244	184.31
261.477	195.31
261.71	177.31
261.942	204.31
262.175	190.31
262.407	194.31
262.64	183.31
262.872	195.31
263.105	191.31
263.337	214.31
263.57	195.31
263.802	217.31
264.035	196.31
264.267	192.31
264.499	193.31
264.732	178.31
264.964	187.31
265.197	198.31
265.429	193.31
265.661	210.31
265.894	191.31
266.126	214.31
266.358	187.31
266.591	197.31
266.823	177.31
267.055	202.31
267.287	199.31
267.52	196.31
267.752	195.31
267.984	199.31
268.216	192.31
268.448	186.31
268.681	195.31
268.913	212.31
269.145	203.31
269.377	200.31
269.609	204.31
269.841	222.31
270.073	199.31
270.306	204.31
270.538	218.31
270.77	199.31
271.002	197.31
271.234	219.31
271.466	207.31
271.698	201.31
271.93	225.31
272.162	233.31
272.394	209.31
272.626	213.31
272.858	209.31
273.09	217.31
273.322	218.31
273.553	222.31
273.785	217.31
274.017	222.31
274.249	241.31
274.481	217.31
274.713	235.31
274.945	250.31
275.176	238.31
275.408	249.31
275.64	240.31
275.872	248.31
276.104	227.31
276.335	238.31
276.567	260.31
276.799	227.31
277.031	237.31
277.262	237.31
277.494	242.31
277.726	249.31
277.957	236.31
278.189	225.31
278.421	247.31
278.652	239.31
278.884	233.31
279.115	253.31
279.347	228.31
279.579	240.31
279.81	239.31
280.042	248.31
280.273	241.31
280.505	243.31
280.736	243.31
280.968	249.31
281.199	252.31
281.431	226.31
281.662	247.31
281.894	245.31
282.125	226.31
282.356	241.31
282.588	253.31
282.819	247.31
283.051	250.31
283.282	254.31
283.513	245.31
283.745	256.31
283.976	258.31
284.207	271.31
284.439	263.31
284.67	258.31
284.901	250.31
285.132	239.31
285.364	241.31
285.595	256.31
285.826	255.31
286.057	254.31
286.288	250.31
286.52	255.31
286.751	261.31
286.982	257.31
287.213	279.31
287.444	272.31
287.675	265.31
287.906	267.31
288.138	265.31
288.369	270.31
288.6	283.31
288.831	268.31
289.062	249.31
289.293	258.31
289.524	271.31
289.755	270.31
289.986	268.31
290.217	287.31
290.448	269.31
290.679	263.31
290.91	276.31
291.141	275.31
291.371	266.31
291.602	257.31
291.833	267.31
292.064	263.31
292.295	261.31
292.526	288.31
292.757	284.31
292.987	283.31
293.218	275.31
293.449	281.31
293.68	277.31
293.91	272.31
294.141	285.31
294.372	279.31
294.603	289.31
294.833	272.31
295.064	271.31
295.295	272.31
295.525	269.31
295.756	293.31
295.987	286.31
296.217	296.31
296.448	272.31
296.679	284.31
296.909	277.31
297.14	267.31
297.37	296.31
297.601	285.31
297.831	307.31
298.062	301.31
298.292	298.31
298.523	313.31
298.753	301.31
298.984	286.31
299.214	293.31
299.445	291.31
299.675	294.31
299.905	299.31
300.136	287.31
300.366	288.31
300.597	305.31
300.827	295.31
301.057	308.31
301.288	293.31
301.518	291.31
301.748	305.31
301.979	319.31
302.209	313.31
302.439	332.31
302.669	303.31
302.9	298.31
303.13	316.31
303.36	310.31
303.59	292.31
303.82	319.31
304.051	313.31
304.281	294.31
304.511	331.31
304.741	312.31
304.971	316.31
305.201	319.31
305.431	316.31
305.661	316.31
305.891	306.31
306.121	307.31
306.352	312.31
306.582	319.31
306.812	305.31
307.042	315.31
307.272	309.31
307.502	303.31
307.731	310.31
307.961	313.31
308.191	308.31
308.421	314.31
308.651	307.31
308.881	321.31
309.111	312.31
309.341	311.31
309.571	317.31
309.8	312.31
310.03	327.31
310.26	307.31
310.49	328.31
310.72	332.31
310.949	311.31
311.179	315.31
311.409	339.31
311.639	314.31
311.868	316.31
312.098	318.31
312.328	342.31
312.557	332.31
312.787	338.31
313.017	332.31
313.246	332.31
313.476	329.31
313.706	339.31
313.935	340.31
314.165	343.31
314.394	335.31
314.624	339.31
314.853	321.31
315.083	335.31
315.312	335.31
315.542	358.31
315.771	344.31
316.001	342.31
316.23	336.31
316.46	353.31
316.689	337.31
316.919	351.31
317.148	343.31
317.377	343.31
317.607	328.31
317.836	329.31
318.065	335.31
318.295	374.31
318.524	355.31
318.753	337.31
318.983	329.31
319.212	326.31
319.441	325.31
319.67	338.31
319.9	349.31
320.129	355.31
320.358	347.31
320.587	350.31
320.816	332.31
321.046	336.31
321.275	330.31
321.504	325.31
321.733	319.31
321.962	329.31
322.191	350.31
322.42	351.31
322.649	353.31
322.878	366.31
323.108	345.31
323.337	321.31
323.566	341.31
323.795	357.31
324.024	339.31
324.253	361.31
324.482	346.31
324.71	333.31
324.939	351.31
325.168	339.31
325.397	347.31
325.626	349.31
325.855	367.31
326.084	368.31
326.313	368.31
326.542	367.31
326.77	362.31
326.999	377.31
327.228	345.31
327.457	366.31
327.686	377.31
327.914	381.31
328.143	371.31
328.372	359.31
328.6	357.31
328.829	363.31
329.058	380.31
329.287	373.31
329.515	390.31
329.744	380.31
329.972	375.31
330.201	376.31
330.43	390.31
330.658	387.31
330.887	375.31
331.115	366.31
331.344	383.31
331.572	391.31
331.801	384.31
332.03	396.31
332.258	408.31
332.486	401.31
332.715	415.31
332.943	421.31
333.172	404.31
333.4	406.31
333.629	414.31
333.857	417.31
334.085	438.31
334.314	408.31
334.542	433.31
334.771	453.31
334.999	413.31
335.227	437.31
335.455	443.31
335.684	431.31
335.912	443.31
336.14	424.31
336.369	402.31
336.597	402.31
336.825	428.31
337.053	432.31
337.281	427.31
337.51	416.31
337.738	407.31
337.966	408.31
338.194	390.31
338.422	426.31
338.65	416.31
338.878	389.31
339.106	405.31
339.334	413.31
339.562	386.31
339.79	394.31
340.018	396.31
340.246	384.31
340.474	399.31
340.702	413.31
340.93	388.31
341.158	393.31
341.386	392.31
341.614	408.31
341.842	385.31
342.07	406.31
342.298	397.31
342.526	389.31
342.754	409.31
342.981	399.31
343.209	385.31
343.437	411.31
343.665	433.31
343.893	443.31
344.12	442.31
344.348	415.31
344.576	422.31
344.804	417.31
345.031	389.31
345.259	407.31
345.487	392.31
345.714	398.31
345.942	383.31
346.17	397.31
346.397	389.31
346.625	382.31
346.853	395.31
347.08	371.31
347.308	380.31
347.535	389.31
347.763	386.31
347.99	393.31
348.218	377.31
348.445	369.31
348.673	383.31
348.9	358.31
349.128	373.31
349.355	380.31
349.583	365.31
349.81	366.31
350.037	362.31
350.265	373.31
350.492	366.31
350.72	367.31
350.947	376.31
351.174	363.31
351.402	360.31
351.629	368.31
351.856	356.31
352.083	364.31
352.311	361.31
352.538	356.31
352.765	364.31
352.992	356.31
353.22	381.31
353.447	368.31
353.674	379.31
353.901	371.31
354.128	360.31
354.355	368.31
354.583	356.31
354.81	383.31
355.037	365.31
355.264	371.31
355.491	393.31
355.718	377.31
355.945	383.31
356.172	356.31
356.399	381.31
356.626	389.31
356.853	367.31
357.08	367.31
357.307	385.31
357.534	356.31
357.761	373.31
357.988	382.31
358.215	371.31
358.441	380.31
358.668	360.31
358.895	370.31
359.122	365.31
359.349	385.31
359.576	387.31
359.802	383.31
360.029	390.31
360.256	361.31
360.483	369.31
360.709	373.31
360.936	371.31
361.163	369.31
361.39	375.31
361.616	368.31
361.843	355.31
362.07	383.31
362.296	390.31
362.523	373.31
362.749	393.31
362.976	373.31
363.203	371.31
363.429	384.31
363.656	387.31
363.882	380.31
364.109	387.31
364.335	368.31
364.562	378.31
364.788	371.31
365.015	403.31
365.241	389.31
365.468	380.31
365.694	373.31
365.92	383.31
366.147	359.31
366.373	387.31
366.599	368.31
366.826	355.31
367.052	369.31
367.278	367.31
367.505	368.31
367.731	385.31
367.957	375.31
368.184	389.31
368.41	383.31
368.636	409.31
368.862	392.31
369.089	388.31
369.315	369.31
369.541	393.31
369.767	383.31
369.993	403.31
370.219	382.31
370.445	396.31
370.672	400.31
370.898	384.31
371.124	394.31
371.35	400.31
371.576	395.31
371.802	374.31
372.028	404.31
372.254	407.31
372.48	408.31
372.706	411.31
372.932	417.31
373.158	417.31
373.384	431.31
373.61	433.31
373.835	409.31
374.061	419.31
374.287	422.31
374.513	422.31
374.739	447.31
374.965	440.31
375.191	413.31
375.416	419.31
375.642	428.31
375.868	416.31
376.094	410.31
376.319	408.31
376.545	420.31
376.771	402.31
376.997	422.31
377.222	399.31
377.448	407.31
377.674	416.31
377.899	403.31
378.125	395.31
378.35	417.31
378.576	397.31
378.802	407.31
379.027	397.31
379.253	412.31
379.478	407.31
379.704	405.31
379.929	422.31
380.155	411.31
380.38	409.31
380.606	435.31
380.831	419.31
381.057	396.31
381.282	415.31
381.507	408.31
381.733	428.31
381.958	428.31
382.184	430.31
382.409	407.31
382.634	447.31
382.86	425.31
383.085	432.31
383.31	436.31
383.535	437.31
383.761	438.31
383.986	445.31
384.211	436.31
384.436	429.31
384.662	449.31
384.887	460.31
385.112	460.31
385.337	459.31
385.562	477.31
385.787	439.31
386.013	476.31
386.238	483.31
386.463	467.31
386.688	484.31
386.913	468.31
387.138	465.31
387.363	471.31
387.588	472.31
387.813	470.31
388.038	459.31
388.263	497.31
388.488	490.31
388.713	487.31
388.938	472.31
389.163	460.31
389.387	452.31
389.612	454.31
389.837	455.31
390.062	475.31
390.287	483.31
390.512	483.31
390.736	500.31
390.961	481.31
391.186	477.31
391.411	503.31
391.636	494.31
391.86	505.31
392.085	499.31
392.31	503.31
392.534	509.31
392.759	480.31
392.984	501.31
393.208	495.31
393.433	511.31
393.658	484.31
393.882	505.31
394.107	495.31
394.331	491.31
394.556	491.31
394.78	506.31
395.005	504.31
395.229	505.31
395.454	490.31
395.678	525.31
395.903	516.31
396.127	530.31
396.352	526.31
396.576	490.31
396.801	512.31
397.025	519.31
397.249	533.31
397.474	534.31
397.698	524.31
397.922	549.31
398.147	547.31
398.371	563.31
398.595	568.31
398.82	579.31
399.044	589.31
399.268	628.31
399.492	669.31
399.717	649.31
399.941	682.31
400.165	641.31
400.389	630.31
400.613	624.31
400.837	620.31
401.062	585.31
401.286	582.31
401.51	581.31
401.734	572.31
401.958	570.31
402.182	582.31
402.406	591.31
402.63	583.31
402.854	579.31
403.078	566.31
403.302	543.31
403.526	573.31
403.75	601.31
403.974	586.31
404.198	586.31
404.422	604.31
404.645	589.31
404.869	575.31
405.093	593.31
405.317	604.31
405.541	597.31
405.765	602.31
405.988	598.31
406.212	603.31
406.436	596.31
406.66	637.31
406.883	601.31
407.107	633.31
407.331	663.31
407.555	673.31
407.778	658.31
408.002	663.31
408.226	661.31
408.449	648.31
408.673	645.31
408.896	635.31
409.12	622.31
409.344	640.31
409.567	613.31
409.791	616.31
410.014	602.31
410.238	594.31
410.461	593.31
410.685	602.31
410.908	583.31
411.132	573.31
411.355	591.31
411.578	575.31
411.802	568.31
412.025	590.31
412.249	594.31
412.472	608.31
412.695	576.31
412.919	569.31
413.142	587.31
413.365	565.31
413.589	588.31
413.812	569.31
414.035	575.31
414.258	590.31
414.482	572.31
414.705	585.31
414.928	558.31
415.151	564.31
415.374	585.31
415.597	557.31
415.821	553.31
416.044	546.31
416.267	560.31
416.49	568.31
416.713	549.31
416.936	560.31
417.159	553.31
417.382	544.31
417.605	529.31
417.828	521.31
418.051	550.31
418.274	540.31
418.497	528.31
418.72	544.31
418.943	547.31
419.166	568.31
419.389	584.31
419.611	604.31
419.834	582.31
420.057	558.31
420.28	554.31
420.503	543.31
420.726	546.31
420.948	547.31
421.171	549.31
421.394	550.31
421.617	558.31
421.839	547.31
422.062	557.31
422.285	547.31
422.507	553.31
422.73	561.31
422.953	552.31
423.175	526.31
423.398	537.31
423.621	555.31
423.843	530.31
424.066	551.31
424.288	560.31
424.511	529.31
424.733	566.31
424.956	542.31
425.178	542.31
425.401	532.31
425.623	539.31
425.846	535.31
426.068	513.31
426.291	513.31
426.513	524.31
426.735	552.31
426.958	532.31
427.18	517.31
427.402	529.31
427.625	515.31
427.847	517.31
428.069	535.31
428.292	491.31
428.514	476.31
428.736	528.31
428.958	527.31
429.181	517.31
429.403	523.31
429.625	500.31
429.847	508.31
430.069	497.31
430.292	519.31
430.514	500.31
430.736	524.31
430.958	497.31
431.18	516.31
431.402	499.31
431.624	503.31
431.846	519.31
432.068	507.31
432.29	501.31
432.512	509.31
432.734	514.31
432.956	509.31
433.178	527.31
433.4	535.31
433.622	532.31
433.844	526.31
434.066	547.31
434.287	517.31
434.509	553.31
434.731	525.31
434.953	569.31
435.175	542.31
435.397	537.31
435.618	517.31
435.84	531.31
436.062	528.31
436.284	513.31
436.505	515.31
436.727	503.31
436.949	494.31
437.17	507.31
437.392	495.31
437.614	506.31
437.835	468.31
438.057	496.31
438.278	479.31
438.5	499.31
438.721	513.31
438.943	493.31
439.165	491.31
439.386	480.31
439.608	516.31
439.829	476.31
440.05	478.31
440.272	506.31
440.493	519.31
440.715	518.31
440.936	503.31
441.158	518.31
441.379	507.31
441.6	540.31
441.822	535.31
442.043	519.31
442.264	539.31
442.486	543.31
442.707	516.31
442.928	544.31
443.149	525.31
443.371	544.31
443.592	523.31
443.813	520.31
444.034	537.31
444.255	541.31
444.476	550.31
444.698	547.31
444.919	585.31
445.14	665.31
445.361	608.31
445.582	557.31
445.803	539.31
446.024	535.31
446.245	539.31
446.466	526.31
446.687	517.31
446.908	524.31
447.129	496.31
447.35	502.31
447.571	483.31
447.792	458.31
448.013	455.31
448.234	477.31
448.455	453.31
448.675	479.31
448.896	500.31
449.117	467.31
449.338	435.31
449.559	469.31
449.779	473.31
450	452.31
450.221	459.31
450.442	478.31
450.662	446.31
450.883	466.31
451.104	475.31
451.324	467.31
451.545	432.31
451.766	460.31
451.986	453.31
452.207	472.31
452.428	455.31
452.648	459.31
452.869	447.31
453.089	460.31
453.31	446.31
453.53	452.31
453.751	455.31
453.971	462.31
454.192	444.31
454.412	443.31
454.633	445.31
454.853	433.31
455.073	445.31
455.294	451.31
455.514	452.31
455.734	460.31
455.955	442.31
456.175	444.31
456.395	443.31
456.616	451.31
456.836	446.31
457.056	463.31
457.276	445.31
457.497	458.31
457.717	455.31
457.937	453.31
458.157	458.31
458.377	454.31
458.598	470.31
458.818	501.31
459.038	487.31
459.258	482.31
459.478	517.31
459.698	515.31
459.918	525.31
460.138	529.31
460.358	551.31
460.578	552.31
460.798	542.31
461.018	559.31
461.238	536.31
461.458	560.31
461.678	549.31
461.898	578.31
462.118	566.31
462.338	580.31
462.558	607.31
462.777	630.31
462.997	620.31
463.217	627.31
463.437	645.31
463.657	622.31
463.876	629.31
464.096	592.31
464.316	600.31
464.536	614.31
464.755	593.31
464.975	564.31
465.195	549.31
465.414	542.31
465.634	545.31
465.854	541.31
466.073	503.31
466.293	502.31
466.512	495.31
466.732	507.31
466.951	513.31
467.171	484.31
467.391	481.31
467.61	490.31
467.829	496.31
468.049	462.31
468.268	485.31
468.488	488.31
468.707	481.31
468.927	470.31
469.146	491.31
469.365	492.31
469.585	496.31
469.804	465.31
470.023	511.31
470.243	482.31
470.462	484.31
470.681	486.31
470.901	512.31
471.12	496.31
471.339	491.31
471.558	504.31
471.777	495.31
471.997	493.31
472.216	475.31
472.435	472.31
472.654	485.31
472.873	486.31
473.092	458.31
473.311	484.31
473.53	482.31
473.749	481.31
473.968	489.31
474.187	476.31
474.406	476.31
474.625	509.31
474.844	493.31
475.063	506.31
475.282	471.31
475.501	466.31
475.72	484.31
475.939	501.31
476.158	478.31
476.377	506.31
476.596	521.31
476.814	507.31
477.033	492.31
477.252	514.31
477.471	515.31
477.69	528.31
477.908	507.31
478.127	519.31
478.346	539.31
478.564	573.31
478.783	561.31
479.002	557.31
479.22	566.31
479.439	567.31
479.658	568.31
479.876	556.31
480.095	564.31
480.313	554.31
480.532	569.31
480.751	559.31
480.969	557.31
481.188	545.31
481.406	587.31
481.624	567.31
481.843	565.31
482.061	548.31
482.28	567.31
482.498	531.31
482.717	519.31
482.935	565.31
483.153	565.31
483.372	543.31
483.59	553.31
483.808	557.31
484.027	545.31
484.245	557.31
484.463	532.31
484.681	538.31
484.9	563.31
485.118	554.31
485.336	571.31
485.554	573.31
485.772	558.31
485.99	544.31
486.209	580.31
486.427	561.31
486.645	549.31
486.863	572.31
487.081	568.31
487.299	571.31
487.517	573.31
487.735	568.31
487.953	574.31
488.171	603.31
488.389	576.31
488.607	575.31
488.825	552.31
489.043	563.31
489.261	563.31
489.479	594.31
489.696	579.31
489.914	572.31
490.132	574.31
490.35	589.31
490.568	569.31
490.786	574.31
491.003	553.31
491.221	555.31
491.439	587.31
491.657	585.31
491.874	568.31
492.092	579.31
492.31	573.31
492.527	582.31
492.745	592.31
492.963	589.31
493.18	559.31
493.398	585.31
493.615	555.31
493.833	565.31
494.05	592.31
494.268	603.31
494.485	580.31
494.703	607.31
494.92	598.31
495.138	607.31
495.355	605.31
495.573	619.31
495.79	615.31
496.008	633.31
496.225	639.31
496.442	623.31
496.66	653.31
496.877	656.31
497.094	648.31
497.312	661.31
497.529	675.31
497.746	686.31
497.963	701.31
498.181	724.31
498.398	761.31
498.615	757.31
498.832	817.31
499.049	840.31
499.267	896.31
499.484	904.31
499.701	964.31
499.918	1022.31
500.135	1100.31
500.352	1139.31
500.569	1139.31
500.786	1142.31
501.003	1105.31
501.22	1061.31
501.437	1003.31
501.654	945.31
