Data from Fe(NO3)3@0.1M.TitratingCurve.Agarose3%dH2O.NegLispCup.LampEnergy10.LIBS07252019_HRD10591_16-40-23-332.txt Node
Date: Thu Jul 25 16:40:23 EDT 2019
User: cochatt
Spectrometer: HR+D1059
Trigger mode: 1
Integration Time (sec): 1.000000E-1
Scans to average: 1
Electric dark correction enabled: true
Nonlinearity correction enabled: false
Boxcar width: 0
XAxis mode: Wavelengths
Number of Pixels in Spectrum: 2048
>>>>>Begin Spectral Data<<<<<
223.165	-31.31
223.4	-31.31
223.635	-31.31
223.869	-18.31
224.104	-14.31
224.338	2.69
224.573	-21.31
224.808	-21.31
225.042	5.69
225.277	6.69
225.511	-8.31
225.746	1.69
225.98	7.69
226.215	9.69
226.449	12.69
226.683	18.69
226.918	22.69
227.152	26.69
227.387	19.69
227.621	35.69
227.856	44.69
228.09	39.69
228.324	38.69
228.559	57.69
228.793	70.69
229.027	59.69
229.262	71.69
229.496	82.69
229.73	80.69
229.964	84.69
230.199	78.69
230.433	85.69
230.667	86.69
230.901	83.69
231.136	93.69
231.37	85.69
231.604	105.69
231.838	94.69
232.072	104.69
232.306	93.69
232.541	93.69
232.775	104.69
233.009	92.69
233.243	95.69
233.477	94.69
233.711	89.69
233.945	98.69
234.179	95.69
234.413	96.69
234.647	101.69
234.881	103.69
235.115	80.69
235.349	82.69
235.583	89.69
235.817	99.69
236.051	80.69
236.285	103.69
236.519	100.69
236.753	90.69
236.987	100.69
237.221	88.69
237.455	96.69
237.689	100.69
237.922	91.69
238.156	91.69
238.39	94.69
238.624	87.69
238.858	98.69
239.091	94.69
239.325	106.69
239.559	114.69
239.793	91.69
240.027	104.69
240.26	91.69
240.494	97.69
240.728	84.69
240.961	94.69
241.195	99.69
241.429	103.69
241.662	103.69
241.896	94.69
242.13	98.69
242.363	114.69
242.597	109.69
242.83	121.69
243.064	92.69
243.298	115.69
243.531	100.69
243.765	99.69
243.998	95.69
244.232	109.69
244.465	94.69
244.699	102.69
244.932	117.69
245.166	113.69
245.399	96.69
245.633	106.69
245.866	126.69
246.099	109.69
246.333	104.69
246.566	115.69
246.8	115.69
247.033	129.69
247.266	119.69
247.5	117.69
247.733	109.69
247.966	91.69
248.2	109.69
248.433	111.69
248.666	119.69
248.899	102.69
249.133	107.69
249.366	125.69
249.599	123.69
249.832	124.69
250.066	117.69
250.299	111.69
250.532	115.69
250.765	122.69
250.998	121.69
251.231	121.69
251.465	113.69
251.698	117.69
251.931	100.69
252.164	119.69
252.397	125.69
252.63	123.69
252.863	121.69
253.096	112.69
253.329	132.69
253.562	124.69
253.795	122.69
254.028	125.69
254.261	113.69
254.494	114.69
254.727	145.69
254.96	115.69
255.193	119.69
255.426	123.69
255.659	125.69
255.892	120.69
256.124	140.69
256.357	117.69
256.59	132.69
256.823	134.69
257.056	138.69
257.289	121.69
257.521	127.69
257.754	118.69
257.987	127.69
258.22	122.69
258.452	133.69
258.685	130.69
258.918	135.69
259.151	131.69
259.383	126.69
259.616	132.69
259.849	118.69
260.081	136.69
260.314	135.69
260.547	130.69
260.779	137.69
261.012	133.69
261.244	145.69
261.477	122.69
261.71	120.69
261.942	146.69
262.175	135.69
262.407	138.69
262.64	141.69
262.872	139.69
263.105	143.69
263.337	136.69
263.57	138.69
263.802	133.69
264.035	134.69
264.267	127.69
264.499	119.69
264.732	139.69
264.964	146.69
265.197	133.69
265.429	145.69
265.661	133.69
265.894	157.69
266.126	155.69
266.358	143.69
266.591	140.69
266.823	139.69
267.055	143.69
267.287	136.69
267.52	145.69
267.752	159.69
267.984	145.69
268.216	143.69
268.448	136.69
268.681	160.69
268.913	142.69
269.145	157.69
269.377	157.69
269.609	151.69
269.841	146.69
270.073	152.69
270.306	143.69
270.538	154.69
270.77	146.69
271.002	148.69
271.234	151.69
271.466	149.69
271.698	155.69
271.93	147.69
272.162	147.69
272.394	166.69
272.626	151.69
272.858	141.69
273.09	143.69
273.322	151.69
273.553	142.69
273.785	158.69
274.017	161.69
274.249	163.69
274.481	169.69
274.713	145.69
274.945	163.69
275.176	167.69
275.408	161.69
275.64	163.69
275.872	156.69
276.104	160.69
276.335	162.69
276.567	154.69
276.799	160.69
277.031	170.69
277.262	157.69
277.494	156.69
277.726	157.69
277.957	173.69
278.189	159.69
278.421	150.69
278.652	162.69
278.884	186.69
279.115	165.69
279.347	155.69
279.579	156.69
279.81	188.69
280.042	185.69
280.273	168.69
280.505	167.69
280.736	173.69
280.968	159.69
281.199	168.69
281.431	178.69
281.662	167.69
281.894	168.69
282.125	173.69
282.356	170.69
282.588	157.69
282.819	175.69
283.051	161.69
283.282	162.69
283.513	186.69
283.745	188.69
283.976	166.69
284.207	171.69
284.439	172.69
284.67	181.69
284.901	177.69
285.132	174.69
285.364	167.69
285.595	172.69
285.826	193.69
286.057	191.69
286.288	189.69
286.52	186.69
286.751	153.69
286.982	173.69
287.213	179.69
287.444	188.69
287.675	193.69
287.906	185.69
288.138	189.69
288.369	194.69
288.6	185.69
288.831	195.69
289.062	182.69
289.293	187.69
289.524	197.69
289.755	200.69
289.986	205.69
290.217	189.69
290.448	175.69
290.679	194.69
290.91	181.69
291.141	185.69
291.371	199.69
291.602	199.69
291.833	178.69
292.064	199.69
292.295	195.69
292.526	186.69
292.757	190.69
292.987	180.69
293.218	192.69
293.449	196.69
293.68	181.69
293.91	203.69
294.141	198.69
294.372	211.69
294.603	183.69
294.833	185.69
295.064	202.69
295.295	211.69
295.525	187.69
295.756	197.69
295.987	186.69
296.217	206.69
296.448	203.69
296.679	183.69
296.909	177.69
297.14	200.69
297.37	196.69
297.601	196.69
297.831	200.69
298.062	193.69
298.292	204.69
298.523	206.69
298.753	207.69
298.984	192.69
299.214	189.69
299.445	212.69
299.675	206.69
299.905	210.69
300.136	194.69
300.366	203.69
300.597	185.69
300.827	211.69
301.057	198.69
301.288	203.69
301.518	206.69
301.748	212.69
301.979	215.69
302.209	222.69
302.439	225.69
302.669	218.69
302.9	214.69
303.13	218.69
303.36	201.69
303.59	198.69
303.82	209.69
304.051	219.69
304.281	212.69
304.511	217.69
304.741	223.69
304.971	214.69
305.201	208.69
305.431	217.69
305.661	216.69
305.891	214.69
306.121	199.69
306.352	220.69
306.582	219.69
306.812	205.69
307.042	210.69
307.272	207.69
307.502	217.69
307.731	198.69
307.961	226.69
308.191	221.69
308.421	228.69
308.651	211.69
308.881	218.69
309.111	214.69
309.341	232.69
309.571	218.69
309.8	209.69
310.03	222.69
310.26	211.69
310.49	208.69
310.72	220.69
310.949	218.69
311.179	211.69
311.409	226.69
311.639	214.69
311.868	210.69
312.098	216.69
312.328	217.69
312.557	232.69
312.787	209.69
313.017	227.69
313.246	206.69
313.476	229.69
313.706	211.69
313.935	229.69
314.165	215.69
314.394	222.69
314.624	215.69
314.853	238.69
315.083	223.69
315.312	222.69
315.542	237.69
315.771	240.69
316.001	223.69
316.23	222.69
316.46	229.69
316.689	221.69
316.919	230.69
317.148	224.69
317.377	234.69
317.607	233.69
317.836	232.69
318.065	226.69
318.295	218.69
318.524	218.69
318.753	204.69
318.983	224.69
319.212	230.69
319.441	225.69
319.67	217.69
319.9	217.69
320.129	232.69
320.358	240.69
320.587	224.69
320.816	238.69
321.046	212.69
321.275	220.69
321.504	230.69
321.733	238.69
321.962	225.69
322.191	235.69
322.42	212.69
322.649	247.69
322.878	219.69
323.108	235.69
323.337	233.69
323.566	236.69
323.795	239.69
324.024	238.69
324.253	249.69
324.482	232.69
324.71	246.69
324.939	263.69
325.168	237.69
325.397	225.69
325.626	245.69
325.855	245.69
326.084	232.69
326.313	252.69
326.542	253.69
326.77	262.69
326.999	241.69
327.228	242.69
327.457	238.69
327.686	231.69
327.914	251.69
328.143	253.69
328.372	232.69
328.6	259.69
328.829	254.69
329.058	270.69
329.287	237.69
329.515	266.69
329.744	246.69
329.972	244.69
330.201	231.69
330.43	271.69
330.658	250.69
330.887	277.69
331.115	242.69
331.344	259.69
331.572	257.69
331.801	267.69
332.03	272.69
332.258	253.69
332.486	280.69
332.715	275.69
332.943	278.69
333.172	291.69
333.4	299.69
333.629	319.69
333.857	308.69
334.085	281.69
334.314	297.69
334.542	301.69
334.771	316.69
334.999	303.69
335.227	294.69
335.455	298.69
335.684	286.69
335.912	312.69
336.14	289.69
336.369	304.69
336.597	293.69
336.825	285.69
337.053	273.69
337.281	293.69
337.51	289.69
337.738	286.69
337.966	262.69
338.194	273.69
338.422	266.69
338.65	277.69
338.878	275.69
339.106	285.69
339.334	274.69
339.562	273.69
339.79	277.69
340.018	251.69
340.246	257.69
340.474	243.69
340.702	265.69
340.93	275.69
341.158	259.69
341.386	255.69
341.614	264.69
341.842	290.69
342.07	268.69
342.298	259.69
342.526	253.69
342.754	267.69
342.981	258.69
343.209	261.69
343.437	268.69
343.665	294.69
343.893	277.69
344.12	319.69
344.348	307.69
344.576	301.69
344.804	287.69
345.031	274.69
345.259	266.69
345.487	254.69
345.714	255.69
345.942	262.69
346.17	271.69
346.397	262.69
346.625	255.69
346.853	261.69
347.08	241.69
347.308	257.69
347.535	253.69
347.763	254.69
347.99	256.69
348.218	250.69
348.445	227.69
348.673	253.69
348.9	257.69
349.128	241.69
349.355	240.69
349.583	270.69
349.81	244.69
350.037	243.69
350.265	262.69
350.492	225.69
350.72	257.69
350.947	255.69
351.174	261.69
351.402	254.69
351.629	243.69
351.856	232.69
352.083	256.69
352.311	266.69
352.538	271.69
352.765	250.69
352.992	253.69
353.22	250.69
353.447	270.69
353.674	247.69
353.901	254.69
354.128	253.69
354.355	278.69
354.583	245.69
354.81	261.69
355.037	261.69
355.264	250.69
355.491	263.69
355.718	234.69
355.945	253.69
356.172	259.69
356.399	253.69
356.626	260.69
356.853	265.69
357.08	263.69
357.307	251.69
357.534	245.69
357.761	254.69
357.988	257.69
358.215	262.69
358.441	257.69
358.668	252.69
358.895	243.69
359.122	262.69
359.349	249.69
359.576	255.69
359.802	265.69
360.029	274.69
360.256	242.69
360.483	242.69
360.709	267.69
360.936	274.69
361.163	235.69
361.39	255.69
361.616	238.69
361.843	254.69
362.07	267.69
362.296	263.69
362.523	238.69
362.749	247.69
362.976	239.69
363.203	250.69
363.429	275.69
363.656	271.69
363.882	273.69
364.109	248.69
364.335	262.69
364.562	242.69
364.788	268.69
365.015	270.69
365.241	286.69
365.468	250.69
365.694	271.69
365.92	236.69
366.147	261.69
366.373	245.69
366.599	274.69
366.826	249.69
367.052	257.69
367.278	264.69
367.505	270.69
367.731	256.69
367.957	256.69
368.184	270.69
368.41	277.69
368.636	261.69
368.862	254.69
369.089	251.69
369.315	267.69
369.541	267.69
369.767	256.69
369.993	273.69
370.219	263.69
370.445	259.69
370.672	274.69
370.898	272.69
371.124	251.69
371.35	273.69
371.576	276.69
371.802	272.69
372.028	278.69
372.254	284.69
372.48	264.69
372.706	265.69
372.932	261.69
373.158	299.69
373.384	285.69
373.61	305.69
373.835	278.69
374.061	278.69
374.287	283.69
374.513	280.69
374.739	289.69
374.965	305.69
375.191	284.69
375.416	293.69
375.642	299.69
375.868	284.69
376.094	308.69
376.319	283.69
376.545	282.69
376.771	277.69
376.997	285.69
377.222	286.69
377.448	247.69
377.674	277.69
377.899	269.69
378.125	270.69
378.35	301.69
378.576	286.69
378.802	271.69
379.027	274.69
379.253	263.69
379.478	279.69
379.704	271.69
379.929	271.69
380.155	284.69
380.38	289.69
380.606	272.69
380.831	276.69
381.057	287.69
381.282	291.69
381.507	288.69
381.733	287.69
381.958	279.69
382.184	292.69
382.409	268.69
382.634	280.69
382.86	298.69
383.085	298.69
383.31	313.69
383.535	288.69
383.761	291.69
383.986	294.69
384.211	326.69
384.436	301.69
384.662	326.69
384.887	309.69
385.112	305.69
385.337	333.69
385.562	319.69
385.787	320.69
386.013	327.69
386.238	326.69
386.463	317.69
386.688	321.69
386.913	325.69
387.138	325.69
387.363	336.69
387.588	334.69
387.813	328.69
388.038	336.69
388.263	321.69
388.488	323.69
388.713	329.69
388.938	322.69
389.163	329.69
389.387	305.69
389.612	321.69
389.837	320.69
390.062	308.69
390.287	336.69
390.512	317.69
390.736	322.69
390.961	314.69
391.186	313.69
391.411	345.69
391.636	350.69
391.86	350.69
392.085	381.69
392.31	354.69
392.534	360.69
392.759	343.69
392.984	352.69
393.208	343.69
393.433	348.69
393.658	335.69
393.882	331.69
394.107	336.69
394.331	339.69
394.556	356.69
394.78	382.69
395.005	368.69
395.229	351.69
395.454	371.69
395.678	340.69
395.903	357.69
396.127	364.69
396.352	347.69
396.576	343.69
396.801	353.69
397.025	348.69
397.249	369.69
397.474	385.69
397.698	358.69
397.922	371.69
398.147	375.69
398.371	344.69
398.595	381.69
398.82	393.69
399.044	417.69
399.268	454.69
399.492	509.69
399.717	535.69
399.941	522.69
400.165	463.69
400.389	455.69
400.613	422.69
400.837	431.69
401.062	418.69
401.286	405.69
401.51	394.69
401.734	392.69
401.958	406.69
402.182	407.69
402.406	403.69
402.63	409.69
402.854	432.69
403.078	405.69
403.302	416.69
403.526	413.69
403.75	423.69
403.974	437.69
404.198	442.69
404.422	439.69
404.645	437.69
404.869	438.69
405.093	435.69
405.317	410.69
405.541	424.69
405.765	422.69
405.988	425.69
406.212	435.69
406.436	433.69
406.66	433.69
406.883	454.69
407.107	465.69
407.331	472.69
407.555	518.69
407.778	504.69
408.002	466.69
408.226	467.69
408.449	485.69
408.673	453.69
408.896	451.69
409.12	440.69
409.344	469.69
409.567	451.69
409.791	422.69
410.014	436.69
410.238	424.69
410.461	453.69
410.685	447.69
410.908	426.69
411.132	443.69
411.355	424.69
411.578	412.69
411.802	427.69
412.025	412.69
412.249	419.69
412.472	420.69
412.695	412.69
412.919	439.69
413.142	427.69
413.365	394.69
413.589	400.69
413.812	402.69
414.035	395.69
414.258	417.69
414.482	414.69
414.705	415.69
414.928	414.69
415.151	409.69
415.374	418.69
415.597	409.69
415.821	397.69
416.044	391.69
416.267	413.69
416.49	387.69
416.713	395.69
416.936	400.69
417.159	396.69
417.382	389.69
417.605	380.69
417.828	393.69
418.051	397.69
418.274	396.69
418.497	405.69
418.72	405.69
418.943	419.69
419.166	429.69
419.389	420.69
419.611	431.69
419.834	427.69
420.057	415.69
420.28	387.69
420.503	401.69
420.726	392.69
420.948	416.69
421.171	406.69
421.394	412.69
421.617	401.69
421.839	408.69
422.062	424.69
422.285	389.69
422.507	416.69
422.73	403.69
422.953	407.69
423.175	412.69
423.398	434.69
423.621	419.69
423.843	425.69
424.066	416.69
424.288	421.69
424.511	403.69
424.733	427.69
424.956	422.69
425.178	412.69
425.401	396.69
425.623	406.69
425.846	416.69
426.068	392.69
426.291	403.69
426.513	369.69
426.735	385.69
426.958	404.69
427.18	368.69
427.402	378.69
427.625	366.69
427.847	375.69
428.069	376.69
428.292	377.69
428.514	341.69
428.736	363.69
428.958	372.69
429.181	353.69
429.403	377.69
429.625	377.69
429.847	362.69
430.069	374.69
430.292	358.69
430.514	361.69
430.736	351.69
430.958	370.69
431.18	371.69
431.402	391.69
431.624	358.69
431.846	355.69
432.068	387.69
432.29	353.69
432.512	393.69
432.734	376.69
432.956	377.69
433.178	378.69
433.4	369.69
433.622	377.69
433.844	363.69
434.066	374.69
434.287	403.69
434.509	402.69
434.731	396.69
434.953	406.69
435.175	413.69
435.397	405.69
435.618	388.69
435.84	406.69
436.062	380.69
436.284	386.69
436.505	379.69
436.727	376.69
436.949	381.69
437.17	366.69
437.392	381.69
437.614	359.69
437.835	360.69
438.057	362.69
438.278	348.69
438.5	365.69
438.721	382.69
438.943	383.69
439.165	388.69
439.386	379.69
439.608	386.69
439.829	386.69
440.05	372.69
440.272	397.69
440.493	391.69
440.715	394.69
440.936	380.69
441.158	395.69
441.379	423.69
441.6	414.69
441.822	401.69
442.043	419.69
442.264	406.69
442.486	407.69
442.707	390.69
442.928	406.69
443.149	427.69
443.371	403.69
443.592	422.69
443.813	422.69
444.034	435.69
444.255	424.69
444.476	435.69
444.698	455.69
444.919	466.69
445.14	559.69
445.361	500.69
445.582	438.69
445.803	415.69
446.024	393.69
446.245	430.69
446.466	417.69
446.687	400.69
446.908	392.69
447.129	394.69
447.35	372.69
447.571	373.69
447.792	376.69
448.013	385.69
448.234	377.69
448.455	368.69
448.675	351.69
448.896	358.69
449.117	387.69
449.338	348.69
449.559	365.69
449.779	349.69
450	371.69
450.221	369.69
450.442	367.69
450.662	361.69
450.883	348.69
451.104	379.69
451.324	362.69
451.545	349.69
451.766	347.69
451.986	358.69
452.207	369.69
452.428	367.69
452.648	353.69
452.869	355.69
453.089	353.69
453.31	349.69
453.53	338.69
453.751	334.69
453.971	324.69
454.192	350.69
454.412	344.69
454.633	352.69
454.853	344.69
455.073	325.69
455.294	331.69
455.514	323.69
455.734	334.69
455.955	335.69
456.175	346.69
456.395	338.69
456.616	325.69
456.836	343.69
457.056	350.69
457.276	325.69
457.497	327.69
457.717	323.69
457.937	326.69
458.157	338.69
458.377	330.69
458.598	328.69
458.818	355.69
459.038	374.69
459.258	359.69
459.478	387.69
459.698	401.69
459.918	398.69
460.138	392.69
460.358	405.69
460.578	418.69
460.798	434.69
461.018	442.69
461.238	421.69
461.458	434.69
461.678	421.69
461.898	423.69
462.118	424.69
462.338	455.69
462.558	473.69
462.777	466.69
462.997	498.69
463.217	530.69
463.437	528.69
463.657	511.69
463.876	474.69
464.096	496.69
464.316	474.69
464.536	473.69
464.755	473.69
464.975	457.69
465.195	418.69
465.414	407.69
465.634	412.69
465.854	395.69
466.073	393.69
466.293	376.69
466.512	369.69
466.732	354.69
466.951	370.69
467.171	346.69
467.391	367.69
467.61	349.69
467.829	372.69
468.049	355.69
468.268	365.69
468.488	355.69
468.707	344.69
468.927	366.69
469.146	346.69
469.365	355.69
469.585	357.69
469.804	362.69
470.023	379.69
470.243	374.69
470.462	376.69
470.681	362.69
470.901	366.69
471.12	359.69
471.339	360.69
471.558	377.69
471.777	375.69
471.997	360.69
472.216	368.69
472.435	356.69
472.654	342.69
472.873	328.69
473.092	355.69
473.311	349.69
473.53	354.69
473.749	350.69
473.968	319.69
474.187	333.69
474.406	346.69
474.625	348.69
474.844	323.69
475.063	343.69
475.282	346.69
475.501	353.69
475.72	353.69
475.939	346.69
476.158	343.69
476.377	350.69
476.596	368.69
476.814	353.69
477.033	355.69
477.252	349.69
477.471	367.69
477.69	343.69
477.908	393.69
478.127	399.69
478.346	388.69
478.564	400.69
478.783	402.69
479.002	415.69
479.22	407.69
479.439	409.69
479.658	405.69
479.876	390.69
480.095	414.69
480.313	417.69
480.532	439.69
480.751	414.69
480.969	404.69
481.188	407.69
481.406	409.69
481.624	379.69
481.843	349.69
482.061	383.69
482.28	379.69
482.498	372.69
482.717	373.69
482.935	383.69
483.153	382.69
483.372	398.69
483.59	391.69
483.808	379.69
484.027	368.69
484.245	386.69
484.463	381.69
484.681	402.69
484.9	391.69
485.118	395.69
485.336	405.69
485.554	391.69
485.772	386.69
485.99	408.69
486.209	387.69
486.427	391.69
486.645	388.69
486.863	385.69
487.081	385.69
487.299	391.69
487.517	391.69
487.735	391.69
487.953	419.69
488.171	390.69
488.389	396.69
488.607	391.69
488.825	383.69
489.043	390.69
489.261	391.69
489.479	385.69
489.696	389.69
489.914	406.69
490.132	380.69
490.35	398.69
490.568	401.69
490.786	402.69
491.003	410.69
491.221	408.69
491.439	416.69
491.657	415.69
491.874	418.69
492.092	398.69
492.31	409.69
492.527	418.69
492.745	406.69
492.963	406.69
493.18	400.69
493.398	419.69
493.615	417.69
493.833	408.69
494.05	410.69
494.268	406.69
494.485	418.69
494.703	397.69
494.92	421.69
495.138	402.69
495.355	410.69
495.573	431.69
495.79	418.69
496.008	439.69
496.225	424.69
496.442	429.69
496.66	434.69
496.877	430.69
497.094	454.69
497.312	449.69
497.529	460.69
497.746	468.69
497.963	474.69
498.181	495.69
498.398	529.69
498.615	560.69
498.832	569.69
499.049	610.69
499.267	654.69
499.484	694.69
499.701	739.69
499.918	804.69
500.135	877.69
500.352	989.69
500.569	1010.69
500.786	979.69
501.003	906.69
501.22	862.69
501.437	774.69
501.654	706.69
501.871	648.69
502.088	615.69
502.305	578.69
