Data from Fe(NO3)3@0.05M.TitratingCurve.Agarose3%dH2O.NegLispCup.LampEnergy10.LIBS07252019_HRD10591_16-48-31-339.txt Node
Date: Thu Jul 25 16:48:31 EDT 2019
User: cochatt
Spectrometer: HR+D1059
Trigger mode: 1
Integration Time (sec): 1.000000E-1
Scans to average: 1
Electric dark correction enabled: true
Nonlinearity correction enabled: false
Boxcar width: 0
XAxis mode: Wavelengths
Number of Pixels in Spectrum: 2048
>>>>>Begin Spectral Data<<<<<
223.165	-22.56
223.4	-22.56
223.635	-22.56
223.869	-22.56
224.104	-19.56
224.338	-9.56
224.573	-7.56
224.808	-8.56
225.042	8.44
225.277	-3.56
225.511	-15.56
225.746	2.44
225.98	6.44
226.215	2.44
226.449	21.44
226.683	20.44
226.918	33.44
227.152	14.44
227.387	24.44
227.621	40.44
227.856	53.44
228.09	53.44
228.324	64.44
228.559	63.44
228.793	53.44
229.027	70.44
229.262	66.44
229.496	74.44
229.73	73.44
229.964	94.44
230.199	85.44
230.433	63.44
230.667	80.44
230.901	76.44
231.136	76.44
231.37	90.44
231.604	91.44
231.838	81.44
232.072	89.44
232.306	84.44
232.541	101.44
232.775	76.44
233.009	91.44
233.243	98.44
233.477	89.44
233.711	92.44
233.945	99.44
234.179	88.44
234.413	90.44
234.647	99.44
234.881	85.44
235.115	88.44
235.349	75.44
235.583	103.44
235.817	86.44
236.051	82.44
236.285	86.44
236.519	88.44
236.753	95.44
236.987	96.44
237.221	74.44
237.455	96.44
237.689	91.44
237.922	81.44
238.156	94.44
238.39	92.44
238.624	83.44
238.858	85.44
239.091	110.44
239.325	95.44
239.559	86.44
239.793	105.44
240.027	94.44
240.26	101.44
240.494	101.44
240.728	96.44
240.961	102.44
241.195	99.44
241.429	90.44
241.662	90.44
241.896	87.44
242.13	92.44
242.363	101.44
242.597	90.44
242.83	103.44
243.064	96.44
243.298	102.44
243.531	90.44
243.765	92.44
243.998	98.44
244.232	92.44
244.465	92.44
244.699	111.44
244.932	104.44
245.166	91.44
245.399	103.44
245.633	95.44
245.866	95.44
246.099	99.44
246.333	85.44
246.566	112.44
246.8	102.44
247.033	97.44
247.266	104.44
247.5	103.44
247.733	100.44
247.966	111.44
248.2	112.44
248.433	103.44
248.666	99.44
248.899	116.44
249.133	98.44
249.366	103.44
249.599	117.44
249.832	86.44
250.066	107.44
250.299	118.44
250.532	106.44
250.765	94.44
250.998	114.44
251.231	96.44
251.465	112.44
251.698	105.44
251.931	115.44
252.164	106.44
252.397	106.44
252.63	118.44
252.863	110.44
253.096	115.44
253.329	113.44
253.562	106.44
253.795	107.44
254.028	112.44
254.261	116.44
254.494	107.44
254.727	110.44
254.96	116.44
255.193	114.44
255.426	105.44
255.659	105.44
255.892	109.44
256.124	120.44
256.357	103.44
256.59	128.44
256.823	104.44
257.056	89.44
257.289	120.44
257.521	112.44
257.754	118.44
257.987	106.44
258.22	112.44
258.452	120.44
258.685	102.44
258.918	102.44
259.151	118.44
259.383	112.44
259.616	118.44
259.849	124.44
260.081	124.44
260.314	138.44
260.547	112.44
260.779	124.44
261.012	124.44
261.244	135.44
261.477	123.44
261.71	139.44
261.942	122.44
262.175	123.44
262.407	119.44
262.64	112.44
262.872	124.44
263.105	122.44
263.337	134.44
263.57	119.44
263.802	123.44
264.035	115.44
264.267	122.44
264.499	110.44
264.732	134.44
264.964	119.44
265.197	112.44
265.429	114.44
265.661	141.44
265.894	136.44
266.126	123.44
266.358	126.44
266.591	125.44
266.823	124.44
267.055	124.44
267.287	125.44
267.52	131.44
267.752	131.44
267.984	120.44
268.216	130.44
268.448	136.44
268.681	119.44
268.913	137.44
269.145	137.44
269.377	139.44
269.609	109.44
269.841	121.44
270.073	134.44
270.306	116.44
270.538	137.44
270.77	138.44
271.002	127.44
271.234	128.44
271.466	126.44
271.698	141.44
271.93	123.44
272.162	133.44
272.394	129.44
272.626	126.44
272.858	126.44
273.09	129.44
273.322	137.44
273.553	143.44
273.785	132.44
274.017	133.44
274.249	159.44
274.481	153.44
274.713	146.44
274.945	136.44
275.176	132.44
275.408	127.44
275.64	150.44
275.872	134.44
276.104	151.44
276.335	133.44
276.567	127.44
276.799	144.44
277.031	153.44
277.262	130.44
277.494	126.44
277.726	153.44
277.957	143.44
278.189	126.44
278.421	145.44
278.652	151.44
278.884	143.44
279.115	145.44
279.347	147.44
279.579	127.44
279.81	148.44
280.042	141.44
280.273	152.44
280.505	141.44
280.736	150.44
280.968	132.44
281.199	143.44
281.431	147.44
281.662	130.44
281.894	140.44
282.125	132.44
282.356	156.44
282.588	137.44
282.819	137.44
283.051	144.44
283.282	147.44
283.513	150.44
283.745	156.44
283.976	143.44
284.207	146.44
284.439	143.44
284.67	145.44
284.901	148.44
285.132	144.44
285.364	141.44
285.595	136.44
285.826	137.44
286.057	142.44
286.288	156.44
286.52	141.44
286.751	148.44
286.982	134.44
287.213	144.44
287.444	158.44
287.675	146.44
287.906	151.44
288.138	153.44
288.369	148.44
288.6	171.44
288.831	166.44
289.062	156.44
289.293	158.44
289.524	150.44
289.755	143.44
289.986	139.44
290.217	151.44
290.448	156.44
290.679	145.44
290.91	160.44
291.141	165.44
291.371	160.44
291.602	153.44
291.833	156.44
292.064	151.44
292.295	137.44
292.526	158.44
292.757	149.44
292.987	144.44
293.218	160.44
293.449	158.44
293.68	150.44
293.91	146.44
294.141	159.44
294.372	150.44
294.603	141.44
294.833	156.44
295.064	148.44
295.295	159.44
295.525	159.44
295.756	170.44
295.987	160.44
296.217	163.44
296.448	135.44
296.679	145.44
296.909	155.44
297.14	140.44
297.37	147.44
297.601	154.44
297.831	152.44
298.062	164.44
298.292	154.44
298.523	169.44
298.753	162.44
298.984	174.44
299.214	163.44
299.445	158.44
299.675	174.44
299.905	171.44
300.136	163.44
300.366	166.44
300.597	166.44
300.827	154.44
301.057	159.44
301.288	169.44
301.518	158.44
301.748	162.44
301.979	193.44
302.209	174.44
302.439	181.44
302.669	164.44
302.9	167.44
303.13	163.44
303.36	164.44
303.59	169.44
303.82	174.44
304.051	170.44
304.281	186.44
304.511	161.44
304.741	169.44
304.971	162.44
305.201	167.44
305.431	167.44
305.661	155.44
305.891	170.44
306.121	162.44
306.352	160.44
306.582	176.44
306.812	159.44
307.042	168.44
307.272	164.44
307.502	160.44
307.731	157.44
307.961	160.44
308.191	170.44
308.421	176.44
308.651	173.44
308.881	177.44
309.111	170.44
309.341	155.44
309.571	167.44
309.8	139.44
310.03	155.44
310.26	161.44
310.49	164.44
310.72	174.44
310.949	159.44
311.179	166.44
311.409	154.44
311.639	158.44
311.868	146.44
312.098	177.44
312.328	168.44
312.557	166.44
312.787	164.44
313.017	166.44
313.246	171.44
313.476	170.44
313.706	192.44
313.935	179.44
314.165	165.44
314.394	154.44
314.624	156.44
314.853	168.44
315.083	172.44
315.312	179.44
315.542	173.44
315.771	167.44
316.001	158.44
316.23	180.44
316.46	180.44
316.689	169.44
316.919	176.44
317.148	172.44
317.377	172.44
317.607	165.44
317.836	166.44
318.065	161.44
318.295	163.44
318.524	183.44
318.753	150.44
318.983	176.44
319.212	176.44
319.441	170.44
319.67	178.44
319.9	162.44
320.129	160.44
320.358	169.44
320.587	172.44
320.816	170.44
321.046	176.44
321.275	182.44
321.504	175.44
321.733	171.44
321.962	160.44
322.191	160.44
322.42	184.44
322.649	174.44
322.878	169.44
323.108	169.44
323.337	157.44
323.566	162.44
323.795	174.44
324.024	171.44
324.253	185.44
324.482	186.44
324.71	177.44
324.939	171.44
325.168	162.44
325.397	171.44
325.626	183.44
325.855	163.44
326.084	167.44
326.313	181.44
326.542	191.44
326.77	188.44
326.999	190.44
327.228	185.44
327.457	174.44
327.686	180.44
327.914	187.44
328.143	184.44
328.372	180.44
328.6	167.44
328.829	162.44
329.058	176.44
329.287	185.44
329.515	194.44
329.744	189.44
329.972	178.44
330.201	190.44
330.43	188.44
330.658	188.44
330.887	185.44
331.115	189.44
331.344	186.44
331.572	182.44
331.801	201.44
332.03	184.44
332.258	200.44
332.486	204.44
332.715	183.44
332.943	205.44
333.172	207.44
333.4	221.44
333.629	233.44
333.857	211.44
334.085	232.44
334.314	218.44
334.542	213.44
334.771	217.44
334.999	209.44
335.227	211.44
335.455	207.44
335.684	222.44
335.912	216.44
336.14	217.44
336.369	203.44
336.597	208.44
336.825	203.44
337.053	201.44
337.281	203.44
337.51	208.44
337.738	190.44
337.966	189.44
338.194	199.44
338.422	196.44
338.65	201.44
338.878	194.44
339.106	191.44
339.334	201.44
339.562	177.44
339.79	196.44
340.018	190.44
340.246	180.44
340.474	194.44
340.702	192.44
340.93	176.44
341.158	193.44
341.386	188.44
341.614	185.44
341.842	176.44
342.07	193.44
342.298	195.44
342.526	193.44
342.754	203.44
342.981	181.44
343.209	193.44
343.437	191.44
343.665	210.44
343.893	207.44
344.12	213.44
344.348	208.44
344.576	203.44
344.804	184.44
345.031	190.44
345.259	200.44
345.487	194.44
345.714	177.44
345.942	196.44
346.17	189.44
346.397	183.44
346.625	186.44
346.853	176.44
347.08	172.44
347.308	176.44
347.535	172.44
347.763	188.44
347.99	194.44
348.218	195.44
348.445	183.44
348.673	195.44
348.9	178.44
349.128	176.44
349.355	191.44
349.583	182.44
349.81	184.44
350.037	187.44
350.265	178.44
350.492	190.44
350.72	168.44
350.947	194.44
351.174	179.44
351.402	174.44
351.629	168.44
351.856	179.44
352.083	156.44
352.311	175.44
352.538	182.44
352.765	171.44
352.992	188.44
353.22	192.44
353.447	180.44
353.674	176.44
353.901	187.44
354.128	176.44
354.355	195.44
354.583	174.44
354.81	172.44
355.037	175.44
355.264	192.44
355.491	179.44
355.718	180.44
355.945	196.44
356.172	176.44
356.399	184.44
356.626	191.44
356.853	177.44
357.08	192.44
357.307	194.44
357.534	182.44
357.761	193.44
357.988	194.44
358.215	191.44
358.441	174.44
358.668	191.44
358.895	176.44
359.122	192.44
359.349	184.44
359.576	178.44
359.802	174.44
360.029	205.44
360.256	206.44
360.483	180.44
360.709	178.44
360.936	188.44
361.163	181.44
361.39	182.44
361.616	193.44
361.843	192.44
362.07	182.44
362.296	194.44
362.523	181.44
362.749	190.44
362.976	187.44
363.203	187.44
363.429	171.44
363.656	187.44
363.882	175.44
364.109	172.44
364.335	179.44
364.562	186.44
364.788	178.44
365.015	198.44
365.241	187.44
365.468	189.44
365.694	188.44
365.92	190.44
366.147	181.44
366.373	198.44
366.599	184.44
366.826	187.44
367.052	181.44
367.278	184.44
367.505	183.44
367.731	191.44
367.957	191.44
368.184	186.44
368.41	204.44
368.636	187.44
368.862	184.44
369.089	180.44
369.315	206.44
369.541	183.44
369.767	189.44
369.993	195.44
370.219	194.44
370.445	195.44
370.672	196.44
370.898	209.44
371.124	200.44
371.35	195.44
371.576	184.44
371.802	198.44
372.028	208.44
372.254	203.44
372.48	204.44
372.706	199.44
372.932	197.44
373.158	207.44
373.384	213.44
373.61	213.44
373.835	208.44
374.061	197.44
374.287	190.44
374.513	218.44
374.739	204.44
374.965	211.44
375.191	213.44
375.416	200.44
375.642	218.44
375.868	224.44
376.094	215.44
376.319	216.44
376.545	209.44
376.771	218.44
376.997	197.44
377.222	195.44
377.448	208.44
377.674	208.44
377.899	225.44
378.125	193.44
378.35	187.44
378.576	203.44
378.802	212.44
379.027	218.44
379.253	229.44
379.478	208.44
379.704	224.44
379.929	202.44
380.155	208.44
380.38	202.44
380.606	221.44
380.831	207.44
381.057	182.44
381.282	213.44
381.507	212.44
381.733	194.44
381.958	224.44
382.184	209.44
382.409	208.44
382.634	223.44
382.86	214.44
383.085	222.44
383.31	235.44
383.535	230.44
383.761	232.44
383.986	229.44
384.211	223.44
384.436	226.44
384.662	242.44
384.887	244.44
385.112	256.44
385.337	257.44
385.562	230.44
385.787	255.44
386.013	251.44
386.238	266.44
386.463	225.44
386.688	233.44
386.913	231.44
387.138	260.44
387.363	251.44
387.588	246.44
387.813	242.44
388.038	239.44
388.263	238.44
388.488	239.44
388.713	262.44
388.938	252.44
389.163	244.44
389.387	233.44
389.612	240.44
389.837	256.44
390.062	239.44
390.287	259.44
390.512	231.44
390.736	258.44
390.961	250.44
391.186	265.44
391.411	252.44
391.636	267.44
391.86	263.44
392.085	280.44
392.31	269.44
392.534	257.44
392.759	264.44
392.984	283.44
393.208	280.44
393.433	265.44
393.658	278.44
393.882	267.44
394.107	274.44
394.331	263.44
394.556	280.44
394.78	281.44
395.005	259.44
395.229	275.44
395.454	266.44
395.678	279.44
395.903	267.44
396.127	268.44
396.352	294.44
396.576	273.44
396.801	268.44
397.025	274.44
397.249	302.44
397.474	275.44
397.698	268.44
397.922	274.44
398.147	288.44
398.371	276.44
398.595	302.44
398.82	280.44
399.044	323.44
399.268	340.44
399.492	380.44
399.717	379.44
399.941	381.44
400.165	376.44
400.389	344.44
400.613	320.44
400.837	310.44
401.062	311.44
401.286	327.44
401.51	315.44
401.734	294.44
401.958	294.44
402.182	290.44
402.406	333.44
402.63	329.44
402.854	318.44
403.078	338.44
403.302	311.44
403.526	324.44
403.75	316.44
403.974	329.44
404.198	342.44
404.422	312.44
404.645	351.44
404.869	334.44
405.093	325.44
405.317	334.44
405.541	334.44
405.765	335.44
405.988	322.44
406.212	321.44
406.436	334.44
406.66	353.44
406.883	339.44
407.107	348.44
407.331	354.44
407.555	382.44
407.778	358.44
408.002	375.44
408.226	356.44
408.449	333.44
408.673	350.44
408.896	340.44
409.12	355.44
409.344	340.44
409.567	343.44
409.791	363.44
410.014	350.44
410.238	340.44
410.461	338.44
410.685	342.44
410.908	344.44
411.132	355.44
411.355	337.44
411.578	318.44
411.802	328.44
412.025	339.44
412.249	348.44
412.472	337.44
412.695	329.44
412.919	318.44
413.142	319.44
413.365	344.44
413.589	326.44
413.812	326.44
414.035	330.44
414.258	325.44
414.482	331.44
414.705	328.44
414.928	337.44
415.151	327.44
415.374	344.44
415.597	341.44
415.821	307.44
416.044	315.44
416.267	337.44
416.49	340.44
416.713	340.44
416.936	324.44
417.159	315.44
417.382	327.44
417.605	304.44
417.828	315.44
418.051	329.44
418.274	318.44
418.497	319.44
418.72	309.44
418.943	315.44
419.166	328.44
419.389	374.44
419.611	362.44
419.834	339.44
420.057	332.44
420.28	326.44
420.503	302.44
420.726	315.44
420.948	330.44
421.171	331.44
421.394	341.44
421.617	313.44
421.839	304.44
422.062	316.44
422.285	324.44
422.507	307.44
422.73	331.44
422.953	324.44
423.175	337.44
423.398	325.44
423.621	324.44
423.843	343.44
424.066	335.44
424.288	342.44
424.511	315.44
424.733	335.44
424.956	336.44
425.178	327.44
425.401	338.44
425.623	327.44
425.846	322.44
426.068	322.44
426.291	313.44
426.513	321.44
426.735	312.44
426.958	328.44
427.18	303.44
427.402	313.44
427.625	305.44
427.847	308.44
428.069	321.44
428.292	324.44
428.514	324.44
428.736	309.44
428.958	313.44
429.181	284.44
429.403	292.44
429.625	300.44
429.847	304.44
430.069	307.44
430.292	294.44
430.514	286.44
430.736	299.44
430.958	293.44
431.18	300.44
431.402	292.44
431.624	293.44
431.846	303.44
432.068	331.44
432.29	310.44
432.512	295.44
432.734	309.44
432.956	295.44
433.178	322.44
433.4	306.44
433.622	305.44
433.844	318.44
434.066	309.44
434.287	319.44
434.509	313.44
434.731	345.44
434.953	317.44
435.175	340.44
435.397	327.44
435.618	322.44
435.84	299.44
436.062	316.44
436.284	303.44
436.505	304.44
436.727	316.44
436.949	321.44
437.17	312.44
437.392	299.44
437.614	314.44
437.835	297.44
438.057	293.44
438.278	302.44
438.5	312.44
438.721	312.44
438.943	322.44
439.165	306.44
439.386	316.44
439.608	324.44
439.829	318.44
440.05	323.44
440.272	322.44
440.493	316.44
440.715	321.44
440.936	318.44
441.158	343.44
441.379	337.44
441.6	339.44
441.822	323.44
442.043	334.44
442.264	339.44
442.486	355.44
442.707	352.44
442.928	360.44
443.149	345.44
443.371	332.44
443.592	341.44
443.813	360.44
444.034	341.44
444.255	357.44
444.476	364.44
444.698	370.44
444.919	369.44
445.14	479.44
445.361	416.44
445.582	381.44
445.803	365.44
446.024	361.44
446.245	345.44
446.466	330.44
446.687	340.44
446.908	312.44
447.129	338.44
447.35	337.44
447.571	306.44
447.792	310.44
448.013	307.44
448.234	311.44
448.455	291.44
448.675	300.44
448.896	291.44
449.117	302.44
449.338	304.44
449.559	305.44
449.779	281.44
450	298.44
450.221	315.44
450.442	321.44
450.662	306.44
450.883	288.44
451.104	310.44
451.324	308.44
451.545	308.44
451.766	315.44
451.986	296.44
452.207	295.44
452.428	294.44
452.648	289.44
452.869	272.44
453.089	292.44
453.31	285.44
453.53	294.44
453.751	299.44
453.971	288.44
454.192	295.44
454.412	281.44
454.633	282.44
454.853	274.44
455.073	279.44
455.294	308.44
455.514	295.44
455.734	279.44
455.955	287.44
456.175	284.44
456.395	279.44
456.616	284.44
456.836	295.44
457.056	281.44
457.276	292.44
457.497	276.44
457.717	274.44
457.937	273.44
458.157	291.44
458.377	282.44
458.598	279.44
458.818	309.44
459.038	305.44
459.258	308.44
459.478	326.44
459.698	297.44
459.918	325.44
460.138	319.44
460.358	357.44
460.578	360.44
460.798	347.44
461.018	348.44
461.238	353.44
461.458	361.44
461.678	356.44
461.898	372.44
462.118	351.44
462.338	357.44
462.558	364.44
462.777	382.44
462.997	413.44
463.217	433.44
463.437	410.44
463.657	379.44
463.876	416.44
464.096	398.44
464.316	391.44
464.536	395.44
464.755	388.44
464.975	380.44
465.195	354.44
465.414	355.44
465.634	342.44
465.854	342.44
466.073	330.44
466.293	300.44
466.512	324.44
466.732	325.44
466.951	326.44
467.171	321.44
467.391	321.44
467.61	323.44
467.829	315.44
468.049	310.44
468.268	303.44
468.488	313.44
468.707	306.44
468.927	308.44
469.146	315.44
469.365	307.44
469.585	323.44
469.804	306.44
470.023	313.44
470.243	315.44
470.462	322.44
470.681	324.44
470.901	314.44
471.12	318.44
471.339	317.44
471.558	306.44
471.777	316.44
471.997	306.44
472.216	317.44
472.435	305.44
472.654	276.44
472.873	317.44
473.092	310.44
473.311	296.44
473.53	307.44
473.749	295.44
473.968	319.44
474.187	296.44
474.406	299.44
474.625	289.44
474.844	294.44
475.063	295.44
475.282	297.44
475.501	295.44
475.72	308.44
475.939	288.44
476.158	302.44
476.377	308.44
476.596	312.44
476.814	305.44
477.033	300.44
477.252	304.44
477.471	324.44
477.69	344.44
477.908	316.44
478.127	326.44
478.346	373.44
478.564	346.44
478.783	344.44
479.002	342.44
479.22	354.44
479.439	337.44
479.658	330.44
479.876	353.44
480.095	360.44
480.313	339.44
480.532	379.44
480.751	366.44
480.969	356.44
481.188	332.44
481.406	351.44
481.624	339.44
481.843	311.44
482.061	312.44
482.28	302.44
482.498	315.44
482.717	320.44
482.935	341.44
483.153	334.44
483.372	338.44
483.59	346.44
483.808	337.44
484.027	342.44
484.245	346.44
484.463	343.44
484.681	337.44
484.9	322.44
485.118	345.44
485.336	331.44
485.554	349.44
485.772	344.44
485.99	331.44
486.209	343.44
486.427	356.44
486.645	343.44
486.863	342.44
487.081	337.44
487.299	339.44
487.517	331.44
487.735	337.44
487.953	358.44
488.171	355.44
488.389	342.44
488.607	356.44
488.825	320.44
489.043	345.44
489.261	350.44
489.479	333.44
489.696	350.44
489.914	335.44
490.132	346.44
490.35	337.44
490.568	363.44
490.786	337.44
491.003	338.44
491.221	351.44
491.439	366.44
491.657	350.44
491.874	357.44
492.092	374.44
492.31	364.44
492.527	382.44
492.745	354.44
492.963	372.44
493.18	375.44
493.398	358.44
493.615	360.44
493.833	375.44
494.05	354.44
494.268	362.44
494.485	395.44
494.703	366.44
494.92	366.44
495.138	358.44
495.355	364.44
495.573	369.44
495.79	370.44
496.008	368.44
496.225	363.44
496.442	388.44
496.66	401.44
496.877	386.44
497.094	403.44
497.312	410.44
497.529	403.44
497.746	408.44
497.963	405.44
498.181	404.44
498.398	438.44
498.615	457.44
498.832	475.44
499.049	507.44
499.267	533.44
499.484	534.44
499.701	609.44
499.918	661.44
500.135	696.44
500.352	779.44
500.569	775.44
500.786	788.44
501.003	747.44
501.22	695.44
501.437	644.44
501.654	578.44
501.871	545.44
502.088	519.44
502.305	514.44
502.522	490.44
