Data from Fe(NO3)3@0.05M.TitratingCurve.Agarose3%dH2O.NegLispCup.LampEnergy10.LIBS07252019_HRD10591_16-48-45-334.txt Node
Date: Thu Jul 25 16:48:45 EDT 2019
User: cochatt
Spectrometer: HR+D1059
Trigger mode: 1
Integration Time (sec): 1.000000E-1
Scans to average: 1
Electric dark correction enabled: true
Nonlinearity correction enabled: false
Boxcar width: 0
XAxis mode: Wavelengths
Number of Pixels in Spectrum: 2048
>>>>>Begin Spectral Data<<<<<
223.165	-18.81
223.4	-18.81
223.635	-18.81
223.869	-13.81
224.104	-22.81
224.338	-1.81
224.573	-12.81
224.808	-3.81
225.042	0.19
225.277	0.19
225.511	3.19
225.746	14.19
225.98	1.19
226.215	12.19
226.449	9.19
226.683	5.19
226.918	14.19
227.152	14.19
227.387	36.19
227.621	41.19
227.856	56.19
228.09	43.19
228.324	45.19
228.559	59.19
228.793	68.19
229.027	79.19
229.262	77.19
229.496	90.19
229.73	86.19
229.964	92.19
230.199	88.19
230.433	81.19
230.667	88.19
230.901	80.19
231.136	109.19
231.37	100.19
231.604	87.19
231.838	101.19
232.072	80.19
232.306	95.19
232.541	93.19
232.775	94.19
233.009	97.19
233.243	96.19
233.477	108.19
233.711	98.19
233.945	91.19
234.179	91.19
234.413	94.19
234.647	83.19
234.881	93.19
235.115	92.19
235.349	89.19
235.583	86.19
235.817	99.19
236.051	96.19
236.285	83.19
236.519	95.19
236.753	96.19
236.987	97.19
237.221	96.19
237.455	94.19
237.689	104.19
237.922	112.19
238.156	108.19
238.39	97.19
238.624	100.19
238.858	105.19
239.091	109.19
239.325	83.19
239.559	99.19
239.793	91.19
240.027	110.19
240.26	96.19
240.494	96.19
240.728	110.19
240.961	97.19
241.195	101.19
241.429	118.19
241.662	111.19
241.896	106.19
242.13	110.19
242.363	104.19
242.597	114.19
242.83	107.19
243.064	97.19
243.298	99.19
243.531	89.19
243.765	123.19
243.998	112.19
244.232	118.19
244.465	112.19
244.699	96.19
244.932	98.19
245.166	106.19
245.399	105.19
245.633	118.19
245.866	117.19
246.099	102.19
246.333	123.19
246.566	119.19
246.8	104.19
247.033	102.19
247.266	117.19
247.5	107.19
247.733	117.19
247.966	110.19
248.2	119.19
248.433	115.19
248.666	111.19
248.899	116.19
249.133	105.19
249.366	132.19
249.599	117.19
249.832	123.19
250.066	108.19
250.299	117.19
250.532	125.19
250.765	113.19
250.998	116.19
251.231	122.19
251.465	116.19
251.698	125.19
251.931	130.19
252.164	121.19
252.397	110.19
252.63	113.19
252.863	106.19
253.096	120.19
253.329	126.19
253.562	126.19
253.795	128.19
254.028	118.19
254.261	118.19
254.494	101.19
254.727	122.19
254.96	113.19
255.193	133.19
255.426	131.19
255.659	129.19
255.892	141.19
256.124	125.19
256.357	138.19
256.59	126.19
256.823	123.19
257.056	98.19
257.289	122.19
257.521	122.19
257.754	126.19
257.987	126.19
258.22	121.19
258.452	130.19
258.685	102.19
258.918	124.19
259.151	135.19
259.383	132.19
259.616	108.19
259.849	130.19
260.081	138.19
260.314	139.19
260.547	145.19
260.779	123.19
261.012	129.19
261.244	132.19
261.477	134.19
261.71	131.19
261.942	116.19
262.175	126.19
262.407	132.19
262.64	141.19
262.872	137.19
263.105	130.19
263.337	143.19
263.57	130.19
263.802	128.19
264.035	161.19
264.267	147.19
264.499	127.19
264.732	148.19
264.964	138.19
265.197	144.19
265.429	145.19
265.661	130.19
265.894	151.19
266.126	137.19
266.358	142.19
266.591	148.19
266.823	144.19
267.055	157.19
267.287	138.19
267.52	134.19
267.752	154.19
267.984	134.19
268.216	143.19
268.448	159.19
268.681	144.19
268.913	119.19
269.145	145.19
269.377	156.19
269.609	157.19
269.841	171.19
270.073	144.19
270.306	140.19
270.538	154.19
270.77	147.19
271.002	132.19
271.234	147.19
271.466	132.19
271.698	151.19
271.93	160.19
272.162	154.19
272.394	147.19
272.626	148.19
272.858	141.19
273.09	148.19
273.322	163.19
273.553	140.19
273.785	148.19
274.017	144.19
274.249	153.19
274.481	157.19
274.713	146.19
274.945	151.19
275.176	146.19
275.408	156.19
275.64	164.19
275.872	160.19
276.104	145.19
276.335	146.19
276.567	162.19
276.799	169.19
277.031	169.19
277.262	157.19
277.494	155.19
277.726	161.19
277.957	161.19
278.189	148.19
278.421	155.19
278.652	151.19
278.884	164.19
279.115	164.19
279.347	160.19
279.579	154.19
279.81	158.19
280.042	161.19
280.273	165.19
280.505	165.19
280.736	161.19
280.968	182.19
281.199	173.19
281.431	167.19
281.662	148.19
281.894	182.19
282.125	169.19
282.356	165.19
282.588	168.19
282.819	178.19
283.051	167.19
283.282	168.19
283.513	174.19
283.745	179.19
283.976	153.19
284.207	163.19
284.439	157.19
284.67	173.19
284.901	184.19
285.132	164.19
285.364	162.19
285.595	163.19
285.826	183.19
286.057	180.19
286.288	163.19
286.52	178.19
286.751	177.19
286.982	168.19
287.213	159.19
287.444	177.19
287.675	168.19
287.906	171.19
288.138	186.19
288.369	194.19
288.6	186.19
288.831	176.19
289.062	184.19
289.293	167.19
289.524	178.19
289.755	156.19
289.986	185.19
290.217	179.19
290.448	199.19
290.679	160.19
290.91	193.19
291.141	170.19
291.371	170.19
291.602	173.19
291.833	180.19
292.064	175.19
292.295	180.19
292.526	176.19
292.757	186.19
292.987	190.19
293.218	186.19
293.449	175.19
293.68	166.19
293.91	179.19
294.141	178.19
294.372	167.19
294.603	198.19
294.833	171.19
295.064	182.19
295.295	190.19
295.525	173.19
295.756	170.19
295.987	190.19
296.217	169.19
296.448	185.19
296.679	189.19
296.909	181.19
297.14	206.19
297.37	202.19
297.601	189.19
297.831	188.19
298.062	179.19
298.292	201.19
298.523	188.19
298.753	179.19
298.984	191.19
299.214	205.19
299.445	183.19
299.675	186.19
299.905	192.19
300.136	180.19
300.366	187.19
300.597	199.19
300.827	197.19
301.057	207.19
301.288	188.19
301.518	205.19
301.748	190.19
301.979	200.19
302.209	213.19
302.439	205.19
302.669	172.19
302.9	211.19
303.13	199.19
303.36	196.19
303.59	203.19
303.82	204.19
304.051	196.19
304.281	186.19
304.511	195.19
304.741	199.19
304.971	205.19
305.201	204.19
305.431	193.19
305.661	198.19
305.891	192.19
306.121	200.19
306.352	209.19
306.582	189.19
306.812	200.19
307.042	205.19
307.272	194.19
307.502	174.19
307.731	193.19
307.961	204.19
308.191	206.19
308.421	212.19
308.651	206.19
308.881	199.19
309.111	180.19
309.341	199.19
309.571	217.19
309.8	208.19
310.03	200.19
310.26	190.19
310.49	196.19
310.72	191.19
310.949	192.19
311.179	195.19
311.409	208.19
311.639	205.19
311.868	200.19
312.098	203.19
312.328	200.19
312.557	215.19
312.787	205.19
313.017	210.19
313.246	196.19
313.476	220.19
313.706	204.19
313.935	190.19
314.165	210.19
314.394	198.19
314.624	206.19
314.853	210.19
315.083	222.19
315.312	204.19
315.542	202.19
315.771	203.19
316.001	185.19
316.23	215.19
316.46	190.19
316.689	200.19
316.919	203.19
317.148	200.19
317.377	212.19
317.607	204.19
317.836	185.19
318.065	210.19
318.295	216.19
318.524	199.19
318.753	220.19
318.983	202.19
319.212	210.19
319.441	196.19
319.67	199.19
319.9	212.19
320.129	207.19
320.358	225.19
320.587	201.19
320.816	215.19
321.046	192.19
321.275	199.19
321.504	194.19
321.733	216.19
321.962	214.19
322.191	203.19
322.42	206.19
322.649	200.19
322.878	197.19
323.108	224.19
323.337	199.19
323.566	204.19
323.795	218.19
324.024	203.19
324.253	192.19
324.482	210.19
324.71	216.19
324.939	224.19
325.168	189.19
325.397	204.19
325.626	201.19
325.855	216.19
326.084	225.19
326.313	208.19
326.542	212.19
326.77	226.19
326.999	210.19
327.228	228.19
327.457	232.19
327.686	220.19
327.914	222.19
328.143	220.19
328.372	232.19
328.6	213.19
328.829	217.19
329.058	234.19
329.287	217.19
329.515	209.19
329.744	243.19
329.972	228.19
330.201	214.19
330.43	219.19
330.658	226.19
330.887	235.19
331.115	221.19
331.344	231.19
331.572	231.19
331.801	237.19
332.03	246.19
332.258	242.19
332.486	242.19
332.715	263.19
332.943	258.19
333.172	251.19
333.4	262.19
333.629	288.19
333.857	284.19
334.085	276.19
334.314	275.19
334.542	262.19
334.771	260.19
334.999	264.19
335.227	270.19
335.455	264.19
335.684	265.19
335.912	265.19
336.14	264.19
336.369	259.19
336.597	243.19
336.825	262.19
337.053	246.19
337.281	242.19
337.51	241.19
337.738	246.19
337.966	254.19
338.194	243.19
338.422	237.19
338.65	230.19
338.878	232.19
339.106	238.19
339.334	252.19
339.562	220.19
339.79	244.19
340.018	245.19
340.246	218.19
340.474	249.19
340.702	243.19
340.93	236.19
341.158	236.19
341.386	234.19
341.614	229.19
341.842	244.19
342.07	229.19
342.298	226.19
342.526	215.19
342.754	242.19
342.981	232.19
343.209	233.19
343.437	263.19
343.665	239.19
343.893	261.19
344.12	274.19
344.348	260.19
344.576	238.19
344.804	245.19
345.031	247.19
345.259	240.19
345.487	221.19
345.714	237.19
345.942	217.19
346.17	210.19
346.397	223.19
346.625	220.19
346.853	234.19
347.08	210.19
347.308	196.19
347.535	229.19
347.763	236.19
347.99	229.19
348.218	229.19
348.445	209.19
348.673	237.19
348.9	214.19
349.128	214.19
349.355	219.19
349.583	214.19
349.81	212.19
350.037	213.19
350.265	212.19
350.492	216.19
350.72	205.19
350.947	221.19
351.174	217.19
351.402	225.19
351.629	213.19
351.856	210.19
352.083	226.19
352.311	204.19
352.538	206.19
352.765	212.19
352.992	209.19
353.22	218.19
353.447	207.19
353.674	197.19
353.901	232.19
354.128	219.19
354.355	218.19
354.583	215.19
354.81	211.19
355.037	221.19
355.264	231.19
355.491	212.19
355.718	208.19
355.945	212.19
356.172	220.19
356.399	214.19
356.626	220.19
356.853	213.19
357.08	222.19
357.307	217.19
357.534	212.19
357.761	212.19
357.988	234.19
358.215	235.19
358.441	211.19
358.668	225.19
358.895	226.19
359.122	240.19
359.349	223.19
359.576	226.19
359.802	211.19
360.029	221.19
360.256	215.19
360.483	221.19
360.709	226.19
360.936	229.19
361.163	214.19
361.39	223.19
361.616	201.19
361.843	225.19
362.07	226.19
362.296	213.19
362.523	211.19
362.749	214.19
362.976	215.19
363.203	214.19
363.429	238.19
363.656	224.19
363.882	217.19
364.109	227.19
364.335	218.19
364.562	212.19
364.788	212.19
365.015	218.19
365.241	212.19
365.468	240.19
365.694	251.19
365.92	221.19
366.147	228.19
366.373	226.19
366.599	235.19
366.826	220.19
367.052	212.19
367.278	218.19
367.505	219.19
367.731	209.19
367.957	214.19
368.184	234.19
368.41	223.19
368.636	222.19
368.862	234.19
369.089	238.19
369.315	210.19
369.541	228.19
369.767	220.19
369.993	242.19
370.219	246.19
370.445	232.19
370.672	236.19
370.898	223.19
371.124	242.19
371.35	226.19
371.576	234.19
371.802	241.19
372.028	236.19
372.254	254.19
372.48	240.19
372.706	247.19
372.932	237.19
373.158	256.19
373.384	260.19
373.61	235.19
373.835	243.19
374.061	242.19
374.287	242.19
374.513	245.19
374.739	260.19
374.965	269.19
375.191	272.19
375.416	252.19
375.642	269.19
375.868	261.19
376.094	251.19
376.319	256.19
376.545	243.19
376.771	235.19
376.997	248.19
377.222	249.19
377.448	235.19
377.674	256.19
377.899	266.19
378.125	221.19
378.35	236.19
378.576	239.19
378.802	233.19
379.027	234.19
379.253	257.19
379.478	238.19
379.704	241.19
379.929	250.19
380.155	249.19
380.38	249.19
380.606	232.19
380.831	241.19
381.057	242.19
381.282	246.19
381.507	242.19
381.733	252.19
381.958	264.19
382.184	252.19
382.409	235.19
382.634	260.19
382.86	264.19
383.085	252.19
383.31	264.19
383.535	268.19
383.761	284.19
383.986	263.19
384.211	284.19
384.436	280.19
384.662	270.19
384.887	282.19
385.112	286.19
385.337	268.19
385.562	285.19
385.787	296.19
386.013	307.19
386.238	291.19
386.463	294.19
386.688	289.19
386.913	284.19
387.138	274.19
387.363	303.19
387.588	290.19
387.813	282.19
388.038	293.19
388.263	313.19
388.488	297.19
388.713	309.19
388.938	272.19
389.163	270.19
389.387	279.19
389.612	283.19
389.837	292.19
390.062	280.19
390.287	289.19
390.512	278.19
390.736	284.19
390.961	300.19
391.186	292.19
391.411	330.19
391.636	314.19
391.86	341.19
392.085	328.19
392.31	327.19
392.534	311.19
392.759	307.19
392.984	310.19
393.208	305.19
393.433	320.19
393.658	315.19
393.882	323.19
394.107	319.19
394.331	305.19
394.556	307.19
394.78	333.19
395.005	303.19
395.229	311.19
395.454	320.19
395.678	318.19
395.903	329.19
396.127	319.19
396.352	313.19
396.576	325.19
396.801	312.19
397.025	318.19
397.249	322.19
397.474	345.19
397.698	325.19
397.922	324.19
398.147	368.19
398.371	344.19
398.595	360.19
398.82	352.19
399.044	358.19
399.268	389.19
399.492	444.19
399.717	504.19
399.941	500.19
400.165	471.19
400.389	420.19
400.613	386.19
400.837	375.19
401.062	378.19
401.286	368.19
401.51	366.19
401.734	370.19
401.958	376.19
402.182	362.19
402.406	380.19
402.63	370.19
402.854	384.19
403.078	372.19
403.302	390.19
403.526	398.19
403.75	401.19
403.974	414.19
404.198	401.19
404.422	409.19
404.645	410.19
404.869	397.19
405.093	411.19
405.317	392.19
405.541	423.19
405.765	392.19
405.988	386.19
406.212	405.19
406.436	402.19
406.66	402.19
406.883	418.19
407.107	412.19
407.331	453.19
407.555	450.19
407.778	428.19
408.002	444.19
408.226	425.19
408.449	426.19
408.673	411.19
408.896	407.19
409.12	392.19
409.344	401.19
409.567	404.19
409.791	392.19
410.014	408.19
410.238	410.19
410.461	394.19
410.685	408.19
410.908	395.19
411.132	404.19
411.355	380.19
411.578	381.19
411.802	373.19
412.025	387.19
412.249	374.19
412.472	379.19
412.695	390.19
412.919	388.19
413.142	388.19
413.365	386.19
413.589	386.19
413.812	386.19
414.035	365.19
414.258	358.19
414.482	395.19
414.705	396.19
414.928	390.19
415.151	392.19
415.374	386.19
415.597	391.19
415.821	378.19
416.044	361.19
416.267	372.19
416.49	386.19
416.713	382.19
416.936	373.19
417.159	368.19
417.382	368.19
417.605	359.19
417.828	384.19
418.051	360.19
418.274	391.19
418.497	376.19
418.72	387.19
418.943	382.19
419.166	395.19
419.389	441.19
419.611	413.19
419.834	406.19
420.057	383.19
420.28	373.19
420.503	361.19
420.726	384.19
420.948	376.19
421.171	377.19
421.394	370.19
421.617	356.19
421.839	370.19
422.062	370.19
422.285	394.19
422.507	371.19
422.73	387.19
422.953	389.19
423.175	411.19
423.398	394.19
423.621	408.19
423.843	385.19
424.066	379.19
424.288	406.19
424.511	381.19
424.733	396.19
424.956	392.19
425.178	369.19
425.401	384.19
425.623	384.19
425.846	362.19
426.068	360.19
426.291	362.19
426.513	346.19
426.735	337.19
426.958	361.19
427.18	361.19
427.402	341.19
427.625	345.19
427.847	335.19
428.069	344.19
428.292	359.19
428.514	359.19
428.736	351.19
428.958	356.19
429.181	339.19
429.403	349.19
429.625	344.19
429.847	336.19
430.069	338.19
430.292	346.19
430.514	336.19
430.736	334.19
430.958	358.19
431.18	337.19
431.402	331.19
431.624	356.19
431.846	346.19
432.068	358.19
432.29	342.19
432.512	343.19
432.734	358.19
432.956	353.19
433.178	354.19
433.4	362.19
433.622	368.19
433.844	368.19
434.066	339.19
434.287	354.19
434.509	362.19
434.731	375.19
434.953	362.19
435.175	377.19
435.397	372.19
435.618	365.19
435.84	346.19
436.062	351.19
436.284	376.19
436.505	354.19
436.727	364.19
436.949	338.19
437.17	370.19
437.392	354.19
437.614	350.19
437.835	346.19
438.057	338.19
438.278	338.19
438.5	348.19
438.721	347.19
438.943	342.19
439.165	357.19
439.386	343.19
439.608	368.19
439.829	345.19
440.05	338.19
440.272	356.19
440.493	368.19
440.715	350.19
440.936	376.19
441.158	376.19
441.379	376.19
441.6	397.19
441.822	390.19
442.043	402.19
442.264	380.19
442.486	370.19
442.707	372.19
442.928	379.19
443.149	400.19
443.371	393.19
443.592	365.19
443.813	397.19
444.034	389.19
444.255	404.19
444.476	434.19
444.698	426.19
444.919	461.19
445.14	565.19
445.361	473.19
445.582	406.19
445.803	396.19
446.024	387.19
446.245	368.19
446.466	386.19
446.687	387.19
446.908	373.19
447.129	375.19
447.35	350.19
447.571	350.19
447.792	356.19
448.013	338.19
448.234	355.19
448.455	342.19
448.675	342.19
448.896	323.19
449.117	353.19
449.338	359.19
449.559	340.19
449.779	343.19
450	363.19
450.221	327.19
450.442	360.19
450.662	339.19
450.883	337.19
451.104	357.19
451.324	344.19
451.545	342.19
451.766	339.19
451.986	321.19
452.207	348.19
452.428	346.19
452.648	331.19
452.869	330.19
453.089	314.19
453.31	321.19
453.53	310.19
453.751	329.19
453.971	307.19
454.192	320.19
454.412	324.19
454.633	317.19
454.853	323.19
455.073	304.19
455.294	343.19
455.514	317.19
455.734	310.19
455.955	324.19
456.175	329.19
456.395	315.19
456.616	311.19
456.836	308.19
457.056	342.19
457.276	316.19
457.497	318.19
457.717	313.19
457.937	325.19
458.157	329.19
458.377	334.19
458.598	341.19
458.818	324.19
459.038	326.19
459.258	356.19
459.478	362.19
459.698	356.19
459.918	363.19
460.138	372.19
460.358	410.19
460.578	413.19
460.798	411.19
461.018	400.19
461.238	390.19
461.458	397.19
461.678	414.19
461.898	402.19
462.118	410.19
462.338	423.19
462.558	434.19
462.777	444.19
462.997	478.19
463.217	517.19
463.437	507.19
463.657	469.19
463.876	462.19
464.096	472.19
464.316	452.19
464.536	459.19
464.755	451.19
464.975	429.19
465.195	408.19
465.414	413.19
465.634	371.19
465.854	376.19
466.073	358.19
466.293	357.19
466.512	360.19
466.732	356.19
466.951	383.19
467.171	346.19
467.391	329.19
467.61	341.19
467.829	352.19
468.049	336.19
468.268	348.19
468.488	346.19
468.707	343.19
468.927	332.19
469.146	335.19
469.365	357.19
469.585	352.19
469.804	368.19
470.023	372.19
470.243	374.19
470.462	353.19
470.681	364.19
470.901	373.19
471.12	355.19
471.339	363.19
471.558	337.19
471.777	344.19
471.997	353.19
472.216	348.19
472.435	337.19
472.654	330.19
472.873	331.19
473.092	342.19
473.311	328.19
473.53	344.19
473.749	320.19
473.968	353.19
474.187	344.19
474.406	336.19
474.625	328.19
474.844	327.19
475.063	344.19
475.282	347.19
475.501	329.19
475.72	342.19
475.939	350.19
476.158	334.19
476.377	339.19
476.596	338.19
476.814	349.19
477.033	340.19
477.252	371.19
477.471	353.19
477.69	352.19
477.908	386.19
478.127	392.19
478.346	372.19
478.564	389.19
478.783	381.19
479.002	398.19
479.22	394.19
479.439	410.19
479.658	392.19
479.876	390.19
480.095	389.19
480.313	411.19
480.532	407.19
480.751	406.19
480.969	378.19
481.188	384.19
481.406	382.19
481.624	376.19
481.843	358.19
482.061	360.19
482.28	360.19
482.498	366.19
482.717	368.19
482.935	380.19
483.153	364.19
483.372	382.19
483.59	375.19
483.808	359.19
484.027	372.19
484.245	373.19
484.463	377.19
484.681	379.19
484.9	390.19
485.118	385.19
485.336	360.19
485.554	361.19
485.772	367.19
485.99	378.19
486.209	368.19
486.427	369.19
486.645	387.19
486.863	380.19
487.081	397.19
487.299	389.19
487.517	376.19
487.735	388.19
487.953	380.19
488.171	366.19
488.389	386.19
488.607	368.19
488.825	363.19
489.043	381.19
489.261	376.19
489.479	372.19
489.696	371.19
489.914	387.19
490.132	372.19
490.35	390.19
490.568	386.19
490.786	381.19
491.003	387.19
491.221	386.19
491.439	384.19
491.657	398.19
491.874	410.19
492.092	412.19
492.31	403.19
492.527	412.19
492.745	396.19
492.963	383.19
493.18	393.19
493.398	408.19
493.615	418.19
493.833	415.19
494.05	395.19
494.268	419.19
494.485	424.19
494.703	395.19
494.92	412.19
495.138	401.19
495.355	398.19
495.573	403.19
495.79	381.19
496.008	411.19
496.225	429.19
496.442	427.19
496.66	429.19
496.877	427.19
497.094	425.19
497.312	414.19
497.529	428.19
497.746	424.19
497.963	465.19
498.181	491.19
498.398	467.19
498.615	494.19
498.832	536.19
499.049	574.19
499.267	603.19
499.484	648.19
499.701	707.19
499.918	777.19
500.135	852.19
500.352	952.19
500.569	969.19
500.786	975.19
501.003	918.19
501.22	816.19
501.437	745.19
501.654	685.19
501.871	614.19
502.088	582.19
502.305	564.19
