Data from Fe(NO3)3@0.05M.TitratingCurve.Agarose3%dH2O.NegLispCup.LampEnergy10.LIBS07252019_HRD10591_16-46-56-334.txt Node
Date: Thu Jul 25 16:46:56 EDT 2019
User: cochatt
Spectrometer: HR+D1059
Trigger mode: 1
Integration Time (sec): 1.000000E-1
Scans to average: 1
Electric dark correction enabled: true
Nonlinearity correction enabled: false
Boxcar width: 0
XAxis mode: Wavelengths
Number of Pixels in Spectrum: 2048
>>>>>Begin Spectral Data<<<<<
223.165	-11.5
223.4	-11.5
223.635	-11.5
223.869	-19.5
224.104	-24.5
224.338	1.5
224.573	-16.5
224.808	-8.5
225.042	-29.5
225.277	-9.5
225.511	2.5
225.746	7.5
225.98	14.5
226.215	4.5
226.449	0.5
226.683	23.5
226.918	29.5
227.152	35.5
227.387	46.5
227.621	25.5
227.856	49.5
228.09	38.5
228.324	62.5
228.559	70.5
228.793	75.5
229.027	126.5
229.262	105.5
229.496	129.5
229.73	133.5
229.964	143.5
230.199	143.5
230.433	149.5
230.667	159.5
230.901	144.5
231.136	135.5
231.37	143.5
231.604	157.5
231.838	159.5
232.072	153.5
232.306	149.5
232.541	173.5
232.775	168.5
233.009	179.5
233.243	169.5
233.477	169.5
233.711	169.5
233.945	183.5
234.179	166.5
234.413	192.5
234.647	166.5
234.881	193.5
235.115	185.5
235.349	183.5
235.583	182.5
235.817	174.5
236.051	180.5
236.285	194.5
236.519	185.5
236.753	193.5
236.987	198.5
237.221	198.5
237.455	194.5
237.689	196.5
237.922	191.5
238.156	214.5
238.39	228.5
238.624	235.5
238.858	228.5
239.091	229.5
239.325	241.5
239.559	226.5
239.793	230.5
240.027	253.5
240.26	222.5
240.494	236.5
240.728	242.5
240.961	235.5
241.195	231.5
241.429	234.5
241.662	248.5
241.896	221.5
242.13	241.5
242.363	238.5
242.597	238.5
242.83	244.5
243.064	235.5
243.298	257.5
243.531	243.5
243.765	261.5
243.998	249.5
244.232	254.5
244.465	262.5
244.699	249.5
244.932	266.5
245.166	274.5
245.399	269.5
245.633	268.5
245.866	265.5
246.099	257.5
246.333	258.5
246.566	279.5
246.8	281.5
247.033	271.5
247.266	271.5
247.5	295.5
247.733	279.5
247.966	308.5
248.2	278.5
248.433	312.5
248.666	290.5
248.899	314.5
249.133	292.5
249.366	325.5
249.599	318.5
249.832	329.5
250.066	316.5
250.299	305.5
250.532	305.5
250.765	306.5
250.998	316.5
251.231	319.5
251.465	318.5
251.698	297.5
251.931	309.5
252.164	319.5
252.397	346.5
252.63	341.5
252.863	342.5
253.096	350.5
253.329	370.5
253.562	335.5
253.795	326.5
254.028	372.5
254.261	387.5
254.494	363.5
254.727	378.5
254.96	375.5
255.193	363.5
255.426	371.5
255.659	340.5
255.892	335.5
256.124	352.5
256.357	367.5
256.59	381.5
256.823	385.5
257.056	369.5
257.289	371.5
257.521	369.5
257.754	376.5
257.987	373.5
258.22	385.5
258.452	386.5
258.685	399.5
258.918	413.5
259.151	403.5
259.383	396.5
259.616	405.5
259.849	424.5
260.081	461.5
260.314	479.5
260.547	426.5
260.779	425.5
261.012	427.5
261.244	474.5
261.477	451.5
261.71	459.5
261.942	408.5
262.175	426.5
262.407	427.5
262.64	452.5
262.872	461.5
263.105	458.5
263.337	467.5
263.57	452.5
263.802	414.5
264.035	417.5
264.267	410.5
264.499	403.5
264.732	412.5
264.964	413.5
265.197	416.5
265.429	432.5
265.661	417.5
265.894	421.5
266.126	435.5
266.358	423.5
266.591	430.5
266.823	454.5
267.055	467.5
267.287	432.5
267.52	455.5
267.752	438.5
267.984	452.5
268.216	451.5
268.448	455.5
268.681	445.5
268.913	441.5
269.145	449.5
269.377	467.5
269.609	447.5
269.841	462.5
270.073	460.5
270.306	474.5
270.538	477.5
270.77	459.5
271.002	468.5
271.234	479.5
271.466	495.5
271.698	482.5
271.93	484.5
272.162	490.5
272.394	491.5
272.626	491.5
272.858	489.5
273.09	503.5
273.322	516.5
273.553	492.5
273.785	533.5
274.017	566.5
274.249	597.5
274.481	595.5
274.713	628.5
274.945	659.5
275.176	670.5
275.408	620.5
275.64	581.5
275.872	610.5
276.104	583.5
276.335	550.5
276.567	525.5
276.799	523.5
277.031	548.5
277.262	581.5
277.494	551.5
277.726	546.5
277.957	550.5
278.189	545.5
278.421	574.5
278.652	537.5
278.884	552.5
279.115	555.5
279.347	570.5
279.579	562.5
279.81	575.5
280.042	548.5
280.273	553.5
280.505	569.5
280.736	578.5
280.968	555.5
281.199	554.5
281.431	566.5
281.662	579.5
281.894	584.5
282.125	578.5
282.356	585.5
282.588	589.5
282.819	575.5
283.051	556.5
283.282	594.5
283.513	589.5
283.745	577.5
283.976	599.5
284.207	600.5
284.439	597.5
284.67	597.5
284.901	609.5
285.132	610.5
285.364	623.5
285.595	610.5
285.826	612.5
286.057	611.5
286.288	604.5
286.52	626.5
286.751	617.5
286.982	595.5
287.213	616.5
287.444	602.5
287.675	642.5
287.906	645.5
288.138	625.5
288.369	626.5
288.6	638.5
288.831	622.5
289.062	618.5
289.293	639.5
289.524	615.5
289.755	637.5
289.986	605.5
290.217	625.5
290.448	652.5
290.679	639.5
290.91	646.5
291.141	631.5
291.371	614.5
291.602	632.5
291.833	635.5
292.064	641.5
292.295	623.5
292.526	644.5
292.757	629.5
292.987	656.5
293.218	639.5
293.449	651.5
293.68	646.5
293.91	639.5
294.141	646.5
294.372	635.5
294.603	661.5
294.833	646.5
295.064	648.5
295.295	657.5
295.525	635.5
295.756	663.5
295.987	656.5
296.217	664.5
296.448	656.5
296.679	657.5
296.909	666.5
297.14	647.5
297.37	686.5
297.601	689.5
297.831	666.5
298.062	683.5
298.292	700.5
298.523	673.5
298.753	712.5
298.984	681.5
299.214	683.5
299.445	681.5
299.675	690.5
299.905	709.5
300.136	727.5
300.366	716.5
300.597	703.5
300.827	707.5
301.057	740.5
301.288	703.5
301.518	679.5
301.748	727.5
301.979	724.5
302.209	748.5
302.439	775.5
302.669	733.5
302.9	724.5
303.13	755.5
303.36	757.5
303.59	721.5
303.82	717.5
304.051	745.5
304.281	759.5
304.511	744.5
304.741	742.5
304.971	742.5
305.201	728.5
305.431	746.5
305.661	729.5
305.891	732.5
306.121	763.5
306.352	750.5
306.582	763.5
306.812	753.5
307.042	754.5
307.272	735.5
307.502	742.5
307.731	780.5
307.961	767.5
308.191	740.5
308.421	730.5
308.651	710.5
308.881	751.5
309.111	733.5
309.341	725.5
309.571	753.5
309.8	766.5
310.03	734.5
310.26	709.5
310.49	746.5
310.72	769.5
310.949	739.5
311.179	754.5
311.409	775.5
311.639	773.5
311.868	752.5
312.098	786.5
312.328	773.5
312.557	777.5
312.787	758.5
313.017	807.5
313.246	796.5
313.476	804.5
313.706	803.5
313.935	829.5
314.165	805.5
314.394	794.5
314.624	807.5
314.853	780.5
315.083	811.5
315.312	814.5
315.542	804.5
315.771	799.5
316.001	806.5
316.23	799.5
316.46	821.5
316.689	809.5
316.919	791.5
317.148	829.5
317.377	814.5
317.607	808.5
317.836	803.5
318.065	803.5
318.295	792.5
318.524	814.5
318.753	822.5
318.983	815.5
319.212	820.5
319.441	819.5
319.67	861.5
319.9	829.5
320.129	843.5
320.358	846.5
320.587	836.5
320.816	826.5
321.046	818.5
321.275	826.5
321.504	835.5
321.733	849.5
321.962	829.5
322.191	835.5
322.42	846.5
322.649	855.5
322.878	826.5
323.108	854.5
323.337	855.5
323.566	847.5
323.795	840.5
324.024	866.5
324.253	853.5
324.482	877.5
324.71	852.5
324.939	876.5
325.168	872.5
325.397	879.5
325.626	866.5
325.855	873.5
326.084	866.5
326.313	859.5
326.542	894.5
326.77	879.5
326.999	889.5
327.228	881.5
327.457	899.5
327.686	892.5
327.914	904.5
328.143	885.5
328.372	891.5
328.6	869.5
328.829	925.5
329.058	907.5
329.287	909.5
329.515	901.5
329.744	895.5
329.972	917.5
330.201	913.5
330.43	900.5
330.658	925.5
330.887	933.5
331.115	895.5
331.344	925.5
331.572	922.5
331.801	926.5
332.03	915.5
332.258	941.5
332.486	964.5
332.715	947.5
332.943	961.5
333.172	989.5
333.4	1006.5
333.629	1032.5
333.857	1012.5
334.085	1004.5
334.314	1035.5
334.542	1057.5
334.771	1063.5
334.999	1033.5
335.227	1037.5
335.455	1052.5
335.684	1023.5
335.912	1040.5
336.14	1021.5
336.369	1055.5
336.597	1038.5
336.825	1037.5
337.053	1014.5
337.281	1025.5
337.51	1011.5
337.738	997.5
337.966	977.5
338.194	999.5
338.422	962.5
338.65	993.5
338.878	987.5
339.106	972.5
339.334	958.5
339.562	973.5
339.79	961.5
340.018	983.5
340.246	963.5
340.474	982.5
340.702	946.5
340.93	955.5
341.158	954.5
341.386	963.5
341.614	947.5
341.842	973.5
342.07	961.5
342.298	931.5
342.526	988.5
342.754	988.5
342.981	964.5
343.209	976.5
343.437	1002.5
343.665	998.5
343.893	993.5
344.12	1024.5
344.348	1044.5
344.576	1014.5
344.804	1000.5
345.031	986.5
345.259	958.5
345.487	977.5
345.714	963.5
345.942	954.5
346.17	953.5
346.397	943.5
346.625	944.5
346.853	926.5
347.08	917.5
347.308	922.5
347.535	927.5
347.763	901.5
347.99	915.5
348.218	906.5
348.445	911.5
348.673	906.5
348.9	932.5
349.128	929.5
349.355	902.5
349.583	899.5
349.81	918.5
350.037	920.5
350.265	931.5
350.492	923.5
350.72	898.5
350.947	885.5
351.174	899.5
351.402	887.5
351.629	927.5
351.856	893.5
352.083	901.5
352.311	928.5
352.538	875.5
352.765	928.5
352.992	908.5
353.22	907.5
353.447	910.5
353.674	909.5
353.901	935.5
354.128	911.5
354.355	908.5
354.583	889.5
354.81	878.5
355.037	894.5
355.264	942.5
355.491	894.5
355.718	907.5
355.945	902.5
356.172	913.5
356.399	918.5
356.626	923.5
356.853	936.5
357.08	934.5
357.307	945.5
357.534	925.5
357.761	938.5
357.988	961.5
358.215	955.5
358.441	959.5
358.668	902.5
358.895	930.5
359.122	922.5
359.349	901.5
359.576	897.5
359.802	936.5
360.029	900.5
360.256	882.5
360.483	923.5
360.709	924.5
360.936	923.5
361.163	932.5
361.39	930.5
361.616	917.5
361.843	936.5
362.07	943.5
362.296	930.5
362.523	939.5
362.749	951.5
362.976	904.5
363.203	952.5
363.429	950.5
363.656	926.5
363.882	953.5
364.109	937.5
364.335	907.5
364.562	921.5
364.788	939.5
365.015	962.5
365.241	937.5
365.468	939.5
365.694	934.5
365.92	919.5
366.147	916.5
366.373	934.5
366.599	932.5
366.826	938.5
367.052	938.5
367.278	934.5
367.505	954.5
367.731	954.5
367.957	962.5
368.184	952.5
368.41	943.5
368.636	959.5
368.862	953.5
369.089	961.5
369.315	946.5
369.541	951.5
369.767	991.5
369.993	944.5
370.219	965.5
370.445	985.5
370.672	1006.5
370.898	998.5
371.124	971.5
371.35	980.5
371.576	1021.5
371.802	1005.5
372.028	1024.5
372.254	1037.5
372.48	1004.5
372.706	1017.5
372.932	1054.5
373.158	1029.5
373.384	1079.5
373.61	1102.5
373.835	1067.5
374.061	1063.5
374.287	1034.5
374.513	1048.5
374.739	1094.5
374.965	1081.5
375.191	1091.5
375.416	1087.5
375.642	1050.5
375.868	1090.5
376.094	1039.5
376.319	1029.5
376.545	1077.5
376.771	1031.5
376.997	1018.5
377.222	1007.5
377.448	1029.5
377.674	1000.5
377.899	1034.5
378.125	995.5
378.35	999.5
378.576	1027.5
378.802	1014.5
379.027	1008.5
379.253	1051.5
379.478	1014.5
379.704	1025.5
379.929	1054.5
380.155	1027.5
380.38	1025.5
380.606	1026.5
380.831	1020.5
381.057	1053.5
381.282	1051.5
381.507	1062.5
381.733	1062.5
381.958	1096.5
382.184	1062.5
382.409	1099.5
382.634	1098.5
382.86	1099.5
383.085	1124.5
383.31	1079.5
383.535	1107.5
383.761	1106.5
383.986	1101.5
384.211	1114.5
384.436	1165.5
384.662	1145.5
384.887	1165.5
385.112	1129.5
385.337	1133.5
385.562	1160.5
385.787	1165.5
386.013	1176.5
386.238	1230.5
386.463	1221.5
386.688	1181.5
386.913	1186.5
387.138	1171.5
387.363	1197.5
387.588	1183.5
387.813	1221.5
388.038	1221.5
388.263	1194.5
388.488	1186.5
388.713	1207.5
388.938	1213.5
389.163	1193.5
389.387	1233.5
389.612	1185.5
389.837	1188.5
390.062	1201.5
390.287	1190.5
390.512	1225.5
390.736	1231.5
390.961	1236.5
391.186	1223.5
391.411	1235.5
391.636	1213.5
391.86	1259.5
392.085	1261.5
392.31	1270.5
392.534	1280.5
392.759	1302.5
392.984	1279.5
393.208	1273.5
393.433	1257.5
393.658	1246.5
393.882	1267.5
394.107	1258.5
394.331	1253.5
394.556	1233.5
394.78	1262.5
395.005	1289.5
395.229	1274.5
395.454	1274.5
395.678	1255.5
395.903	1339.5
396.127	1319.5
396.352	1321.5
396.576	1293.5
396.801	1286.5
397.025	1322.5
397.249	1342.5
397.474	1364.5
397.698	1353.5
397.922	1365.5
398.147	1338.5
398.371	1367.5
398.595	1430.5
398.82	1459.5
399.044	1479.5
399.268	1543.5
399.492	1597.5
399.717	1686.5
399.941	1688.5
400.165	1634.5
400.389	1602.5
400.613	1574.5
400.837	1545.5
401.062	1487.5
401.286	1485.5
401.51	1472.5
401.734	1444.5
401.958	1468.5
402.182	1425.5
402.406	1425.5
402.63	1452.5
402.854	1458.5
403.078	1447.5
403.302	1456.5
403.526	1464.5
403.75	1454.5
403.974	1495.5
404.198	1438.5
404.422	1509.5
404.645	1487.5
404.869	1525.5
405.093	1487.5
405.317	1470.5
405.541	1488.5
405.765	1525.5
405.988	1514.5
406.212	1537.5
406.436	1555.5
406.66	1582.5
406.883	1561.5
407.107	1627.5
407.331	1652.5
407.555	1699.5
407.778	1670.5
408.002	1645.5
408.226	1645.5
408.449	1629.5
408.673	1578.5
408.896	1585.5
409.12	1566.5
409.344	1553.5
409.567	1551.5
409.791	1530.5
410.014	1538.5
410.238	1544.5
410.461	1516.5
410.685	1559.5
410.908	1557.5
411.132	1480.5
411.355	1483.5
411.578	1495.5
411.802	1492.5
412.025	1509.5
412.249	1517.5
412.472	1502.5
412.695	1487.5
412.919	1507.5
413.142	1512.5
413.365	1475.5
413.589	1459.5
413.812	1462.5
414.035	1474.5
414.258	1441.5
414.482	1461.5
414.705	1465.5
414.928	1449.5
415.151	1452.5
415.374	1460.5
415.597	1424.5
415.821	1395.5
416.044	1401.5
416.267	1384.5
416.49	1406.5
416.713	1395.5
416.936	1435.5
417.159	1402.5
417.382	1377.5
417.605	1388.5
417.828	1409.5
418.051	1393.5
418.274	1379.5
418.497	1388.5
418.72	1405.5
418.943	1363.5
419.166	1461.5
419.389	1505.5
419.611	1513.5
419.834	1468.5
420.057	1457.5
420.28	1405.5
420.503	1373.5
420.726	1411.5
420.948	1346.5
421.171	1376.5
421.394	1368.5
421.617	1357.5
421.839	1368.5
422.062	1367.5
422.285	1377.5
422.507	1353.5
422.73	1351.5
422.953	1366.5
423.175	1368.5
423.398	1375.5
423.621	1357.5
423.843	1381.5
424.066	1380.5
424.288	1390.5
424.511	1380.5
424.733	1361.5
424.956	1345.5
425.178	1378.5
425.401	1363.5
425.623	1375.5
425.846	1339.5
426.068	1342.5
426.291	1382.5
426.513	1362.5
426.735	1350.5
426.958	1355.5
427.18	1332.5
427.402	1333.5
427.625	1341.5
427.847	1307.5
428.069	1309.5
428.292	1325.5
428.514	1329.5
428.736	1303.5
428.958	1342.5
429.181	1281.5
429.403	1271.5
429.625	1302.5
429.847	1314.5
430.069	1316.5
430.292	1310.5
430.514	1295.5
430.736	1319.5
430.958	1317.5
431.18	1323.5
431.402	1374.5
431.624	1288.5
431.846	1326.5
432.068	1283.5
432.29	1334.5
432.512	1307.5
432.734	1345.5
432.956	1289.5
433.178	1345.5
433.4	1333.5
433.622	1302.5
433.844	1333.5
434.066	1339.5
434.287	1352.5
434.509	1365.5
434.731	1391.5
434.953	1360.5
435.175	1374.5
435.397	1404.5
435.618	1359.5
435.84	1337.5
436.062	1305.5
436.284	1337.5
436.505	1313.5
436.727	1333.5
436.949	1310.5
437.17	1315.5
437.392	1293.5
437.614	1305.5
437.835	1257.5
438.057	1301.5
438.278	1285.5
438.5	1276.5
438.721	1279.5
438.943	1278.5
439.165	1282.5
439.386	1301.5
439.608	1302.5
439.829	1319.5
440.05	1321.5
440.272	1269.5
440.493	1330.5
440.715	1334.5
440.936	1356.5
441.158	1332.5
441.379	1318.5
441.6	1394.5
441.822	1396.5
442.043	1326.5
442.264	1374.5
442.486	1349.5
442.707	1364.5
442.928	1364.5
443.149	1375.5
443.371	1345.5
443.592	1357.5
443.813	1407.5
444.034	1393.5
444.255	1380.5
444.476	1402.5
444.698	1401.5
444.919	1450.5
445.14	1499.5
445.361	1501.5
445.582	1404.5
445.803	1375.5
446.024	1388.5
446.245	1365.5
446.466	1360.5
446.687	1318.5
446.908	1323.5
447.129	1302.5
447.35	1265.5
447.571	1274.5
447.792	1234.5
448.013	1256.5
448.234	1253.5
448.455	1226.5
448.675	1209.5
448.896	1251.5
449.117	1213.5
449.338	1211.5
449.559	1210.5
449.779	1221.5
450	1191.5
450.221	1243.5
450.442	1211.5
450.662	1210.5
450.883	1167.5
451.104	1196.5
451.324	1188.5
451.545	1199.5
451.766	1188.5
451.986	1170.5
452.207	1180.5
452.428	1179.5
452.648	1173.5
452.869	1149.5
453.089	1152.5
453.31	1146.5
453.53	1137.5
453.751	1116.5
453.971	1157.5
454.192	1175.5
454.412	1122.5
454.633	1133.5
454.853	1157.5
455.073	1114.5
455.294	1159.5
455.514	1151.5
455.734	1185.5
455.955	1170.5
456.175	1168.5
456.395	1156.5
456.616	1175.5
456.836	1161.5
457.056	1170.5
457.276	1144.5
457.497	1182.5
457.717	1169.5
457.937	1168.5
458.157	1180.5
458.377	1209.5
458.598	1225.5
458.818	1246.5
459.038	1236.5
459.258	1250.5
459.478	1287.5
459.698	1317.5
459.918	1366.5
460.138	1319.5
460.358	1367.5
460.578	1385.5
460.798	1440.5
461.018	1430.5
461.238	1432.5
461.458	1422.5
461.678	1454.5
461.898	1457.5
462.118	1458.5
462.338	1497.5
462.558	1527.5
462.777	1553.5
462.997	1605.5
463.217	1606.5
463.437	1646.5
463.657	1627.5
463.876	1593.5
464.096	1571.5
464.316	1582.5
464.536	1552.5
464.755	1536.5
464.975	1480.5
465.195	1425.5
465.414	1416.5
465.634	1371.5
465.854	1364.5
466.073	1370.5
466.293	1313.5
466.512	1339.5
466.732	1319.5
466.951	1305.5
467.171	1305.5
467.391	1258.5
467.61	1262.5
467.829	1290.5
468.049	1289.5
468.268	1259.5
468.488	1238.5
468.707	1254.5
468.927	1247.5
469.146	1302.5
469.365	1302.5
469.585	1263.5
469.804	1298.5
470.023	1297.5
470.243	1295.5
470.462	1260.5
470.681	1317.5
470.901	1316.5
471.12	1332.5
471.339	1314.5
471.558	1274.5
471.777	1306.5
471.997	1290.5
472.216	1307.5
472.435	1247.5
472.654	1260.5
472.873	1236.5
473.092	1290.5
473.311	1313.5
473.53	1274.5
473.749	1267.5
473.968	1275.5
474.187	1298.5
474.406	1274.5
474.625	1313.5
474.844	1295.5
475.063	1323.5
475.282	1274.5
475.501	1300.5
475.72	1301.5
475.939	1318.5
476.158	1326.5
476.377	1387.5
476.596	1397.5
476.814	1413.5
477.033	1383.5
477.252	1365.5
477.471	1390.5
477.69	1440.5
477.908	1441.5
478.127	1444.5
478.346	1458.5
478.564	1478.5
478.783	1434.5
479.002	1466.5
479.22	1540.5
479.439	1549.5
479.658	1504.5
479.876	1523.5
480.095	1521.5
480.313	1606.5
480.532	1562.5
480.751	1539.5
480.969	1548.5
481.188	1556.5
481.406	1529.5
481.624	1551.5
481.843	1481.5
482.061	1488.5
482.28	1525.5
482.498	1511.5
482.717	1512.5
482.935	1500.5
483.153	1521.5
483.372	1493.5
483.59	1514.5
483.808	1489.5
484.027	1494.5
484.245	1499.5
484.463	1525.5
484.681	1516.5
484.9	1523.5
485.118	1497.5
485.336	1539.5
485.554	1545.5
485.772	1520.5
485.99	1535.5
486.209	1535.5
486.427	1526.5
486.645	1494.5
486.863	1562.5
487.081	1530.5
487.299	1563.5
487.517	1545.5
487.735	1525.5
487.953	1586.5
488.171	1578.5
488.389	1573.5
488.607	1496.5
488.825	1516.5
489.043	1542.5
489.261	1533.5
489.479	1554.5
489.696	1519.5
489.914	1562.5
490.132	1542.5
490.35	1566.5
490.568	1516.5
490.786	1565.5
491.003	1574.5
491.221	1549.5
491.439	1571.5
491.657	1573.5
491.874	1559.5
492.092	1593.5
492.31	1607.5
492.527	1608.5
492.745	1603.5
492.963	1630.5
493.18	1607.5
493.398	1650.5
493.615	1619.5
493.833	1589.5
494.05	1616.5
494.268	1612.5
494.485	1579.5
494.703	1621.5
494.92	1643.5
495.138	1660.5
495.355	1639.5
495.573	1673.5
495.79	1661.5
496.008	1698.5
496.225	1662.5
496.442	1717.5
496.66	1721.5
496.877	1724.5
497.094	1792.5
497.312	1807.5
497.529	1777.5
497.746	1837.5
497.963	1860.5
498.181	1905.5
498.398	1935.5
498.615	2036.5
498.832	2105.5
499.049	2198.5
499.267	2325.5
499.484	2350.5
499.701	2462.5
499.918	2560.5
500.135	2700.5
500.352	2786.5
500.569	2743.5
500.786	2828.5
501.003	2717.5
501.22	2643.5
501.437	2530.5
501.654	2394.5
501.871	2299.5
502.088	2207.5
502.305	2145.5
502.522	2072.5
502.739	1999.5
502.956	1951.5
503.172	1910.5
503.389	1861.5
503.606	1797.5
503.823	1874.5
504.04	1797.5
504.256	1768.5
504.473	1775.5
504.69	1746.5
504.907	1739.5
505.123	1689.5
505.34	1669.5
505.557	1637.5
505.773	1616.5
505.99	1563.5
506.207	1524.5
506.423	1484.5
506.64	1475.5
506.856	1491.5
507.073	1460.5
507.289	1437.5
507.506	1414.5
507.722	1462.5
507.939	1416.5
508.155	1438.5
508.372	1412.5
508.588	1418.5
508.805	1384.5
509.021	1392.5
509.238	1357.5
509.454	1321.5
509.67	1294.5
509.887	1311.5
510.103	1367.5
