Data from Fe(NO3)3@0.025M.TitratingCurve.Agarose3%dH2O.NegLispCup.LampEnergy10.LIBS07252019_HRD10591_16-54-14-335.txt Node
Date: Thu Jul 25 16:54:14 EDT 2019
User: cochatt
Spectrometer: HR+D1059
Trigger mode: 1
Integration Time (sec): 1.000000E-1
Scans to average: 1
Electric dark correction enabled: true
Nonlinearity correction enabled: false
Boxcar width: 0
XAxis mode: Wavelengths
Number of Pixels in Spectrum: 2048
>>>>>Begin Spectral Data<<<<<
223.165	-16.38
223.4	-16.38
223.635	-16.38
223.869	-21.38
224.104	-23.38
224.338	-18.38
224.573	-6.38
224.808	-9.38
225.042	-14.38
225.277	-8.38
225.511	-3.38
225.746	0.62
225.98	6.62
226.215	-0.38
226.449	25.62
226.683	26.62
226.918	34.62
227.152	27.62
227.387	35.62
227.621	37.62
227.856	33.62
228.09	38.62
228.324	39.62
228.559	62.62
228.793	64.62
229.027	66.62
229.262	89.62
229.496	76.62
229.73	99.62
229.964	89.62
230.199	104.62
230.433	104.62
230.667	88.62
230.901	100.62
231.136	106.62
231.37	110.62
231.604	119.62
231.838	114.62
232.072	93.62
232.306	118.62
232.541	120.62
232.775	93.62
233.009	111.62
233.243	115.62
233.477	119.62
233.711	118.62
233.945	109.62
234.179	125.62
234.413	128.62
234.647	123.62
234.881	114.62
235.115	98.62
235.349	121.62
235.583	115.62
235.817	116.62
236.051	117.62
236.285	121.62
236.519	123.62
236.753	112.62
236.987	109.62
237.221	111.62
237.455	111.62
237.689	121.62
237.922	114.62
238.156	111.62
238.39	123.62
238.624	133.62
238.858	127.62
239.091	127.62
239.325	120.62
239.559	127.62
239.793	123.62
240.027	141.62
240.26	129.62
240.494	133.62
240.728	123.62
240.961	132.62
241.195	121.62
241.429	126.62
241.662	121.62
241.896	127.62
242.13	121.62
242.363	124.62
242.597	125.62
242.83	131.62
243.064	145.62
243.298	142.62
243.531	132.62
243.765	140.62
243.998	144.62
244.232	125.62
244.465	138.62
244.699	135.62
244.932	148.62
245.166	135.62
245.399	134.62
245.633	156.62
245.866	131.62
246.099	137.62
246.333	127.62
246.566	139.62
246.8	164.62
247.033	141.62
247.266	146.62
247.5	142.62
247.733	154.62
247.966	142.62
248.2	168.62
248.433	157.62
248.666	162.62
248.899	170.62
249.133	170.62
249.366	157.62
249.599	166.62
249.832	170.62
250.066	142.62
250.299	145.62
250.532	159.62
250.765	156.62
250.998	158.62
251.231	153.62
251.465	177.62
251.698	156.62
251.931	159.62
252.164	165.62
252.397	169.62
252.63	176.62
252.863	180.62
253.096	179.62
253.329	180.62
253.562	158.62
253.795	172.62
254.028	182.62
254.261	170.62
254.494	176.62
254.727	183.62
254.96	172.62
255.193	179.62
255.426	169.62
255.659	181.62
255.892	185.62
256.124	174.62
256.357	186.62
256.59	180.62
256.823	185.62
257.056	170.62
257.289	171.62
257.521	172.62
257.754	177.62
257.987	189.62
258.22	180.62
258.452	203.62
258.685	182.62
258.918	187.62
259.151	204.62
259.383	184.62
259.616	171.62
259.849	212.62
260.081	189.62
260.314	219.62
260.547	206.62
260.779	193.62
261.012	191.62
261.244	217.62
261.477	184.62
261.71	205.62
261.942	188.62
262.175	199.62
262.407	199.62
262.64	200.62
262.872	205.62
263.105	216.62
263.337	196.62
263.57	223.62
263.802	200.62
264.035	187.62
264.267	192.62
264.499	209.62
264.732	196.62
264.964	212.62
265.197	198.62
265.429	208.62
265.661	203.62
265.894	205.62
266.126	201.62
266.358	219.62
266.591	219.62
266.823	218.62
267.055	219.62
267.287	221.62
267.52	205.62
267.752	200.62
267.984	213.62
268.216	205.62
268.448	205.62
268.681	205.62
268.913	218.62
269.145	204.62
269.377	217.62
269.609	220.62
269.841	223.62
270.073	222.62
270.306	210.62
270.538	218.62
270.77	209.62
271.002	212.62
271.234	246.62
271.466	253.62
271.698	236.62
271.93	241.62
272.162	227.62
272.394	232.62
272.626	228.62
272.858	232.62
273.09	226.62
273.322	228.62
273.553	221.62
273.785	231.62
274.017	264.62
274.249	240.62
274.481	257.62
274.713	260.62
274.945	269.62
275.176	274.62
275.408	263.62
275.64	245.62
275.872	255.62
276.104	255.62
276.335	245.62
276.567	235.62
276.799	240.62
277.031	260.62
277.262	256.62
277.494	240.62
277.726	244.62
277.957	248.62
278.189	267.62
278.421	256.62
278.652	242.62
278.884	241.62
279.115	255.62
279.347	252.62
279.579	243.62
279.81	256.62
280.042	250.62
280.273	247.62
280.505	274.62
280.736	262.62
280.968	269.62
281.199	262.62
281.431	259.62
281.662	258.62
281.894	267.62
282.125	245.62
282.356	254.62
282.588	258.62
282.819	272.62
283.051	266.62
283.282	266.62
283.513	294.62
283.745	286.62
283.976	280.62
284.207	277.62
284.439	276.62
284.67	275.62
284.901	276.62
285.132	267.62
285.364	276.62
285.595	276.62
285.826	274.62
286.057	279.62
286.288	263.62
286.52	273.62
286.751	275.62
286.982	274.62
287.213	282.62
287.444	284.62
287.675	268.62
287.906	291.62
288.138	294.62
288.369	271.62
288.6	300.62
288.831	271.62
289.062	309.62
289.293	285.62
289.524	269.62
289.755	291.62
289.986	298.62
290.217	289.62
290.448	270.62
290.679	259.62
290.91	285.62
291.141	278.62
291.371	295.62
291.602	290.62
291.833	274.62
292.064	298.62
292.295	296.62
292.526	292.62
292.757	285.62
292.987	278.62
293.218	289.62
293.449	272.62
293.68	290.62
293.91	296.62
294.141	297.62
294.372	277.62
294.603	302.62
294.833	303.62
295.064	297.62
295.295	294.62
295.525	309.62
295.756	315.62
295.987	300.62
296.217	297.62
296.448	295.62
296.679	311.62
296.909	313.62
297.14	305.62
297.37	328.62
297.601	310.62
297.831	313.62
298.062	309.62
298.292	306.62
298.523	321.62
298.753	324.62
298.984	315.62
299.214	309.62
299.445	321.62
299.675	324.62
299.905	349.62
300.136	318.62
300.366	315.62
300.597	300.62
300.827	327.62
301.057	316.62
301.288	328.62
301.518	321.62
301.748	331.62
301.979	336.62
302.209	338.62
302.439	332.62
302.669	329.62
302.9	328.62
303.13	327.62
303.36	329.62
303.59	336.62
303.82	313.62
304.051	340.62
304.281	326.62
304.511	332.62
304.741	331.62
304.971	335.62
305.201	342.62
305.431	333.62
305.661	317.62
305.891	334.62
306.121	328.62
306.352	330.62
306.582	325.62
306.812	323.62
307.042	346.62
307.272	331.62
307.502	330.62
307.731	343.62
307.961	325.62
308.191	327.62
308.421	327.62
308.651	335.62
308.881	335.62
309.111	325.62
309.341	347.62
309.571	338.62
309.8	338.62
310.03	317.62
310.26	328.62
310.49	338.62
310.72	338.62
310.949	352.62
311.179	335.62
311.409	320.62
311.639	322.62
311.868	360.62
312.098	341.62
312.328	350.62
312.557	372.62
312.787	332.62
313.017	339.62
313.246	356.62
313.476	338.62
313.706	343.62
313.935	355.62
314.165	362.62
314.394	356.62
314.624	357.62
314.853	358.62
315.083	355.62
315.312	345.62
315.542	360.62
315.771	354.62
316.001	355.62
316.23	367.62
316.46	370.62
316.689	339.62
316.919	337.62
317.148	341.62
317.377	358.62
317.607	348.62
317.836	356.62
318.065	384.62
318.295	373.62
318.524	365.62
318.753	353.62
318.983	362.62
319.212	359.62
319.441	361.62
319.67	369.62
319.9	358.62
320.129	355.62
320.358	338.62
320.587	362.62
320.816	360.62
321.046	367.62
321.275	357.62
321.504	356.62
321.733	374.62
321.962	360.62
322.191	387.62
322.42	385.62
322.649	374.62
322.878	371.62
323.108	375.62
323.337	377.62
323.566	361.62
323.795	381.62
324.024	390.62
324.253	379.62
324.482	385.62
324.71	380.62
324.939	369.62
325.168	388.62
325.397	368.62
325.626	378.62
325.855	389.62
326.084	385.62
326.313	383.62
326.542	380.62
326.77	377.62
326.999	413.62
327.228	390.62
327.457	364.62
327.686	387.62
327.914	365.62
328.143	403.62
328.372	392.62
328.6	394.62
328.829	397.62
329.058	411.62
329.287	389.62
329.515	411.62
329.744	388.62
329.972	395.62
330.201	400.62
330.43	405.62
330.658	408.62
330.887	396.62
331.115	410.62
331.344	400.62
331.572	407.62
331.801	418.62
332.03	411.62
332.258	415.62
332.486	439.62
332.715	424.62
332.943	438.62
333.172	439.62
333.4	448.62
333.629	443.62
333.857	469.62
334.085	468.62
334.314	471.62
334.542	468.62
334.771	455.62
334.999	466.62
335.227	460.62
335.455	474.62
335.684	436.62
335.912	457.62
336.14	452.62
336.369	457.62
336.597	447.62
336.825	442.62
337.053	443.62
337.281	438.62
337.51	444.62
337.738	461.62
337.966	423.62
338.194	431.62
338.422	437.62
338.65	443.62
338.878	432.62
339.106	437.62
339.334	437.62
339.562	425.62
339.79	427.62
340.018	437.62
340.246	401.62
340.474	419.62
340.702	406.62
340.93	411.62
341.158	410.62
341.386	426.62
341.614	403.62
341.842	448.62
342.07	381.62
342.298	405.62
342.526	414.62
342.754	426.62
342.981	406.62
343.209	408.62
343.437	426.62
343.665	458.62
343.893	460.62
344.12	464.62
344.348	458.62
344.576	437.62
344.804	428.62
345.031	433.62
345.259	426.62
345.487	417.62
345.714	428.62
345.942	402.62
346.17	419.62
346.397	394.62
346.625	424.62
346.853	387.62
347.08	410.62
347.308	405.62
347.535	409.62
347.763	402.62
347.99	417.62
348.218	420.62
348.445	433.62
348.673	416.62
348.9	397.62
349.128	409.62
349.355	409.62
349.583	410.62
349.81	424.62
350.037	379.62
350.265	385.62
350.492	414.62
350.72	381.62
350.947	403.62
351.174	421.62
351.402	400.62
351.629	387.62
351.856	399.62
352.083	410.62
352.311	397.62
352.538	384.62
352.765	383.62
352.992	387.62
353.22	389.62
353.447	386.62
353.674	402.62
353.901	393.62
354.128	383.62
354.355	373.62
354.583	392.62
354.81	389.62
355.037	383.62
355.264	381.62
355.491	384.62
355.718	415.62
355.945	387.62
356.172	396.62
356.399	412.62
356.626	403.62
356.853	403.62
357.08	391.62
357.307	415.62
357.534	373.62
357.761	401.62
357.988	416.62
358.215	377.62
358.441	379.62
358.668	386.62
358.895	418.62
359.122	392.62
359.349	408.62
359.576	404.62
359.802	398.62
360.029	401.62
360.256	390.62
360.483	417.62
360.709	380.62
360.936	415.62
361.163	401.62
361.39	412.62
361.616	390.62
361.843	387.62
362.07	401.62
362.296	401.62
362.523	395.62
362.749	389.62
362.976	402.62
363.203	397.62
363.429	410.62
363.656	401.62
363.882	393.62
364.109	400.62
364.335	415.62
364.562	394.62
364.788	404.62
365.015	413.62
365.241	402.62
365.468	394.62
365.694	412.62
365.92	406.62
366.147	418.62
366.373	416.62
366.599	415.62
366.826	395.62
367.052	416.62
367.278	421.62
367.505	415.62
367.731	421.62
367.957	418.62
368.184	411.62
368.41	408.62
368.636	425.62
368.862	436.62
369.089	422.62
369.315	413.62
369.541	411.62
369.767	417.62
369.993	436.62
370.219	409.62
370.445	437.62
370.672	422.62
370.898	410.62
371.124	420.62
371.35	433.62
371.576	446.62
371.802	431.62
372.028	426.62
372.254	427.62
372.48	444.62
372.706	426.62
372.932	444.62
373.158	452.62
373.384	439.62
373.61	437.62
373.835	451.62
374.061	455.62
374.287	446.62
374.513	431.62
374.739	477.62
374.965	452.62
375.191	465.62
375.416	479.62
375.642	444.62
375.868	455.62
376.094	456.62
376.319	440.62
376.545	451.62
376.771	443.62
376.997	450.62
377.222	434.62
377.448	428.62
377.674	426.62
377.899	419.62
378.125	437.62
378.35	437.62
378.576	419.62
378.802	423.62
379.027	425.62
379.253	431.62
379.478	423.62
379.704	429.62
379.929	448.62
380.155	439.62
380.38	447.62
380.606	434.62
380.831	428.62
381.057	417.62
381.282	433.62
381.507	443.62
381.733	464.62
381.958	454.62
382.184	451.62
382.409	455.62
382.634	472.62
382.86	458.62
383.085	421.62
383.31	447.62
383.535	453.62
383.761	460.62
383.986	473.62
384.211	447.62
384.436	475.62
384.662	480.62
384.887	486.62
385.112	456.62
385.337	483.62
385.562	487.62
385.787	502.62
386.013	492.62
386.238	514.62
386.463	502.62
386.688	499.62
386.913	525.62
387.138	500.62
387.363	520.62
387.588	499.62
387.813	517.62
388.038	501.62
388.263	499.62
388.488	483.62
388.713	485.62
388.938	489.62
389.163	491.62
389.387	506.62
389.612	505.62
389.837	466.62
390.062	479.62
390.287	473.62
390.512	513.62
390.736	521.62
390.961	515.62
391.186	524.62
391.411	529.62
391.636	529.62
391.86	520.62
392.085	546.62
392.31	549.62
392.534	512.62
392.759	526.62
392.984	522.62
393.208	545.62
393.433	517.62
393.658	532.62
393.882	525.62
394.107	529.62
394.331	534.62
394.556	531.62
394.78	537.62
395.005	532.62
395.229	552.62
395.454	547.62
395.678	537.62
395.903	553.62
396.127	553.62
396.352	545.62
396.576	527.62
396.801	541.62
397.025	544.62
397.249	543.62
397.474	575.62
397.698	561.62
397.922	573.62
398.147	568.62
398.371	581.62
398.595	607.62
398.82	612.62
399.044	633.62
399.268	641.62
399.492	687.62
399.717	717.62
399.941	711.62
400.165	714.62
400.389	687.62
400.613	656.62
400.837	624.62
401.062	624.62
401.286	613.62
401.51	612.62
401.734	626.62
401.958	603.62
402.182	597.62
402.406	589.62
402.63	625.62
402.854	618.62
403.078	623.62
403.302	627.62
403.526	606.62
403.75	611.62
403.974	641.62
404.198	611.62
404.422	650.62
404.645	638.62
404.869	645.62
405.093	642.62
405.317	604.62
405.541	635.62
405.765	641.62
405.988	641.62
406.212	636.62
406.436	649.62
406.66	678.62
406.883	682.62
407.107	674.62
407.331	692.62
407.555	703.62
407.778	699.62
408.002	690.62
408.226	701.62
408.449	665.62
408.673	667.62
408.896	638.62
409.12	657.62
409.344	642.62
409.567	647.62
409.791	635.62
410.014	640.62
410.238	630.62
410.461	647.62
410.685	653.62
410.908	625.62
411.132	627.62
411.355	601.62
411.578	610.62
411.802	597.62
412.025	619.62
412.249	638.62
412.472	631.62
412.695	630.62
412.919	620.62
413.142	628.62
413.365	609.62
413.589	593.62
413.812	571.62
414.035	603.62
414.258	623.62
414.482	604.62
414.705	610.62
414.928	599.62
415.151	603.62
415.374	603.62
415.597	607.62
415.821	582.62
416.044	597.62
416.267	558.62
416.49	579.62
416.713	561.62
416.936	590.62
417.159	581.62
417.382	567.62
417.605	586.62
417.828	573.62
418.051	593.62
418.274	600.62
418.497	562.62
418.72	572.62
418.943	584.62
419.166	605.62
419.389	651.62
419.611	637.62
419.834	608.62
420.057	603.62
420.28	592.62
420.503	584.62
420.726	563.62
420.948	578.62
421.171	578.62
421.394	593.62
421.617	561.62
421.839	573.62
422.062	577.62
422.285	581.62
422.507	562.62
422.73	572.62
422.953	567.62
423.175	566.62
423.398	573.62
423.621	599.62
423.843	607.62
424.066	583.62
424.288	572.62
424.511	583.62
424.733	588.62
424.956	576.62
425.178	562.62
425.401	573.62
425.623	559.62
425.846	561.62
426.068	566.62
426.291	543.62
426.513	562.62
426.735	570.62
426.958	550.62
427.18	517.62
427.402	549.62
427.625	557.62
427.847	536.62
428.069	547.62
428.292	543.62
428.514	548.62
428.736	543.62
428.958	537.62
429.181	546.62
429.403	530.62
429.625	531.62
429.847	524.62
430.069	548.62
430.292	532.62
430.514	514.62
430.736	544.62
430.958	546.62
431.18	563.62
431.402	551.62
431.624	535.62
431.846	548.62
432.068	547.62
432.29	556.62
432.512	542.62
432.734	553.62
432.956	539.62
433.178	552.62
433.4	547.62
433.622	576.62
433.844	565.62
434.066	533.62
434.287	559.62
434.509	542.62
434.731	583.62
434.953	572.62
435.175	579.62
435.397	562.62
435.618	558.62
435.84	553.62
436.062	543.62
436.284	548.62
436.505	527.62
436.727	532.62
436.949	535.62
437.17	524.62
437.392	538.62
437.614	542.62
437.835	515.62
438.057	536.62
438.278	514.62
438.5	520.62
438.721	505.62
438.943	527.62
439.165	531.62
439.386	528.62
439.608	529.62
439.829	531.62
440.05	535.62
440.272	527.62
440.493	518.62
440.715	528.62
440.936	524.62
441.158	533.62
441.379	538.62
441.6	563.62
441.822	562.62
442.043	540.62
442.264	541.62
442.486	562.62
442.707	559.62
442.928	572.62
443.149	578.62
443.371	565.62
443.592	573.62
443.813	552.62
444.034	569.62
444.255	593.62
444.476	584.62
444.698	618.62
444.919	603.62
445.14	716.62
445.361	645.62
445.582	577.62
445.803	561.62
446.024	541.62
446.245	547.62
446.466	541.62
446.687	537.62
446.908	548.62
447.129	534.62
447.35	509.62
447.571	517.62
447.792	514.62
448.013	486.62
448.234	495.62
448.455	493.62
448.675	498.62
448.896	503.62
449.117	476.62
449.338	500.62
449.559	470.62
449.779	487.62
450	475.62
450.221	466.62
450.442	472.62
450.662	476.62
450.883	500.62
451.104	500.62
451.324	488.62
451.545	463.62
451.766	481.62
451.986	476.62
452.207	475.62
452.428	463.62
452.648	481.62
452.869	470.62
453.089	465.62
453.31	483.62
453.53	478.62
453.751	476.62
453.971	455.62
454.192	481.62
454.412	472.62
454.633	477.62
454.853	472.62
455.073	473.62
455.294	448.62
455.514	465.62
455.734	472.62
455.955	464.62
456.175	458.62
456.395	482.62
456.616	474.62
456.836	479.62
457.056	484.62
457.276	460.62
457.497	479.62
457.717	462.62
457.937	478.62
458.157	466.62
458.377	492.62
458.598	492.62
458.818	527.62
459.038	506.62
459.258	502.62
459.478	540.62
459.698	534.62
459.918	570.62
460.138	548.62
460.358	583.62
460.578	550.62
460.798	589.62
461.018	617.62
461.238	565.62
461.458	596.62
461.678	591.62
461.898	595.62
462.118	593.62
462.338	629.62
462.558	618.62
462.777	627.62
462.997	668.62
463.217	690.62
463.437	663.62
463.657	659.62
463.876	655.62
464.096	637.62
464.316	650.62
464.536	631.62
464.755	651.62
464.975	644.62
465.195	593.62
465.414	588.62
465.634	565.62
465.854	548.62
466.073	553.62
466.293	562.62
466.512	545.62
466.732	511.62
466.951	507.62
467.171	531.62
467.391	526.62
467.61	539.62
467.829	509.62
468.049	506.62
468.268	506.62
468.488	509.62
468.707	512.62
468.927	530.62
469.146	508.62
469.365	513.62
469.585	511.62
469.804	519.62
470.023	499.62
470.243	537.62
470.462	522.62
470.681	514.62
470.901	536.62
471.12	537.62
471.339	517.62
471.558	514.62
471.777	520.62
471.997	520.62
472.216	509.62
472.435	511.62
472.654	504.62
472.873	499.62
473.092	535.62
473.311	513.62
473.53	507.62
473.749	492.62
473.968	511.62
474.187	517.62
474.406	513.62
474.625	485.62
474.844	519.62
475.063	514.62
475.282	524.62
475.501	504.62
475.72	504.62
475.939	524.62
476.158	536.62
476.377	544.62
476.596	526.62
476.814	540.62
477.033	566.62
477.252	515.62
477.471	538.62
477.69	557.62
477.908	549.62
478.127	551.62
478.346	580.62
478.564	580.62
478.783	588.62
479.002	588.62
479.22	613.62
479.439	610.62
479.658	597.62
479.876	612.62
480.095	585.62
480.313	627.62
480.532	616.62
480.751	639.62
480.969	613.62
481.188	607.62
481.406	605.62
481.624	593.62
481.843	579.62
482.061	578.62
482.28	560.62
482.498	596.62
482.717	580.62
482.935	580.62
483.153	566.62
483.372	576.62
483.59	579.62
483.808	588.62
484.027	582.62
484.245	579.62
484.463	592.62
484.681	601.62
484.9	600.62
485.118	596.62
485.336	596.62
485.554	594.62
485.772	606.62
485.99	624.62
486.209	595.62
486.427	588.62
486.645	607.62
486.863	591.62
487.081	592.62
487.299	614.62
487.517	600.62
487.735	621.62
487.953	597.62
488.171	604.62
488.389	596.62
488.607	595.62
488.825	593.62
489.043	588.62
489.261	599.62
489.479	625.62
489.696	599.62
489.914	612.62
490.132	621.62
490.35	602.62
490.568	596.62
490.786	604.62
491.003	587.62
491.221	626.62
491.439	624.62
491.657	600.62
491.874	594.62
492.092	622.62
492.31	637.62
492.527	618.62
492.745	630.62
492.963	618.62
493.18	611.62
493.398	627.62
493.615	601.62
493.833	631.62
494.05	613.62
494.268	618.62
494.485	637.62
494.703	641.62
494.92	615.62
495.138	641.62
495.355	631.62
495.573	605.62
495.79	633.62
496.008	672.62
496.225	685.62
496.442	657.62
496.66	673.62
496.877	690.62
497.094	701.62
497.312	694.62
497.529	692.62
497.746	689.62
497.963	747.62
498.181	755.62
498.398	799.62
498.615	796.62
498.832	838.62
499.049	877.62
499.267	920.62
499.484	959.62
499.701	1002.62
499.918	1066.62
500.135	1174.62
500.352	1236.62
500.569	1252.62
500.786	1291.62
501.003	1216.62
501.22	1159.62
501.437	1099.62
501.654	1016.62
