Data from Fe(NO3)3@0.0125M.TitratingCurve.Agarose3%dH2O.NegLispCup.LampEnergy10.LIBS07252019_HRD10591_17-00-03-337.txt Node
Date: Thu Jul 25 17:00:03 EDT 2019
User: cochatt
Spectrometer: HR+D1059
Trigger mode: 1
Integration Time (sec): 1.000000E-1
Scans to average: 1
Electric dark correction enabled: true
Nonlinearity correction enabled: false
Boxcar width: 0
XAxis mode: Wavelengths
Number of Pixels in Spectrum: 2048
>>>>>Begin Spectral Data<<<<<
223.165	-9.06
223.4	-9.06
223.635	-9.06
223.869	-16.06
224.104	-18.06
224.338	-18.06
224.573	-9.06
224.808	-17.06
225.042	-14.06
225.277	-3.06
225.511	-4.06
225.746	4.94
225.98	4.94
226.215	1.94
226.449	11.94
226.683	20.94
226.918	33.94
227.152	29.94
227.387	32.94
227.621	38.94
227.856	42.94
228.09	35.94
228.324	36.94
228.559	54.94
228.793	74.94
229.027	94.94
229.262	96.94
229.496	82.94
229.73	82.94
229.964	94.94
230.199	83.94
230.433	77.94
230.667	104.94
230.901	107.94
231.136	81.94
231.37	107.94
231.604	110.94
231.838	104.94
232.072	97.94
232.306	108.94
232.541	104.94
232.775	105.94
233.009	109.94
233.243	102.94
233.477	108.94
233.711	120.94
233.945	107.94
234.179	105.94
234.413	112.94
234.647	112.94
234.881	118.94
235.115	122.94
235.349	109.94
235.583	111.94
235.817	116.94
236.051	119.94
236.285	106.94
236.519	112.94
236.753	126.94
236.987	117.94
237.221	115.94
237.455	113.94
237.689	118.94
237.922	128.94
238.156	126.94
238.39	114.94
238.624	118.94
238.858	117.94
239.091	114.94
239.325	109.94
239.559	100.94
239.793	131.94
240.027	135.94
240.26	129.94
240.494	116.94
240.728	120.94
240.961	126.94
241.195	121.94
241.429	132.94
241.662	128.94
241.896	120.94
242.13	128.94
242.363	138.94
242.597	121.94
242.83	116.94
243.064	135.94
243.298	121.94
243.531	126.94
243.765	135.94
243.998	128.94
244.232	145.94
244.465	144.94
244.699	133.94
244.932	147.94
245.166	141.94
245.399	135.94
245.633	134.94
245.866	141.94
246.099	143.94
246.333	132.94
246.566	139.94
246.8	152.94
247.033	132.94
247.266	144.94
247.5	139.94
247.733	152.94
247.966	130.94
248.2	145.94
248.433	137.94
248.666	161.94
248.899	143.94
249.133	140.94
249.366	146.94
249.599	149.94
249.832	161.94
250.066	161.94
250.299	161.94
250.532	157.94
250.765	169.94
250.998	154.94
251.231	142.94
251.465	157.94
251.698	164.94
251.931	155.94
252.164	163.94
252.397	142.94
252.63	152.94
252.863	159.94
253.096	172.94
253.329	155.94
253.562	176.94
253.795	173.94
254.028	172.94
254.261	179.94
254.494	170.94
254.727	162.94
254.96	176.94
255.193	165.94
255.426	177.94
255.659	179.94
255.892	180.94
256.124	164.94
256.357	175.94
256.59	155.94
256.823	176.94
257.056	176.94
257.289	172.94
257.521	168.94
257.754	179.94
257.987	176.94
258.22	180.94
258.452	181.94
258.685	185.94
258.918	180.94
259.151	176.94
259.383	185.94
259.616	184.94
259.849	179.94
260.081	210.94
260.314	220.94
260.547	200.94
260.779	193.94
261.012	187.94
261.244	188.94
261.477	226.94
261.71	193.94
261.942	194.94
262.175	198.94
262.407	194.94
262.64	193.94
262.872	197.94
263.105	195.94
263.337	201.94
263.57	217.94
263.802	187.94
264.035	192.94
264.267	174.94
264.499	183.94
264.732	199.94
264.964	196.94
265.197	188.94
265.429	193.94
265.661	210.94
265.894	210.94
266.126	200.94
266.358	214.94
266.591	200.94
266.823	209.94
267.055	186.94
267.287	178.94
267.52	213.94
267.752	204.94
267.984	209.94
268.216	206.94
268.448	204.94
268.681	204.94
268.913	195.94
269.145	205.94
269.377	199.94
269.609	206.94
269.841	222.94
270.073	221.94
270.306	216.94
270.538	213.94
270.77	208.94
271.002	201.94
271.234	207.94
271.466	217.94
271.698	220.94
271.93	216.94
272.162	221.94
272.394	210.94
272.626	226.94
272.858	261.94
273.09	244.94
273.322	220.94
273.553	217.94
273.785	245.94
274.017	246.94
274.249	226.94
274.481	250.94
274.713	269.94
274.945	275.94
275.176	254.94
275.408	254.94
275.64	242.94
275.872	266.94
276.104	248.94
276.335	250.94
276.567	234.94
276.799	230.94
277.031	248.94
277.262	228.94
277.494	229.94
277.726	262.94
277.957	246.94
278.189	241.94
278.421	262.94
278.652	228.94
278.884	241.94
279.115	230.94
279.347	252.94
279.579	248.94
279.81	251.94
280.042	234.94
280.273	250.94
280.505	250.94
280.736	257.94
280.968	257.94
281.199	250.94
281.431	277.94
281.662	241.94
281.894	273.94
282.125	248.94
282.356	282.94
282.588	254.94
282.819	242.94
283.051	249.94
283.282	265.94
283.513	296.94
283.745	275.94
283.976	258.94
284.207	269.94
284.439	276.94
284.67	276.94
284.901	275.94
285.132	254.94
285.364	261.94
285.595	254.94
285.826	263.94
286.057	279.94
286.288	267.94
286.52	267.94
286.751	287.94
286.982	281.94
287.213	276.94
287.444	294.94
287.675	271.94
287.906	280.94
288.138	270.94
288.369	296.94
288.6	278.94
288.831	284.94
289.062	275.94
289.293	300.94
289.524	280.94
289.755	305.94
289.986	280.94
290.217	289.94
290.448	295.94
290.679	300.94
290.91	279.94
291.141	301.94
291.371	269.94
291.602	284.94
291.833	274.94
292.064	278.94
292.295	291.94
292.526	306.94
292.757	296.94
292.987	282.94
293.218	300.94
293.449	306.94
293.68	296.94
293.91	296.94
294.141	308.94
294.372	307.94
294.603	311.94
294.833	312.94
295.064	317.94
295.295	307.94
295.525	313.94
295.756	301.94
295.987	308.94
296.217	316.94
296.448	308.94
296.679	322.94
296.909	325.94
297.14	323.94
297.37	326.94
297.601	313.94
297.831	294.94
298.062	316.94
298.292	314.94
298.523	327.94
298.753	341.94
298.984	318.94
299.214	323.94
299.445	322.94
299.675	322.94
299.905	333.94
300.136	320.94
300.366	317.94
300.597	322.94
300.827	326.94
301.057	338.94
301.288	333.94
301.518	334.94
301.748	320.94
301.979	353.94
302.209	351.94
302.439	341.94
302.669	339.94
302.9	336.94
303.13	343.94
303.36	339.94
303.59	338.94
303.82	343.94
304.051	345.94
304.281	335.94
304.511	329.94
304.741	363.94
304.971	352.94
305.201	342.94
305.431	328.94
305.661	347.94
305.891	332.94
306.121	341.94
306.352	334.94
306.582	334.94
306.812	340.94
307.042	351.94
307.272	348.94
307.502	336.94
307.731	343.94
307.961	337.94
308.191	333.94
308.421	323.94
308.651	352.94
308.881	332.94
309.111	353.94
309.341	337.94
309.571	342.94
309.8	360.94
310.03	351.94
310.26	352.94
310.49	371.94
310.72	368.94
310.949	351.94
311.179	334.94
311.409	361.94
311.639	363.94
311.868	353.94
312.098	368.94
312.328	344.94
312.557	375.94
312.787	361.94
313.017	378.94
313.246	375.94
313.476	352.94
313.706	364.94
313.935	354.94
314.165	368.94
314.394	366.94
314.624	379.94
314.853	386.94
315.083	378.94
315.312	378.94
315.542	377.94
315.771	379.94
316.001	376.94
316.23	376.94
316.46	387.94
316.689	380.94
316.919	368.94
317.148	382.94
317.377	382.94
317.607	387.94
317.836	369.94
318.065	385.94
318.295	385.94
318.524	357.94
318.753	381.94
318.983	384.94
319.212	392.94
319.441	400.94
319.67	393.94
319.9	394.94
320.129	399.94
320.358	386.94
320.587	398.94
320.816	395.94
321.046	399.94
321.275	388.94
321.504	377.94
321.733	374.94
321.962	406.94
322.191	386.94
322.42	388.94
322.649	398.94
322.878	410.94
323.108	396.94
323.337	393.94
323.566	406.94
323.795	392.94
324.024	401.94
324.253	390.94
324.482	408.94
324.71	402.94
324.939	409.94
325.168	428.94
325.397	413.94
325.626	435.94
325.855	405.94
326.084	389.94
326.313	419.94
326.542	422.94
326.77	409.94
326.999	399.94
327.228	413.94
327.457	429.94
327.686	403.94
327.914	419.94
328.143	412.94
328.372	397.94
328.6	402.94
328.829	420.94
329.058	408.94
329.287	433.94
329.515	429.94
329.744	425.94
329.972	441.94
330.201	441.94
330.43	435.94
330.658	408.94
330.887	420.94
331.115	430.94
331.344	449.94
331.572	446.94
331.801	431.94
332.03	445.94
332.258	445.94
332.486	440.94
332.715	428.94
332.943	450.94
333.172	459.94
333.4	462.94
333.629	481.94
333.857	461.94
334.085	466.94
334.314	476.94
334.542	481.94
334.771	498.94
334.999	478.94
335.227	459.94
335.455	467.94
335.684	485.94
335.912	484.94
336.14	459.94
336.369	468.94
336.597	473.94
336.825	469.94
337.053	481.94
337.281	480.94
337.51	483.94
337.738	471.94
337.966	474.94
338.194	474.94
338.422	469.94
338.65	452.94
338.878	476.94
339.106	465.94
339.334	487.94
339.562	489.94
339.79	454.94
340.018	458.94
340.246	468.94
340.474	461.94
340.702	443.94
340.93	457.94
341.158	443.94
341.386	457.94
341.614	463.94
341.842	464.94
342.07	476.94
342.298	439.94
342.526	445.94
342.754	473.94
342.981	476.94
343.209	456.94
343.437	473.94
343.665	462.94
343.893	486.94
344.12	515.94
344.348	492.94
344.576	471.94
344.804	474.94
345.031	476.94
345.259	481.94
345.487	457.94
345.714	459.94
345.942	449.94
346.17	450.94
346.397	443.94
346.625	460.94
346.853	456.94
347.08	435.94
347.308	446.94
347.535	474.94
347.763	461.94
347.99	444.94
348.218	454.94
348.445	433.94
348.673	463.94
348.9	444.94
349.128	442.94
349.355	453.94
349.583	461.94
349.81	425.94
350.037	419.94
350.265	445.94
350.492	451.94
350.72	451.94
350.947	433.94
351.174	422.94
351.402	439.94
351.629	430.94
351.856	453.94
352.083	440.94
352.311	432.94
352.538	431.94
352.765	456.94
352.992	443.94
353.22	434.94
353.447	435.94
353.674	425.94
353.901	429.94
354.128	427.94
354.355	425.94
354.583	444.94
354.81	449.94
355.037	449.94
355.264	429.94
355.491	453.94
355.718	442.94
355.945	457.94
356.172	438.94
356.399	412.94
356.626	448.94
356.853	444.94
357.08	453.94
357.307	465.94
357.534	440.94
357.761	449.94
357.988	467.94
358.215	470.94
358.441	456.94
358.668	468.94
358.895	469.94
359.122	451.94
359.349	437.94
359.576	447.94
359.802	446.94
360.029	461.94
360.256	441.94
360.483	462.94
360.709	457.94
360.936	450.94
361.163	439.94
361.39	465.94
361.616	451.94
361.843	449.94
362.07	449.94
362.296	430.94
362.523	471.94
362.749	462.94
362.976	463.94
363.203	469.94
363.429	456.94
363.656	465.94
363.882	472.94
364.109	467.94
364.335	457.94
364.562	473.94
364.788	469.94
365.015	469.94
365.241	461.94
365.468	457.94
365.694	471.94
365.92	463.94
366.147	439.94
366.373	472.94
366.599	476.94
366.826	472.94
367.052	460.94
367.278	456.94
367.505	454.94
367.731	479.94
367.957	469.94
368.184	454.94
368.41	483.94
368.636	467.94
368.862	478.94
369.089	467.94
369.315	475.94
369.541	468.94
369.767	465.94
369.993	491.94
370.219	476.94
370.445	482.94
370.672	472.94
370.898	470.94
371.124	480.94
371.35	492.94
371.576	489.94
371.802	498.94
372.028	499.94
372.254	495.94
372.48	502.94
372.706	501.94
372.932	509.94
373.158	516.94
373.384	524.94
373.61	519.94
373.835	521.94
374.061	515.94
374.287	513.94
374.513	489.94
374.739	555.94
374.965	546.94
375.191	537.94
375.416	517.94
375.642	507.94
375.868	524.94
376.094	510.94
376.319	529.94
376.545	508.94
376.771	489.94
376.997	498.94
377.222	488.94
377.448	494.94
377.674	488.94
377.899	486.94
378.125	493.94
378.35	489.94
378.576	484.94
378.802	476.94
379.027	504.94
379.253	487.94
379.478	481.94
379.704	474.94
379.929	510.94
380.155	498.94
380.38	505.94
380.606	509.94
380.831	486.94
381.057	508.94
381.282	493.94
381.507	493.94
381.733	523.94
381.958	516.94
382.184	513.94
382.409	502.94
382.634	534.94
382.86	522.94
383.085	527.94
383.31	502.94
383.535	521.94
383.761	515.94
383.986	533.94
384.211	526.94
384.436	540.94
384.662	538.94
384.887	538.94
385.112	540.94
385.337	535.94
385.562	561.94
385.787	551.94
386.013	559.94
386.238	546.94
386.463	575.94
386.688	554.94
386.913	556.94
387.138	564.94
387.363	568.94
387.588	558.94
387.813	552.94
388.038	554.94
388.263	561.94
388.488	554.94
388.713	540.94
388.938	559.94
389.163	554.94
389.387	557.94
389.612	567.94
389.837	573.94
390.062	565.94
390.287	562.94
390.512	572.94
390.736	610.94
390.961	603.94
391.186	566.94
391.411	580.94
391.636	587.94
391.86	582.94
392.085	600.94
392.31	590.94
392.534	580.94
392.759	598.94
392.984	594.94
393.208	614.94
393.433	614.94
393.658	658.94
393.882	589.94
394.107	570.94
394.331	585.94
394.556	601.94
394.78	580.94
395.005	583.94
395.229	569.94
395.454	612.94
395.678	590.94
395.903	611.94
396.127	619.94
396.352	644.94
396.576	597.94
396.801	617.94
397.025	655.94
397.249	613.94
397.474	612.94
397.698	616.94
397.922	633.94
398.147	644.94
398.371	626.94
398.595	643.94
398.82	666.94
399.044	658.94
399.268	701.94
399.492	707.94
399.717	704.94
399.941	714.94
400.165	738.94
400.389	708.94
400.613	699.94
400.837	678.94
401.062	690.94
401.286	690.94
401.51	676.94
401.734	655.94
401.958	652.94
402.182	639.94
402.406	642.94
402.63	674.94
402.854	665.94
403.078	671.94
403.302	634.94
403.526	655.94
403.75	660.94
403.974	675.94
404.198	633.94
404.422	679.94
404.645	674.94
404.869	677.94
405.093	682.94
405.317	660.94
405.541	656.94
405.765	685.94
405.988	670.94
406.212	696.94
406.436	676.94
406.66	704.94
406.883	692.94
407.107	708.94
407.331	710.94
407.555	730.94
407.778	731.94
408.002	718.94
408.226	743.94
408.449	731.94
408.673	713.94
408.896	745.94
409.12	700.94
409.344	714.94
409.567	710.94
409.791	701.94
410.014	711.94
410.238	685.94
410.461	684.94
410.685	679.94
410.908	669.94
411.132	679.94
411.355	695.94
411.578	695.94
411.802	696.94
412.025	700.94
412.249	665.94
412.472	660.94
412.695	692.94
412.919	653.94
413.142	676.94
413.365	663.94
413.589	666.94
413.812	646.94
414.035	637.94
414.258	663.94
414.482	664.94
414.705	656.94
414.928	662.94
415.151	655.94
415.374	665.94
415.597	655.94
415.821	654.94
416.044	644.94
416.267	639.94
416.49	640.94
416.713	656.94
416.936	648.94
417.159	655.94
417.382	611.94
417.605	643.94
417.828	635.94
418.051	643.94
418.274	621.94
418.497	635.94
418.72	646.94
418.943	597.94
419.166	650.94
419.389	685.94
419.611	668.94
419.834	648.94
420.057	653.94
420.28	649.94
420.503	636.94
420.726	631.94
420.948	603.94
421.171	642.94
421.394	621.94
421.617	622.94
421.839	636.94
422.062	643.94
422.285	610.94
422.507	626.94
422.73	650.94
422.953	630.94
423.175	642.94
423.398	632.94
423.621	612.94
423.843	644.94
424.066	652.94
424.288	611.94
424.511	611.94
424.733	624.94
424.956	640.94
425.178	637.94
425.401	622.94
425.623	623.94
425.846	603.94
426.068	613.94
426.291	636.94
426.513	635.94
426.735	608.94
426.958	619.94
427.18	630.94
427.402	608.94
427.625	633.94
427.847	605.94
428.069	610.94
428.292	616.94
428.514	619.94
428.736	621.94
428.958	612.94
429.181	604.94
429.403	588.94
429.625	616.94
429.847	595.94
430.069	591.94
430.292	625.94
430.514	621.94
430.736	631.94
430.958	608.94
431.18	620.94
431.402	581.94
431.624	614.94
431.846	607.94
432.068	610.94
432.29	619.94
432.512	599.94
432.734	625.94
432.956	604.94
433.178	605.94
433.4	601.94
433.622	625.94
433.844	627.94
434.066	633.94
434.287	628.94
434.509	614.94
434.731	639.94
434.953	633.94
435.175	632.94
435.397	624.94
435.618	648.94
435.84	615.94
436.062	602.94
436.284	625.94
436.505	590.94
436.727	596.94
436.949	600.94
437.17	595.94
437.392	580.94
437.614	597.94
437.835	570.94
438.057	596.94
438.278	585.94
438.5	600.94
438.721	612.94
438.943	587.94
439.165	599.94
439.386	573.94
439.608	600.94
439.829	581.94
440.05	604.94
440.272	605.94
440.493	565.94
440.715	606.94
440.936	627.94
441.158	608.94
441.379	594.94
441.6	606.94
441.822	614.94
442.043	622.94
442.264	625.94
442.486	632.94
442.707	628.94
442.928	610.94
443.149	631.94
443.371	599.94
443.592	615.94
443.813	617.94
444.034	605.94
444.255	643.94
444.476	638.94
444.698	637.94
444.919	643.94
445.14	715.94
445.361	669.94
445.582	626.94
445.803	604.94
446.024	609.94
446.245	630.94
446.466	624.94
446.687	619.94
446.908	623.94
447.129	596.94
447.35	588.94
447.571	625.94
447.792	601.94
448.013	578.94
448.234	539.94
448.455	564.94
448.675	586.94
448.896	571.94
449.117	596.94
449.338	566.94
449.559	562.94
449.779	562.94
450	563.94
450.221	561.94
450.442	578.94
450.662	536.94
450.883	550.94
451.104	585.94
451.324	557.94
451.545	554.94
451.766	579.94
451.986	564.94
452.207	577.94
452.428	573.94
452.648	563.94
452.869	541.94
453.089	547.94
453.31	522.94
453.53	552.94
453.751	559.94
453.971	550.94
454.192	553.94
454.412	547.94
454.633	532.94
454.853	542.94
455.073	522.94
455.294	544.94
455.514	529.94
455.734	528.94
455.955	532.94
456.175	544.94
456.395	531.94
456.616	565.94
456.836	531.94
457.056	564.94
457.276	537.94
457.497	562.94
457.717	544.94
457.937	561.94
458.157	561.94
458.377	552.94
458.598	576.94
458.818	565.94
459.038	585.94
459.258	585.94
459.478	596.94
459.698	600.94
459.918	605.94
460.138	622.94
460.358	605.94
460.578	629.94
460.798	634.94
461.018	634.94
461.238	645.94
461.458	648.94
461.678	642.94
461.898	672.94
462.118	652.94
462.338	662.94
462.558	667.94
462.777	696.94
462.997	675.94
463.217	685.94
463.437	715.94
463.657	705.94
463.876	693.94
464.096	702.94
464.316	697.94
464.536	669.94
464.755	681.94
464.975	650.94
465.195	652.94
465.414	658.94
465.634	642.94
465.854	617.94
466.073	624.94
466.293	608.94
466.512	608.94
466.732	593.94
466.951	598.94
467.171	581.94
467.391	619.94
467.61	609.94
467.829	596.94
468.049	610.94
468.268	609.94
468.488	615.94
468.707	599.94
468.927	607.94
469.146	606.94
469.365	586.94
469.585	597.94
469.804	596.94
470.023	621.94
470.243	602.94
470.462	604.94
470.681	622.94
470.901	611.94
471.12	601.94
471.339	607.94
471.558	612.94
471.777	602.94
471.997	612.94
472.216	594.94
472.435	606.94
472.654	609.94
472.873	606.94
473.092	606.94
473.311	620.94
473.53	597.94
473.749	624.94
473.968	613.94
474.187	596.94
474.406	605.94
474.625	614.94
474.844	614.94
475.063	632.94
475.282	633.94
475.501	627.94
475.72	637.94
475.939	637.94
476.158	633.94
476.377	653.94
476.596	681.94
476.814	701.94
477.033	649.94
477.252	671.94
477.471	660.94
477.69	643.94
477.908	667.94
478.127	672.94
478.346	666.94
478.564	678.94
478.783	683.94
479.002	677.94
479.22	697.94
479.439	698.94
479.658	717.94
479.876	700.94
480.095	712.94
480.313	710.94
480.532	730.94
480.751	733.94
480.969	714.94
481.188	715.94
481.406	734.94
481.624	714.94
481.843	692.94
482.061	728.94
482.28	735.94
482.498	718.94
482.717	736.94
482.935	709.94
483.153	729.94
483.372	699.94
483.59	725.94
483.808	736.94
484.027	716.94
484.245	714.94
484.463	693.94
484.681	747.94
484.9	737.94
485.118	735.94
485.336	755.94
485.554	729.94
485.772	730.94
485.99	748.94
486.209	730.94
486.427	748.94
486.645	735.94
486.863	723.94
487.081	708.94
487.299	733.94
487.517	737.94
487.735	760.94
487.953	733.94
488.171	753.94
488.389	753.94
488.607	738.94
488.825	745.94
489.043	758.94
489.261	737.94
489.479	765.94
489.696	741.94
489.914	712.94
490.132	766.94
490.35	742.94
490.568	742.94
490.786	742.94
491.003	757.94
491.221	759.94
491.439	765.94
491.657	782.94
491.874	756.94
492.092	770.94
492.31	754.94
492.527	784.94
492.745	749.94
492.963	782.94
493.18	786.94
493.398	748.94
493.615	800.94
493.833	797.94
494.05	777.94
494.268	785.94
494.485	797.94
494.703	778.94
494.92	765.94
495.138	782.94
495.355	811.94
495.573	792.94
495.79	816.94
496.008	801.94
496.225	806.94
496.442	818.94
496.66	814.94
496.877	842.94
497.094	844.94
497.312	858.94
497.529	852.94
497.746	846.94
497.963	859.94
498.181	857.94
498.398	905.94
498.615	949.94
498.832	954.94
499.049	1014.94
499.267	1014.94
499.484	1064.94
499.701	1051.94
499.918	1118.94
500.135	1164.94
500.352	1186.94
500.569	1184.94
500.786	1165.94
501.003	1182.94
501.22	1154.94
501.437	1088.94
