Data from Fe(NO3)3@0.1M.TitratingCurve.Agarose3%dH2O.NegLispCup.LampEnergy10.LIBS07252019_HRD10591_16-41-23-333.txt Node
Date: Thu Jul 25 16:41:23 EDT 2019
User: cochatt
Spectrometer: HR+D1059
Trigger mode: 1
Integration Time (sec): 1.000000E-1
Scans to average: 1
Electric dark correction enabled: true
Nonlinearity correction enabled: false
Boxcar width: 0
XAxis mode: Wavelengths
Number of Pixels in Spectrum: 2048
>>>>>Begin Spectral Data<<<<<
223.165	-21.69
223.4	-21.69
223.635	-21.69
223.869	-18.69
224.104	-9.69
224.338	-10.69
224.573	-13.69
224.808	-13.69
225.042	-16.69
225.277	-0.69
225.511	-13.69
225.746	9.31
225.98	7.31
226.215	5.31
226.449	21.31
226.683	20.31
226.918	25.31
227.152	30.31
227.387	46.31
227.621	30.31
227.856	41.31
228.09	43.31
228.324	53.31
228.559	59.31
228.793	64.31
229.027	72.31
229.262	81.31
229.496	80.31
229.73	73.31
229.964	96.31
230.199	94.31
230.433	86.31
230.667	103.31
230.901	96.31
231.136	93.31
231.37	77.31
231.604	104.31
231.838	110.31
232.072	110.31
232.306	89.31
232.541	86.31
232.775	105.31
233.009	93.31
233.243	99.31
233.477	105.31
233.711	105.31
233.945	118.31
234.179	109.31
234.413	114.31
234.647	114.31
234.881	98.31
235.115	102.31
235.349	112.31
235.583	103.31
235.817	105.31
236.051	96.31
236.285	108.31
236.519	115.31
236.753	110.31
236.987	101.31
237.221	105.31
237.455	105.31
237.689	104.31
237.922	104.31
238.156	108.31
238.39	96.31
238.624	125.31
238.858	115.31
239.091	119.31
239.325	114.31
239.559	119.31
239.793	119.31
240.027	116.31
240.26	121.31
240.494	119.31
240.728	117.31
240.961	128.31
241.195	114.31
241.429	130.31
241.662	130.31
241.896	116.31
242.13	121.31
242.363	121.31
242.597	116.31
242.83	121.31
243.064	118.31
243.298	110.31
243.531	115.31
243.765	126.31
243.998	127.31
244.232	120.31
244.465	124.31
244.699	116.31
244.932	130.31
245.166	122.31
245.399	132.31
245.633	139.31
245.866	126.31
246.099	113.31
246.333	126.31
246.566	128.31
246.8	136.31
247.033	136.31
247.266	139.31
247.5	127.31
247.733	144.31
247.966	134.31
248.2	131.31
248.433	129.31
248.666	128.31
248.899	120.31
249.133	141.31
249.366	132.31
249.599	142.31
249.832	146.31
250.066	141.31
250.299	128.31
250.532	145.31
250.765	139.31
250.998	146.31
251.231	134.31
251.465	149.31
251.698	146.31
251.931	135.31
252.164	146.31
252.397	146.31
252.63	136.31
252.863	161.31
253.096	150.31
253.329	138.31
253.562	157.31
253.795	151.31
254.028	140.31
254.261	143.31
254.494	138.31
254.727	152.31
254.96	140.31
255.193	140.31
255.426	158.31
255.659	141.31
255.892	139.31
256.124	139.31
256.357	159.31
256.59	145.31
256.823	124.31
257.056	146.31
257.289	152.31
257.521	158.31
257.754	154.31
257.987	145.31
258.22	155.31
258.452	158.31
258.685	166.31
258.918	161.31
259.151	144.31
259.383	150.31
259.616	145.31
259.849	164.31
260.081	172.31
260.314	149.31
260.547	152.31
260.779	162.31
261.012	178.31
261.244	170.31
261.477	177.31
261.71	161.31
261.942	163.31
262.175	169.31
262.407	156.31
262.64	168.31
262.872	166.31
263.105	167.31
263.337	165.31
263.57	179.31
263.802	160.31
264.035	159.31
264.267	170.31
264.499	160.31
264.732	185.31
264.964	184.31
265.197	182.31
265.429	183.31
265.661	187.31
265.894	176.31
266.126	182.31
266.358	168.31
266.591	177.31
266.823	188.31
267.055	171.31
267.287	180.31
267.52	179.31
267.752	190.31
267.984	185.31
268.216	171.31
268.448	193.31
268.681	200.31
268.913	182.31
269.145	169.31
269.377	192.31
269.609	189.31
269.841	196.31
270.073	204.31
270.306	182.31
270.538	184.31
270.77	191.31
271.002	184.31
271.234	187.31
271.466	163.31
271.698	193.31
271.93	192.31
272.162	180.31
272.394	199.31
272.626	193.31
272.858	193.31
273.09	204.31
273.322	197.31
273.553	176.31
273.785	204.31
274.017	201.31
274.249	208.31
274.481	207.31
274.713	195.31
274.945	200.31
275.176	202.31
275.408	201.31
275.64	201.31
275.872	194.31
276.104	210.31
276.335	200.31
276.567	197.31
276.799	190.31
277.031	221.31
277.262	193.31
277.494	201.31
277.726	209.31
277.957	207.31
278.189	214.31
278.421	210.31
278.652	198.31
278.884	221.31
279.115	227.31
279.347	206.31
279.579	221.31
279.81	218.31
280.042	204.31
280.273	222.31
280.505	202.31
280.736	224.31
280.968	218.31
281.199	215.31
281.431	220.31
281.662	212.31
281.894	215.31
282.125	222.31
282.356	219.31
282.588	232.31
282.819	222.31
283.051	224.31
283.282	214.31
283.513	213.31
283.745	216.31
283.976	215.31
284.207	221.31
284.439	238.31
284.67	240.31
284.901	224.31
285.132	228.31
285.364	219.31
285.595	237.31
285.826	222.31
286.057	222.31
286.288	225.31
286.52	219.31
286.751	226.31
286.982	232.31
287.213	232.31
287.444	237.31
287.675	228.31
287.906	233.31
288.138	256.31
288.369	213.31
288.6	237.31
288.831	252.31
289.062	240.31
289.293	259.31
289.524	235.31
289.755	235.31
289.986	239.31
290.217	223.31
290.448	223.31
290.679	241.31
290.91	253.31
291.141	254.31
291.371	233.31
291.602	241.31
291.833	242.31
292.064	245.31
292.295	234.31
292.526	252.31
292.757	245.31
292.987	253.31
293.218	245.31
293.449	244.31
293.68	262.31
293.91	230.31
294.141	242.31
294.372	246.31
294.603	244.31
294.833	232.31
295.064	233.31
295.295	257.31
295.525	244.31
295.756	255.31
295.987	240.31
296.217	243.31
296.448	258.31
296.679	245.31
296.909	235.31
297.14	268.31
297.37	255.31
297.601	273.31
297.831	257.31
298.062	246.31
298.292	257.31
298.523	265.31
298.753	260.31
298.984	275.31
299.214	258.31
299.445	259.31
299.675	254.31
299.905	264.31
300.136	274.31
300.366	257.31
300.597	258.31
300.827	255.31
301.057	274.31
301.288	281.31
301.518	268.31
301.748	276.31
301.979	269.31
302.209	255.31
302.439	298.31
302.669	275.31
302.9	276.31
303.13	268.31
303.36	284.31
303.59	260.31
303.82	275.31
304.051	267.31
304.281	282.31
304.511	273.31
304.741	283.31
304.971	281.31
305.201	283.31
305.431	267.31
305.661	268.31
305.891	258.31
306.121	274.31
306.352	273.31
306.582	260.31
306.812	259.31
307.042	269.31
307.272	262.31
307.502	256.31
307.731	280.31
307.961	279.31
308.191	272.31
308.421	279.31
308.651	269.31
308.881	245.31
309.111	298.31
309.341	274.31
309.571	269.31
309.8	275.31
310.03	280.31
310.26	282.31
310.49	284.31
310.72	276.31
310.949	282.31
311.179	274.31
311.409	281.31
311.639	283.31
311.868	262.31
312.098	266.31
312.328	266.31
312.557	277.31
312.787	260.31
313.017	264.31
313.246	279.31
313.476	292.31
313.706	261.31
313.935	286.31
314.165	299.31
314.394	272.31
314.624	281.31
314.853	286.31
315.083	298.31
315.312	293.31
315.542	285.31
315.771	293.31
316.001	294.31
316.23	289.31
316.46	276.31
316.689	284.31
316.919	268.31
317.148	291.31
317.377	274.31
317.607	274.31
317.836	297.31
318.065	280.31
318.295	298.31
318.524	276.31
318.753	290.31
318.983	278.31
319.212	273.31
319.441	272.31
319.67	282.31
319.9	296.31
320.129	294.31
320.358	290.31
320.587	294.31
320.816	276.31
321.046	288.31
321.275	283.31
321.504	287.31
321.733	299.31
321.962	289.31
322.191	282.31
322.42	288.31
322.649	277.31
322.878	276.31
323.108	296.31
323.337	291.31
323.566	299.31
323.795	283.31
324.024	295.31
324.253	299.31
324.482	288.31
324.71	291.31
324.939	294.31
325.168	297.31
325.397	283.31
325.626	302.31
325.855	304.31
326.084	305.31
326.313	300.31
326.542	293.31
326.77	306.31
326.999	314.31
327.228	308.31
327.457	303.31
327.686	319.31
327.914	306.31
328.143	334.31
328.372	296.31
328.6	309.31
328.829	280.31
329.058	305.31
329.287	285.31
329.515	329.31
329.744	325.31
329.972	325.31
330.201	321.31
330.43	309.31
330.658	312.31
330.887	305.31
331.115	320.31
331.344	306.31
331.572	336.31
331.801	333.31
332.03	329.31
332.258	337.31
332.486	333.31
332.715	353.31
332.943	393.31
333.172	369.31
333.4	389.31
333.629	420.31
333.857	408.31
334.085	390.31
334.314	379.31
334.542	360.31
334.771	379.31
334.999	376.31
335.227	379.31
335.455	378.31
335.684	392.31
335.912	370.31
336.14	372.31
336.369	369.31
336.597	353.31
336.825	360.31
337.053	353.31
337.281	357.31
337.51	370.31
337.738	354.31
337.966	350.31
338.194	350.31
338.422	323.31
338.65	341.31
338.878	339.31
339.106	335.31
339.334	340.31
339.562	347.31
339.79	308.31
340.018	336.31
340.246	325.31
340.474	324.31
340.702	322.31
340.93	318.31
341.158	327.31
341.386	320.31
341.614	331.31
341.842	334.31
342.07	333.31
342.298	315.31
342.526	333.31
342.754	324.31
342.981	333.31
343.209	327.31
343.437	336.31
343.665	352.31
343.893	362.31
344.12	367.31
344.348	346.31
344.576	355.31
344.804	332.31
345.031	329.31
345.259	326.31
345.487	321.31
345.714	313.31
345.942	308.31
346.17	319.31
346.397	299.31
346.625	322.31
346.853	324.31
347.08	307.31
347.308	294.31
347.535	303.31
347.763	302.31
347.99	322.31
348.218	317.31
348.445	308.31
348.673	306.31
348.9	305.31
349.128	307.31
349.355	284.31
349.583	315.31
349.81	301.31
350.037	314.31
350.265	306.31
350.492	287.31
350.72	288.31
350.947	301.31
351.174	307.31
351.402	298.31
351.629	310.31
351.856	307.31
352.083	313.31
352.311	303.31
352.538	278.31
352.765	306.31
352.992	303.31
353.22	294.31
353.447	300.31
353.674	319.31
353.901	308.31
354.128	300.31
354.355	292.31
354.583	301.31
354.81	288.31
355.037	310.31
355.264	305.31
355.491	283.31
355.718	314.31
355.945	302.31
356.172	293.31
356.399	308.31
356.626	306.31
356.853	308.31
357.08	299.31
357.307	318.31
357.534	315.31
357.761	299.31
357.988	310.31
358.215	298.31
358.441	312.31
358.668	336.31
358.895	304.31
359.122	323.31
359.349	297.31
359.576	304.31
359.802	318.31
360.029	293.31
360.256	305.31
360.483	309.31
360.709	298.31
360.936	326.31
361.163	292.31
361.39	300.31
361.616	298.31
361.843	312.31
362.07	294.31
362.296	310.31
362.523	293.31
362.749	308.31
362.976	303.31
363.203	321.31
363.429	328.31
363.656	316.31
363.882	291.31
364.109	290.31
364.335	307.31
364.562	316.31
364.788	306.31
365.015	300.31
365.241	288.31
365.468	309.31
365.694	320.31
365.92	303.31
366.147	311.31
366.373	295.31
366.599	314.31
366.826	315.31
367.052	300.31
367.278	328.31
367.505	293.31
367.731	314.31
367.957	306.31
368.184	329.31
368.41	314.31
368.636	318.31
368.862	314.31
369.089	326.31
369.315	311.31
369.541	306.31
369.767	330.31
369.993	326.31
370.219	340.31
370.445	336.31
370.672	325.31
370.898	326.31
371.124	329.31
371.35	344.31
371.576	336.31
371.802	315.31
372.028	329.31
372.254	352.31
372.48	330.31
372.706	344.31
372.932	349.31
373.158	369.31
373.384	346.31
373.61	334.31
373.835	330.31
374.061	329.31
374.287	336.31
374.513	330.31
374.739	343.31
374.965	355.31
375.191	366.31
375.416	368.31
375.642	340.31
375.868	346.31
376.094	341.31
376.319	332.31
376.545	345.31
376.771	327.31
376.997	334.31
377.222	332.31
377.448	345.31
377.674	326.31
377.899	332.31
378.125	336.31
378.35	339.31
378.576	319.31
378.802	323.31
379.027	335.31
379.253	318.31
379.478	336.31
379.704	331.31
379.929	331.31
380.155	330.31
380.38	344.31
380.606	320.31
380.831	333.31
381.057	344.31
381.282	339.31
381.507	343.31
381.733	343.31
381.958	337.31
382.184	363.31
382.409	356.31
382.634	345.31
382.86	358.31
383.085	368.31
383.31	363.31
383.535	368.31
383.761	355.31
383.986	364.31
384.211	363.31
384.436	388.31
384.662	398.31
384.887	407.31
385.112	397.31
385.337	395.31
385.562	395.31
385.787	386.31
386.013	401.31
386.238	379.31
386.463	405.31
386.688	393.31
386.913	393.31
387.138	402.31
387.363	400.31
387.588	382.31
387.813	393.31
388.038	388.31
388.263	403.31
388.488	396.31
388.713	380.31
388.938	398.31
389.163	397.31
389.387	384.31
389.612	395.31
389.837	375.31
390.062	384.31
390.287	386.31
390.512	390.31
390.736	379.31
390.961	400.31
391.186	390.31
391.411	396.31
391.636	439.31
391.86	429.31
392.085	428.31
392.31	442.31
392.534	421.31
392.759	415.31
392.984	420.31
393.208	410.31
393.433	412.31
393.658	423.31
393.882	417.31
394.107	403.31
394.331	422.31
394.556	422.31
394.78	402.31
395.005	416.31
395.229	446.31
395.454	442.31
395.678	440.31
395.903	436.31
396.127	432.31
396.352	412.31
396.576	414.31
396.801	425.31
397.025	437.31
397.249	425.31
397.474	440.31
397.698	440.31
397.922	454.31
398.147	437.31
398.371	457.31
398.595	476.31
398.82	477.31
399.044	510.31
399.268	576.31
399.492	632.31
399.717	662.31
399.941	662.31
400.165	619.31
400.389	562.31
400.613	514.31
400.837	502.31
401.062	478.31
401.286	488.31
401.51	488.31
401.734	482.31
401.958	480.31
402.182	488.31
402.406	489.31
402.63	521.31
402.854	522.31
403.078	499.31
403.302	492.31
403.526	534.31
403.75	545.31
403.974	534.31
404.198	564.31
404.422	562.31
404.645	539.31
404.869	524.31
405.093	542.31
405.317	534.31
405.541	519.31
405.765	516.31
405.988	508.31
406.212	515.31
406.436	525.31
406.66	563.31
406.883	544.31
407.107	586.31
407.331	592.31
407.555	610.31
407.778	603.31
408.002	576.31
408.226	591.31
408.449	572.31
408.673	551.31
408.896	531.31
409.12	540.31
409.344	548.31
409.567	530.31
409.791	538.31
410.014	572.31
410.238	567.31
410.461	535.31
410.685	539.31
410.908	510.31
411.132	490.31
411.355	523.31
411.578	529.31
411.802	496.31
412.025	525.31
412.249	530.31
412.472	527.31
412.695	521.31
412.919	483.31
413.142	471.31
413.365	482.31
413.589	492.31
413.812	494.31
414.035	481.31
414.258	483.31
414.482	495.31
414.705	512.31
414.928	502.31
415.151	509.31
415.374	489.31
415.597	520.31
415.821	495.31
416.044	485.31
416.267	469.31
416.49	466.31
416.713	489.31
416.936	483.31
417.159	480.31
417.382	481.31
417.605	480.31
417.828	489.31
418.051	486.31
418.274	512.31
418.497	500.31
418.72	512.31
418.943	514.31
419.166	536.31
419.389	549.31
419.611	543.31
419.834	526.31
420.057	489.31
420.28	509.31
420.503	468.31
420.726	470.31
420.948	494.31
421.171	528.31
421.394	487.31
421.617	496.31
421.839	484.31
422.062	482.31
422.285	491.31
422.507	511.31
422.73	514.31
422.953	483.31
423.175	498.31
423.398	506.31
423.621	499.31
423.843	509.31
424.066	514.31
424.288	485.31
424.511	486.31
424.733	472.31
424.956	483.31
425.178	481.31
425.401	486.31
425.623	499.31
425.846	468.31
426.068	443.31
426.291	470.31
426.513	457.31
426.735	466.31
426.958	467.31
427.18	458.31
427.402	444.31
427.625	459.31
427.847	440.31
428.069	423.31
428.292	451.31
428.514	455.31
428.736	434.31
428.958	432.31
429.181	438.31
429.403	441.31
429.625	447.31
429.847	435.31
430.069	434.31
430.292	445.31
430.514	442.31
430.736	440.31
430.958	464.31
431.18	466.31
431.402	436.31
431.624	423.31
431.846	468.31
432.068	438.31
432.29	443.31
432.512	436.31
432.734	464.31
432.956	441.31
433.178	461.31
433.4	457.31
433.622	460.31
433.844	467.31
434.066	447.31
434.287	466.31
434.509	470.31
434.731	478.31
434.953	483.31
435.175	496.31
435.397	489.31
435.618	460.31
435.84	442.31
436.062	450.31
436.284	443.31
436.505	441.31
436.727	451.31
436.949	457.31
437.17	451.31
437.392	426.31
437.614	440.31
437.835	430.31
438.057	439.31
438.278	447.31
438.5	446.31
438.721	427.31
438.943	458.31
439.165	423.31
439.386	442.31
439.608	452.31
439.829	452.31
440.05	451.31
440.272	446.31
440.493	478.31
440.715	469.31
440.936	459.31
441.158	459.31
441.379	468.31
441.6	510.31
441.822	502.31
442.043	502.31
442.264	474.31
442.486	498.31
442.707	508.31
442.928	490.31
443.149	498.31
443.371	486.31
443.592	484.31
443.813	488.31
444.034	497.31
444.255	501.31
444.476	541.31
444.698	571.31
444.919	585.31
445.14	662.31
445.361	584.31
445.582	516.31
445.803	486.31
446.024	451.31
446.245	448.31
446.466	458.31
446.687	476.31
446.908	453.31
447.129	451.31
447.35	437.31
447.571	433.31
447.792	440.31
448.013	435.31
448.234	432.31
448.455	416.31
448.675	410.31
448.896	411.31
449.117	431.31
449.338	408.31
449.559	414.31
449.779	419.31
450	404.31
450.221	427.31
450.442	432.31
450.662	425.31
450.883	420.31
451.104	443.31
451.324	436.31
451.545	440.31
451.766	411.31
451.986	410.31
452.207	408.31
452.428	418.31
452.648	424.31
452.869	396.31
453.089	403.31
453.31	406.31
453.53	407.31
453.751	390.31
453.971	404.31
454.192	394.31
454.412	387.31
454.633	408.31
454.853	404.31
455.073	392.31
455.294	404.31
455.514	400.31
455.734	386.31
455.955	388.31
456.175	389.31
456.395	380.31
456.616	384.31
456.836	385.31
457.056	392.31
457.276	380.31
457.497	383.31
457.717	389.31
457.937	384.31
458.157	394.31
458.377	388.31
458.598	403.31
458.818	384.31
459.038	424.31
459.258	435.31
459.478	438.31
459.698	452.31
459.918	467.31
460.138	488.31
460.358	510.31
460.578	511.31
460.798	512.31
461.018	507.31
461.238	510.31
461.458	507.31
461.678	503.31
461.898	514.31
462.118	525.31
462.338	543.31
462.558	547.31
462.777	563.31
462.997	610.31
463.217	641.31
463.437	648.31
463.657	606.31
463.876	579.31
464.096	588.31
464.316	595.31
464.536	561.31
464.755	567.31
464.975	538.31
465.195	523.31
465.414	506.31
465.634	464.31
465.854	480.31
466.073	472.31
466.293	450.31
466.512	438.31
466.732	432.31
466.951	435.31
467.171	436.31
467.391	427.31
467.61	441.31
467.829	426.31
468.049	432.31
468.268	416.31
468.488	417.31
468.707	412.31
468.927	418.31
469.146	438.31
469.365	418.31
469.585	425.31
469.804	412.31
470.023	436.31
470.243	441.31
470.462	416.31
470.681	451.31
470.901	441.31
471.12	436.31
471.339	444.31
471.558	432.31
471.777	413.31
471.997	407.31
472.216	417.31
472.435	416.31
472.654	403.31
472.873	402.31
473.092	415.31
473.311	404.31
473.53	408.31
473.749	407.31
473.968	399.31
474.187	387.31
474.406	401.31
474.625	418.31
474.844	413.31
475.063	398.31
475.282	436.31
475.501	416.31
475.72	408.31
475.939	411.31
476.158	406.31
476.377	423.31
476.596	420.31
476.814	423.31
477.033	433.31
477.252	434.31
477.471	447.31
477.69	441.31
477.908	441.31
478.127	460.31
478.346	478.31
478.564	480.31
478.783	483.31
479.002	469.31
479.22	491.31
479.439	510.31
479.658	474.31
479.876	489.31
480.095	490.31
480.313	495.31
480.532	528.31
480.751	496.31
480.969	464.31
481.188	479.31
481.406	473.31
481.624	457.31
481.843	464.31
482.061	456.31
482.28	466.31
482.498	453.31
482.717	440.31
482.935	447.31
483.153	454.31
483.372	442.31
483.59	455.31
483.808	448.31
484.027	442.31
484.245	453.31
484.463	446.31
484.681	495.31
484.9	470.31
485.118	475.31
485.336	437.31
485.554	443.31
485.772	480.31
485.99	467.31
486.209	460.31
486.427	474.31
486.645	477.31
486.863	470.31
487.081	467.31
487.299	483.31
487.517	474.31
487.735	465.31
487.953	468.31
488.171	466.31
488.389	470.31
488.607	468.31
488.825	440.31
489.043	469.31
489.261	455.31
489.479	446.31
489.696	440.31
489.914	475.31
490.132	469.31
490.35	460.31
490.568	474.31
490.786	477.31
491.003	466.31
491.221	459.31
491.439	470.31
491.657	499.31
491.874	495.31
492.092	497.31
492.31	488.31
492.527	493.31
492.745	512.31
492.963	499.31
493.18	486.31
493.398	488.31
493.615	500.31
493.833	504.31
494.05	504.31
494.268	483.31
494.485	462.31
494.703	483.31
494.92	508.31
495.138	481.31
495.355	487.31
495.573	484.31
495.79	476.31
496.008	481.31
496.225	519.31
496.442	525.31
496.66	544.31
496.877	505.31
497.094	523.31
497.312	535.31
497.529	546.31
497.746	525.31
497.963	583.31
498.181	591.31
498.398	581.31
498.615	635.31
498.832	678.31
499.049	702.31
499.267	762.31
499.484	814.31
499.701	902.31
499.918	968.31
500.135	1095.31
500.352	1256.31
500.569	1310.31
500.786	1238.31
501.003	1140.31
501.22	1078.31
501.437	969.31
501.654	837.31
