Data from Fe(NO3)3@0.05M.TitratingCurve.Agarose3%dH2O.NegLispCup.LampEnergy10.LIBS07252019_HRD10591_16-47-45-333.txt Node
Date: Thu Jul 25 16:47:45 EDT 2019
User: cochatt
Spectrometer: HR+D1059
Trigger mode: 1
Integration Time (sec): 1.000000E-1
Scans to average: 1
Electric dark correction enabled: true
Nonlinearity correction enabled: false
Boxcar width: 0
XAxis mode: Wavelengths
Number of Pixels in Spectrum: 2048
>>>>>Begin Spectral Data<<<<<
223.165	-24.5
223.4	-24.5
223.635	-24.5
223.869	-19.5
224.104	-14.5
224.338	-7.5
224.573	-11.5
224.808	-7.5
225.042	-10.5
225.277	-7.5
225.511	-9.5
225.746	-0.5
225.98	6.5
226.215	9.5
226.449	18.5
226.683	21.5
226.918	26.5
227.152	30.5
227.387	37.5
227.621	24.5
227.856	34.5
228.09	48.5
228.324	43.5
228.559	66.5
228.793	60.5
229.027	66.5
229.262	86.5
229.496	60.5
229.73	84.5
229.964	76.5
230.199	77.5
230.433	90.5
230.667	89.5
230.901	79.5
231.136	86.5
231.37	96.5
231.604	91.5
231.838	84.5
232.072	99.5
232.306	86.5
232.541	89.5
232.775	93.5
233.009	78.5
233.243	106.5
233.477	100.5
233.711	92.5
233.945	99.5
234.179	81.5
234.413	93.5
234.647	90.5
234.881	107.5
235.115	94.5
235.349	98.5
235.583	83.5
235.817	70.5
236.051	93.5
236.285	113.5
236.519	99.5
236.753	93.5
236.987	98.5
237.221	99.5
237.455	98.5
237.689	88.5
237.922	98.5
238.156	112.5
238.39	98.5
238.624	102.5
238.858	99.5
239.091	100.5
239.325	89.5
239.559	90.5
239.793	107.5
240.027	99.5
240.26	97.5
240.494	111.5
240.728	95.5
240.961	85.5
241.195	98.5
241.429	98.5
241.662	91.5
241.896	101.5
242.13	101.5
242.363	77.5
242.597	89.5
242.83	113.5
243.064	106.5
243.298	105.5
243.531	94.5
243.765	90.5
243.998	110.5
244.232	91.5
244.465	96.5
244.699	92.5
244.932	114.5
245.166	102.5
245.399	100.5
245.633	109.5
245.866	109.5
246.099	90.5
246.333	120.5
246.566	110.5
246.8	99.5
247.033	107.5
247.266	109.5
247.5	85.5
247.733	98.5
247.966	105.5
248.2	103.5
248.433	121.5
248.666	106.5
248.899	114.5
249.133	99.5
249.366	112.5
249.599	114.5
249.832	120.5
250.066	118.5
250.299	140.5
250.532	99.5
250.765	104.5
250.998	108.5
251.231	121.5
251.465	112.5
251.698	112.5
251.931	118.5
252.164	97.5
252.397	109.5
252.63	120.5
252.863	124.5
253.096	122.5
253.329	120.5
253.562	125.5
253.795	131.5
254.028	125.5
254.261	124.5
254.494	120.5
254.727	119.5
254.96	120.5
255.193	123.5
255.426	125.5
255.659	102.5
255.892	116.5
256.124	116.5
256.357	135.5
256.59	133.5
256.823	135.5
257.056	123.5
257.289	120.5
257.521	124.5
257.754	106.5
257.987	112.5
258.22	128.5
258.452	123.5
258.685	124.5
258.918	143.5
259.151	130.5
259.383	136.5
259.616	124.5
259.849	130.5
260.081	150.5
260.314	166.5
260.547	134.5
260.779	109.5
261.012	132.5
261.244	130.5
261.477	146.5
261.71	140.5
261.942	129.5
262.175	122.5
262.407	127.5
262.64	120.5
262.872	124.5
263.105	146.5
263.337	149.5
263.57	136.5
263.802	140.5
264.035	124.5
264.267	123.5
264.499	110.5
264.732	123.5
264.964	140.5
265.197	132.5
265.429	101.5
265.661	138.5
265.894	126.5
266.126	117.5
266.358	121.5
266.591	125.5
266.823	133.5
267.055	138.5
267.287	128.5
267.52	125.5
267.752	114.5
267.984	132.5
268.216	115.5
268.448	124.5
268.681	128.5
268.913	132.5
269.145	126.5
269.377	142.5
269.609	135.5
269.841	133.5
270.073	132.5
270.306	133.5
270.538	136.5
270.77	136.5
271.002	137.5
271.234	124.5
271.466	129.5
271.698	142.5
271.93	144.5
272.162	145.5
272.394	152.5
272.626	143.5
272.858	153.5
273.09	161.5
273.322	137.5
273.553	157.5
273.785	147.5
274.017	162.5
274.249	172.5
274.481	164.5
274.713	170.5
274.945	197.5
275.176	178.5
275.408	180.5
275.64	173.5
275.872	171.5
276.104	147.5
276.335	144.5
276.567	147.5
276.799	138.5
277.031	160.5
277.262	151.5
277.494	142.5
277.726	146.5
277.957	138.5
278.189	154.5
278.421	135.5
278.652	151.5
278.884	136.5
279.115	142.5
279.347	146.5
279.579	142.5
279.81	153.5
280.042	145.5
280.273	148.5
280.505	144.5
280.736	145.5
280.968	144.5
281.199	173.5
281.431	152.5
281.662	154.5
281.894	160.5
282.125	152.5
282.356	141.5
282.588	141.5
282.819	148.5
283.051	150.5
283.282	154.5
283.513	162.5
283.745	166.5
283.976	167.5
284.207	155.5
284.439	168.5
284.67	163.5
284.901	162.5
285.132	158.5
285.364	161.5
285.595	160.5
285.826	160.5
286.057	140.5
286.288	152.5
286.52	161.5
286.751	148.5
286.982	158.5
287.213	142.5
287.444	168.5
287.675	169.5
287.906	149.5
288.138	156.5
288.369	152.5
288.6	155.5
288.831	159.5
289.062	158.5
289.293	158.5
289.524	155.5
289.755	156.5
289.986	155.5
290.217	161.5
290.448	160.5
290.679	168.5
290.91	165.5
291.141	169.5
291.371	168.5
291.602	169.5
291.833	150.5
292.064	156.5
292.295	160.5
292.526	161.5
292.757	176.5
292.987	164.5
293.218	162.5
293.449	157.5
293.68	168.5
293.91	147.5
294.141	157.5
294.372	148.5
294.603	154.5
294.833	148.5
295.064	157.5
295.295	151.5
295.525	181.5
295.756	176.5
295.987	170.5
296.217	171.5
296.448	167.5
296.679	160.5
296.909	176.5
297.14	181.5
297.37	190.5
297.601	173.5
297.831	177.5
298.062	165.5
298.292	173.5
298.523	177.5
298.753	178.5
298.984	170.5
299.214	183.5
299.445	156.5
299.675	166.5
299.905	167.5
300.136	170.5
300.366	163.5
300.597	169.5
300.827	180.5
301.057	181.5
301.288	164.5
301.518	187.5
301.748	178.5
301.979	174.5
302.209	184.5
302.439	176.5
302.669	197.5
302.9	174.5
303.13	171.5
303.36	188.5
303.59	175.5
303.82	180.5
304.051	184.5
304.281	183.5
304.511	192.5
304.741	185.5
304.971	172.5
305.201	176.5
305.431	179.5
305.661	176.5
305.891	202.5
306.121	187.5
306.352	167.5
306.582	178.5
306.812	191.5
307.042	189.5
307.272	182.5
307.502	173.5
307.731	186.5
307.961	174.5
308.191	180.5
308.421	181.5
308.651	169.5
308.881	176.5
309.111	184.5
309.341	181.5
309.571	184.5
309.8	192.5
310.03	178.5
310.26	188.5
310.49	211.5
310.72	181.5
310.949	176.5
311.179	183.5
311.409	188.5
311.639	188.5
311.868	177.5
312.098	179.5
312.328	185.5
312.557	180.5
312.787	163.5
313.017	180.5
313.246	184.5
313.476	196.5
313.706	201.5
313.935	197.5
314.165	193.5
314.394	192.5
314.624	179.5
314.853	189.5
315.083	189.5
315.312	182.5
315.542	204.5
315.771	203.5
316.001	208.5
316.23	172.5
316.46	186.5
316.689	188.5
316.919	201.5
317.148	201.5
317.377	189.5
317.607	180.5
317.836	205.5
318.065	206.5
318.295	196.5
318.524	193.5
318.753	192.5
318.983	200.5
319.212	198.5
319.441	182.5
319.67	189.5
319.9	183.5
320.129	196.5
320.358	187.5
320.587	187.5
320.816	201.5
321.046	191.5
321.275	208.5
321.504	197.5
321.733	201.5
321.962	189.5
322.191	206.5
322.42	206.5
322.649	188.5
322.878	219.5
323.108	201.5
323.337	209.5
323.566	202.5
323.795	194.5
324.024	210.5
324.253	205.5
324.482	194.5
324.71	202.5
324.939	200.5
325.168	184.5
325.397	197.5
325.626	201.5
325.855	199.5
326.084	194.5
326.313	213.5
326.542	194.5
326.77	201.5
326.999	218.5
327.228	209.5
327.457	222.5
327.686	205.5
327.914	192.5
328.143	190.5
328.372	205.5
328.6	206.5
328.829	195.5
329.058	212.5
329.287	208.5
329.515	207.5
329.744	204.5
329.972	216.5
330.201	216.5
330.43	204.5
330.658	184.5
330.887	197.5
331.115	213.5
331.344	220.5
331.572	220.5
331.801	227.5
332.03	220.5
332.258	222.5
332.486	216.5
332.715	240.5
332.943	227.5
333.172	235.5
333.4	230.5
333.629	245.5
333.857	244.5
334.085	233.5
334.314	236.5
334.542	242.5
334.771	246.5
334.999	215.5
335.227	237.5
335.455	226.5
335.684	236.5
335.912	217.5
336.14	235.5
336.369	230.5
336.597	210.5
336.825	236.5
337.053	234.5
337.281	225.5
337.51	216.5
337.738	206.5
337.966	225.5
338.194	226.5
338.422	229.5
338.65	211.5
338.878	222.5
339.106	216.5
339.334	221.5
339.562	221.5
339.79	215.5
340.018	205.5
340.246	221.5
340.474	205.5
340.702	222.5
340.93	204.5
341.158	216.5
341.386	214.5
341.614	209.5
341.842	220.5
342.07	216.5
342.298	238.5
342.526	220.5
342.754	225.5
342.981	228.5
343.209	211.5
343.437	243.5
343.665	244.5
343.893	244.5
344.12	244.5
344.348	262.5
344.576	249.5
344.804	208.5
345.031	218.5
345.259	240.5
345.487	228.5
345.714	216.5
345.942	220.5
346.17	202.5
346.397	197.5
346.625	227.5
346.853	226.5
347.08	213.5
347.308	213.5
347.535	202.5
347.763	229.5
347.99	204.5
348.218	208.5
348.445	209.5
348.673	206.5
348.9	203.5
349.128	226.5
349.355	218.5
349.583	221.5
349.81	214.5
350.037	227.5
350.265	222.5
350.492	223.5
350.72	220.5
350.947	221.5
351.174	220.5
351.402	213.5
351.629	199.5
351.856	240.5
352.083	213.5
352.311	223.5
352.538	222.5
352.765	232.5
352.992	216.5
353.22	220.5
353.447	205.5
353.674	209.5
353.901	225.5
354.128	207.5
354.355	212.5
354.583	229.5
354.81	224.5
355.037	224.5
355.264	233.5
355.491	234.5
355.718	226.5
355.945	228.5
356.172	217.5
356.399	208.5
356.626	221.5
356.853	228.5
357.08	235.5
357.307	244.5
357.534	216.5
357.761	236.5
357.988	219.5
358.215	236.5
358.441	235.5
358.668	233.5
358.895	224.5
359.122	200.5
359.349	225.5
359.576	221.5
359.802	212.5
360.029	226.5
360.256	214.5
360.483	223.5
360.709	219.5
360.936	229.5
361.163	236.5
361.39	226.5
361.616	219.5
361.843	224.5
362.07	232.5
362.296	206.5
362.523	228.5
362.749	236.5
362.976	219.5
363.203	226.5
363.429	227.5
363.656	237.5
363.882	228.5
364.109	235.5
364.335	216.5
364.562	216.5
364.788	216.5
365.015	229.5
365.241	214.5
365.468	220.5
365.694	232.5
365.92	217.5
366.147	215.5
366.373	248.5
366.599	224.5
366.826	224.5
367.052	231.5
367.278	232.5
367.505	238.5
367.731	218.5
367.957	196.5
368.184	220.5
368.41	214.5
368.636	245.5
368.862	234.5
369.089	229.5
369.315	234.5
369.541	240.5
369.767	246.5
369.993	221.5
370.219	231.5
370.445	245.5
370.672	248.5
370.898	218.5
371.124	249.5
371.35	257.5
371.576	230.5
371.802	261.5
372.028	245.5
372.254	266.5
372.48	242.5
372.706	256.5
372.932	258.5
373.158	248.5
373.384	265.5
373.61	284.5
373.835	274.5
374.061	263.5
374.287	264.5
374.513	263.5
374.739	284.5
374.965	276.5
375.191	283.5
375.416	279.5
375.642	277.5
375.868	270.5
376.094	266.5
376.319	243.5
376.545	264.5
376.771	243.5
376.997	244.5
377.222	244.5
377.448	253.5
377.674	250.5
377.899	248.5
378.125	252.5
378.35	246.5
378.576	244.5
378.802	263.5
379.027	270.5
379.253	270.5
379.478	259.5
379.704	254.5
379.929	256.5
380.155	270.5
380.38	257.5
380.606	265.5
380.831	269.5
381.057	278.5
381.282	265.5
381.507	269.5
381.733	291.5
381.958	290.5
382.184	291.5
382.409	260.5
382.634	285.5
382.86	293.5
383.085	291.5
383.31	278.5
383.535	274.5
383.761	287.5
383.986	288.5
384.211	282.5
384.436	293.5
384.662	300.5
384.887	294.5
385.112	288.5
385.337	309.5
385.562	311.5
385.787	305.5
386.013	323.5
386.238	317.5
386.463	292.5
386.688	313.5
386.913	297.5
387.138	308.5
387.363	303.5
387.588	321.5
387.813	313.5
388.038	311.5
388.263	288.5
388.488	308.5
388.713	316.5
388.938	314.5
389.163	296.5
389.387	303.5
389.612	299.5
389.837	293.5
390.062	314.5
390.287	309.5
390.512	308.5
390.736	315.5
390.961	314.5
391.186	310.5
391.411	302.5
391.636	333.5
391.86	342.5
392.085	344.5
392.31	332.5
392.534	328.5
392.759	340.5
392.984	336.5
393.208	324.5
393.433	328.5
393.658	323.5
393.882	305.5
394.107	308.5
394.331	298.5
394.556	314.5
394.78	329.5
395.005	313.5
395.229	329.5
395.454	337.5
395.678	352.5
395.903	341.5
396.127	350.5
396.352	326.5
396.576	333.5
396.801	346.5
397.025	350.5
397.249	345.5
397.474	328.5
397.698	349.5
397.922	352.5
398.147	350.5
398.371	362.5
398.595	358.5
398.82	378.5
399.044	398.5
399.268	420.5
399.492	432.5
399.717	474.5
399.941	458.5
400.165	459.5
400.389	418.5
400.613	409.5
400.837	380.5
401.062	404.5
401.286	388.5
401.51	384.5
401.734	385.5
401.958	376.5
402.182	388.5
402.406	380.5
402.63	372.5
402.854	389.5
403.078	404.5
403.302	380.5
403.526	391.5
403.75	398.5
403.974	390.5
404.198	396.5
404.422	406.5
404.645	404.5
404.869	401.5
405.093	401.5
405.317	395.5
405.541	385.5
405.765	399.5
405.988	396.5
406.212	399.5
406.436	405.5
406.66	420.5
406.883	418.5
407.107	413.5
407.331	419.5
407.555	423.5
407.778	423.5
408.002	413.5
408.226	427.5
408.449	421.5
408.673	422.5
408.896	416.5
409.12	383.5
409.344	404.5
409.567	406.5
409.791	416.5
410.014	394.5
410.238	399.5
410.461	388.5
410.685	404.5
410.908	407.5
411.132	416.5
411.355	381.5
411.578	381.5
411.802	380.5
412.025	405.5
412.249	392.5
412.472	396.5
412.695	378.5
412.919	390.5
413.142	385.5
413.365	363.5
413.589	398.5
413.812	378.5
414.035	384.5
414.258	408.5
414.482	384.5
414.705	409.5
414.928	384.5
415.151	397.5
415.374	391.5
415.597	386.5
415.821	383.5
416.044	389.5
416.267	388.5
416.49	368.5
416.713	385.5
416.936	382.5
417.159	359.5
417.382	376.5
417.605	389.5
417.828	384.5
418.051	371.5
418.274	377.5
418.497	394.5
418.72	387.5
418.943	371.5
419.166	392.5
419.389	422.5
419.611	429.5
419.834	395.5
420.057	413.5
420.28	381.5
420.503	382.5
420.726	355.5
420.948	374.5
421.171	376.5
421.394	388.5
421.617	394.5
421.839	371.5
422.062	400.5
422.285	394.5
422.507	405.5
422.73	401.5
422.953	389.5
423.175	409.5
423.398	381.5
423.621	377.5
423.843	392.5
424.066	409.5
424.288	399.5
424.511	396.5
424.733	408.5
424.956	388.5
425.178	407.5
425.401	406.5
425.623	399.5
425.846	387.5
426.068	365.5
426.291	376.5
426.513	372.5
426.735	401.5
426.958	394.5
427.18	364.5
427.402	396.5
427.625	386.5
427.847	374.5
428.069	393.5
428.292	379.5
428.514	363.5
428.736	375.5
428.958	377.5
429.181	354.5
429.403	384.5
429.625	358.5
429.847	371.5
430.069	374.5
430.292	370.5
430.514	366.5
430.736	389.5
430.958	398.5
431.18	357.5
431.402	374.5
431.624	373.5
431.846	376.5
432.068	370.5
432.29	384.5
432.512	354.5
432.734	398.5
432.956	380.5
433.178	383.5
433.4	388.5
433.622	396.5
433.844	381.5
434.066	370.5
434.287	388.5
434.509	394.5
434.731	405.5
434.953	407.5
435.175	402.5
435.397	401.5
435.618	372.5
435.84	381.5
436.062	384.5
436.284	398.5
436.505	389.5
436.727	392.5
436.949	381.5
437.17	386.5
437.392	381.5
437.614	402.5
437.835	372.5
438.057	380.5
438.278	371.5
438.5	378.5
438.721	390.5
438.943	391.5
439.165	364.5
439.386	382.5
439.608	392.5
439.829	385.5
440.05	384.5
440.272	385.5
440.493	397.5
440.715	409.5
440.936	410.5
441.158	388.5
441.379	412.5
441.6	418.5
441.822	410.5
442.043	398.5
442.264	418.5
442.486	403.5
442.707	421.5
442.928	401.5
443.149	404.5
443.371	404.5
443.592	413.5
443.813	402.5
444.034	388.5
444.255	409.5
444.476	441.5
444.698	451.5
444.919	455.5
445.14	542.5
445.361	462.5
445.582	426.5
445.803	423.5
446.024	410.5
446.245	398.5
446.466	403.5
446.687	410.5
446.908	416.5
447.129	379.5
447.35	381.5
447.571	408.5
447.792	381.5
448.013	385.5
448.234	370.5
448.455	400.5
448.675	368.5
448.896	386.5
449.117	380.5
449.338	357.5
449.559	392.5
449.779	364.5
450	363.5
450.221	365.5
450.442	375.5
450.662	356.5
450.883	360.5
451.104	381.5
451.324	368.5
451.545	355.5
451.766	368.5
451.986	347.5
452.207	346.5
452.428	356.5
452.648	355.5
452.869	348.5
453.089	349.5
453.31	356.5
453.53	353.5
453.751	338.5
453.971	359.5
454.192	352.5
454.412	335.5
454.633	354.5
454.853	355.5
455.073	337.5
455.294	369.5
455.514	346.5
455.734	348.5
455.955	343.5
456.175	333.5
456.395	363.5
456.616	360.5
456.836	348.5
457.056	337.5
457.276	330.5
457.497	331.5
457.717	340.5
457.937	355.5
458.157	352.5
458.377	358.5
458.598	373.5
458.818	354.5
459.038	384.5
459.258	388.5
459.478	391.5
459.698	396.5
459.918	400.5
460.138	416.5
460.358	441.5
460.578	429.5
460.798	435.5
461.018	445.5
461.238	404.5
461.458	426.5
461.678	432.5
461.898	464.5
462.118	456.5
462.338	441.5
462.558	446.5
462.777	471.5
462.997	476.5
463.217	475.5
463.437	471.5
463.657	479.5
463.876	478.5
464.096	470.5
464.316	457.5
464.536	453.5
464.755	472.5
464.975	454.5
465.195	426.5
465.414	424.5
465.634	404.5
465.854	403.5
466.073	405.5
466.293	413.5
466.512	407.5
466.732	408.5
466.951	404.5
467.171	397.5
467.391	386.5
467.61	388.5
467.829	397.5
468.049	404.5
468.268	374.5
468.488	385.5
468.707	386.5
468.927	376.5
469.146	385.5
469.365	390.5
469.585	400.5
469.804	406.5
470.023	397.5
470.243	393.5
470.462	398.5
470.681	404.5
470.901	393.5
471.12	418.5
471.339	405.5
471.558	384.5
471.777	405.5
471.997	395.5
472.216	403.5
472.435	410.5
472.654	383.5
472.873	359.5
473.092	388.5
473.311	398.5
473.53	389.5
473.749	417.5
473.968	406.5
474.187	395.5
474.406	397.5
474.625	411.5
474.844	397.5
475.063	407.5
475.282	419.5
475.501	405.5
475.72	405.5
475.939	380.5
476.158	420.5
476.377	436.5
476.596	429.5
476.814	438.5
477.033	435.5
477.252	430.5
477.471	441.5
477.69	443.5
477.908	438.5
478.127	443.5
478.346	467.5
478.564	456.5
478.783	461.5
479.002	467.5
479.22	462.5
479.439	492.5
479.658	473.5
479.876	483.5
480.095	480.5
480.313	493.5
480.532	494.5
480.751	497.5
480.969	482.5
481.188	478.5
481.406	473.5
481.624	465.5
481.843	470.5
482.061	461.5
482.28	451.5
482.498	473.5
482.717	463.5
482.935	465.5
483.153	493.5
483.372	481.5
483.59	479.5
483.808	489.5
484.027	460.5
484.245	459.5
484.463	472.5
484.681	480.5
484.9	496.5
485.118	481.5
485.336	458.5
485.554	476.5
485.772	482.5
485.99	465.5
486.209	470.5
486.427	489.5
486.645	468.5
486.863	485.5
487.081	467.5
487.299	482.5
487.517	497.5
487.735	470.5
487.953	499.5
488.171	502.5
488.389	495.5
488.607	481.5
488.825	468.5
489.043	473.5
489.261	464.5
489.479	485.5
489.696	496.5
489.914	478.5
490.132	485.5
490.35	486.5
490.568	458.5
490.786	503.5
491.003	510.5
491.221	513.5
491.439	502.5
491.657	516.5
491.874	513.5
492.092	517.5
492.31	528.5
492.527	519.5
492.745	505.5
492.963	483.5
493.18	492.5
493.398	526.5
493.615	493.5
493.833	508.5
494.05	493.5
494.268	488.5
494.485	480.5
494.703	483.5
494.92	497.5
495.138	507.5
495.355	510.5
495.573	511.5
495.79	497.5
496.008	503.5
496.225	513.5
496.442	526.5
496.66	507.5
496.877	536.5
497.094	544.5
497.312	535.5
497.529	529.5
497.746	545.5
497.963	541.5
498.181	570.5
498.398	584.5
498.615	619.5
498.832	621.5
499.049	644.5
499.267	668.5
499.484	713.5
499.701	733.5
499.918	773.5
500.135	839.5
500.352	873.5
500.569	893.5
500.786	903.5
501.003	866.5
501.22	846.5
501.437	791.5
501.654	707.5
501.871	684.5
502.088	645.5
502.305	616.5
502.522	613.5
502.739	592.5
502.956	545.5
503.172	537.5
503.389	536.5
503.606	523.5
503.823	516.5
504.04	541.5
504.256	538.5
504.473	526.5
504.69	514.5
504.907	529.5
505.123	510.5
505.34	480.5
505.557	482.5
505.773	459.5
505.99	467.5
506.207	459.5
506.423	433.5
506.64	442.5
506.856	449.5
507.073	415.5
507.289	436.5
507.506	419.5
507.722	421.5
507.939	430.5
508.155	421.5
508.372	425.5
508.588	411.5
508.805	409.5
509.021	410.5
509.238	405.5
509.454	392.5
509.67	372.5
509.887	376.5
510.103	394.5
510.319	399.5
510.536	390.5
510.752	398.5
510.968	381.5
511.184	398.5
511.401	379.5
511.617	400.5
511.833	384.5
512.049	397.5
512.265	409.5
512.481	399.5
512.698	390.5
512.914	380.5
513.13	394.5
513.346	407.5
513.562	400.5
513.778	392.5
513.994	398.5
514.21	398.5
514.426	393.5
514.642	399.5
514.858	388.5
515.074	412.5
515.29	420.5
515.506	410.5
515.721	414.5
515.937	407.5
516.153	392.5
516.369	418.5
516.585	418.5
516.801	419.5
517.016	428.5
517.232	449.5
517.448	432.5
517.664	449.5
517.879	457.5
518.095	448.5
518.311	429.5
518.527	436.5
518.742	429.5
518.958	414.5
519.173	412.5
519.389	420.5
519.605	411.5
519.82	423.5
520.036	414.5
520.251	397.5
