Data from Fe(NO3)3@0.025M.TitratingCurve.Agarose3%dH2O.NegLispCup.LampEnergy10.LIBS07252019_HRD10591_16-54-04-335.txt Node
Date: Thu Jul 25 16:54:04 EDT 2019
User: cochatt
Spectrometer: HR+D1059
Trigger mode: 1
Integration Time (sec): 1.000000E-1
Scans to average: 1
Electric dark correction enabled: true
Nonlinearity correction enabled: false
Boxcar width: 0
XAxis mode: Wavelengths
Number of Pixels in Spectrum: 2048
>>>>>Begin Spectral Data<<<<<
223.165	-17.25
223.4	-17.25
223.635	-17.25
223.869	-3.25
224.104	-25.25
224.338	-22.25
224.573	-16.25
224.808	-15.25
225.042	-15.25
225.277	-4.25
225.511	12.75
225.746	-15.25
225.98	9.75
226.215	20.75
226.449	16.75
226.683	12.75
226.918	27.75
227.152	33.75
227.387	25.75
227.621	30.75
227.856	43.75
228.09	48.75
228.324	46.75
228.559	56.75
228.793	66.75
229.027	84.75
229.262	75.75
229.496	73.75
229.73	82.75
229.964	75.75
230.199	87.75
230.433	87.75
230.667	96.75
230.901	90.75
231.136	95.75
231.37	75.75
231.604	76.75
231.838	101.75
232.072	100.75
232.306	106.75
232.541	100.75
232.775	113.75
233.009	102.75
233.243	101.75
233.477	99.75
233.711	97.75
233.945	89.75
234.179	99.75
234.413	90.75
234.647	94.75
234.881	96.75
235.115	96.75
235.349	98.75
235.583	113.75
235.817	94.75
236.051	97.75
236.285	90.75
236.519	107.75
236.753	117.75
236.987	94.75
237.221	88.75
237.455	95.75
237.689	85.75
237.922	92.75
238.156	101.75
238.39	89.75
238.624	83.75
238.858	91.75
239.091	86.75
239.325	100.75
239.559	111.75
239.793	110.75
240.027	91.75
240.26	118.75
240.494	113.75
240.728	91.75
240.961	100.75
241.195	108.75
241.429	118.75
241.662	103.75
241.896	97.75
242.13	98.75
242.363	104.75
242.597	115.75
242.83	97.75
243.064	110.75
243.298	112.75
243.531	104.75
243.765	100.75
243.998	98.75
244.232	112.75
244.465	113.75
244.699	100.75
244.932	103.75
245.166	112.75
245.399	116.75
245.633	118.75
245.866	100.75
246.099	101.75
246.333	112.75
246.566	103.75
246.8	112.75
247.033	113.75
247.266	108.75
247.5	115.75
247.733	122.75
247.966	122.75
248.2	112.75
248.433	121.75
248.666	122.75
248.899	144.75
249.133	120.75
249.366	119.75
249.599	132.75
249.832	131.75
250.066	128.75
250.299	115.75
250.532	127.75
250.765	116.75
250.998	106.75
251.231	122.75
251.465	129.75
251.698	112.75
251.931	139.75
252.164	119.75
252.397	108.75
252.63	117.75
252.863	114.75
253.096	135.75
253.329	129.75
253.562	126.75
253.795	130.75
254.028	137.75
254.261	119.75
254.494	134.75
254.727	128.75
254.96	124.75
255.193	136.75
255.426	128.75
255.659	130.75
255.892	136.75
256.124	132.75
256.357	124.75
256.59	145.75
256.823	123.75
257.056	124.75
257.289	131.75
257.521	120.75
257.754	128.75
257.987	130.75
258.22	138.75
258.452	118.75
258.685	129.75
258.918	123.75
259.151	124.75
259.383	140.75
259.616	138.75
259.849	144.75
260.081	149.75
260.314	149.75
260.547	128.75
260.779	164.75
261.012	139.75
261.244	129.75
261.477	148.75
261.71	136.75
261.942	138.75
262.175	150.75
262.407	145.75
262.64	139.75
262.872	135.75
263.105	143.75
263.337	146.75
263.57	136.75
263.802	137.75
264.035	138.75
264.267	154.75
264.499	147.75
264.732	143.75
264.964	150.75
265.197	148.75
265.429	143.75
265.661	135.75
265.894	149.75
266.126	151.75
266.358	140.75
266.591	152.75
266.823	144.75
267.055	143.75
267.287	147.75
267.52	144.75
267.752	156.75
267.984	144.75
268.216	154.75
268.448	150.75
268.681	153.75
268.913	140.75
269.145	147.75
269.377	149.75
269.609	148.75
269.841	154.75
270.073	150.75
270.306	153.75
270.538	163.75
270.77	160.75
271.002	152.75
271.234	145.75
271.466	155.75
271.698	151.75
271.93	160.75
272.162	165.75
272.394	163.75
272.626	154.75
272.858	161.75
273.09	156.75
273.322	157.75
273.553	153.75
273.785	171.75
274.017	189.75
274.249	176.75
274.481	163.75
274.713	175.75
274.945	163.75
275.176	177.75
275.408	178.75
275.64	178.75
275.872	184.75
276.104	168.75
276.335	167.75
276.567	164.75
276.799	176.75
277.031	174.75
277.262	158.75
277.494	156.75
277.726	171.75
277.957	174.75
278.189	170.75
278.421	172.75
278.652	169.75
278.884	163.75
279.115	172.75
279.347	179.75
279.579	158.75
279.81	174.75
280.042	170.75
280.273	178.75
280.505	158.75
280.736	171.75
280.968	176.75
281.199	173.75
281.431	174.75
281.662	176.75
281.894	181.75
282.125	193.75
282.356	190.75
282.588	176.75
282.819	176.75
283.051	192.75
283.282	177.75
283.513	180.75
283.745	190.75
283.976	185.75
284.207	176.75
284.439	182.75
284.67	176.75
284.901	195.75
285.132	204.75
285.364	184.75
285.595	172.75
285.826	179.75
286.057	191.75
286.288	187.75
286.52	192.75
286.751	185.75
286.982	192.75
287.213	183.75
287.444	197.75
287.675	204.75
287.906	175.75
288.138	193.75
288.369	181.75
288.6	199.75
288.831	196.75
289.062	178.75
289.293	192.75
289.524	194.75
289.755	195.75
289.986	187.75
290.217	188.75
290.448	200.75
290.679	202.75
290.91	193.75
291.141	191.75
291.371	187.75
291.602	184.75
291.833	196.75
292.064	204.75
292.295	194.75
292.526	196.75
292.757	194.75
292.987	196.75
293.218	184.75
293.449	203.75
293.68	203.75
293.91	199.75
294.141	203.75
294.372	179.75
294.603	201.75
294.833	197.75
295.064	198.75
295.295	200.75
295.525	195.75
295.756	204.75
295.987	207.75
296.217	220.75
296.448	203.75
296.679	202.75
296.909	206.75
297.14	209.75
297.37	214.75
297.601	197.75
297.831	207.75
298.062	204.75
298.292	199.75
298.523	188.75
298.753	204.75
298.984	208.75
299.214	214.75
299.445	205.75
299.675	189.75
299.905	205.75
300.136	198.75
300.366	206.75
300.597	195.75
300.827	213.75
301.057	222.75
301.288	203.75
301.518	211.75
301.748	213.75
301.979	215.75
302.209	217.75
302.439	207.75
302.669	205.75
302.9	218.75
303.13	213.75
303.36	218.75
303.59	222.75
303.82	216.75
304.051	208.75
304.281	217.75
304.511	212.75
304.741	216.75
304.971	217.75
305.201	218.75
305.431	228.75
305.661	238.75
305.891	221.75
306.121	228.75
306.352	225.75
306.582	209.75
306.812	214.75
307.042	234.75
307.272	199.75
307.502	203.75
307.731	225.75
307.961	212.75
308.191	219.75
308.421	228.75
308.651	222.75
308.881	226.75
309.111	223.75
309.341	215.75
309.571	222.75
309.8	230.75
310.03	214.75
310.26	220.75
310.49	201.75
310.72	234.75
310.949	195.75
311.179	225.75
311.409	218.75
311.639	211.75
311.868	252.75
312.098	227.75
312.328	202.75
312.557	225.75
312.787	244.75
313.017	216.75
313.246	229.75
313.476	219.75
313.706	242.75
313.935	235.75
314.165	234.75
314.394	236.75
314.624	228.75
314.853	227.75
315.083	226.75
315.312	230.75
315.542	218.75
315.771	233.75
316.001	245.75
316.23	238.75
316.46	242.75
316.689	227.75
316.919	242.75
317.148	245.75
317.377	246.75
317.607	243.75
317.836	244.75
318.065	245.75
318.295	225.75
318.524	212.75
318.753	240.75
318.983	227.75
319.212	261.75
319.441	244.75
319.67	250.75
319.9	239.75
320.129	228.75
320.358	226.75
320.587	235.75
320.816	231.75
321.046	243.75
321.275	265.75
321.504	254.75
321.733	250.75
321.962	245.75
322.191	249.75
322.42	249.75
322.649	243.75
322.878	235.75
323.108	232.75
323.337	255.75
323.566	262.75
323.795	250.75
324.024	242.75
324.253	244.75
324.482	267.75
324.71	245.75
324.939	230.75
325.168	250.75
325.397	244.75
325.626	255.75
325.855	252.75
326.084	242.75
326.313	243.75
326.542	252.75
326.77	247.75
326.999	258.75
327.228	230.75
327.457	264.75
327.686	250.75
327.914	256.75
328.143	247.75
328.372	253.75
328.6	258.75
328.829	263.75
329.058	264.75
329.287	261.75
329.515	264.75
329.744	257.75
329.972	269.75
330.201	260.75
330.43	256.75
330.658	268.75
330.887	259.75
331.115	260.75
331.344	251.75
331.572	258.75
331.801	283.75
332.03	273.75
332.258	274.75
332.486	247.75
332.715	286.75
332.943	270.75
333.172	282.75
333.4	271.75
333.629	271.75
333.857	284.75
334.085	286.75
334.314	282.75
334.542	277.75
334.771	299.75
334.999	271.75
335.227	276.75
335.455	279.75
335.684	284.75
335.912	286.75
336.14	297.75
336.369	295.75
336.597	300.75
336.825	306.75
337.053	298.75
337.281	281.75
337.51	268.75
337.738	280.75
337.966	305.75
338.194	274.75
338.422	274.75
338.65	282.75
338.878	295.75
339.106	281.75
339.334	289.75
339.562	276.75
339.79	274.75
340.018	266.75
340.246	285.75
340.474	278.75
340.702	282.75
340.93	275.75
341.158	279.75
341.386	279.75
341.614	260.75
341.842	272.75
342.07	274.75
342.298	273.75
342.526	281.75
342.754	276.75
342.981	271.75
343.209	274.75
343.437	274.75
343.665	291.75
343.893	294.75
344.12	295.75
344.348	292.75
344.576	277.75
344.804	291.75
345.031	267.75
345.259	280.75
345.487	293.75
345.714	275.75
345.942	272.75
346.17	263.75
346.397	263.75
346.625	267.75
346.853	263.75
347.08	261.75
347.308	270.75
347.535	266.75
347.763	270.75
347.99	266.75
348.218	263.75
348.445	267.75
348.673	272.75
348.9	276.75
349.128	268.75
349.355	246.75
349.583	246.75
349.81	274.75
350.037	258.75
350.265	274.75
350.492	260.75
350.72	280.75
350.947	278.75
351.174	268.75
351.402	277.75
351.629	258.75
351.856	257.75
352.083	263.75
352.311	259.75
352.538	258.75
352.765	253.75
352.992	272.75
353.22	267.75
353.447	252.75
353.674	256.75
353.901	254.75
354.128	263.75
354.355	265.75
354.583	277.75
354.81	267.75
355.037	272.75
355.264	260.75
355.491	270.75
355.718	279.75
355.945	247.75
356.172	271.75
356.399	263.75
356.626	263.75
356.853	240.75
357.08	262.75
357.307	276.75
357.534	266.75
357.761	268.75
357.988	275.75
358.215	250.75
358.441	263.75
358.668	257.75
358.895	268.75
359.122	261.75
359.349	263.75
359.576	256.75
359.802	256.75
360.029	260.75
360.256	258.75
360.483	260.75
360.709	260.75
360.936	261.75
361.163	267.75
361.39	253.75
361.616	262.75
361.843	271.75
362.07	257.75
362.296	274.75
362.523	264.75
362.749	265.75
362.976	256.75
363.203	265.75
363.429	254.75
363.656	257.75
363.882	267.75
364.109	248.75
364.335	263.75
364.562	267.75
364.788	271.75
365.015	275.75
365.241	266.75
365.468	261.75
365.694	257.75
365.92	270.75
366.147	276.75
366.373	273.75
366.599	269.75
366.826	266.75
367.052	267.75
367.278	270.75
367.505	272.75
367.731	249.75
367.957	258.75
368.184	283.75
368.41	264.75
368.636	260.75
368.862	287.75
369.089	276.75
369.315	259.75
369.541	277.75
369.767	286.75
369.993	290.75
370.219	281.75
370.445	275.75
370.672	271.75
370.898	278.75
371.124	297.75
371.35	286.75
371.576	274.75
371.802	268.75
372.028	283.75
372.254	273.75
372.48	305.75
372.706	298.75
372.932	297.75
373.158	290.75
373.384	286.75
373.61	273.75
373.835	288.75
374.061	281.75
374.287	288.75
374.513	308.75
374.739	283.75
374.965	318.75
375.191	297.75
375.416	287.75
375.642	300.75
375.868	285.75
376.094	286.75
376.319	278.75
376.545	296.75
376.771	302.75
376.997	293.75
377.222	283.75
377.448	290.75
377.674	289.75
377.899	281.75
378.125	279.75
378.35	289.75
378.576	286.75
378.802	275.75
379.027	275.75
379.253	290.75
379.478	280.75
379.704	276.75
379.929	282.75
380.155	290.75
380.38	289.75
380.606	296.75
380.831	296.75
381.057	282.75
381.282	288.75
381.507	279.75
381.733	291.75
381.958	297.75
382.184	300.75
382.409	300.75
382.634	307.75
382.86	282.75
383.085	293.75
383.31	314.75
383.535	289.75
383.761	303.75
383.986	317.75
384.211	305.75
384.436	312.75
384.662	304.75
384.887	284.75
385.112	300.75
385.337	324.75
385.562	298.75
385.787	340.75
386.013	308.75
386.238	319.75
386.463	311.75
386.688	332.75
386.913	310.75
387.138	337.75
387.363	311.75
387.588	318.75
387.813	327.75
388.038	335.75
388.263	355.75
388.488	361.75
388.713	335.75
388.938	320.75
389.163	322.75
389.387	333.75
389.612	321.75
389.837	327.75
390.062	325.75
390.287	327.75
390.512	318.75
390.736	330.75
390.961	332.75
391.186	330.75
391.411	337.75
391.636	361.75
391.86	335.75
392.085	346.75
392.31	343.75
392.534	344.75
392.759	356.75
392.984	348.75
393.208	361.75
393.433	345.75
393.658	353.75
393.882	344.75
394.107	331.75
394.331	332.75
394.556	350.75
394.78	348.75
395.005	345.75
395.229	337.75
395.454	338.75
395.678	348.75
395.903	356.75
396.127	336.75
396.352	349.75
396.576	352.75
396.801	349.75
397.025	343.75
397.249	359.75
397.474	362.75
397.698	350.75
397.922	357.75
398.147	359.75
398.371	368.75
398.595	371.75
398.82	368.75
399.044	372.75
399.268	382.75
399.492	409.75
399.717	423.75
399.941	412.75
400.165	421.75
400.389	406.75
400.613	388.75
400.837	393.75
401.062	387.75
401.286	376.75
401.51	371.75
401.734	379.75
401.958	378.75
402.182	387.75
402.406	372.75
402.63	367.75
402.854	396.75
403.078	384.75
403.302	377.75
403.526	371.75
403.75	375.75
403.974	387.75
404.198	386.75
404.422	384.75
404.645	380.75
404.869	374.75
405.093	386.75
405.317	386.75
405.541	400.75
405.765	390.75
405.988	400.75
406.212	381.75
406.436	406.75
406.66	408.75
406.883	400.75
407.107	400.75
407.331	414.75
407.555	431.75
407.778	419.75
408.002	434.75
408.226	427.75
408.449	420.75
408.673	431.75
408.896	402.75
409.12	401.75
409.344	426.75
409.567	395.75
409.791	405.75
410.014	390.75
410.238	406.75
410.461	383.75
410.685	397.75
410.908	387.75
411.132	366.75
411.355	392.75
411.578	383.75
411.802	386.75
412.025	379.75
412.249	404.75
412.472	401.75
412.695	402.75
412.919	378.75
413.142	385.75
413.365	369.75
413.589	390.75
413.812	374.75
414.035	389.75
414.258	374.75
414.482	369.75
414.705	397.75
414.928	367.75
415.151	355.75
415.374	378.75
415.597	374.75
415.821	367.75
416.044	385.75
416.267	355.75
416.49	369.75
416.713	376.75
416.936	380.75
417.159	374.75
417.382	371.75
417.605	361.75
417.828	361.75
418.051	371.75
418.274	384.75
418.497	366.75
418.72	350.75
418.943	363.75
419.166	378.75
419.389	404.75
419.611	401.75
419.834	386.75
420.057	379.75
420.28	375.75
420.503	352.75
420.726	355.75
420.948	358.75
421.171	370.75
421.394	353.75
421.617	362.75
421.839	360.75
422.062	360.75
422.285	367.75
422.507	363.75
422.73	343.75
422.953	348.75
423.175	362.75
423.398	369.75
423.621	368.75
423.843	373.75
424.066	360.75
424.288	355.75
424.511	360.75
424.733	352.75
424.956	340.75
425.178	362.75
425.401	361.75
425.623	346.75
425.846	348.75
426.068	361.75
426.291	351.75
426.513	354.75
426.735	349.75
426.958	365.75
427.18	356.75
427.402	346.75
427.625	341.75
427.847	340.75
428.069	345.75
428.292	361.75
428.514	352.75
428.736	341.75
428.958	338.75
429.181	330.75
429.403	354.75
429.625	330.75
429.847	346.75
430.069	356.75
430.292	334.75
430.514	320.75
430.736	330.75
430.958	361.75
431.18	364.75
431.402	344.75
431.624	339.75
431.846	339.75
432.068	362.75
432.29	339.75
432.512	338.75
432.734	348.75
432.956	369.75
433.178	344.75
433.4	348.75
433.622	359.75
433.844	347.75
434.066	332.75
434.287	354.75
434.509	355.75
434.731	353.75
434.953	356.75
435.175	356.75
435.397	350.75
435.618	344.75
435.84	364.75
436.062	361.75
436.284	343.75
436.505	343.75
436.727	350.75
436.949	337.75
437.17	343.75
437.392	333.75
437.614	336.75
437.835	348.75
438.057	329.75
438.278	337.75
438.5	350.75
438.721	329.75
438.943	337.75
439.165	331.75
439.386	337.75
439.608	333.75
439.829	340.75
440.05	348.75
440.272	329.75
440.493	334.75
440.715	338.75
440.936	341.75
441.158	343.75
441.379	353.75
441.6	338.75
441.822	336.75
442.043	340.75
442.264	340.75
442.486	350.75
442.707	374.75
442.928	369.75
443.149	352.75
443.371	351.75
443.592	358.75
443.813	322.75
444.034	346.75
444.255	375.75
444.476	343.75
444.698	362.75
444.919	356.75
445.14	490.75
445.361	418.75
445.582	360.75
445.803	344.75
446.024	350.75
446.245	367.75
446.466	335.75
446.687	344.75
446.908	345.75
447.129	314.75
447.35	303.75
447.571	323.75
447.792	340.75
448.013	323.75
448.234	330.75
448.455	312.75
448.675	337.75
448.896	318.75
449.117	317.75
449.338	336.75
449.559	322.75
449.779	310.75
450	330.75
450.221	328.75
450.442	328.75
450.662	323.75
450.883	327.75
451.104	320.75
451.324	326.75
451.545	322.75
451.766	343.75
451.986	326.75
452.207	320.75
452.428	308.75
452.648	312.75
452.869	315.75
453.089	311.75
453.31	321.75
453.53	320.75
453.751	310.75
453.971	302.75
454.192	318.75
454.412	313.75
454.633	300.75
454.853	312.75
455.073	306.75
455.294	302.75
455.514	307.75
455.734	331.75
455.955	312.75
456.175	317.75
456.395	292.75
456.616	291.75
456.836	290.75
457.056	306.75
457.276	290.75
457.497	314.75
457.717	325.75
457.937	319.75
458.157	315.75
458.377	323.75
458.598	316.75
458.818	337.75
459.038	330.75
459.258	331.75
459.478	334.75
459.698	343.75
459.918	338.75
460.138	346.75
460.358	374.75
460.578	354.75
460.798	378.75
461.018	354.75
461.238	366.75
461.458	361.75
461.678	380.75
461.898	373.75
462.118	372.75
462.338	374.75
462.558	382.75
462.777	377.75
462.997	399.75
463.217	395.75
463.437	403.75
463.657	388.75
463.876	386.75
464.096	388.75
464.316	391.75
464.536	378.75
464.755	386.75
464.975	382.75
465.195	378.75
465.414	368.75
465.634	370.75
465.854	340.75
466.073	353.75
466.293	329.75
466.512	347.75
466.732	347.75
466.951	331.75
467.171	353.75
467.391	346.75
467.61	319.75
467.829	324.75
468.049	339.75
468.268	332.75
468.488	331.75
468.707	336.75
468.927	341.75
469.146	344.75
469.365	342.75
469.585	342.75
469.804	330.75
470.023	348.75
470.243	341.75
470.462	346.75
470.681	342.75
470.901	330.75
471.12	339.75
471.339	328.75
471.558	328.75
471.777	335.75
471.997	333.75
472.216	330.75
472.435	311.75
472.654	314.75
472.873	328.75
473.092	335.75
473.311	328.75
473.53	317.75
473.749	326.75
473.968	327.75
474.187	328.75
474.406	328.75
474.625	334.75
474.844	335.75
475.063	329.75
475.282	355.75
475.501	338.75
475.72	336.75
475.939	322.75
476.158	337.75
476.377	349.75
476.596	354.75
476.814	358.75
477.033	362.75
477.252	355.75
477.471	344.75
477.69	355.75
477.908	355.75
478.127	382.75
478.346	361.75
478.564	390.75
478.783	358.75
479.002	382.75
479.22	375.75
479.439	369.75
479.658	394.75
479.876	386.75
480.095	374.75
480.313	376.75
480.532	377.75
480.751	389.75
480.969	391.75
481.188	376.75
481.406	378.75
481.624	370.75
481.843	371.75
482.061	385.75
482.28	400.75
482.498	386.75
482.717	380.75
482.935	381.75
483.153	382.75
483.372	381.75
483.59	374.75
483.808	383.75
484.027	384.75
484.245	383.75
484.463	386.75
484.681	402.75
484.9	385.75
485.118	387.75
485.336	378.75
485.554	395.75
485.772	401.75
485.99	393.75
486.209	385.75
486.427	390.75
486.645	391.75
486.863	396.75
487.081	400.75
487.299	384.75
487.517	380.75
487.735	387.75
487.953	392.75
488.171	392.75
488.389	379.75
488.607	386.75
488.825	374.75
489.043	399.75
489.261	409.75
489.479	409.75
489.696	393.75
489.914	394.75
490.132	406.75
490.35	385.75
490.568	382.75
490.786	393.75
491.003	396.75
491.221	403.75
491.439	400.75
491.657	392.75
491.874	410.75
492.092	415.75
492.31	397.75
492.527	422.75
492.745	401.75
492.963	407.75
493.18	405.75
493.398	404.75
493.615	412.75
493.833	394.75
494.05	412.75
494.268	398.75
494.485	416.75
494.703	410.75
494.92	427.75
495.138	406.75
495.355	432.75
495.573	419.75
495.79	425.75
496.008	432.75
496.225	423.75
496.442	449.75
496.66	429.75
496.877	439.75
497.094	448.75
497.312	464.75
497.529	464.75
497.746	481.75
497.963	494.75
498.181	480.75
498.398	505.75
498.615	490.75
498.832	499.75
499.049	520.75
499.267	542.75
499.484	569.75
499.701	576.75
499.918	598.75
500.135	606.75
500.352	650.75
500.569	646.75
500.786	646.75
501.003	641.75
501.22	621.75
501.437	605.75
501.654	582.75
501.871	551.75
502.088	537.75
