Data from Fe(NO3)3@0.05M.TitratingCurve.Agarose3%dH2O.NegLispCup.LampEnergy10.LIBS07252019_HRD10591_16-46-14-334.txt Node
Date: Thu Jul 25 16:46:14 EDT 2019
User: cochatt
Spectrometer: HR+D1059
Trigger mode: 1
Integration Time (sec): 1.000000E-1
Scans to average: 1
Electric dark correction enabled: true
Nonlinearity correction enabled: false
Boxcar width: 0
XAxis mode: Wavelengths
Number of Pixels in Spectrum: 2048
>>>>>Begin Spectral Data<<<<<
223.165	-5.69
223.4	-5.69
223.635	-5.69
223.869	-20.69
224.104	-16.69
224.338	-4.69
224.573	-20.69
224.808	-11.69
225.042	-16.69
225.277	-21.69
225.511	-1.69
225.746	-7.69
225.98	8.31
226.215	22.31
226.449	18.31
226.683	19.31
226.918	32.31
227.152	27.31
227.387	42.31
227.621	37.31
227.856	45.31
228.09	51.31
228.324	57.31
228.559	72.31
228.793	67.31
229.027	117.31
229.262	151.31
229.496	141.31
229.73	153.31
229.964	149.31
230.199	167.31
230.433	152.31
230.667	169.31
230.901	170.31
231.136	156.31
231.37	161.31
231.604	176.31
231.838	167.31
232.072	163.31
232.306	168.31
232.541	177.31
232.775	176.31
233.009	185.31
233.243	177.31
233.477	197.31
233.711	197.31
233.945	193.31
234.179	205.31
234.413	195.31
234.647	196.31
234.881	234.31
235.115	191.31
235.349	212.31
235.583	196.31
235.817	195.31
236.051	197.31
236.285	204.31
236.519	230.31
236.753	226.31
236.987	213.31
237.221	207.31
237.455	197.31
237.689	228.31
237.922	247.31
238.156	216.31
238.39	257.31
238.624	287.31
238.858	273.31
239.091	253.31
239.325	241.31
239.559	243.31
239.793	234.31
240.027	281.31
240.26	275.31
240.494	272.31
240.728	260.31
240.961	276.31
241.195	278.31
241.429	280.31
241.662	284.31
241.896	255.31
242.13	263.31
242.363	282.31
242.597	287.31
242.83	252.31
243.064	297.31
243.298	280.31
243.531	280.31
243.765	279.31
243.998	285.31
244.232	278.31
244.465	296.31
244.699	299.31
244.932	299.31
245.166	301.31
245.399	292.31
245.633	294.31
245.866	292.31
246.099	307.31
246.333	307.31
246.566	325.31
246.8	322.31
247.033	331.31
247.266	317.31
247.5	337.31
247.733	323.31
247.966	328.31
248.2	310.31
248.433	344.31
248.666	334.31
248.899	345.31
249.133	370.31
249.366	377.31
249.599	405.31
249.832	373.31
250.066	372.31
250.299	353.31
250.532	380.31
250.765	361.31
250.998	351.31
251.231	363.31
251.465	356.31
251.698	377.31
251.931	369.31
252.164	354.31
252.397	397.31
252.63	383.31
252.863	428.31
253.096	425.31
253.329	405.31
253.562	412.31
253.795	413.31
254.028	436.31
254.261	463.31
254.494	423.31
254.727	419.31
254.96	411.31
255.193	448.31
255.426	417.31
255.659	408.31
255.892	394.31
256.124	391.31
256.357	432.31
256.59	455.31
256.823	427.31
257.056	400.31
257.289	423.31
257.521	447.31
257.754	429.31
257.987	426.31
258.22	409.31
258.452	444.31
258.685	432.31
258.918	472.31
259.151	462.31
259.383	470.31
259.616	450.31
259.849	484.31
260.081	564.31
260.314	606.31
260.547	507.31
260.779	490.31
261.012	521.31
261.244	519.31
261.477	527.31
261.71	529.31
261.942	486.31
262.175	490.31
262.407	492.31
262.64	498.31
262.872	534.31
263.105	546.31
263.337	546.31
263.57	539.31
263.802	499.31
264.035	455.31
264.267	478.31
264.499	461.31
264.732	500.31
264.964	485.31
265.197	476.31
265.429	479.31
265.661	484.31
265.894	500.31
266.126	499.31
266.358	489.31
266.591	495.31
266.823	519.31
267.055	513.31
267.287	500.31
267.52	496.31
267.752	501.31
267.984	525.31
268.216	503.31
268.448	533.31
268.681	512.31
268.913	534.31
269.145	523.31
269.377	543.31
269.609	539.31
269.841	543.31
270.073	534.31
270.306	552.31
270.538	568.31
270.77	536.31
271.002	553.31
271.234	552.31
271.466	568.31
271.698	582.31
271.93	575.31
272.162	585.31
272.394	564.31
272.626	559.31
272.858	575.31
273.09	583.31
273.322	582.31
273.553	609.31
273.785	606.31
274.017	671.31
274.249	703.31
274.481	685.31
274.713	717.31
274.945	740.31
275.176	767.31
275.408	732.31
275.64	715.31
275.872	738.31
276.104	645.31
276.335	625.31
276.567	612.31
276.799	627.31
277.031	646.31
277.262	620.31
277.494	623.31
277.726	602.31
277.957	633.31
278.189	624.31
278.421	627.31
278.652	611.31
278.884	614.31
279.115	631.31
279.347	620.31
279.579	623.31
279.81	633.31
280.042	645.31
280.273	666.31
280.505	641.31
280.736	635.31
280.968	657.31
281.199	654.31
281.431	652.31
281.662	672.31
281.894	627.31
282.125	643.31
282.356	653.31
282.588	654.31
282.819	637.31
283.051	663.31
283.282	657.31
283.513	697.31
283.745	696.31
283.976	674.31
284.207	663.31
284.439	698.31
284.67	687.31
284.901	696.31
285.132	668.31
285.364	698.31
285.595	681.31
285.826	682.31
286.057	703.31
286.288	700.31
286.52	705.31
286.751	695.31
286.982	715.31
287.213	696.31
287.444	697.31
287.675	697.31
287.906	707.31
288.138	711.31
288.369	744.31
288.6	727.31
288.831	710.31
289.062	701.31
289.293	697.31
289.524	709.31
289.755	734.31
289.986	711.31
290.217	721.31
290.448	708.31
290.679	735.31
290.91	722.31
291.141	692.31
291.371	710.31
291.602	711.31
291.833	711.31
292.064	714.31
292.295	711.31
292.526	715.31
292.757	732.31
292.987	718.31
293.218	698.31
293.449	741.31
293.68	738.31
293.91	741.31
294.141	756.31
294.372	708.31
294.603	741.31
294.833	747.31
295.064	736.31
295.295	735.31
295.525	698.31
295.756	742.31
295.987	739.31
296.217	771.31
296.448	757.31
296.679	775.31
296.909	780.31
297.14	779.31
297.37	773.31
297.601	781.31
297.831	765.31
298.062	744.31
298.292	788.31
298.523	818.31
298.753	785.31
298.984	780.31
299.214	764.31
299.445	774.31
299.675	808.31
299.905	799.31
300.136	797.31
300.366	797.31
300.597	780.31
300.827	801.31
301.057	838.31
301.288	796.31
301.518	810.31
301.748	803.31
301.979	836.31
302.209	825.31
302.439	829.31
302.669	836.31
302.9	844.31
303.13	811.31
303.36	851.31
303.59	825.31
303.82	819.31
304.051	846.31
304.281	840.31
304.511	823.31
304.741	838.31
304.971	841.31
305.201	830.31
305.431	852.31
305.661	824.31
305.891	805.31
306.121	799.31
306.352	843.31
306.582	854.31
306.812	811.31
307.042	827.31
307.272	844.31
307.502	827.31
307.731	860.31
307.961	848.31
308.191	826.31
308.421	803.31
308.651	847.31
308.881	813.31
309.111	823.31
309.341	820.31
309.571	849.31
309.8	848.31
310.03	863.31
310.26	865.31
310.49	852.31
310.72	860.31
310.949	853.31
311.179	851.31
311.409	839.31
311.639	869.31
311.868	867.31
312.098	849.31
312.328	875.31
312.557	868.31
312.787	875.31
313.017	892.31
313.246	867.31
313.476	874.31
313.706	900.31
313.935	874.31
314.165	889.31
314.394	876.31
314.624	922.31
314.853	904.31
315.083	901.31
315.312	902.31
315.542	911.31
315.771	910.31
316.001	925.31
316.23	910.31
316.46	900.31
316.689	918.31
316.919	903.31
317.148	944.31
317.377	924.31
317.607	897.31
317.836	893.31
318.065	902.31
318.295	928.31
318.524	945.31
318.753	931.31
318.983	897.31
319.212	897.31
319.441	923.31
319.67	948.31
319.9	933.31
320.129	930.31
320.358	924.31
320.587	920.31
320.816	930.31
321.046	925.31
321.275	938.31
321.504	969.31
321.733	955.31
321.962	941.31
322.191	967.31
322.42	957.31
322.649	952.31
322.878	962.31
323.108	943.31
323.337	972.31
323.566	947.31
323.795	943.31
324.024	963.31
324.253	955.31
324.482	984.31
324.71	980.31
324.939	983.31
325.168	989.31
325.397	980.31
325.626	969.31
325.855	993.31
326.084	987.31
326.313	1003.31
326.542	1003.31
326.77	1034.31
326.999	986.31
327.228	1015.31
327.457	978.31
327.686	1001.31
327.914	1001.31
328.143	1020.31
328.372	1004.31
328.6	996.31
328.829	1026.31
329.058	1019.31
329.287	988.31
329.515	1010.31
329.744	1007.31
329.972	1009.31
330.201	1036.31
330.43	1030.31
330.658	1043.31
330.887	1034.31
331.115	1013.31
331.344	1043.31
331.572	1030.31
331.801	1050.31
332.03	1031.31
332.258	1042.31
332.486	1051.31
332.715	1074.31
332.943	1079.31
333.172	1125.31
333.4	1136.31
333.629	1131.31
333.857	1142.31
334.085	1125.31
334.314	1175.31
334.542	1183.31
334.771	1147.31
334.999	1136.31
335.227	1151.31
335.455	1145.31
335.684	1172.31
335.912	1178.31
336.14	1179.31
336.369	1164.31
336.597	1120.31
336.825	1131.31
337.053	1152.31
337.281	1138.31
337.51	1120.31
337.738	1129.31
337.966	1100.31
338.194	1111.31
338.422	1119.31
338.65	1119.31
338.878	1110.31
339.106	1091.31
339.334	1099.31
339.562	1078.31
339.79	1075.31
340.018	1077.31
340.246	1072.31
340.474	1098.31
340.702	1067.31
340.93	1063.31
341.158	1074.31
341.386	1056.31
341.614	1098.31
341.842	1108.31
342.07	1055.31
342.298	1072.31
342.526	1075.31
342.754	1052.31
342.981	1085.31
343.209	1080.31
343.437	1084.31
343.665	1115.31
343.893	1096.31
344.12	1175.31
344.348	1141.31
344.576	1143.31
344.804	1123.31
345.031	1123.31
345.259	1085.31
345.487	1095.31
345.714	1072.31
345.942	1059.31
346.17	1075.31
346.397	1043.31
346.625	1057.31
346.853	1060.31
347.08	1063.31
347.308	1025.31
347.535	1043.31
347.763	1038.31
347.99	1037.31
348.218	1045.31
348.445	1027.31
348.673	1025.31
348.9	992.31
349.128	1031.31
349.355	1016.31
349.583	1022.31
349.81	1017.31
350.037	1044.31
350.265	1003.31
350.492	1033.31
350.72	1033.31
350.947	1018.31
351.174	1032.31
351.402	1030.31
351.629	1008.31
351.856	1045.31
352.083	1041.31
352.311	1022.31
352.538	1023.31
352.765	1002.31
352.992	1009.31
353.22	1001.31
353.447	1009.31
353.674	993.31
353.901	998.31
354.128	986.31
354.355	1000.31
354.583	979.31
354.81	1033.31
355.037	1031.31
355.264	1005.31
355.491	1029.31
355.718	1031.31
355.945	1054.31
356.172	1019.31
356.399	1027.31
356.626	1025.31
356.853	1051.31
357.08	1041.31
357.307	1051.31
357.534	1009.31
357.761	1029.31
357.988	1049.31
358.215	1038.31
358.441	1063.31
358.668	1024.31
358.895	1023.31
359.122	1016.31
359.349	991.31
359.576	1032.31
359.802	1053.31
360.029	1043.31
360.256	1024.31
360.483	1041.31
360.709	1062.31
360.936	1067.31
361.163	1088.31
361.39	1029.31
361.616	1050.31
361.843	1047.31
362.07	1061.31
362.296	1061.31
362.523	1036.31
362.749	1055.31
362.976	1037.31
363.203	1053.31
363.429	1067.31
363.656	1068.31
363.882	1052.31
364.109	1072.31
364.335	1005.31
364.562	1027.31
364.788	1033.31
365.015	1067.31
365.241	1063.31
365.468	1046.31
365.694	1048.31
365.92	1054.31
366.147	1053.31
366.373	1055.31
366.599	1064.31
366.826	1036.31
367.052	1064.31
367.278	1088.31
367.505	1082.31
367.731	1064.31
367.957	1068.31
368.184	1091.31
368.41	1061.31
368.636	1071.31
368.862	1100.31
369.089	1120.31
369.315	1105.31
369.541	1087.31
369.767	1128.31
369.993	1116.31
370.219	1083.31
370.445	1123.31
370.672	1135.31
370.898	1132.31
371.124	1147.31
371.35	1109.31
371.576	1126.31
371.802	1143.31
372.028	1132.31
372.254	1161.31
372.48	1135.31
372.706	1177.31
372.932	1177.31
373.158	1159.31
373.384	1175.31
373.61	1183.31
373.835	1174.31
374.061	1156.31
374.287	1165.31
374.513	1173.31
374.739	1199.31
374.965	1245.31
375.191	1223.31
375.416	1204.31
375.642	1194.31
375.868	1203.31
376.094	1209.31
376.319	1165.31
376.545	1185.31
376.771	1151.31
376.997	1153.31
377.222	1142.31
377.448	1132.31
377.674	1143.31
377.899	1128.31
378.125	1157.31
378.35	1147.31
378.576	1140.31
378.802	1091.31
379.027	1142.31
379.253	1139.31
379.478	1167.31
379.704	1165.31
379.929	1147.31
380.155	1148.31
380.38	1137.31
380.606	1140.31
380.831	1110.31
381.057	1155.31
381.282	1141.31
381.507	1174.31
381.733	1193.31
381.958	1201.31
382.184	1232.31
382.409	1237.31
382.634	1246.31
382.86	1213.31
383.085	1234.31
383.31	1215.31
383.535	1217.31
383.761	1244.31
383.986	1204.31
384.211	1218.31
384.436	1284.31
384.662	1270.31
384.887	1260.31
385.112	1236.31
385.337	1255.31
385.562	1284.31
385.787	1307.31
386.013	1319.31
386.238	1333.31
386.463	1293.31
386.688	1296.31
386.913	1318.31
387.138	1345.31
387.363	1306.31
387.588	1348.31
387.813	1339.31
388.038	1279.31
388.263	1310.31
388.488	1335.31
388.713	1334.31
388.938	1343.31
389.163	1310.31
389.387	1360.31
389.612	1318.31
389.837	1366.31
390.062	1331.31
390.287	1356.31
390.512	1347.31
390.736	1341.31
390.961	1331.31
391.186	1387.31
391.411	1403.31
391.636	1388.31
391.86	1440.31
392.085	1427.31
392.31	1419.31
392.534	1409.31
392.759	1395.31
392.984	1395.31
393.208	1386.31
393.433	1414.31
393.658	1411.31
393.882	1389.31
394.107	1414.31
394.331	1399.31
394.556	1379.31
394.78	1385.31
395.005	1439.31
395.229	1389.31
395.454	1434.31
395.678	1462.31
395.903	1408.31
396.127	1471.31
396.352	1427.31
396.576	1451.31
396.801	1463.31
397.025	1457.31
397.249	1445.31
397.474	1498.31
397.698	1473.31
397.922	1512.31
398.147	1538.31
398.371	1551.31
398.595	1547.31
398.82	1572.31
399.044	1647.31
399.268	1654.31
399.492	1699.31
399.717	1749.31
399.941	1825.31
400.165	1772.31
400.389	1723.31
400.613	1711.31
400.837	1690.31
401.062	1639.31
401.286	1595.31
401.51	1604.31
401.734	1569.31
401.958	1604.31
402.182	1599.31
402.406	1575.31
402.63	1603.31
402.854	1623.31
403.078	1614.31
403.302	1611.31
403.526	1600.31
403.75	1584.31
403.974	1613.31
404.198	1624.31
404.422	1625.31
404.645	1641.31
404.869	1671.31
405.093	1653.31
405.317	1643.31
405.541	1655.31
405.765	1674.31
405.988	1676.31
406.212	1665.31
406.436	1676.31
406.66	1735.31
406.883	1681.31
407.107	1751.31
407.331	1798.31
407.555	1815.31
407.778	1798.31
408.002	1794.31
408.226	1835.31
408.449	1827.31
408.673	1768.31
408.896	1770.31
409.12	1741.31
409.344	1757.31
409.567	1707.31
409.791	1694.31
410.014	1703.31
410.238	1671.31
410.461	1688.31
410.685	1684.31
410.908	1681.31
411.132	1652.31
411.355	1651.31
411.578	1670.31
411.802	1669.31
412.025	1645.31
412.249	1681.31
412.472	1651.31
412.695	1608.31
412.919	1641.31
413.142	1600.31
413.365	1597.31
413.589	1591.31
413.812	1600.31
414.035	1627.31
414.258	1599.31
414.482	1599.31
414.705	1614.31
414.928	1634.31
415.151	1595.31
415.374	1599.31
415.597	1617.31
415.821	1564.31
416.044	1563.31
416.267	1541.31
416.49	1561.31
416.713	1575.31
416.936	1561.31
417.159	1530.31
417.382	1519.31
417.605	1550.31
417.828	1557.31
418.051	1540.31
418.274	1513.31
418.497	1535.31
418.72	1546.31
418.943	1539.31
419.166	1629.31
419.389	1700.31
419.611	1703.31
419.834	1660.31
420.057	1586.31
420.28	1545.31
420.503	1499.31
420.726	1465.31
420.948	1497.31
421.171	1496.31
421.394	1525.31
421.617	1512.31
421.839	1485.31
422.062	1483.31
422.285	1503.31
422.507	1547.31
422.73	1479.31
422.953	1539.31
423.175	1495.31
423.398	1516.31
423.621	1470.31
423.843	1526.31
424.066	1489.31
424.288	1508.31
424.511	1506.31
424.733	1524.31
424.956	1541.31
425.178	1512.31
425.401	1554.31
425.623	1576.31
425.846	1503.31
426.068	1524.31
426.291	1508.31
426.513	1491.31
426.735	1515.31
426.958	1519.31
427.18	1486.31
427.402	1487.31
427.625	1462.31
427.847	1487.31
428.069	1481.31
428.292	1503.31
428.514	1468.31
428.736	1475.31
428.958	1487.31
429.181	1441.31
429.403	1442.31
429.625	1448.31
429.847	1450.31
430.069	1436.31
430.292	1465.31
430.514	1430.31
430.736	1497.31
430.958	1475.31
431.18	1463.31
431.402	1478.31
431.624	1429.31
431.846	1455.31
432.068	1466.31
432.29	1503.31
432.512	1491.31
432.734	1504.31
432.956	1486.31
433.178	1492.31
433.4	1460.31
433.622	1497.31
433.844	1489.31
434.066	1496.31
434.287	1506.31
434.509	1506.31
434.731	1509.31
434.953	1533.31
435.175	1496.31
435.397	1531.31
435.618	1507.31
435.84	1503.31
436.062	1457.31
436.284	1463.31
436.505	1480.31
436.727	1481.31
436.949	1445.31
437.17	1423.31
437.392	1413.31
437.614	1444.31
437.835	1428.31
438.057	1425.31
438.278	1409.31
438.5	1397.31
438.721	1445.31
438.943	1420.31
439.165	1448.31
439.386	1438.31
439.608	1436.31
439.829	1416.31
440.05	1438.31
440.272	1443.31
440.493	1436.31
440.715	1450.31
440.936	1485.31
441.158	1482.31
441.379	1505.31
441.6	1535.31
441.822	1526.31
442.043	1480.31
442.264	1479.31
442.486	1439.31
442.707	1527.31
442.928	1516.31
443.149	1519.31
443.371	1515.31
443.592	1511.31
443.813	1501.31
444.034	1499.31
444.255	1527.31
444.476	1535.31
444.698	1577.31
444.919	1580.31
445.14	1687.31
445.361	1605.31
445.582	1527.31
445.803	1523.31
446.024	1494.31
446.245	1511.31
446.466	1469.31
446.687	1430.31
446.908	1490.31
447.129	1440.31
447.35	1411.31
447.571	1410.31
447.792	1380.31
448.013	1377.31
448.234	1404.31
448.455	1355.31
448.675	1341.31
448.896	1358.31
449.117	1344.31
449.338	1370.31
449.559	1348.31
449.779	1321.31
450	1332.31
450.221	1344.31
450.442	1359.31
450.662	1317.31
450.883	1340.31
451.104	1331.31
451.324	1312.31
451.545	1368.31
451.766	1348.31
451.986	1305.31
452.207	1317.31
452.428	1329.31
452.648	1300.31
452.869	1289.31
453.089	1281.31
453.31	1314.31
453.53	1269.31
453.751	1297.31
453.971	1300.31
454.192	1315.31
454.412	1267.31
454.633	1296.31
454.853	1271.31
455.073	1244.31
455.294	1268.31
455.514	1271.31
455.734	1275.31
455.955	1268.31
456.175	1271.31
456.395	1288.31
456.616	1297.31
456.836	1298.31
457.056	1305.31
457.276	1264.31
457.497	1290.31
457.717	1299.31
457.937	1323.31
458.157	1307.31
458.377	1338.31
458.598	1375.31
458.818	1350.31
459.038	1383.31
459.258	1351.31
459.478	1425.31
459.698	1449.31
459.918	1471.31
460.138	1452.31
460.358	1514.31
460.578	1484.31
460.798	1523.31
461.018	1549.31
461.238	1560.31
461.458	1579.31
461.678	1567.31
461.898	1599.31
462.118	1595.31
462.338	1627.31
462.558	1621.31
462.777	1648.31
462.997	1705.31
463.217	1736.31
463.437	1724.31
463.657	1685.31
463.876	1704.31
464.096	1715.31
464.316	1677.31
464.536	1693.31
464.755	1647.31
464.975	1601.31
465.195	1609.31
465.414	1591.31
465.634	1542.31
465.854	1521.31
466.073	1503.31
466.293	1480.31
466.512	1445.31
466.732	1418.31
466.951	1474.31
467.171	1425.31
467.391	1411.31
467.61	1404.31
467.829	1416.31
468.049	1409.31
468.268	1393.31
468.488	1409.31
468.707	1406.31
468.927	1444.31
469.146	1456.31
469.365	1436.31
469.585	1416.31
469.804	1413.31
470.023	1424.31
470.243	1414.31
470.462	1447.31
470.681	1458.31
470.901	1420.31
471.12	1439.31
471.339	1418.31
471.558	1392.31
471.777	1422.31
471.997	1427.31
472.216	1417.31
472.435	1437.31
472.654	1441.31
472.873	1407.31
473.092	1403.31
473.311	1445.31
473.53	1407.31
473.749	1406.31
473.968	1424.31
474.187	1415.31
474.406	1415.31
474.625	1444.31
474.844	1423.31
475.063	1448.31
475.282	1471.31
475.501	1448.31
475.72	1482.31
475.939	1464.31
476.158	1490.31
476.377	1497.31
476.596	1515.31
476.814	1567.31
477.033	1511.31
477.252	1524.31
477.471	1553.31
477.69	1595.31
477.908	1620.31
478.127	1649.31
478.346	1583.31
478.564	1676.31
478.783	1636.31
479.002	1633.31
479.22	1707.31
479.439	1729.31
479.658	1702.31
479.876	1681.31
480.095	1700.31
480.313	1721.31
480.532	1695.31
480.751	1717.31
480.969	1664.31
481.188	1737.31
481.406	1747.31
481.624	1693.31
481.843	1694.31
482.061	1671.31
482.28	1720.31
482.498	1739.31
482.717	1683.31
482.935	1713.31
483.153	1706.31
483.372	1699.31
483.59	1691.31
483.808	1721.31
484.027	1693.31
484.245	1689.31
484.463	1718.31
484.681	1719.31
484.9	1728.31
485.118	1751.31
485.336	1738.31
485.554	1699.31
485.772	1733.31
485.99	1708.31
486.209	1741.31
486.427	1735.31
486.645	1728.31
486.863	1750.31
487.081	1737.31
487.299	1754.31
487.517	1749.31
487.735	1755.31
487.953	1760.31
488.171	1758.31
488.389	1740.31
488.607	1751.31
488.825	1729.31
489.043	1694.31
489.261	1747.31
489.479	1756.31
489.696	1747.31
489.914	1733.31
490.132	1756.31
490.35	1741.31
490.568	1733.31
490.786	1803.31
491.003	1755.31
491.221	1802.31
491.439	1792.31
491.657	1767.31
