Data from Fe(NO3)3@0.1M.TitratingCurve.Agarose3%dH2O.NegLispCup.LampEnergy10.LIBS07252019_HRD10591_16-38-09-331.txt Node
Date: Thu Jul 25 16:38:09 EDT 2019
User: cochatt
Spectrometer: HR+D1059
Trigger mode: 1
Integration Time (sec): 1.000000E-1
Scans to average: 1
Electric dark correction enabled: true
Nonlinearity correction enabled: false
Boxcar width: 0
XAxis mode: Wavelengths
Number of Pixels in Spectrum: 2048
>>>>>Begin Spectral Data<<<<<
223.165	-22.44
223.4	-22.44
223.635	-22.44
223.869	-9.44
224.104	-13.44
224.338	-17.44
224.573	-19.44
224.808	-28.44
225.042	-7.44
225.277	-10.44
225.511	-13.44
225.746	7.56
225.98	4.56
226.215	19.56
226.449	17.56
226.683	20.56
226.918	39.56
227.152	32.56
227.387	36.56
227.621	31.56
227.856	26.56
228.09	36.56
228.324	34.56
228.559	49.56
228.793	63.56
229.027	61.56
229.262	82.56
229.496	77.56
229.73	81.56
229.964	69.56
230.199	86.56
230.433	84.56
230.667	86.56
230.901	88.56
231.136	96.56
231.37	81.56
231.604	84.56
231.838	89.56
232.072	98.56
232.306	88.56
232.541	94.56
232.775	91.56
233.009	93.56
233.243	87.56
233.477	93.56
233.711	100.56
233.945	104.56
234.179	96.56
234.413	101.56
234.647	93.56
234.881	112.56
235.115	100.56
235.349	96.56
235.583	102.56
235.817	82.56
236.051	99.56
236.285	103.56
236.519	98.56
236.753	98.56
236.987	92.56
237.221	88.56
237.455	85.56
237.689	98.56
237.922	94.56
238.156	76.56
238.39	96.56
238.624	97.56
238.858	89.56
239.091	106.56
239.325	92.56
239.559	93.56
239.793	93.56
240.027	87.56
240.26	89.56
240.494	97.56
240.728	94.56
240.961	108.56
241.195	104.56
241.429	107.56
241.662	86.56
241.896	83.56
242.13	94.56
242.363	92.56
242.597	109.56
242.83	99.56
243.064	90.56
243.298	100.56
243.531	95.56
243.765	84.56
243.998	110.56
244.232	101.56
244.465	109.56
244.699	96.56
244.932	101.56
245.166	102.56
245.399	106.56
245.633	104.56
245.866	84.56
246.099	104.56
246.333	107.56
246.566	108.56
246.8	112.56
247.033	100.56
247.266	114.56
247.5	102.56
247.733	112.56
247.966	114.56
248.2	101.56
248.433	101.56
248.666	113.56
248.899	103.56
249.133	103.56
249.366	105.56
249.599	107.56
249.832	107.56
250.066	112.56
250.299	110.56
250.532	117.56
250.765	109.56
250.998	119.56
251.231	127.56
251.465	109.56
251.698	112.56
251.931	114.56
252.164	114.56
252.397	124.56
252.63	122.56
252.863	117.56
253.096	119.56
253.329	124.56
253.562	105.56
253.795	105.56
254.028	115.56
254.261	125.56
254.494	123.56
254.727	125.56
254.96	117.56
255.193	118.56
255.426	112.56
255.659	128.56
255.892	117.56
256.124	125.56
256.357	125.56
256.59	119.56
256.823	138.56
257.056	109.56
257.289	108.56
257.521	122.56
257.754	115.56
257.987	133.56
258.22	125.56
258.452	131.56
258.685	116.56
258.918	125.56
259.151	124.56
259.383	136.56
259.616	107.56
259.849	130.56
260.081	146.56
260.314	124.56
260.547	128.56
260.779	116.56
261.012	125.56
261.244	142.56
261.477	136.56
261.71	124.56
261.942	129.56
262.175	132.56
262.407	124.56
262.64	125.56
262.872	138.56
263.105	122.56
263.337	118.56
263.57	126.56
263.802	124.56
264.035	129.56
264.267	118.56
264.499	125.56
264.732	130.56
264.964	136.56
265.197	134.56
265.429	123.56
265.661	142.56
265.894	125.56
266.126	140.56
266.358	114.56
266.591	134.56
266.823	144.56
267.055	144.56
267.287	127.56
267.52	121.56
267.752	141.56
267.984	128.56
268.216	137.56
268.448	133.56
268.681	140.56
268.913	156.56
269.145	137.56
269.377	139.56
269.609	120.56
269.841	144.56
270.073	139.56
270.306	132.56
270.538	137.56
270.77	135.56
271.002	140.56
271.234	152.56
271.466	144.56
271.698	126.56
271.93	138.56
272.162	147.56
272.394	136.56
272.626	136.56
272.858	139.56
273.09	146.56
273.322	145.56
273.553	153.56
273.785	156.56
274.017	130.56
274.249	167.56
274.481	139.56
274.713	138.56
274.945	149.56
275.176	162.56
275.408	133.56
275.64	151.56
275.872	147.56
276.104	163.56
276.335	155.56
276.567	149.56
276.799	180.56
277.031	145.56
277.262	144.56
277.494	154.56
277.726	146.56
277.957	145.56
278.189	156.56
278.421	137.56
278.652	141.56
278.884	148.56
279.115	159.56
279.347	166.56
279.579	167.56
279.81	141.56
280.042	161.56
280.273	156.56
280.505	153.56
280.736	164.56
280.968	157.56
281.199	145.56
281.431	156.56
281.662	165.56
281.894	152.56
282.125	150.56
282.356	153.56
282.588	145.56
282.819	154.56
283.051	159.56
283.282	153.56
283.513	184.56
283.745	168.56
283.976	160.56
284.207	165.56
284.439	167.56
284.67	165.56
284.901	170.56
285.132	179.56
285.364	162.56
285.595	154.56
285.826	183.56
286.057	178.56
286.288	167.56
286.52	178.56
286.751	176.56
286.982	186.56
287.213	178.56
287.444	174.56
287.675	162.56
287.906	169.56
288.138	156.56
288.369	169.56
288.6	177.56
288.831	167.56
289.062	163.56
289.293	176.56
289.524	169.56
289.755	157.56
289.986	180.56
290.217	170.56
290.448	162.56
290.679	178.56
290.91	184.56
291.141	174.56
291.371	173.56
291.602	174.56
291.833	171.56
292.064	172.56
292.295	170.56
292.526	169.56
292.757	165.56
292.987	181.56
293.218	168.56
293.449	169.56
293.68	181.56
293.91	189.56
294.141	181.56
294.372	177.56
294.603	173.56
294.833	180.56
295.064	195.56
295.295	178.56
295.525	174.56
295.756	173.56
295.987	185.56
296.217	173.56
296.448	185.56
296.679	185.56
296.909	183.56
297.14	177.56
297.37	181.56
297.601	187.56
297.831	181.56
298.062	193.56
298.292	179.56
298.523	188.56
298.753	182.56
298.984	172.56
299.214	195.56
299.445	180.56
299.675	173.56
299.905	196.56
300.136	198.56
300.366	172.56
300.597	187.56
300.827	183.56
301.057	195.56
301.288	182.56
301.518	182.56
301.748	199.56
301.979	225.56
302.209	191.56
302.439	181.56
302.669	192.56
302.9	198.56
303.13	199.56
303.36	205.56
303.59	199.56
303.82	187.56
304.051	189.56
304.281	184.56
304.511	188.56
304.741	181.56
304.971	201.56
305.201	197.56
305.431	179.56
305.661	184.56
305.891	173.56
306.121	193.56
306.352	187.56
306.582	152.56
306.812	192.56
307.042	190.56
307.272	198.56
307.502	191.56
307.731	192.56
307.961	193.56
308.191	205.56
308.421	193.56
308.651	180.56
308.881	200.56
309.111	186.56
309.341	187.56
309.571	184.56
309.8	192.56
310.03	186.56
310.26	186.56
310.49	196.56
310.72	192.56
310.949	192.56
311.179	194.56
311.409	178.56
311.639	191.56
311.868	202.56
312.098	202.56
312.328	193.56
312.557	184.56
312.787	180.56
313.017	204.56
313.246	208.56
313.476	210.56
313.706	194.56
313.935	215.56
314.165	210.56
314.394	190.56
314.624	193.56
314.853	192.56
315.083	203.56
315.312	214.56
315.542	204.56
315.771	202.56
316.001	191.56
316.23	199.56
316.46	190.56
316.689	204.56
316.919	217.56
317.148	203.56
317.377	203.56
317.607	211.56
317.836	210.56
318.065	200.56
318.295	186.56
318.524	187.56
318.753	207.56
318.983	201.56
319.212	192.56
319.441	188.56
319.67	202.56
319.9	201.56
320.129	214.56
320.358	213.56
320.587	201.56
320.816	193.56
321.046	185.56
321.275	215.56
321.504	210.56
321.733	210.56
321.962	199.56
322.191	204.56
322.42	204.56
322.649	202.56
322.878	201.56
323.108	212.56
323.337	206.56
323.566	202.56
323.795	222.56
324.024	224.56
324.253	213.56
324.482	209.56
324.71	211.56
324.939	203.56
325.168	198.56
325.397	200.56
325.626	211.56
325.855	214.56
326.084	211.56
326.313	216.56
326.542	235.56
326.77	228.56
326.999	210.56
327.228	217.56
327.457	204.56
327.686	230.56
327.914	217.56
328.143	222.56
328.372	222.56
328.6	212.56
328.829	198.56
329.058	221.56
329.287	211.56
329.515	213.56
329.744	214.56
329.972	228.56
330.201	198.56
330.43	221.56
330.658	213.56
330.887	221.56
331.115	224.56
331.344	234.56
331.572	235.56
331.801	255.56
332.03	222.56
332.258	241.56
332.486	238.56
332.715	238.56
332.943	258.56
333.172	264.56
333.4	268.56
333.629	255.56
333.857	251.56
334.085	248.56
334.314	266.56
334.542	252.56
334.771	268.56
334.999	234.56
335.227	256.56
335.455	252.56
335.684	258.56
335.912	264.56
336.14	265.56
336.369	258.56
336.597	248.56
336.825	244.56
337.053	241.56
337.281	236.56
337.51	243.56
337.738	240.56
337.966	224.56
338.194	216.56
338.422	234.56
338.65	236.56
338.878	245.56
339.106	230.56
339.334	236.56
339.562	226.56
339.79	232.56
340.018	225.56
340.246	218.56
340.474	231.56
340.702	230.56
340.93	234.56
341.158	215.56
341.386	216.56
341.614	214.56
341.842	216.56
342.07	228.56
342.298	229.56
342.526	216.56
342.754	212.56
342.981	222.56
343.209	230.56
343.437	246.56
343.665	240.56
343.893	251.56
344.12	258.56
344.348	249.56
344.576	245.56
344.804	260.56
345.031	240.56
345.259	231.56
345.487	218.56
345.714	234.56
345.942	236.56
346.17	224.56
346.397	217.56
346.625	232.56
346.853	212.56
347.08	217.56
347.308	222.56
347.535	221.56
347.763	218.56
347.99	221.56
348.218	194.56
348.445	221.56
348.673	200.56
348.9	216.56
349.128	223.56
349.355	220.56
349.583	213.56
349.81	219.56
350.037	216.56
350.265	212.56
350.492	203.56
350.72	205.56
350.947	222.56
351.174	213.56
351.402	221.56
351.629	200.56
351.856	222.56
352.083	209.56
352.311	218.56
352.538	208.56
352.765	234.56
352.992	200.56
353.22	233.56
353.447	214.56
353.674	222.56
353.901	219.56
354.128	229.56
354.355	227.56
354.583	226.56
354.81	221.56
355.037	213.56
355.264	220.56
355.491	208.56
355.718	215.56
355.945	226.56
356.172	218.56
356.399	223.56
356.626	226.56
356.853	208.56
357.08	218.56
357.307	220.56
357.534	221.56
357.761	225.56
357.988	224.56
358.215	230.56
358.441	204.56
358.668	213.56
358.895	223.56
359.122	220.56
359.349	211.56
359.576	203.56
359.802	222.56
360.029	208.56
360.256	204.56
360.483	206.56
360.709	221.56
360.936	205.56
361.163	220.56
361.39	221.56
361.616	215.56
361.843	217.56
362.07	220.56
362.296	212.56
362.523	219.56
362.749	219.56
362.976	225.56
363.203	216.56
363.429	205.56
363.656	211.56
363.882	224.56
364.109	207.56
364.335	222.56
364.562	219.56
364.788	224.56
365.015	225.56
365.241	232.56
365.468	227.56
365.694	224.56
365.92	228.56
366.147	220.56
366.373	221.56
366.599	229.56
366.826	219.56
367.052	220.56
367.278	213.56
367.505	220.56
367.731	228.56
367.957	226.56
368.184	229.56
368.41	224.56
368.636	232.56
368.862	228.56
369.089	205.56
369.315	229.56
369.541	225.56
369.767	233.56
369.993	237.56
370.219	214.56
370.445	224.56
370.672	233.56
370.898	230.56
371.124	244.56
371.35	244.56
371.576	235.56
371.802	223.56
372.028	237.56
372.254	238.56
372.48	235.56
372.706	224.56
372.932	232.56
373.158	245.56
373.384	242.56
373.61	226.56
373.835	241.56
374.061	236.56
374.287	256.56
374.513	225.56
374.739	264.56
374.965	256.56
375.191	257.56
375.416	254.56
375.642	248.56
375.868	241.56
376.094	237.56
376.319	238.56
376.545	248.56
376.771	246.56
376.997	230.56
377.222	237.56
377.448	245.56
377.674	245.56
377.899	222.56
378.125	242.56
378.35	251.56
378.576	224.56
378.802	228.56
379.027	240.56
379.253	257.56
379.478	230.56
379.704	255.56
379.929	231.56
380.155	246.56
380.38	234.56
380.606	223.56
380.831	236.56
381.057	233.56
381.282	239.56
381.507	230.56
381.733	232.56
381.958	242.56
382.184	240.56
382.409	267.56
382.634	258.56
382.86	262.56
383.085	257.56
383.31	264.56
383.535	259.56
383.761	258.56
383.986	270.56
384.211	252.56
384.436	274.56
384.662	278.56
384.887	281.56
385.112	284.56
385.337	288.56
385.562	295.56
385.787	294.56
386.013	292.56
386.238	270.56
386.463	273.56
386.688	271.56
386.913	277.56
387.138	270.56
387.363	272.56
387.588	304.56
387.813	289.56
388.038	290.56
388.263	279.56
388.488	281.56
388.713	281.56
388.938	274.56
389.163	275.56
389.387	283.56
389.612	291.56
389.837	268.56
390.062	285.56
390.287	278.56
390.512	260.56
390.736	281.56
390.961	268.56
391.186	286.56
391.411	306.56
391.636	306.56
391.86	296.56
392.085	320.56
392.31	301.56
392.534	296.56
392.759	296.56
392.984	293.56
393.208	284.56
393.433	299.56
393.658	301.56
393.882	293.56
394.107	284.56
394.331	294.56
394.556	296.56
394.78	300.56
395.005	305.56
395.229	317.56
395.454	317.56
395.678	317.56
395.903	305.56
396.127	308.56
396.352	290.56
396.576	299.56
396.801	286.56
397.025	315.56
397.249	306.56
397.474	314.56
397.698	301.56
397.922	314.56
398.147	303.56
398.371	323.56
398.595	317.56
398.82	333.56
399.044	356.56
399.268	405.56
399.492	436.56
399.717	462.56
399.941	421.56
400.165	393.56
400.389	391.56
400.613	352.56
400.837	361.56
401.062	346.56
401.286	353.56
401.51	345.56
401.734	334.56
401.958	341.56
402.182	337.56
402.406	356.56
402.63	364.56
402.854	355.56
403.078	352.56
403.302	358.56
403.526	360.56
403.75	366.56
403.974	381.56
404.198	380.56
404.422	365.56
404.645	363.56
404.869	361.56
405.093	372.56
405.317	356.56
405.541	360.56
405.765	366.56
405.988	357.56
406.212	357.56
406.436	360.56
406.66	390.56
406.883	373.56
407.107	418.56
407.331	410.56
407.555	413.56
407.778	411.56
408.002	409.56
408.226	409.56
408.449	374.56
408.673	376.56
408.896	377.56
409.12	384.56
409.344	375.56
409.567	376.56
409.791	375.56
410.014	361.56
410.238	370.56
410.461	358.56
410.685	376.56
410.908	384.56
411.132	352.56
411.355	362.56
411.578	375.56
411.802	367.56
412.025	339.56
412.249	356.56
412.472	348.56
412.695	353.56
412.919	350.56
413.142	344.56
413.365	342.56
413.589	342.56
413.812	360.56
414.035	340.56
414.258	331.56
414.482	354.56
414.705	355.56
414.928	354.56
415.151	354.56
415.374	349.56
415.597	355.56
415.821	338.56
416.044	344.56
416.267	337.56
416.49	330.56
416.713	324.56
416.936	350.56
417.159	337.56
417.382	314.56
417.605	326.56
417.828	344.56
418.051	347.56
418.274	339.56
418.497	359.56
418.72	354.56
418.943	358.56
419.166	376.56
419.389	370.56
419.611	373.56
419.834	350.56
420.057	347.56
420.28	338.56
420.503	342.56
420.726	326.56
420.948	336.56
421.171	324.56
421.394	337.56
421.617	345.56
421.839	358.56
422.062	349.56
422.285	334.56
422.507	346.56
422.73	353.56
422.953	345.56
423.175	372.56
423.398	353.56
423.621	350.56
423.843	359.56
424.066	356.56
424.288	362.56
424.511	354.56
424.733	356.56
424.956	349.56
425.178	345.56
425.401	315.56
425.623	344.56
425.846	341.56
426.068	354.56
426.291	306.56
426.513	337.56
426.735	320.56
426.958	329.56
427.18	328.56
427.402	322.56
427.625	308.56
427.847	311.56
428.069	298.56
428.292	331.56
428.514	327.56
428.736	297.56
428.958	310.56
429.181	312.56
429.403	313.56
429.625	300.56
429.847	312.56
430.069	306.56
430.292	294.56
430.514	308.56
430.736	313.56
430.958	314.56
431.18	301.56
431.402	293.56
431.624	306.56
431.846	306.56
432.068	302.56
432.29	311.56
432.512	318.56
432.734	334.56
432.956	302.56
433.178	292.56
433.4	306.56
433.622	326.56
433.844	315.56
434.066	324.56
434.287	329.56
434.509	331.56
434.731	339.56
434.953	331.56
435.175	331.56
435.397	332.56
435.618	332.56
435.84	325.56
436.062	324.56
436.284	322.56
436.505	322.56
436.727	326.56
436.949	317.56
437.17	310.56
437.392	286.56
437.614	305.56
437.835	289.56
438.057	297.56
438.278	309.56
438.5	313.56
438.721	311.56
438.943	315.56
439.165	301.56
439.386	318.56
439.608	299.56
439.829	309.56
440.05	307.56
440.272	310.56
440.493	329.56
440.715	323.56
440.936	321.56
441.158	339.56
441.379	341.56
441.6	361.56
441.822	333.56
442.043	328.56
442.264	333.56
442.486	335.56
442.707	339.56
442.928	347.56
443.149	327.56
443.371	337.56
443.592	336.56
443.813	337.56
444.034	354.56
444.255	353.56
444.476	366.56
444.698	372.56
444.919	386.56
445.14	485.56
445.361	398.56
445.582	333.56
445.803	338.56
446.024	330.56
446.245	348.56
446.466	324.56
446.687	320.56
446.908	328.56
447.129	314.56
447.35	313.56
447.571	307.56
447.792	314.56
448.013	314.56
448.234	306.56
448.455	288.56
448.675	294.56
448.896	306.56
449.117	313.56
449.338	312.56
449.559	292.56
449.779	294.56
450	292.56
450.221	305.56
450.442	299.56
450.662	299.56
450.883	290.56
451.104	301.56
451.324	293.56
451.545	309.56
451.766	296.56
451.986	292.56
452.207	301.56
452.428	309.56
452.648	284.56
452.869	283.56
453.089	285.56
453.31	305.56
453.53	294.56
453.751	292.56
453.971	266.56
454.192	282.56
454.412	285.56
454.633	282.56
454.853	281.56
455.073	289.56
455.294	280.56
455.514	268.56
455.734	291.56
455.955	297.56
456.175	292.56
456.395	268.56
456.616	302.56
456.836	283.56
457.056	278.56
457.276	263.56
457.497	290.56
457.717	282.56
457.937	256.56
458.157	287.56
458.377	284.56
458.598	293.56
458.818	291.56
459.038	312.56
459.258	298.56
459.478	313.56
459.698	315.56
459.918	341.56
460.138	342.56
460.358	327.56
460.578	352.56
460.798	341.56
461.018	362.56
461.238	346.56
461.458	353.56
461.678	362.56
461.898	361.56
462.118	357.56
462.338	377.56
462.558	396.56
462.777	382.56
462.997	419.56
463.217	432.56
463.437	450.56
463.657	397.56
463.876	389.56
464.096	405.56
464.316	403.56
464.536	403.56
464.755	382.56
464.975	363.56
465.195	352.56
465.414	344.56
465.634	323.56
465.854	320.56
466.073	318.56
466.293	322.56
466.512	307.56
466.732	299.56
466.951	299.56
467.171	307.56
467.391	309.56
467.61	324.56
467.829	314.56
468.049	307.56
468.268	306.56
468.488	277.56
468.707	284.56
468.927	290.56
469.146	296.56
469.365	308.56
469.585	302.56
469.804	312.56
470.023	289.56
470.243	323.56
470.462	308.56
470.681	318.56
470.901	315.56
471.12	314.56
471.339	325.56
471.558	306.56
471.777	297.56
471.997	306.56
472.216	290.56
472.435	310.56
472.654	289.56
472.873	298.56
473.092	294.56
473.311	296.56
473.53	282.56
473.749	292.56
473.968	300.56
474.187	300.56
474.406	293.56
474.625	321.56
474.844	288.56
475.063	288.56
475.282	299.56
475.501	286.56
475.72	320.56
475.939	293.56
476.158	297.56
476.377	307.56
476.596	312.56
476.814	305.56
477.033	298.56
477.252	311.56
477.471	328.56
477.69	326.56
477.908	320.56
478.127	333.56
478.346	346.56
478.564	328.56
478.783	337.56
479.002	358.56
479.22	352.56
479.439	362.56
479.658	362.56
479.876	354.56
480.095	338.56
480.313	363.56
480.532	368.56
480.751	351.56
480.969	349.56
481.188	340.56
481.406	331.56
481.624	323.56
481.843	322.56
482.061	325.56
482.28	335.56
482.498	311.56
482.717	320.56
482.935	333.56
483.153	325.56
483.372	309.56
483.59	325.56
483.808	338.56
484.027	320.56
484.245	312.56
484.463	326.56
484.681	334.56
484.9	339.56
485.118	344.56
485.336	329.56
485.554	341.56
485.772	336.56
485.99	333.56
486.209	327.56
486.427	326.56
486.645	340.56
486.863	321.56
487.081	328.56
487.299	342.56
487.517	343.56
487.735	348.56
487.953	344.56
488.171	352.56
488.389	339.56
488.607	339.56
488.825	345.56
489.043	320.56
489.261	321.56
489.479	323.56
489.696	327.56
489.914	334.56
490.132	333.56
490.35	340.56
490.568	324.56
490.786	342.56
491.003	333.56
491.221	330.56
491.439	326.56
491.657	324.56
491.874	352.56
492.092	334.56
492.31	341.56
492.527	359.56
492.745	354.56
492.963	363.56
493.18	339.56
493.398	341.56
493.615	353.56
493.833	348.56
494.05	369.56
494.268	353.56
494.485	362.56
494.703	371.56
494.92	356.56
495.138	330.56
495.355	360.56
495.573	374.56
495.79	346.56
496.008	373.56
496.225	356.56
496.442	365.56
496.66	369.56
496.877	372.56
497.094	381.56
497.312	398.56
497.529	382.56
497.746	379.56
497.963	395.56
498.181	425.56
498.398	425.56
498.615	456.56
498.832	470.56
499.049	507.56
499.267	530.56
499.484	570.56
499.701	622.56
499.918	694.56
500.135	761.56
500.352	845.56
500.569	847.56
500.786	810.56
501.003	754.56
501.22	689.56
501.437	644.56
501.654	598.56
501.871	553.56
502.088	527.56
502.305	484.56
