Data from Fe(NO3)3@0.1M.TitratingCurve.Agarose3%dH2O.NegLispCup.LampEnergy10.LIBS07252019_HRD10591_16-37-48-331.txt Node
Date: Thu Jul 25 16:37:48 EDT 2019
User: cochatt
Spectrometer: HR+D1059
Trigger mode: 1
Integration Time (sec): 1.000000E-1
Scans to average: 1
Electric dark correction enabled: true
Nonlinearity correction enabled: false
Boxcar width: 0
XAxis mode: Wavelengths
Number of Pixels in Spectrum: 2048
>>>>>Begin Spectral Data<<<<<
223.165	-23.75
223.4	-23.75
223.635	-23.75
223.869	-10.75
224.104	-13.75
224.338	-9.75
224.573	-13.75
224.808	-12.75
225.042	-7.75
225.277	-15.75
225.511	-12.75
225.746	12.25
225.98	8.25
226.215	9.25
226.449	28.25
226.683	21.25
226.918	16.25
227.152	25.25
227.387	35.25
227.621	34.25
227.856	51.25
228.09	50.25
228.324	43.25
228.559	55.25
228.793	68.25
229.027	68.25
229.262	74.25
229.496	66.25
229.73	90.25
229.964	93.25
230.199	72.25
230.433	93.25
230.667	88.25
230.901	100.25
231.136	84.25
231.37	76.25
231.604	103.25
231.838	87.25
232.072	86.25
232.306	108.25
232.541	85.25
232.775	94.25
233.009	79.25
233.243	101.25
233.477	106.25
233.711	84.25
233.945	95.25
234.179	92.25
234.413	83.25
234.647	88.25
234.881	105.25
235.115	95.25
235.349	96.25
235.583	92.25
235.817	104.25
236.051	96.25
236.285	97.25
236.519	98.25
236.753	94.25
236.987	106.25
237.221	101.25
237.455	97.25
237.689	98.25
237.922	102.25
238.156	105.25
238.39	89.25
238.624	85.25
238.858	85.25
239.091	91.25
239.325	93.25
239.559	100.25
239.793	91.25
240.027	111.25
240.26	105.25
240.494	92.25
240.728	94.25
240.961	96.25
241.195	106.25
241.429	115.25
241.662	107.25
241.896	97.25
242.13	112.25
242.363	98.25
242.597	103.25
242.83	103.25
243.064	104.25
243.298	115.25
243.531	101.25
243.765	98.25
243.998	93.25
244.232	108.25
244.465	109.25
244.699	105.25
244.932	106.25
245.166	108.25
245.399	105.25
245.633	109.25
245.866	106.25
246.099	117.25
246.333	115.25
246.566	114.25
246.8	123.25
247.033	98.25
247.266	109.25
247.5	106.25
247.733	97.25
247.966	111.25
248.2	126.25
248.433	101.25
248.666	111.25
248.899	108.25
249.133	118.25
249.366	108.25
249.599	121.25
249.832	120.25
250.066	106.25
250.299	135.25
250.532	133.25
250.765	119.25
250.998	112.25
251.231	119.25
251.465	133.25
251.698	106.25
251.931	118.25
252.164	107.25
252.397	127.25
252.63	130.25
252.863	112.25
253.096	113.25
253.329	117.25
253.562	123.25
253.795	111.25
254.028	134.25
254.261	123.25
254.494	123.25
254.727	142.25
254.96	129.25
255.193	125.25
255.426	117.25
255.659	118.25
255.892	125.25
256.124	127.25
256.357	130.25
256.59	130.25
256.823	117.25
257.056	140.25
257.289	117.25
257.521	132.25
257.754	126.25
257.987	140.25
258.22	141.25
258.452	120.25
258.685	128.25
258.918	119.25
259.151	133.25
259.383	144.25
259.616	139.25
259.849	131.25
260.081	150.25
260.314	141.25
260.547	138.25
260.779	125.25
261.012	137.25
261.244	126.25
261.477	147.25
261.71	131.25
261.942	152.25
262.175	124.25
262.407	129.25
262.64	129.25
262.872	147.25
263.105	139.25
263.337	140.25
263.57	123.25
263.802	141.25
264.035	139.25
264.267	137.25
264.499	150.25
264.732	129.25
264.964	136.25
265.197	152.25
265.429	134.25
265.661	148.25
265.894	145.25
266.126	148.25
266.358	147.25
266.591	150.25
266.823	134.25
267.055	140.25
267.287	142.25
267.52	155.25
267.752	151.25
267.984	139.25
268.216	154.25
268.448	137.25
268.681	144.25
268.913	144.25
269.145	147.25
269.377	147.25
269.609	140.25
269.841	151.25
270.073	143.25
270.306	134.25
270.538	137.25
270.77	134.25
271.002	147.25
271.234	130.25
271.466	165.25
271.698	158.25
271.93	162.25
272.162	169.25
272.394	150.25
272.626	152.25
272.858	169.25
273.09	168.25
273.322	163.25
273.553	143.25
273.785	146.25
274.017	160.25
274.249	157.25
274.481	153.25
274.713	156.25
274.945	161.25
275.176	161.25
275.408	176.25
275.64	160.25
275.872	148.25
276.104	159.25
276.335	149.25
276.567	161.25
276.799	146.25
277.031	151.25
277.262	156.25
277.494	160.25
277.726	162.25
277.957	141.25
278.189	161.25
278.421	163.25
278.652	164.25
278.884	165.25
279.115	169.25
279.347	169.25
279.579	151.25
279.81	179.25
280.042	169.25
280.273	172.25
280.505	176.25
280.736	168.25
280.968	164.25
281.199	161.25
281.431	166.25
281.662	151.25
281.894	156.25
282.125	168.25
282.356	156.25
282.588	177.25
282.819	165.25
283.051	168.25
283.282	184.25
283.513	183.25
283.745	166.25
283.976	172.25
284.207	187.25
284.439	171.25
284.67	172.25
284.901	176.25
285.132	190.25
285.364	179.25
285.595	180.25
285.826	167.25
286.057	171.25
286.288	170.25
286.52	177.25
286.751	177.25
286.982	166.25
287.213	183.25
287.444	185.25
287.675	187.25
287.906	187.25
288.138	180.25
288.369	189.25
288.6	180.25
288.831	168.25
289.062	184.25
289.293	177.25
289.524	175.25
289.755	162.25
289.986	182.25
290.217	176.25
290.448	184.25
290.679	183.25
290.91	182.25
291.141	168.25
291.371	187.25
291.602	180.25
291.833	188.25
292.064	208.25
292.295	189.25
292.526	192.25
292.757	195.25
292.987	185.25
293.218	170.25
293.449	169.25
293.68	183.25
293.91	184.25
294.141	205.25
294.372	188.25
294.603	181.25
294.833	185.25
295.064	191.25
295.295	186.25
295.525	183.25
295.756	170.25
295.987	177.25
296.217	185.25
296.448	184.25
296.679	181.25
296.909	195.25
297.14	191.25
297.37	183.25
297.601	182.25
297.831	191.25
298.062	195.25
298.292	193.25
298.523	199.25
298.753	201.25
298.984	196.25
299.214	209.25
299.445	197.25
299.675	204.25
299.905	191.25
300.136	187.25
300.366	199.25
300.597	212.25
300.827	208.25
301.057	198.25
301.288	199.25
301.518	193.25
301.748	212.25
301.979	222.25
302.209	199.25
302.439	199.25
302.669	188.25
302.9	193.25
303.13	199.25
303.36	190.25
303.59	191.25
303.82	207.25
304.051	197.25
304.281	195.25
304.511	201.25
304.741	185.25
304.971	204.25
305.201	189.25
305.431	216.25
305.661	211.25
305.891	211.25
306.121	209.25
306.352	200.25
306.582	191.25
306.812	200.25
307.042	214.25
307.272	206.25
307.502	181.25
307.731	203.25
307.961	187.25
308.191	201.25
308.421	201.25
308.651	182.25
308.881	205.25
309.111	200.25
309.341	212.25
309.571	209.25
309.8	201.25
310.03	201.25
310.26	202.25
310.49	183.25
310.72	196.25
310.949	208.25
311.179	214.25
311.409	203.25
311.639	205.25
311.868	205.25
312.098	209.25
312.328	215.25
312.557	196.25
312.787	197.25
313.017	211.25
313.246	206.25
313.476	214.25
313.706	200.25
313.935	202.25
314.165	200.25
314.394	217.25
314.624	220.25
314.853	223.25
315.083	216.25
315.312	220.25
315.542	211.25
315.771	223.25
316.001	212.25
316.23	208.25
316.46	212.25
316.689	197.25
316.919	213.25
317.148	205.25
317.377	217.25
317.607	218.25
317.836	208.25
318.065	205.25
318.295	212.25
318.524	218.25
318.753	218.25
318.983	220.25
319.212	210.25
319.441	225.25
319.67	218.25
319.9	211.25
320.129	211.25
320.358	212.25
320.587	228.25
320.816	212.25
321.046	210.25
321.275	220.25
321.504	213.25
321.733	210.25
321.962	209.25
322.191	227.25
322.42	210.25
322.649	224.25
322.878	211.25
323.108	211.25
323.337	209.25
323.566	208.25
323.795	221.25
324.024	210.25
324.253	211.25
324.482	205.25
324.71	223.25
324.939	222.25
325.168	208.25
325.397	212.25
325.626	228.25
325.855	226.25
326.084	194.25
326.313	213.25
326.542	223.25
326.77	219.25
326.999	224.25
327.228	236.25
327.457	225.25
327.686	226.25
327.914	235.25
328.143	230.25
328.372	230.25
328.6	227.25
328.829	233.25
329.058	228.25
329.287	234.25
329.515	223.25
329.744	220.25
329.972	234.25
330.201	236.25
330.43	233.25
330.658	224.25
330.887	240.25
331.115	235.25
331.344	225.25
331.572	230.25
331.801	249.25
332.03	244.25
332.258	255.25
332.486	237.25
332.715	254.25
332.943	243.25
333.172	259.25
333.4	255.25
333.629	265.25
333.857	270.25
334.085	289.25
334.314	285.25
334.542	284.25
334.771	256.25
334.999	281.25
335.227	276.25
335.455	275.25
335.684	270.25
335.912	268.25
336.14	247.25
336.369	265.25
336.597	273.25
336.825	268.25
337.053	268.25
337.281	262.25
337.51	252.25
337.738	255.25
337.966	243.25
338.194	244.25
338.422	259.25
338.65	251.25
338.878	241.25
339.106	237.25
339.334	256.25
339.562	242.25
339.79	235.25
340.018	236.25
340.246	243.25
340.474	228.25
340.702	236.25
340.93	236.25
341.158	232.25
341.386	234.25
341.614	233.25
341.842	252.25
342.07	237.25
342.298	234.25
342.526	235.25
342.754	242.25
342.981	223.25
343.209	235.25
343.437	249.25
343.665	266.25
343.893	264.25
344.12	280.25
344.348	270.25
344.576	276.25
344.804	251.25
345.031	256.25
345.259	234.25
345.487	261.25
345.714	216.25
345.942	249.25
346.17	239.25
346.397	233.25
346.625	238.25
346.853	233.25
347.08	229.25
347.308	234.25
347.535	250.25
347.763	234.25
347.99	233.25
348.218	212.25
348.445	240.25
348.673	223.25
348.9	230.25
349.128	225.25
349.355	230.25
349.583	240.25
349.81	213.25
350.037	224.25
350.265	220.25
350.492	216.25
350.72	234.25
350.947	228.25
351.174	223.25
351.402	219.25
351.629	223.25
351.856	221.25
352.083	220.25
352.311	229.25
352.538	229.25
352.765	232.25
352.992	244.25
353.22	219.25
353.447	218.25
353.674	224.25
353.901	227.25
354.128	230.25
354.355	216.25
354.583	211.25
354.81	236.25
355.037	232.25
355.264	219.25
355.491	236.25
355.718	239.25
355.945	234.25
356.172	217.25
356.399	236.25
356.626	229.25
356.853	239.25
357.08	231.25
357.307	218.25
357.534	253.25
357.761	245.25
357.988	235.25
358.215	234.25
358.441	229.25
358.668	212.25
358.895	220.25
359.122	216.25
359.349	226.25
359.576	253.25
359.802	221.25
360.029	224.25
360.256	217.25
360.483	226.25
360.709	213.25
360.936	230.25
361.163	239.25
361.39	237.25
361.616	223.25
361.843	240.25
362.07	227.25
362.296	223.25
362.523	233.25
362.749	250.25
362.976	229.25
363.203	226.25
363.429	212.25
363.656	237.25
363.882	239.25
364.109	223.25
364.335	236.25
364.562	234.25
364.788	229.25
365.015	227.25
365.241	229.25
365.468	235.25
365.694	240.25
365.92	231.25
366.147	233.25
366.373	213.25
366.599	223.25
366.826	232.25
367.052	243.25
367.278	241.25
367.505	249.25
367.731	241.25
367.957	227.25
368.184	229.25
368.41	235.25
368.636	250.25
368.862	234.25
369.089	242.25
369.315	227.25
369.541	248.25
369.767	222.25
369.993	211.25
370.219	245.25
370.445	230.25
370.672	242.25
370.898	239.25
371.124	238.25
371.35	241.25
371.576	252.25
371.802	239.25
372.028	244.25
372.254	246.25
372.48	236.25
372.706	259.25
372.932	274.25
373.158	242.25
373.384	262.25
373.61	256.25
373.835	244.25
374.061	243.25
374.287	261.25
374.513	275.25
374.739	245.25
374.965	260.25
375.191	281.25
375.416	284.25
375.642	267.25
375.868	264.25
376.094	270.25
376.319	258.25
376.545	258.25
376.771	260.25
376.997	245.25
377.222	258.25
377.448	243.25
377.674	251.25
377.899	255.25
378.125	249.25
378.35	246.25
378.576	244.25
378.802	238.25
379.027	244.25
379.253	234.25
379.478	243.25
379.704	263.25
379.929	253.25
380.155	259.25
380.38	275.25
380.606	257.25
380.831	248.25
381.057	260.25
381.282	266.25
381.507	266.25
381.733	269.25
381.958	280.25
382.184	254.25
382.409	262.25
382.634	269.25
382.86	270.25
383.085	279.25
383.31	270.25
383.535	297.25
383.761	283.25
383.986	283.25
384.211	287.25
384.436	297.25
384.662	288.25
384.887	316.25
385.112	283.25
385.337	294.25
385.562	293.25
385.787	285.25
386.013	298.25
386.238	312.25
386.463	295.25
386.688	298.25
386.913	314.25
387.138	303.25
387.363	284.25
387.588	307.25
387.813	308.25
388.038	293.25
388.263	325.25
388.488	315.25
388.713	314.25
388.938	301.25
389.163	306.25
389.387	317.25
389.612	320.25
389.837	298.25
390.062	296.25
390.287	295.25
390.512	300.25
390.736	322.25
390.961	300.25
391.186	313.25
391.411	330.25
391.636	334.25
391.86	315.25
392.085	321.25
392.31	339.25
392.534	344.25
392.759	291.25
392.984	314.25
393.208	319.25
393.433	313.25
393.658	312.25
393.882	307.25
394.107	321.25
394.331	320.25
394.556	305.25
394.78	307.25
395.005	333.25
395.229	331.25
395.454	327.25
395.678	334.25
395.903	344.25
396.127	336.25
396.352	323.25
396.576	313.25
396.801	323.25
397.025	324.25
397.249	324.25
397.474	337.25
397.698	339.25
397.922	338.25
398.147	323.25
398.371	335.25
398.595	336.25
398.82	371.25
399.044	379.25
399.268	409.25
399.492	436.25
399.717	521.25
399.941	508.25
400.165	470.25
400.389	439.25
400.613	404.25
400.837	400.25
401.062	383.25
401.286	365.25
401.51	379.25
401.734	373.25
401.958	375.25
402.182	372.25
402.406	381.25
402.63	381.25
402.854	374.25
403.078	378.25
403.302	400.25
403.526	387.25
403.75	415.25
403.974	420.25
404.198	417.25
404.422	404.25
404.645	411.25
404.869	404.25
405.093	405.25
405.317	424.25
405.541	384.25
405.765	417.25
405.988	389.25
406.212	382.25
406.436	396.25
406.66	413.25
406.883	423.25
407.107	423.25
407.331	444.25
407.555	480.25
407.778	447.25
408.002	447.25
408.226	460.25
408.449	450.25
408.673	416.25
408.896	427.25
409.12	405.25
409.344	414.25
409.567	417.25
409.791	412.25
410.014	418.25
410.238	407.25
410.461	399.25
410.685	385.25
410.908	400.25
411.132	416.25
411.355	424.25
411.578	394.25
411.802	369.25
412.025	379.25
412.249	383.25
412.472	406.25
412.695	388.25
412.919	385.25
413.142	396.25
413.365	381.25
413.589	377.25
413.812	377.25
414.035	386.25
414.258	373.25
414.482	360.25
414.705	385.25
414.928	387.25
415.151	382.25
415.374	397.25
415.597	379.25
415.821	383.25
416.044	368.25
416.267	367.25
416.49	383.25
416.713	375.25
416.936	383.25
417.159	361.25
417.382	363.25
417.605	370.25
417.828	371.25
418.051	355.25
418.274	375.25
418.497	371.25
418.72	389.25
418.943	380.25
419.166	396.25
419.389	399.25
419.611	393.25
419.834	380.25
420.057	379.25
420.28	378.25
420.503	364.25
420.726	359.25
420.948	368.25
421.171	376.25
421.394	386.25
421.617	386.25
421.839	379.25
422.062	371.25
422.285	380.25
422.507	374.25
422.73	375.25
422.953	366.25
423.175	384.25
423.398	397.25
423.621	363.25
423.843	377.25
424.066	374.25
424.288	397.25
424.511	391.25
424.733	379.25
424.956	371.25
425.178	376.25
425.401	372.25
425.623	341.25
425.846	367.25
426.068	368.25
426.291	362.25
426.513	345.25
426.735	357.25
426.958	341.25
427.18	342.25
427.402	344.25
427.625	329.25
427.847	331.25
428.069	353.25
428.292	353.25
428.514	341.25
428.736	350.25
428.958	337.25
429.181	336.25
429.403	319.25
429.625	317.25
429.847	337.25
430.069	333.25
430.292	340.25
430.514	324.25
430.736	335.25
430.958	350.25
431.18	330.25
431.402	340.25
431.624	331.25
431.846	319.25
432.068	315.25
432.29	356.25
432.512	347.25
432.734	339.25
432.956	356.25
433.178	350.25
433.4	327.25
433.622	353.25
433.844	359.25
434.066	348.25
434.287	346.25
434.509	339.25
434.731	350.25
434.953	361.25
435.175	376.25
435.397	383.25
435.618	372.25
435.84	342.25
436.062	337.25
436.284	362.25
436.505	345.25
436.727	340.25
436.949	317.25
437.17	347.25
437.392	339.25
437.614	338.25
437.835	331.25
438.057	323.25
438.278	329.25
438.5	335.25
438.721	312.25
438.943	330.25
439.165	345.25
439.386	343.25
439.608	319.25
439.829	334.25
440.05	354.25
440.272	337.25
440.493	353.25
440.715	369.25
440.936	360.25
441.158	367.25
441.379	358.25
441.6	343.25
441.822	357.25
442.043	362.25
442.264	377.25
442.486	351.25
442.707	356.25
442.928	369.25
443.149	379.25
443.371	387.25
443.592	379.25
443.813	373.25
444.034	392.25
444.255	369.25
444.476	395.25
444.698	416.25
444.919	426.25
445.14	550.25
445.361	458.25
445.582	407.25
445.803	369.25
446.024	358.25
446.245	371.25
446.466	356.25
446.687	360.25
446.908	347.25
447.129	354.25
447.35	339.25
447.571	336.25
447.792	330.25
448.013	328.25
448.234	334.25
448.455	330.25
448.675	331.25
448.896	322.25
449.117	327.25
449.338	312.25
449.559	333.25
449.779	305.25
450	305.25
450.221	325.25
450.442	313.25
450.662	326.25
450.883	318.25
451.104	328.25
451.324	310.25
451.545	320.25
451.766	327.25
451.986	333.25
452.207	309.25
452.428	313.25
452.648	312.25
452.869	308.25
453.089	305.25
453.31	315.25
453.53	295.25
453.751	304.25
453.971	305.25
454.192	313.25
454.412	317.25
454.633	316.25
454.853	307.25
455.073	320.25
455.294	323.25
455.514	317.25
455.734	307.25
455.955	309.25
456.175	307.25
456.395	309.25
456.616	290.25
456.836	307.25
457.056	290.25
457.276	291.25
457.497	312.25
457.717	307.25
457.937	316.25
458.157	326.25
458.377	300.25
458.598	324.25
458.818	312.25
459.038	320.25
459.258	343.25
459.478	333.25
459.698	353.25
459.918	372.25
460.138	362.25
460.358	377.25
460.578	381.25
460.798	388.25
461.018	386.25
461.238	394.25
461.458	392.25
461.678	392.25
461.898	394.25
462.118	405.25
462.338	381.25
462.558	421.25
462.777	435.25
462.997	450.25
463.217	495.25
463.437	487.25
463.657	462.25
463.876	446.25
464.096	445.25
464.316	429.25
464.536	436.25
464.755	435.25
464.975	417.25
465.195	403.25
465.414	391.25
465.634	381.25
465.854	365.25
466.073	343.25
466.293	353.25
466.512	339.25
466.732	340.25
466.951	299.25
467.171	337.25
467.391	342.25
467.61	343.25
467.829	336.25
468.049	345.25
468.268	315.25
468.488	331.25
468.707	308.25
468.927	335.25
469.146	327.25
469.365	330.25
469.585	340.25
469.804	327.25
470.023	325.25
470.243	345.25
470.462	340.25
470.681	321.25
470.901	325.25
471.12	331.25
471.339	313.25
471.558	338.25
471.777	334.25
471.997	326.25
472.216	315.25
472.435	323.25
472.654	336.25
472.873	310.25
473.092	324.25
473.311	316.25
473.53	300.25
473.749	327.25
473.968	312.25
474.187	322.25
474.406	319.25
474.625	330.25
474.844	315.25
475.063	326.25
475.282	332.25
475.501	309.25
475.72	309.25
475.939	321.25
476.158	328.25
476.377	319.25
476.596	322.25
476.814	348.25
477.033	327.25
477.252	325.25
477.471	362.25
477.69	353.25
477.908	355.25
478.127	371.25
478.346	358.25
478.564	359.25
478.783	360.25
479.002	397.25
479.22	373.25
479.439	388.25
479.658	377.25
479.876	381.25
480.095	380.25
480.313	400.25
480.532	401.25
480.751	375.25
480.969	399.25
481.188	383.25
481.406	376.25
481.624	344.25
481.843	348.25
482.061	370.25
482.28	358.25
482.498	361.25
482.717	349.25
482.935	362.25
483.153	351.25
483.372	353.25
483.59	363.25
483.808	381.25
484.027	330.25
484.245	356.25
484.463	354.25
484.681	349.25
484.9	372.25
485.118	383.25
485.336	358.25
485.554	383.25
485.772	384.25
485.99	372.25
486.209	368.25
486.427	360.25
486.645	375.25
486.863	367.25
487.081	360.25
487.299	351.25
487.517	355.25
487.735	365.25
487.953	383.25
488.171	361.25
488.389	373.25
488.607	369.25
488.825	369.25
489.043	375.25
489.261	377.25
489.479	369.25
489.696	378.25
489.914	370.25
490.132	384.25
490.35	374.25
490.568	388.25
490.786	379.25
491.003	369.25
491.221	372.25
491.439	361.25
491.657	396.25
491.874	393.25
492.092	378.25
492.31	382.25
492.527	389.25
492.745	384.25
492.963	381.25
493.18	379.25
493.398	376.25
493.615	418.25
493.833	393.25
494.05	391.25
494.268	388.25
494.485	394.25
494.703	402.25
494.92	396.25
495.138	394.25
495.355	398.25
495.573	403.25
495.79	395.25
496.008	403.25
496.225	421.25
496.442	405.25
496.66	413.25
496.877	421.25
497.094	413.25
497.312	415.25
497.529	432.25
497.746	453.25
497.963	465.25
498.181	464.25
498.398	480.25
498.615	504.25
498.832	527.25
499.049	557.25
499.267	615.25
499.484	641.25
499.701	677.25
499.918	742.25
500.135	833.25
500.352	923.25
500.569	923.25
500.786	924.25
501.003	887.25
501.22	811.25
501.437	713.25
501.654	659.25
501.871	605.25
502.088	565.25
