Data from Fe(NO3)3@0.1M.TitratingCurve.Agarose3%dH2O.NegLispCup.LampEnergy10.LIBS07252019_HRD10591_16-38-26-332.txt Node
Date: Thu Jul 25 16:38:26 EDT 2019
User: cochatt
Spectrometer: HR+D1059
Trigger mode: 1
Integration Time (sec): 1.000000E-1
Scans to average: 1
Electric dark correction enabled: true
Nonlinearity correction enabled: false
Boxcar width: 0
XAxis mode: Wavelengths
Number of Pixels in Spectrum: 2048
>>>>>Begin Spectral Data<<<<<
223.165	-13.56
223.4	-13.56
223.635	-13.56
223.869	-3.56
224.104	-27.56
224.338	-22.56
224.573	-12.56
224.808	-3.56
225.042	-3.56
225.277	-15.56
225.511	-8.56
225.746	13.44
225.98	5.44
226.215	14.44
226.449	1.44
226.683	15.44
226.918	23.44
227.152	37.44
227.387	44.44
227.621	34.44
227.856	36.44
228.09	39.44
228.324	41.44
228.559	44.44
228.793	51.44
229.027	75.44
229.262	88.44
229.496	101.44
229.73	87.44
229.964	105.44
230.199	103.44
230.433	84.44
230.667	81.44
230.901	99.44
231.136	113.44
231.37	108.44
231.604	122.44
231.838	109.44
232.072	117.44
232.306	113.44
232.541	113.44
232.775	116.44
233.009	102.44
233.243	118.44
233.477	130.44
233.711	114.44
233.945	114.44
234.179	104.44
234.413	105.44
234.647	106.44
234.881	117.44
235.115	124.44
235.349	112.44
235.583	115.44
235.817	136.44
236.051	120.44
236.285	134.44
236.519	130.44
236.753	119.44
236.987	89.44
237.221	128.44
237.455	124.44
237.689	116.44
237.922	130.44
238.156	131.44
238.39	126.44
238.624	131.44
238.858	124.44
239.091	117.44
239.325	116.44
239.559	138.44
239.793	125.44
240.027	131.44
240.26	146.44
240.494	140.44
240.728	139.44
240.961	133.44
241.195	146.44
241.429	122.44
241.662	153.44
241.896	142.44
242.13	138.44
242.363	135.44
242.597	146.44
242.83	152.44
243.064	138.44
243.298	124.44
243.531	151.44
243.765	148.44
243.998	136.44
244.232	138.44
244.465	137.44
244.699	146.44
244.932	153.44
245.166	148.44
245.399	156.44
245.633	134.44
245.866	152.44
246.099	150.44
246.333	162.44
246.566	146.44
246.8	152.44
247.033	149.44
247.266	155.44
247.5	162.44
247.733	159.44
247.966	160.44
248.2	149.44
248.433	155.44
248.666	177.44
248.899	154.44
249.133	161.44
249.366	173.44
249.599	158.44
249.832	178.44
250.066	170.44
250.299	172.44
250.532	162.44
250.765	162.44
250.998	155.44
251.231	157.44
251.465	169.44
251.698	179.44
251.931	163.44
252.164	167.44
252.397	161.44
252.63	185.44
252.863	187.44
253.096	189.44
253.329	192.44
253.562	192.44
253.795	190.44
254.028	197.44
254.261	184.44
254.494	196.44
254.727	180.44
254.96	184.44
255.193	190.44
255.426	193.44
255.659	186.44
255.892	196.44
256.124	194.44
256.357	188.44
256.59	200.44
256.823	189.44
257.056	205.44
257.289	181.44
257.521	212.44
257.754	199.44
257.987	188.44
258.22	197.44
258.452	198.44
258.685	200.44
258.918	201.44
259.151	200.44
259.383	206.44
259.616	213.44
259.849	213.44
260.081	214.44
260.314	232.44
260.547	213.44
260.779	226.44
261.012	218.44
261.244	209.44
261.477	219.44
261.71	225.44
261.942	212.44
262.175	218.44
262.407	243.44
262.64	220.44
262.872	210.44
263.105	213.44
263.337	237.44
263.57	246.44
263.802	228.44
264.035	225.44
264.267	234.44
264.499	246.44
264.732	217.44
264.964	224.44
265.197	201.44
265.429	210.44
265.661	214.44
265.894	236.44
266.126	231.44
266.358	232.44
266.591	226.44
266.823	212.44
267.055	241.44
267.287	233.44
267.52	217.44
267.752	224.44
267.984	225.44
268.216	233.44
268.448	237.44
268.681	232.44
268.913	212.44
269.145	243.44
269.377	246.44
269.609	250.44
269.841	234.44
270.073	246.44
270.306	243.44
270.538	263.44
270.77	228.44
271.002	249.44
271.234	254.44
271.466	250.44
271.698	264.44
271.93	259.44
272.162	251.44
272.394	239.44
272.626	252.44
272.858	263.44
273.09	253.44
273.322	254.44
273.553	262.44
273.785	257.44
274.017	256.44
274.249	280.44
274.481	270.44
274.713	284.44
274.945	303.44
275.176	298.44
275.408	281.44
275.64	292.44
275.872	274.44
276.104	287.44
276.335	272.44
276.567	255.44
276.799	262.44
277.031	273.44
277.262	271.44
277.494	263.44
277.726	272.44
277.957	264.44
278.189	281.44
278.421	286.44
278.652	262.44
278.884	269.44
279.115	277.44
279.347	283.44
279.579	275.44
279.81	282.44
280.042	280.44
280.273	273.44
280.505	288.44
280.736	306.44
280.968	302.44
281.199	303.44
281.431	291.44
281.662	286.44
281.894	287.44
282.125	312.44
282.356	280.44
282.588	277.44
282.819	280.44
283.051	290.44
283.282	307.44
283.513	288.44
283.745	292.44
283.976	309.44
284.207	301.44
284.439	294.44
284.67	307.44
284.901	310.44
285.132	322.44
285.364	309.44
285.595	296.44
285.826	317.44
286.057	314.44
286.288	310.44
286.52	313.44
286.751	311.44
286.982	325.44
287.213	306.44
287.444	325.44
287.675	325.44
287.906	323.44
288.138	320.44
288.369	315.44
288.6	319.44
288.831	328.44
289.062	318.44
289.293	321.44
289.524	323.44
289.755	320.44
289.986	321.44
290.217	329.44
290.448	323.44
290.679	335.44
290.91	334.44
291.141	314.44
291.371	324.44
291.602	320.44
291.833	321.44
292.064	328.44
292.295	344.44
292.526	324.44
292.757	320.44
292.987	341.44
293.218	318.44
293.449	319.44
293.68	324.44
293.91	328.44
294.141	320.44
294.372	337.44
294.603	323.44
294.833	330.44
295.064	327.44
295.295	341.44
295.525	342.44
295.756	332.44
295.987	326.44
296.217	346.44
296.448	344.44
296.679	344.44
296.909	318.44
297.14	337.44
297.37	341.44
297.601	336.44
297.831	333.44
298.062	351.44
298.292	352.44
298.523	344.44
298.753	336.44
298.984	345.44
299.214	338.44
299.445	338.44
299.675	343.44
299.905	339.44
300.136	356.44
300.366	364.44
300.597	378.44
300.827	366.44
301.057	378.44
301.288	356.44
301.518	350.44
301.748	370.44
301.979	371.44
302.209	370.44
302.439	368.44
302.669	366.44
302.9	357.44
303.13	353.44
303.36	369.44
303.59	358.44
303.82	374.44
304.051	357.44
304.281	384.44
304.511	370.44
304.741	355.44
304.971	376.44
305.201	370.44
305.431	375.44
305.661	377.44
305.891	370.44
306.121	358.44
306.352	344.44
306.582	343.44
306.812	364.44
307.042	370.44
307.272	357.44
307.502	363.44
307.731	374.44
307.961	383.44
308.191	376.44
308.421	367.44
308.651	374.44
308.881	361.44
309.111	378.44
309.341	357.44
309.571	364.44
309.8	367.44
310.03	370.44
310.26	374.44
310.49	387.44
310.72	380.44
310.949	372.44
311.179	374.44
311.409	395.44
311.639	394.44
311.868	379.44
312.098	391.44
312.328	384.44
312.557	390.44
312.787	401.44
313.017	378.44
313.246	386.44
313.476	397.44
313.706	403.44
313.935	398.44
314.165	391.44
314.394	384.44
314.624	389.44
314.853	412.44
315.083	406.44
315.312	385.44
315.542	429.44
315.771	399.44
316.001	403.44
316.23	404.44
316.46	409.44
316.689	398.44
316.919	388.44
317.148	389.44
317.377	396.44
317.607	387.44
317.836	390.44
318.065	401.44
318.295	392.44
318.524	402.44
318.753	404.44
318.983	392.44
319.212	391.44
319.441	390.44
319.67	401.44
319.9	378.44
320.129	392.44
320.358	381.44
320.587	390.44
320.816	404.44
321.046	402.44
321.275	405.44
321.504	414.44
321.733	384.44
321.962	390.44
322.191	410.44
322.42	410.44
322.649	408.44
322.878	402.44
323.108	400.44
323.337	406.44
323.566	417.44
323.795	403.44
324.024	409.44
324.253	417.44
324.482	400.44
324.71	432.44
324.939	409.44
325.168	399.44
325.397	421.44
325.626	414.44
325.855	417.44
326.084	433.44
326.313	452.44
326.542	429.44
326.77	440.44
326.999	432.44
327.228	443.44
327.457	428.44
327.686	440.44
327.914	425.44
328.143	416.44
328.372	413.44
328.6	449.44
328.829	425.44
329.058	432.44
329.287	456.44
329.515	430.44
329.744	430.44
329.972	442.44
330.201	437.44
330.43	440.44
330.658	424.44
330.887	460.44
331.115	430.44
331.344	444.44
331.572	449.44
331.801	481.44
332.03	477.44
332.258	485.44
332.486	473.44
332.715	485.44
332.943	496.44
333.172	515.44
333.4	511.44
333.629	525.44
333.857	543.44
334.085	532.44
334.314	536.44
334.542	536.44
334.771	537.44
334.999	547.44
335.227	529.44
335.455	512.44
335.684	526.44
335.912	527.44
336.14	505.44
336.369	509.44
336.597	534.44
336.825	528.44
337.053	495.44
337.281	496.44
337.51	479.44
337.738	488.44
337.966	487.44
338.194	487.44
338.422	481.44
338.65	465.44
338.878	486.44
339.106	466.44
339.334	465.44
339.562	442.44
339.79	465.44
340.018	442.44
340.246	463.44
340.474	454.44
340.702	467.44
340.93	466.44
341.158	457.44
341.386	445.44
341.614	449.44
341.842	454.44
342.07	466.44
342.298	468.44
342.526	450.44
342.754	449.44
342.981	441.44
343.209	479.44
343.437	486.44
343.665	493.44
343.893	511.44
344.12	524.44
344.348	517.44
344.576	501.44
344.804	485.44
345.031	479.44
345.259	481.44
345.487	478.44
345.714	457.44
345.942	456.44
346.17	455.44
346.397	439.44
346.625	458.44
346.853	423.44
347.08	446.44
347.308	442.44
347.535	446.44
347.763	439.44
347.99	430.44
348.218	444.44
348.445	429.44
348.673	436.44
348.9	458.44
349.128	440.44
349.355	443.44
349.583	419.44
349.81	442.44
350.037	418.44
350.265	441.44
350.492	420.44
350.72	425.44
350.947	415.44
351.174	449.44
351.402	450.44
351.629	419.44
351.856	430.44
352.083	419.44
352.311	425.44
352.538	431.44
352.765	438.44
352.992	421.44
353.22	451.44
353.447	426.44
353.674	432.44
353.901	440.44
354.128	430.44
354.355	423.44
354.583	449.44
354.81	426.44
355.037	457.44
355.264	445.44
355.491	436.44
355.718	434.44
355.945	452.44
356.172	446.44
356.399	429.44
356.626	434.44
356.853	436.44
357.08	426.44
357.307	428.44
357.534	442.44
357.761	441.44
357.988	437.44
358.215	455.44
358.441	438.44
358.668	423.44
358.895	426.44
359.122	429.44
359.349	438.44
359.576	433.44
359.802	435.44
360.029	441.44
360.256	432.44
360.483	436.44
360.709	436.44
360.936	456.44
361.163	433.44
361.39	442.44
361.616	438.44
361.843	439.44
362.07	447.44
362.296	432.44
362.523	425.44
362.749	444.44
362.976	452.44
363.203	447.44
363.429	423.44
363.656	438.44
363.882	456.44
364.109	450.44
364.335	440.44
364.562	435.44
364.788	432.44
365.015	457.44
365.241	443.44
365.468	450.44
365.694	453.44
365.92	448.44
366.147	437.44
366.373	428.44
366.599	436.44
366.826	451.44
367.052	434.44
367.278	436.44
367.505	436.44
367.731	453.44
367.957	444.44
368.184	453.44
368.41	433.44
368.636	433.44
368.862	461.44
369.089	451.44
369.315	472.44
369.541	462.44
369.767	454.44
369.993	463.44
370.219	470.44
370.445	439.44
370.672	467.44
370.898	456.44
371.124	470.44
371.35	464.44
371.576	470.44
371.802	486.44
372.028	478.44
372.254	473.44
372.48	482.44
372.706	466.44
372.932	505.44
373.158	500.44
373.384	477.44
373.61	475.44
373.835	481.44
374.061	469.44
374.287	490.44
374.513	472.44
374.739	511.44
374.965	510.44
375.191	496.44
375.416	504.44
375.642	493.44
375.868	488.44
376.094	490.44
376.319	506.44
376.545	474.44
376.771	497.44
376.997	493.44
377.222	488.44
377.448	489.44
377.674	468.44
377.899	470.44
378.125	479.44
378.35	471.44
378.576	467.44
378.802	475.44
379.027	487.44
379.253	452.44
379.478	481.44
379.704	473.44
379.929	472.44
380.155	468.44
380.38	464.44
380.606	503.44
380.831	496.44
381.057	521.44
381.282	482.44
381.507	510.44
381.733	496.44
381.958	508.44
382.184	503.44
382.409	495.44
382.634	528.44
382.86	503.44
383.085	526.44
383.31	519.44
383.535	526.44
383.761	523.44
383.986	530.44
384.211	559.44
384.436	543.44
384.662	556.44
384.887	545.44
385.112	560.44
385.337	585.44
385.562	575.44
385.787	570.44
386.013	565.44
386.238	551.44
386.463	575.44
386.688	588.44
386.913	577.44
387.138	589.44
387.363	585.44
387.588	581.44
387.813	588.44
388.038	576.44
388.263	573.44
388.488	551.44
388.713	578.44
388.938	570.44
389.163	567.44
389.387	575.44
389.612	559.44
389.837	569.44
390.062	585.44
390.287	577.44
390.512	577.44
390.736	590.44
390.961	597.44
391.186	603.44
391.411	598.44
391.636	601.44
391.86	624.44
392.085	628.44
392.31	608.44
392.534	618.44
392.759	615.44
392.984	611.44
393.208	602.44
393.433	616.44
393.658	620.44
393.882	601.44
394.107	602.44
394.331	614.44
394.556	591.44
394.78	581.44
395.005	611.44
395.229	631.44
395.454	634.44
395.678	634.44
395.903	617.44
396.127	648.44
396.352	608.44
396.576	621.44
396.801	589.44
397.025	622.44
397.249	640.44
397.474	644.44
397.698	649.44
397.922	644.44
398.147	622.44
398.371	676.44
398.595	675.44
398.82	704.44
399.044	751.44
399.268	805.44
399.492	857.44
399.717	915.44
399.941	926.44
400.165	835.44
400.389	818.44
400.613	774.44
400.837	737.44
401.062	729.44
401.286	721.44
401.51	708.44
401.734	701.44
401.958	694.44
402.182	728.44
402.406	722.44
402.63	737.44
402.854	741.44
403.078	725.44
403.302	743.44
403.526	752.44
403.75	754.44
403.974	752.44
404.198	752.44
404.422	759.44
404.645	752.44
404.869	740.44
405.093	757.44
405.317	760.44
405.541	737.44
405.765	737.44
405.988	752.44
406.212	749.44
406.436	798.44
406.66	792.44
406.883	774.44
407.107	794.44
407.331	847.44
407.555	847.44
407.778	834.44
408.002	853.44
408.226	804.44
408.449	835.44
408.673	779.44
408.896	805.44
409.12	782.44
409.344	785.44
409.567	784.44
409.791	768.44
410.014	770.44
410.238	777.44
410.461	759.44
410.685	728.44
410.908	752.44
411.132	725.44
411.355	742.44
411.578	721.44
411.802	734.44
412.025	753.44
412.249	713.44
412.472	764.44
412.695	703.44
412.919	709.44
413.142	709.44
413.365	696.44
413.589	713.44
413.812	709.44
414.035	698.44
414.258	721.44
414.482	699.44
414.705	718.44
414.928	679.44
415.151	717.44
415.374	705.44
415.597	710.44
415.821	702.44
416.044	717.44
416.267	688.44
416.49	683.44
416.713	685.44
416.936	709.44
417.159	679.44
417.382	681.44
417.605	669.44
417.828	675.44
418.051	680.44
418.274	691.44
418.497	694.44
418.72	696.44
418.943	690.44
419.166	714.44
419.389	756.44
419.611	729.44
419.834	716.44
420.057	707.44
420.28	718.44
420.503	706.44
420.726	685.44
420.948	659.44
421.171	682.44
421.394	672.44
421.617	677.44
421.839	676.44
422.062	697.44
422.285	704.44
422.507	708.44
422.73	687.44
422.953	700.44
423.175	693.44
423.398	708.44
423.621	689.44
423.843	691.44
424.066	696.44
424.288	673.44
424.511	688.44
424.733	678.44
424.956	696.44
425.178	694.44
425.401	677.44
425.623	670.44
425.846	665.44
426.068	665.44
426.291	607.44
426.513	658.44
426.735	656.44
426.958	628.44
427.18	630.44
427.402	641.44
427.625	640.44
427.847	648.44
428.069	634.44
428.292	622.44
428.514	616.44
428.736	631.44
428.958	636.44
429.181	630.44
429.403	607.44
429.625	616.44
429.847	618.44
430.069	614.44
430.292	620.44
430.514	595.44
430.736	604.44
430.958	636.44
431.18	634.44
431.402	624.44
431.624	625.44
431.846	625.44
432.068	640.44
432.29	620.44
432.512	604.44
432.734	630.44
432.956	630.44
433.178	616.44
433.4	646.44
433.622	642.44
433.844	623.44
434.066	629.44
434.287	640.44
434.509	652.44
434.731	671.44
434.953	675.44
435.175	666.44
435.397	662.44
435.618	671.44
435.84	650.44
436.062	639.44
436.284	617.44
436.505	644.44
436.727	652.44
436.949	600.44
437.17	630.44
437.392	630.44
437.614	587.44
437.835	604.44
438.057	614.44
438.278	611.44
438.5	604.44
438.721	630.44
438.943	591.44
439.165	600.44
439.386	601.44
439.608	623.44
439.829	612.44
440.05	612.44
440.272	637.44
440.493	615.44
440.715	625.44
440.936	638.44
441.158	650.44
441.379	650.44
441.6	678.44
441.822	670.44
442.043	695.44
442.264	672.44
442.486	649.44
442.707	645.44
442.928	673.44
443.149	675.44
443.371	663.44
443.592	678.44
443.813	676.44
444.034	688.44
444.255	722.44
444.476	711.44
444.698	722.44
444.919	728.44
445.14	840.44
445.361	741.44
445.582	698.44
445.803	688.44
446.024	679.44
446.245	648.44
446.466	648.44
446.687	645.44
446.908	631.44
447.129	618.44
447.35	621.44
447.571	601.44
447.792	590.44
448.013	594.44
448.234	578.44
448.455	593.44
448.675	595.44
448.896	572.44
449.117	576.44
449.338	586.44
449.559	580.44
449.779	565.44
450	581.44
450.221	583.44
450.442	567.44
450.662	565.44
450.883	577.44
451.104	584.44
451.324	559.44
451.545	588.44
451.766	578.44
451.986	564.44
452.207	594.44
452.428	569.44
452.648	551.44
452.869	554.44
453.089	534.44
453.31	572.44
453.53	558.44
453.751	538.44
453.971	568.44
454.192	549.44
454.412	538.44
454.633	532.44
454.853	541.44
455.073	532.44
455.294	560.44
455.514	549.44
455.734	552.44
455.955	535.44
456.175	538.44
456.395	557.44
456.616	546.44
456.836	554.44
457.056	545.44
457.276	551.44
457.497	558.44
457.717	554.44
457.937	560.44
458.157	550.44
458.377	556.44
458.598	564.44
458.818	592.44
459.038	596.44
459.258	626.44
459.478	607.44
459.698	620.44
459.918	654.44
460.138	653.44
460.358	664.44
460.578	668.44
460.798	703.44
461.018	681.44
461.238	688.44
461.458	698.44
461.678	714.44
461.898	695.44
462.118	727.44
462.338	723.44
462.558	756.44
462.777	814.44
462.997	810.44
463.217	852.44
463.437	871.44
463.657	810.44
463.876	801.44
464.096	789.44
464.316	770.44
464.536	764.44
464.755	758.44
464.975	753.44
465.195	719.44
465.414	713.44
465.634	658.44
465.854	696.44
466.073	632.44
466.293	618.44
466.512	615.44
466.732	586.44
466.951	610.44
467.171	625.44
467.391	598.44
467.61	611.44
467.829	607.44
468.049	581.44
468.268	587.44
468.488	577.44
468.707	604.44
468.927	585.44
469.146	590.44
469.365	585.44
469.585	598.44
469.804	573.44
470.023	608.44
470.243	596.44
470.462	622.44
470.681	602.44
470.901	593.44
471.12	629.44
471.339	590.44
471.558	583.44
471.777	594.44
471.997	586.44
472.216	588.44
472.435	581.44
472.654	584.44
472.873	565.44
473.092	558.44
473.311	584.44
473.53	584.44
473.749	567.44
473.968	576.44
474.187	566.44
474.406	564.44
474.625	571.44
474.844	582.44
475.063	580.44
475.282	589.44
475.501	601.44
475.72	594.44
475.939	597.44
476.158	585.44
476.377	622.44
476.596	589.44
476.814	600.44
477.033	625.44
477.252	650.44
477.471	624.44
477.69	617.44
477.908	649.44
478.127	652.44
478.346	652.44
478.564	679.44
478.783	666.44
479.002	713.44
479.22	681.44
479.439	705.44
479.658	706.44
479.876	697.44
480.095	710.44
480.313	710.44
480.532	745.44
480.751	764.44
480.969	687.44
481.188	697.44
481.406	693.44
481.624	657.44
481.843	645.44
482.061	677.44
482.28	649.44
482.498	643.44
482.717	691.44
482.935	642.44
483.153	650.44
483.372	649.44
483.59	666.44
483.808	664.44
484.027	666.44
484.245	643.44
484.463	678.44
484.681	676.44
484.9	665.44
485.118	693.44
485.336	673.44
485.554	681.44
485.772	679.44
485.99	701.44
486.209	677.44
486.427	681.44
486.645	690.44
486.863	682.44
487.081	688.44
487.299	687.44
487.517	686.44
487.735	670.44
487.953	693.44
488.171	687.44
488.389	678.44
488.607	668.44
488.825	693.44
489.043	664.44
489.261	694.44
489.479	677.44
489.696	698.44
489.914	672.44
490.132	703.44
490.35	702.44
490.568	692.44
490.786	672.44
491.003	680.44
491.221	666.44
491.439	696.44
491.657	696.44
491.874	694.44
492.092	726.44
492.31	698.44
492.527	687.44
492.745	704.44
492.963	705.44
493.18	709.44
493.398	717.44
493.615	704.44
493.833	724.44
494.05	707.44
494.268	707.44
494.485	714.44
494.703	737.44
494.92	708.44
495.138	741.44
495.355	719.44
495.573	744.44
495.79	744.44
496.008	736.44
496.225	752.44
496.442	778.44
496.66	771.44
496.877	770.44
497.094	801.44
497.312	792.44
497.529	815.44
497.746	834.44
497.963	850.44
498.181	883.44
498.398	900.44
498.615	953.44
498.832	1004.44
499.049	1060.44
499.267	1079.44
499.484	1199.44
499.701	1296.44
499.918	1372.44
500.135	1478.44
500.352	1590.44
500.569	1641.44
500.786	1606.44
501.003	1559.44
501.22	1464.44
501.437	1345.44
