Data from Fe(NO3)3@0.05M.TitratingCurve.Agarose3%dH2O.NegLispCup.LampEnergy10.LIBS07252019_HRD10591_16-47-40-334.txt Node
Date: Thu Jul 25 16:47:40 EDT 2019
User: cochatt
Spectrometer: HR+D1059
Trigger mode: 1
Integration Time (sec): 1.000000E-1
Scans to average: 1
Electric dark correction enabled: true
Nonlinearity correction enabled: false
Boxcar width: 0
XAxis mode: Wavelengths
Number of Pixels in Spectrum: 2048
>>>>>Begin Spectral Data<<<<<
223.165	-9.69
223.4	-9.69
223.635	-9.69
223.869	-13.69
224.104	-17.69
224.338	-14.69
224.573	-5.69
224.808	-2.69
225.042	-22.69
225.277	-12.69
225.511	0.31
225.746	2.31
225.98	0.31
226.215	11.31
226.449	1.31
226.683	27.31
226.918	27.31
227.152	29.31
227.387	44.31
227.621	29.31
227.856	34.31
228.09	49.31
228.324	54.31
228.559	71.31
228.793	66.31
229.027	80.31
229.262	73.31
229.496	79.31
229.73	67.31
229.964	93.31
230.199	93.31
230.433	97.31
230.667	91.31
230.901	109.31
231.136	98.31
231.37	112.31
231.604	112.31
231.838	107.31
232.072	114.31
232.306	95.31
232.541	115.31
232.775	111.31
233.009	104.31
233.243	113.31
233.477	117.31
233.711	108.31
233.945	115.31
234.179	108.31
234.413	97.31
234.647	106.31
234.881	120.31
235.115	104.31
235.349	118.31
235.583	120.31
235.817	101.31
236.051	113.31
236.285	133.31
236.519	119.31
236.753	112.31
236.987	115.31
237.221	122.31
237.455	106.31
237.689	133.31
237.922	117.31
238.156	118.31
238.39	117.31
238.624	126.31
238.858	126.31
239.091	125.31
239.325	119.31
239.559	127.31
239.793	115.31
240.027	127.31
240.26	128.31
240.494	112.31
240.728	122.31
240.961	137.31
241.195	141.31
241.429	121.31
241.662	136.31
241.896	117.31
242.13	123.31
242.363	126.31
242.597	137.31
242.83	131.31
243.064	135.31
243.298	136.31
243.531	139.31
243.765	156.31
243.998	132.31
244.232	142.31
244.465	146.31
244.699	138.31
244.932	145.31
245.166	137.31
245.399	136.31
245.633	146.31
245.866	132.31
246.099	138.31
246.333	138.31
246.566	130.31
246.8	141.31
247.033	134.31
247.266	120.31
247.5	147.31
247.733	147.31
247.966	156.31
248.2	149.31
248.433	153.31
248.666	147.31
248.899	148.31
249.133	149.31
249.366	161.31
249.599	161.31
249.832	157.31
250.066	153.31
250.299	152.31
250.532	147.31
250.765	146.31
250.998	164.31
251.231	143.31
251.465	156.31
251.698	151.31
251.931	150.31
252.164	156.31
252.397	167.31
252.63	172.31
252.863	170.31
253.096	176.31
253.329	190.31
253.562	154.31
253.795	172.31
254.028	171.31
254.261	172.31
254.494	164.31
254.727	181.31
254.96	168.31
255.193	172.31
255.426	180.31
255.659	177.31
255.892	185.31
256.124	167.31
256.357	180.31
256.59	167.31
256.823	173.31
257.056	164.31
257.289	177.31
257.521	206.31
257.754	170.31
257.987	171.31
258.22	186.31
258.452	169.31
258.685	168.31
258.918	178.31
259.151	173.31
259.383	178.31
259.616	197.31
259.849	198.31
260.081	204.31
260.314	224.31
260.547	206.31
260.779	183.31
261.012	196.31
261.244	206.31
261.477	202.31
261.71	195.31
261.942	202.31
262.175	186.31
262.407	199.31
262.64	178.31
262.872	206.31
263.105	196.31
263.337	208.31
263.57	200.31
263.802	194.31
264.035	200.31
264.267	193.31
264.499	186.31
264.732	197.31
264.964	191.31
265.197	196.31
265.429	190.31
265.661	198.31
265.894	197.31
266.126	200.31
266.358	196.31
266.591	204.31
266.823	208.31
267.055	199.31
267.287	196.31
267.52	194.31
267.752	207.31
267.984	210.31
268.216	217.31
268.448	213.31
268.681	210.31
268.913	209.31
269.145	209.31
269.377	200.31
269.609	208.31
269.841	203.31
270.073	217.31
270.306	211.31
270.538	213.31
270.77	235.31
271.002	234.31
271.234	205.31
271.466	216.31
271.698	231.31
271.93	218.31
272.162	231.31
272.394	230.31
272.626	229.31
272.858	233.31
273.09	226.31
273.322	222.31
273.553	228.31
273.785	224.31
274.017	218.31
274.249	264.31
274.481	259.31
274.713	263.31
274.945	268.31
275.176	269.31
275.408	269.31
275.64	253.31
275.872	266.31
276.104	228.31
276.335	244.31
276.567	243.31
276.799	227.31
277.031	242.31
277.262	249.31
277.494	236.31
277.726	226.31
277.957	232.31
278.189	229.31
278.421	226.31
278.652	236.31
278.884	230.31
279.115	231.31
279.347	244.31
279.579	245.31
279.81	245.31
280.042	244.31
280.273	236.31
280.505	249.31
280.736	221.31
280.968	234.31
281.199	248.31
281.431	247.31
281.662	237.31
281.894	257.31
282.125	243.31
282.356	262.31
282.588	258.31
282.819	252.31
283.051	257.31
283.282	255.31
283.513	272.31
283.745	233.31
283.976	265.31
284.207	250.31
284.439	276.31
284.67	263.31
284.901	250.31
285.132	279.31
285.364	252.31
285.595	266.31
285.826	257.31
286.057	253.31
286.288	276.31
286.52	253.31
286.751	258.31
286.982	262.31
287.213	280.31
287.444	279.31
287.675	261.31
287.906	285.31
288.138	274.31
288.369	277.31
288.6	279.31
288.831	284.31
289.062	267.31
289.293	244.31
289.524	295.31
289.755	290.31
289.986	273.31
290.217	286.31
290.448	277.31
290.679	296.31
290.91	265.31
291.141	265.31
291.371	261.31
291.602	282.31
291.833	280.31
292.064	269.31
292.295	281.31
292.526	269.31
292.757	282.31
292.987	280.31
293.218	266.31
293.449	277.31
293.68	280.31
293.91	272.31
294.141	285.31
294.372	276.31
294.603	287.31
294.833	290.31
295.064	281.31
295.295	298.31
295.525	293.31
295.756	294.31
295.987	300.31
296.217	289.31
296.448	284.31
296.679	286.31
296.909	305.31
297.14	296.31
297.37	278.31
297.601	289.31
297.831	292.31
298.062	304.31
298.292	305.31
298.523	297.31
298.753	302.31
298.984	295.31
299.214	262.31
299.445	295.31
299.675	303.31
299.905	287.31
300.136	295.31
300.366	300.31
300.597	300.31
300.827	304.31
301.057	311.31
301.288	325.31
301.518	304.31
301.748	307.31
301.979	319.31
302.209	321.31
302.439	323.31
302.669	309.31
302.9	299.31
303.13	326.31
303.36	303.31
303.59	294.31
303.82	313.31
304.051	330.31
304.281	300.31
304.511	302.31
304.741	303.31
304.971	324.31
305.201	328.31
305.431	312.31
305.661	313.31
305.891	294.31
306.121	308.31
306.352	302.31
306.582	304.31
306.812	305.31
307.042	324.31
307.272	314.31
307.502	288.31
307.731	303.31
307.961	316.31
308.191	307.31
308.421	308.31
308.651	307.31
308.881	306.31
309.111	298.31
309.341	321.31
309.571	319.31
309.8	296.31
310.03	323.31
310.26	316.31
310.49	313.31
310.72	299.31
310.949	305.31
311.179	326.31
311.409	309.31
311.639	303.31
311.868	311.31
312.098	322.31
312.328	305.31
312.557	334.31
312.787	322.31
313.017	327.31
313.246	319.31
313.476	314.31
313.706	318.31
313.935	329.31
314.165	352.31
314.394	316.31
314.624	331.31
314.853	333.31
315.083	332.31
315.312	334.31
315.542	325.31
315.771	323.31
316.001	309.31
316.23	319.31
316.46	351.31
316.689	331.31
316.919	329.31
317.148	329.31
317.377	346.31
317.607	338.31
317.836	320.31
318.065	349.31
318.295	335.31
318.524	320.31
318.753	333.31
318.983	338.31
319.212	324.31
319.441	315.31
319.67	336.31
319.9	333.31
320.129	352.31
320.358	338.31
320.587	325.31
320.816	322.31
321.046	328.31
321.275	331.31
321.504	351.31
321.733	342.31
321.962	324.31
322.191	347.31
322.42	343.31
322.649	316.31
322.878	315.31
323.108	344.31
323.337	338.31
323.566	333.31
323.795	353.31
324.024	339.31
324.253	334.31
324.482	336.31
324.71	353.31
324.939	340.31
325.168	340.31
325.397	344.31
325.626	359.31
325.855	343.31
326.084	358.31
326.313	357.31
326.542	376.31
326.77	371.31
326.999	335.31
327.228	364.31
327.457	343.31
327.686	342.31
327.914	361.31
328.143	352.31
328.372	339.31
328.6	354.31
328.829	348.31
329.058	353.31
329.287	361.31
329.515	362.31
329.744	371.31
329.972	364.31
330.201	352.31
330.43	362.31
330.658	368.31
330.887	376.31
331.115	359.31
331.344	383.31
331.572	372.31
331.801	398.31
332.03	397.31
332.258	387.31
332.486	396.31
332.715	400.31
332.943	405.31
333.172	435.31
333.4	432.31
333.629	447.31
333.857	453.31
334.085	448.31
334.314	459.31
334.542	436.31
334.771	440.31
334.999	429.31
335.227	436.31
335.455	442.31
335.684	454.31
335.912	435.31
336.14	421.31
336.369	418.31
336.597	402.31
336.825	426.31
337.053	416.31
337.281	429.31
337.51	403.31
337.738	425.31
337.966	427.31
338.194	404.31
338.422	407.31
338.65	380.31
338.878	366.31
339.106	386.31
339.334	397.31
339.562	390.31
339.79	387.31
340.018	381.31
340.246	387.31
340.474	378.31
340.702	383.31
340.93	385.31
341.158	390.31
341.386	368.31
341.614	364.31
341.842	394.31
342.07	371.31
342.298	372.31
342.526	375.31
342.754	365.31
342.981	411.31
343.209	404.31
343.437	407.31
343.665	434.31
343.893	461.31
344.12	463.31
344.348	453.31
344.576	423.31
344.804	404.31
345.031	400.31
345.259	388.31
345.487	375.31
345.714	380.31
345.942	366.31
346.17	380.31
346.397	395.31
346.625	351.31
346.853	377.31
347.08	377.31
347.308	361.31
347.535	387.31
347.763	375.31
347.99	361.31
348.218	375.31
348.445	382.31
348.673	379.31
348.9	380.31
349.128	363.31
349.355	379.31
349.583	364.31
349.81	363.31
350.037	354.31
350.265	333.31
350.492	353.31
350.72	368.31
350.947	379.31
351.174	373.31
351.402	387.31
351.629	367.31
351.856	353.31
352.083	385.31
352.311	371.31
352.538	351.31
352.765	362.31
352.992	362.31
353.22	367.31
353.447	369.31
353.674	378.31
353.901	357.31
354.128	376.31
354.355	374.31
354.583	364.31
354.81	343.31
355.037	356.31
355.264	369.31
355.491	348.31
355.718	352.31
355.945	372.31
356.172	372.31
356.399	364.31
356.626	362.31
356.853	362.31
357.08	367.31
357.307	375.31
357.534	355.31
357.761	360.31
357.988	363.31
358.215	372.31
358.441	385.31
358.668	370.31
358.895	361.31
359.122	359.31
359.349	362.31
359.576	369.31
359.802	379.31
360.029	364.31
360.256	359.31
360.483	359.31
360.709	374.31
360.936	373.31
361.163	371.31
361.39	353.31
361.616	357.31
361.843	368.31
362.07	384.31
362.296	376.31
362.523	356.31
362.749	363.31
362.976	360.31
363.203	380.31
363.429	364.31
363.656	381.31
363.882	375.31
364.109	373.31
364.335	368.31
364.562	355.31
364.788	385.31
365.015	387.31
365.241	371.31
365.468	363.31
365.694	375.31
365.92	359.31
366.147	347.31
366.373	365.31
366.599	372.31
366.826	368.31
367.052	362.31
367.278	362.31
367.505	378.31
367.731	373.31
367.957	364.31
368.184	397.31
368.41	370.31
368.636	371.31
368.862	384.31
369.089	379.31
369.315	383.31
369.541	374.31
369.767	379.31
369.993	385.31
370.219	388.31
370.445	408.31
370.672	396.31
370.898	394.31
371.124	387.31
371.35	390.31
371.576	386.31
371.802	410.31
372.028	414.31
372.254	399.31
372.48	403.31
372.706	410.31
372.932	413.31
373.158	420.31
373.384	418.31
373.61	394.31
373.835	428.31
374.061	400.31
374.287	414.31
374.513	402.31
374.739	424.31
374.965	430.31
375.191	463.31
375.416	441.31
375.642	428.31
375.868	400.31
376.094	424.31
376.319	400.31
376.545	405.31
376.771	410.31
376.997	407.31
377.222	412.31
377.448	418.31
377.674	403.31
377.899	383.31
378.125	420.31
378.35	415.31
378.576	413.31
378.802	415.31
379.027	409.31
379.253	413.31
379.478	416.31
379.704	384.31
379.929	395.31
380.155	407.31
380.38	415.31
380.606	401.31
380.831	408.31
381.057	412.31
381.282	408.31
381.507	401.31
381.733	432.31
381.958	426.31
382.184	417.31
382.409	435.31
382.634	445.31
382.86	458.31
383.085	442.31
383.31	434.31
383.535	449.31
383.761	457.31
383.986	449.31
384.211	470.31
384.436	472.31
384.662	459.31
384.887	461.31
385.112	459.31
385.337	490.31
385.562	469.31
385.787	475.31
386.013	471.31
386.238	484.31
386.463	486.31
386.688	478.31
386.913	475.31
387.138	472.31
387.363	461.31
387.588	491.31
387.813	500.31
388.038	501.31
388.263	497.31
388.488	477.31
388.713	482.31
388.938	473.31
389.163	483.31
389.387	471.31
389.612	464.31
389.837	472.31
390.062	473.31
390.287	510.31
390.512	483.31
390.736	484.31
390.961	491.31
391.186	485.31
391.411	519.31
391.636	505.31
391.86	501.31
392.085	521.31
392.31	547.31
392.534	517.31
392.759	530.31
392.984	523.31
393.208	509.31
393.433	490.31
393.658	503.31
393.882	531.31
394.107	517.31
394.331	518.31
394.556	502.31
394.78	518.31
395.005	508.31
395.229	517.31
395.454	532.31
395.678	552.31
395.903	546.31
396.127	524.31
396.352	524.31
396.576	520.31
396.801	513.31
397.025	517.31
397.249	568.31
397.474	548.31
397.698	544.31
397.922	546.31
398.147	535.31
398.371	579.31
398.595	597.31
398.82	557.31
399.044	643.31
399.268	683.31
399.492	719.31
399.717	778.31
399.941	799.31
400.165	749.31
400.389	697.31
400.613	647.31
400.837	642.31
401.062	619.31
401.286	599.31
401.51	608.31
401.734	620.31
401.958	602.31
402.182	595.31
402.406	610.31
402.63	639.31
402.854	635.31
403.078	632.31
403.302	627.31
403.526	648.31
403.75	632.31
403.974	654.31
404.198	644.31
404.422	649.31
404.645	655.31
404.869	632.31
405.093	648.31
405.317	627.31
405.541	644.31
405.765	648.31
405.988	664.31
406.212	647.31
406.436	631.31
406.66	681.31
406.883	668.31
407.107	676.31
407.331	709.31
407.555	754.31
407.778	733.31
408.002	745.31
408.226	711.31
408.449	720.31
408.673	680.31
408.896	682.31
409.12	681.31
409.344	674.31
409.567	667.31
409.791	663.31
410.014	669.31
410.238	673.31
410.461	678.31
410.685	670.31
410.908	670.31
411.132	654.31
411.355	611.31
411.578	621.31
411.802	626.31
412.025	629.31
412.249	638.31
412.472	626.31
412.695	618.31
412.919	615.31
413.142	630.31
413.365	648.31
413.589	631.31
413.812	619.31
414.035	617.31
414.258	597.31
414.482	603.31
414.705	608.31
414.928	632.31
415.151	630.31
415.374	613.31
415.597	612.31
415.821	621.31
416.044	583.31
416.267	575.31
416.49	588.31
416.713	583.31
416.936	607.31
417.159	613.31
417.382	608.31
417.605	596.31
417.828	596.31
418.051	596.31
418.274	595.31
418.497	602.31
418.72	626.31
418.943	614.31
419.166	637.31
419.389	680.31
419.611	680.31
419.834	631.31
420.057	605.31
420.28	612.31
420.503	588.31
420.726	583.31
420.948	584.31
421.171	625.31
421.394	605.31
421.617	585.31
421.839	613.31
422.062	599.31
422.285	600.31
422.507	615.31
422.73	608.31
422.953	620.31
423.175	624.31
423.398	616.31
423.621	630.31
423.843	631.31
424.066	627.31
424.288	610.31
424.511	611.31
424.733	604.31
424.956	590.31
425.178	595.31
425.401	598.31
425.623	591.31
425.846	595.31
426.068	592.31
426.291	582.31
426.513	614.31
426.735	592.31
426.958	584.31
427.18	575.31
427.402	567.31
427.625	582.31
427.847	542.31
428.069	571.31
428.292	566.31
428.514	561.31
428.736	572.31
428.958	574.31
429.181	544.31
429.403	548.31
429.625	577.31
429.847	566.31
430.069	550.31
430.292	551.31
430.514	550.31
430.736	546.31
430.958	555.31
431.18	561.31
431.402	555.31
431.624	545.31
431.846	551.31
432.068	592.31
432.29	568.31
432.512	552.31
432.734	566.31
432.956	536.31
433.178	571.31
433.4	567.31
433.622	591.31
433.844	596.31
434.066	568.31
434.287	573.31
434.509	580.31
434.731	596.31
434.953	625.31
435.175	605.31
435.397	605.31
435.618	590.31
435.84	603.31
436.062	570.31
436.284	579.31
436.505	565.31
436.727	562.31
436.949	563.31
437.17	575.31
437.392	553.31
437.614	555.31
437.835	554.31
438.057	542.31
438.278	539.31
438.5	553.31
438.721	558.31
438.943	563.31
439.165	552.31
439.386	543.31
439.608	574.31
439.829	561.31
440.05	566.31
440.272	581.31
440.493	570.31
440.715	575.31
440.936	623.31
441.158	590.31
441.379	613.31
441.6	601.31
441.822	627.31
442.043	614.31
442.264	621.31
442.486	588.31
442.707	613.31
442.928	601.31
443.149	620.31
443.371	608.31
443.592	624.31
443.813	617.31
444.034	616.31
444.255	637.31
444.476	651.31
444.698	666.31
444.919	701.31
445.14	779.31
445.361	701.31
445.582	636.31
445.803	626.31
446.024	581.31
446.245	587.31
446.466	595.31
446.687	582.31
446.908	584.31
447.129	569.31
447.35	560.31
447.571	559.31
447.792	552.31
448.013	563.31
448.234	527.31
448.455	573.31
448.675	533.31
448.896	548.31
449.117	537.31
449.338	545.31
449.559	529.31
449.779	541.31
450	526.31
450.221	552.31
450.442	537.31
450.662	517.31
450.883	561.31
451.104	541.31
451.324	544.31
451.545	542.31
451.766	524.31
451.986	521.31
452.207	521.31
452.428	509.31
452.648	535.31
452.869	522.31
453.089	505.31
453.31	521.31
453.53	512.31
453.751	511.31
453.971	519.31
454.192	509.31
454.412	489.31
454.633	495.31
454.853	513.31
455.073	500.31
455.294	514.31
455.514	488.31
455.734	481.31
455.955	506.31
456.175	480.31
456.395	504.31
456.616	488.31
456.836	482.31
457.056	511.31
457.276	472.31
457.497	499.31
457.717	503.31
457.937	502.31
458.157	492.31
458.377	530.31
458.598	511.31
458.818	539.31
459.038	530.31
459.258	534.31
459.478	556.31
459.698	560.31
459.918	568.31
460.138	594.31
460.358	639.31
460.578	642.31
460.798	637.31
461.018	639.31
461.238	657.31
461.458	653.31
461.678	637.31
461.898	639.31
462.118	646.31
462.338	707.31
462.558	684.31
462.777	709.31
462.997	758.31
463.217	775.31
463.437	785.31
463.657	751.31
463.876	735.31
464.096	749.31
464.316	705.31
464.536	712.31
464.755	696.31
464.975	664.31
465.195	661.31
465.414	623.31
465.634	603.31
465.854	602.31
466.073	605.31
466.293	593.31
466.512	580.31
466.732	567.31
466.951	549.31
467.171	559.31
467.391	559.31
467.61	548.31
467.829	540.31
468.049	564.31
468.268	551.31
468.488	531.31
468.707	532.31
468.927	562.31
469.146	536.31
469.365	551.31
469.585	543.31
469.804	554.31
470.023	565.31
470.243	565.31
470.462	542.31
470.681	600.31
470.901	575.31
471.12	577.31
471.339	559.31
471.558	540.31
471.777	555.31
471.997	554.31
472.216	520.31
472.435	531.31
472.654	520.31
472.873	516.31
473.092	532.31
473.311	520.31
473.53	547.31
473.749	533.31
473.968	509.31
474.187	530.31
474.406	515.31
474.625	522.31
474.844	539.31
475.063	546.31
475.282	526.31
475.501	550.31
475.72	555.31
475.939	529.31
476.158	551.31
476.377	570.31
476.596	577.31
476.814	590.31
477.033	545.31
477.252	564.31
477.471	561.31
477.69	583.31
477.908	605.31
478.127	610.31
478.346	604.31
478.564	623.31
478.783	604.31
479.002	625.31
479.22	647.31
479.439	644.31
479.658	617.31
479.876	621.31
480.095	645.31
480.313	651.31
480.532	655.31
480.751	656.31
480.969	634.31
481.188	633.31
481.406	617.31
481.624	629.31
481.843	610.31
482.061	595.31
482.28	607.31
482.498	612.31
482.717	620.31
482.935	608.31
483.153	610.31
483.372	620.31
483.59	609.31
483.808	610.31
484.027	599.31
484.245	627.31
484.463	597.31
484.681	620.31
484.9	605.31
485.118	627.31
485.336	605.31
485.554	627.31
485.772	636.31
485.99	616.31
486.209	642.31
486.427	612.31
486.645	607.31
486.863	631.31
487.081	634.31
487.299	631.31
487.517	608.31
487.735	625.31
487.953	616.31
488.171	649.31
488.389	631.31
488.607	607.31
488.825	605.31
489.043	634.31
489.261	625.31
489.479	611.31
489.696	652.31
489.914	627.31
490.132	632.31
490.35	626.31
490.568	629.31
490.786	649.31
491.003	632.31
491.221	628.31
491.439	644.31
491.657	654.31
491.874	650.31
492.092	650.31
492.31	659.31
492.527	668.31
492.745	672.31
492.963	666.31
493.18	667.31
493.398	674.31
493.615	663.31
493.833	684.31
494.05	650.31
494.268	664.31
494.485	653.31
494.703	672.31
494.92	671.31
495.138	658.31
495.355	677.31
495.573	677.31
495.79	683.31
496.008	676.31
496.225	697.31
496.442	677.31
496.66	711.31
496.877	701.31
497.094	697.31
497.312	708.31
497.529	737.31
497.746	744.31
497.963	791.31
498.181	781.31
498.398	799.31
498.615	844.31
498.832	885.31
499.049	937.31
499.267	984.31
499.484	1056.31
499.701	1167.31
499.918	1185.31
500.135	1344.31
500.352	1477.31
500.569	1558.31
500.786	1518.31
501.003	1413.31
501.22	1326.31
501.437	1222.31
501.654	1116.31
