Data from Fe(NO3)3@0.0125M.TitratingCurve.Agarose3%dH2O.NegLispCup.LampEnergy10.LIBS07252019_HRD10591_17-00-55-337.txt Node
Date: Thu Jul 25 17:00:55 EDT 2019
User: cochatt
Spectrometer: HR+D1059
Trigger mode: 1
Integration Time (sec): 1.000000E-1
Scans to average: 1
Electric dark correction enabled: true
Nonlinearity correction enabled: false
Boxcar width: 0
XAxis mode: Wavelengths
Number of Pixels in Spectrum: 2048
>>>>>Begin Spectral Data<<<<<
223.165	-16.25
223.4	-16.25
223.635	-16.25
223.869	-14.25
224.104	-21.25
224.338	-10.25
224.573	-6.25
224.808	-21.25
225.042	-11.25
225.277	-11.25
225.511	-1.25
225.746	20.75
225.98	9.75
226.215	11.75
226.449	15.75
226.683	20.75
226.918	7.75
227.152	26.75
227.387	41.75
227.621	35.75
227.856	55.75
228.09	39.75
228.324	59.75
228.559	58.75
228.793	54.75
229.027	76.75
229.262	82.75
229.496	75.75
229.73	78.75
229.964	99.75
230.199	81.75
230.433	81.75
230.667	104.75
230.901	82.75
231.136	90.75
231.37	89.75
231.604	102.75
231.838	103.75
232.072	85.75
232.306	97.75
232.541	89.75
232.775	93.75
233.009	96.75
233.243	112.75
233.477	99.75
233.711	97.75
233.945	97.75
234.179	95.75
234.413	115.75
234.647	99.75
234.881	100.75
235.115	100.75
235.349	104.75
235.583	91.75
235.817	96.75
236.051	109.75
236.285	90.75
236.519	87.75
236.753	97.75
236.987	111.75
237.221	118.75
237.455	106.75
237.689	89.75
237.922	99.75
238.156	101.75
238.39	103.75
238.624	92.75
238.858	106.75
239.091	92.75
239.325	98.75
239.559	105.75
239.793	110.75
240.027	107.75
240.26	102.75
240.494	100.75
240.728	104.75
240.961	101.75
241.195	106.75
241.429	106.75
241.662	109.75
241.896	114.75
242.13	98.75
242.363	124.75
242.597	120.75
242.83	100.75
243.064	100.75
243.298	110.75
243.531	122.75
243.765	128.75
243.998	105.75
244.232	120.75
244.465	116.75
244.699	124.75
244.932	105.75
245.166	104.75
245.399	122.75
245.633	124.75
245.866	114.75
246.099	117.75
246.333	98.75
246.566	114.75
246.8	110.75
247.033	123.75
247.266	121.75
247.5	115.75
247.733	121.75
247.966	124.75
248.2	121.75
248.433	138.75
248.666	110.75
248.899	130.75
249.133	103.75
249.366	118.75
249.599	112.75
249.832	126.75
250.066	114.75
250.299	125.75
250.532	119.75
250.765	128.75
250.998	117.75
251.231	124.75
251.465	130.75
251.698	124.75
251.931	119.75
252.164	121.75
252.397	125.75
252.63	128.75
252.863	128.75
253.096	115.75
253.329	123.75
253.562	132.75
253.795	119.75
254.028	142.75
254.261	128.75
254.494	128.75
254.727	138.75
254.96	138.75
255.193	138.75
255.426	125.75
255.659	136.75
255.892	125.75
256.124	142.75
256.357	130.75
256.59	130.75
256.823	136.75
257.056	135.75
257.289	142.75
257.521	130.75
257.754	153.75
257.987	140.75
258.22	141.75
258.452	134.75
258.685	129.75
258.918	133.75
259.151	141.75
259.383	134.75
259.616	130.75
259.849	141.75
260.081	159.75
260.314	151.75
260.547	154.75
260.779	134.75
261.012	154.75
261.244	135.75
261.477	154.75
261.71	142.75
261.942	150.75
262.175	141.75
262.407	155.75
262.64	154.75
262.872	158.75
263.105	147.75
263.337	142.75
263.57	135.75
263.802	155.75
264.035	150.75
264.267	154.75
264.499	149.75
264.732	156.75
264.964	148.75
265.197	150.75
265.429	153.75
265.661	157.75
265.894	149.75
266.126	148.75
266.358	153.75
266.591	160.75
266.823	166.75
267.055	156.75
267.287	162.75
267.52	144.75
267.752	133.75
267.984	134.75
268.216	152.75
268.448	148.75
268.681	145.75
268.913	155.75
269.145	161.75
269.377	154.75
269.609	169.75
269.841	163.75
270.073	152.75
270.306	146.75
270.538	152.75
270.77	163.75
271.002	156.75
271.234	160.75
271.466	174.75
271.698	172.75
271.93	157.75
272.162	172.75
272.394	165.75
272.626	182.75
272.858	164.75
273.09	167.75
273.322	170.75
273.553	174.75
273.785	180.75
274.017	171.75
274.249	165.75
274.481	181.75
274.713	182.75
274.945	180.75
275.176	180.75
275.408	179.75
275.64	187.75
275.872	171.75
276.104	169.75
276.335	156.75
276.567	178.75
276.799	162.75
277.031	177.75
277.262	165.75
277.494	178.75
277.726	183.75
277.957	172.75
278.189	182.75
278.421	164.75
278.652	181.75
278.884	184.75
279.115	181.75
279.347	188.75
279.579	173.75
279.81	191.75
280.042	192.75
280.273	178.75
280.505	182.75
280.736	169.75
280.968	170.75
281.199	189.75
281.431	189.75
281.662	189.75
281.894	202.75
282.125	190.75
282.356	184.75
282.588	181.75
282.819	192.75
283.051	192.75
283.282	183.75
283.513	180.75
283.745	193.75
283.976	177.75
284.207	180.75
284.439	190.75
284.67	173.75
284.901	192.75
285.132	203.75
285.364	196.75
285.595	200.75
285.826	183.75
286.057	190.75
286.288	172.75
286.52	186.75
286.751	188.75
286.982	191.75
287.213	202.75
287.444	207.75
287.675	196.75
287.906	191.75
288.138	190.75
288.369	212.75
288.6	199.75
288.831	194.75
289.062	204.75
289.293	213.75
289.524	208.75
289.755	205.75
289.986	203.75
290.217	193.75
290.448	209.75
290.679	201.75
290.91	211.75
291.141	207.75
291.371	193.75
291.602	205.75
291.833	215.75
292.064	221.75
292.295	201.75
292.526	207.75
292.757	209.75
292.987	193.75
293.218	218.75
293.449	199.75
293.68	198.75
293.91	216.75
294.141	202.75
294.372	208.75
294.603	200.75
294.833	212.75
295.064	190.75
295.295	220.75
295.525	224.75
295.756	215.75
295.987	216.75
296.217	210.75
296.448	209.75
296.679	205.75
296.909	218.75
297.14	209.75
297.37	223.75
297.601	202.75
297.831	203.75
298.062	232.75
298.292	211.75
298.523	212.75
298.753	234.75
298.984	221.75
299.214	215.75
299.445	224.75
299.675	212.75
299.905	220.75
300.136	226.75
300.366	226.75
300.597	210.75
300.827	223.75
301.057	238.75
301.288	232.75
301.518	222.75
301.748	229.75
301.979	238.75
302.209	228.75
302.439	216.75
302.669	226.75
302.9	220.75
303.13	223.75
303.36	240.75
303.59	229.75
303.82	243.75
304.051	223.75
304.281	225.75
304.511	232.75
304.741	240.75
304.971	227.75
305.201	231.75
305.431	236.75
305.661	231.75
305.891	229.75
306.121	225.75
306.352	241.75
306.582	226.75
306.812	244.75
307.042	219.75
307.272	216.75
307.502	228.75
307.731	236.75
307.961	218.75
308.191	234.75
308.421	233.75
308.651	249.75
308.881	257.75
309.111	248.75
309.341	240.75
309.571	231.75
309.8	242.75
310.03	245.75
310.26	223.75
310.49	217.75
310.72	233.75
310.949	232.75
311.179	225.75
311.409	227.75
311.639	263.75
311.868	237.75
312.098	242.75
312.328	229.75
312.557	249.75
312.787	232.75
313.017	252.75
313.246	244.75
313.476	264.75
313.706	227.75
313.935	266.75
314.165	250.75
314.394	250.75
314.624	230.75
314.853	243.75
315.083	250.75
315.312	243.75
315.542	260.75
315.771	269.75
316.001	260.75
316.23	237.75
316.46	262.75
316.689	257.75
316.919	249.75
317.148	253.75
317.377	257.75
317.607	246.75
317.836	264.75
318.065	253.75
318.295	266.75
318.524	252.75
318.753	253.75
318.983	273.75
319.212	262.75
319.441	255.75
319.67	252.75
319.9	251.75
320.129	236.75
320.358	269.75
320.587	258.75
320.816	257.75
321.046	261.75
321.275	262.75
321.504	254.75
321.733	270.75
321.962	272.75
322.191	277.75
322.42	274.75
322.649	265.75
322.878	264.75
323.108	261.75
323.337	261.75
323.566	272.75
323.795	265.75
324.024	266.75
324.253	263.75
324.482	242.75
324.71	243.75
324.939	264.75
325.168	276.75
325.397	280.75
325.626	288.75
325.855	273.75
326.084	277.75
326.313	266.75
326.542	271.75
326.77	278.75
326.999	280.75
327.228	277.75
327.457	264.75
327.686	253.75
327.914	271.75
328.143	272.75
328.372	294.75
328.6	270.75
328.829	276.75
329.058	272.75
329.287	278.75
329.515	284.75
329.744	278.75
329.972	297.75
330.201	281.75
330.43	283.75
330.658	285.75
330.887	299.75
331.115	288.75
331.344	280.75
331.572	289.75
331.801	300.75
332.03	300.75
332.258	280.75
332.486	281.75
332.715	282.75
332.943	300.75
333.172	300.75
333.4	324.75
333.629	312.75
333.857	325.75
334.085	331.75
334.314	325.75
334.542	317.75
334.771	321.75
334.999	320.75
335.227	332.75
335.455	341.75
335.684	328.75
335.912	308.75
336.14	318.75
336.369	326.75
336.597	319.75
336.825	319.75
337.053	308.75
337.281	302.75
337.51	318.75
337.738	290.75
337.966	301.75
338.194	302.75
338.422	313.75
338.65	295.75
338.878	301.75
339.106	297.75
339.334	306.75
339.562	304.75
339.79	292.75
340.018	298.75
340.246	283.75
340.474	307.75
340.702	294.75
340.93	288.75
341.158	288.75
341.386	300.75
341.614	286.75
341.842	291.75
342.07	301.75
342.298	284.75
342.526	308.75
342.754	280.75
342.981	280.75
343.209	279.75
343.437	303.75
343.665	323.75
343.893	313.75
344.12	317.75
344.348	312.75
344.576	319.75
344.804	293.75
345.031	293.75
345.259	286.75
345.487	308.75
345.714	277.75
345.942	292.75
346.17	290.75
346.397	298.75
346.625	268.75
346.853	293.75
347.08	282.75
347.308	286.75
347.535	292.75
347.763	279.75
347.99	288.75
348.218	278.75
348.445	287.75
348.673	280.75
348.9	308.75
349.128	283.75
349.355	294.75
349.583	284.75
349.81	274.75
350.037	285.75
350.265	303.75
350.492	279.75
350.72	295.75
350.947	285.75
351.174	284.75
351.402	273.75
351.629	297.75
351.856	276.75
352.083	282.75
352.311	285.75
352.538	281.75
352.765	268.75
352.992	297.75
353.22	277.75
353.447	291.75
353.674	290.75
353.901	274.75
354.128	284.75
354.355	288.75
354.583	280.75
354.81	277.75
355.037	281.75
355.264	269.75
355.491	284.75
355.718	274.75
355.945	288.75
356.172	279.75
356.399	280.75
356.626	276.75
356.853	277.75
357.08	295.75
357.307	299.75
357.534	282.75
357.761	295.75
357.988	266.75
358.215	290.75
358.441	288.75
358.668	299.75
358.895	297.75
359.122	296.75
359.349	265.75
359.576	285.75
359.802	269.75
360.029	284.75
360.256	288.75
360.483	287.75
360.709	284.75
360.936	288.75
361.163	295.75
361.39	281.75
361.616	287.75
361.843	297.75
362.07	300.75
362.296	275.75
362.523	292.75
362.749	305.75
362.976	277.75
363.203	288.75
363.429	285.75
363.656	266.75
363.882	297.75
364.109	297.75
364.335	288.75
364.562	294.75
364.788	301.75
365.015	282.75
365.241	301.75
365.468	294.75
365.694	291.75
365.92	301.75
366.147	288.75
366.373	306.75
366.599	290.75
366.826	295.75
367.052	289.75
367.278	320.75
367.505	304.75
367.731	315.75
367.957	317.75
368.184	307.75
368.41	304.75
368.636	287.75
368.862	290.75
369.089	294.75
369.315	302.75
369.541	285.75
369.767	306.75
369.993	306.75
370.219	306.75
370.445	293.75
370.672	318.75
370.898	315.75
371.124	311.75
371.35	299.75
371.576	314.75
371.802	313.75
372.028	311.75
372.254	306.75
372.48	322.75
372.706	312.75
372.932	312.75
373.158	314.75
373.384	309.75
373.61	336.75
373.835	318.75
374.061	306.75
374.287	324.75
374.513	327.75
374.739	313.75
374.965	322.75
375.191	322.75
375.416	328.75
375.642	339.75
375.868	329.75
376.094	329.75
376.319	298.75
376.545	341.75
376.771	323.75
376.997	322.75
377.222	306.75
377.448	305.75
377.674	315.75
377.899	301.75
378.125	326.75
378.35	304.75
378.576	321.75
378.802	282.75
379.027	304.75
379.253	330.75
379.478	297.75
379.704	317.75
379.929	299.75
380.155	309.75
380.38	307.75
380.606	309.75
380.831	319.75
381.057	310.75
381.282	302.75
381.507	306.75
381.733	318.75
381.958	306.75
382.184	318.75
382.409	332.75
382.634	324.75
382.86	328.75
383.085	336.75
383.31	330.75
383.535	337.75
383.761	332.75
383.986	318.75
384.211	333.75
384.436	348.75
384.662	339.75
384.887	328.75
385.112	324.75
385.337	325.75
385.562	357.75
385.787	351.75
386.013	350.75
386.238	340.75
386.463	349.75
386.688	339.75
386.913	322.75
387.138	341.75
387.363	332.75
387.588	360.75
387.813	346.75
388.038	377.75
388.263	341.75
388.488	355.75
388.713	363.75
388.938	336.75
389.163	363.75
389.387	362.75
389.612	332.75
389.837	335.75
390.062	359.75
390.287	348.75
390.512	347.75
390.736	360.75
390.961	361.75
391.186	360.75
391.411	379.75
391.636	361.75
391.86	364.75
392.085	360.75
392.31	372.75
392.534	383.75
392.759	368.75
392.984	364.75
393.208	378.75
393.433	370.75
393.658	348.75
393.882	370.75
394.107	368.75
394.331	379.75
394.556	360.75
394.78	365.75
395.005	356.75
395.229	353.75
395.454	357.75
395.678	379.75
395.903	376.75
396.127	381.75
396.352	394.75
396.576	365.75
396.801	363.75
397.025	378.75
397.249	392.75
397.474	384.75
397.698	380.75
397.922	374.75
398.147	390.75
398.371	387.75
398.595	408.75
398.82	393.75
399.044	398.75
399.268	428.75
399.492	452.75
399.717	448.75
399.941	469.75
400.165	464.75
400.389	432.75
400.613	429.75
400.837	408.75
401.062	447.75
401.286	413.75
401.51	422.75
401.734	384.75
401.958	417.75
402.182	400.75
402.406	405.75
402.63	406.75
402.854	408.75
403.078	416.75
403.302	410.75
403.526	405.75
403.75	397.75
403.974	409.75
404.198	422.75
404.422	420.75
404.645	419.75
404.869	421.75
405.093	427.75
405.317	422.75
405.541	408.75
405.765	404.75
405.988	398.75
406.212	439.75
406.436	430.75
406.66	453.75
406.883	425.75
407.107	455.75
407.331	451.75
407.555	453.75
407.778	475.75
408.002	446.75
408.226	443.75
408.449	432.75
408.673	441.75
408.896	438.75
409.12	424.75
409.344	442.75
409.567	429.75
409.791	428.75
410.014	419.75
410.238	423.75
410.461	411.75
410.685	443.75
410.908	446.75
411.132	420.75
411.355	427.75
411.578	408.75
411.802	412.75
412.025	413.75
412.249	427.75
412.472	421.75
412.695	421.75
412.919	438.75
413.142	419.75
413.365	424.75
413.589	397.75
413.812	393.75
414.035	412.75
414.258	402.75
414.482	398.75
414.705	412.75
414.928	398.75
415.151	418.75
415.374	392.75
415.597	422.75
415.821	403.75
416.044	396.75
416.267	386.75
416.49	389.75
416.713	392.75
416.936	420.75
417.159	392.75
417.382	382.75
417.605	404.75
417.828	394.75
418.051	406.75
418.274	394.75
418.497	390.75
418.72	381.75
418.943	384.75
419.166	405.75
419.389	418.75
419.611	408.75
419.834	392.75
420.057	408.75
420.28	405.75
420.503	394.75
420.726	397.75
420.948	398.75
421.171	379.75
421.394	414.75
421.617	383.75
421.839	389.75
422.062	399.75
422.285	389.75
422.507	405.75
422.73	393.75
422.953	399.75
423.175	402.75
423.398	382.75
423.621	401.75
423.843	389.75
424.066	376.75
424.288	381.75
424.511	384.75
424.733	386.75
424.956	391.75
425.178	384.75
425.401	389.75
425.623	377.75
425.846	411.75
426.068	382.75
426.291	363.75
426.513	384.75
426.735	374.75
426.958	392.75
427.18	385.75
427.402	370.75
427.625	386.75
427.847	385.75
428.069	363.75
428.292	380.75
428.514	356.75
428.736	376.75
428.958	378.75
429.181	369.75
429.403	379.75
429.625	362.75
429.847	368.75
430.069	353.75
430.292	374.75
430.514	358.75
430.736	374.75
430.958	366.75
431.18	388.75
431.402	372.75
431.624	356.75
431.846	362.75
432.068	352.75
432.29	354.75
432.512	358.75
432.734	374.75
432.956	368.75
433.178	356.75
433.4	375.75
433.622	394.75
433.844	375.75
434.066	388.75
434.287	379.75
434.509	394.75
434.731	392.75
434.953	388.75
435.175	385.75
435.397	398.75
435.618	390.75
435.84	378.75
436.062	364.75
436.284	373.75
436.505	351.75
436.727	375.75
436.949	372.75
437.17	348.75
437.392	349.75
437.614	365.75
437.835	357.75
438.057	359.75
438.278	353.75
438.5	339.75
438.721	352.75
438.943	369.75
439.165	356.75
439.386	370.75
439.608	360.75
439.829	363.75
440.05	376.75
440.272	366.75
440.493	376.75
440.715	388.75
440.936	364.75
441.158	380.75
441.379	379.75
441.6	384.75
441.822	368.75
442.043	371.75
442.264	374.75
442.486	371.75
442.707	372.75
442.928	388.75
443.149	387.75
443.371	382.75
443.592	391.75
443.813	377.75
444.034	389.75
444.255	395.75
444.476	406.75
444.698	406.75
444.919	405.75
445.14	469.75
445.361	443.75
445.582	384.75
445.803	401.75
446.024	376.75
446.245	361.75
446.466	372.75
446.687	376.75
446.908	363.75
447.129	368.75
447.35	376.75
447.571	353.75
447.792	361.75
448.013	348.75
448.234	359.75
448.455	342.75
448.675	331.75
448.896	342.75
449.117	328.75
449.338	340.75
449.559	367.75
449.779	322.75
450	333.75
450.221	347.75
450.442	341.75
450.662	323.75
450.883	333.75
451.104	355.75
451.324	345.75
451.545	329.75
451.766	358.75
451.986	353.75
452.207	341.75
452.428	355.75
452.648	326.75
452.869	337.75
453.089	328.75
453.31	340.75
453.53	327.75
453.751	324.75
453.971	325.75
454.192	338.75
454.412	307.75
454.633	327.75
454.853	319.75
455.073	326.75
455.294	323.75
455.514	340.75
455.734	339.75
455.955	326.75
456.175	331.75
456.395	326.75
456.616	330.75
456.836	338.75
457.056	338.75
457.276	327.75
457.497	334.75
457.717	322.75
457.937	341.75
458.157	339.75
458.377	332.75
458.598	346.75
458.818	354.75
459.038	350.75
459.258	359.75
459.478	358.75
459.698	370.75
459.918	358.75
460.138	380.75
460.358	368.75
460.578	385.75
460.798	399.75
461.018	399.75
461.238	404.75
461.458	399.75
461.678	398.75
461.898	398.75
462.118	409.75
462.338	406.75
462.558	413.75
462.777	449.75
462.997	454.75
463.217	450.75
463.437	449.75
463.657	435.75
463.876	428.75
464.096	428.75
464.316	422.75
464.536	410.75
464.755	408.75
464.975	419.75
465.195	406.75
465.414	396.75
465.634	382.75
465.854	374.75
466.073	392.75
466.293	380.75
466.512	370.75
466.732	368.75
466.951	373.75
467.171	350.75
467.391	376.75
467.61	367.75
467.829	372.75
468.049	350.75
468.268	368.75
468.488	372.75
468.707	353.75
468.927	363.75
469.146	344.75
469.365	350.75
469.585	372.75
469.804	358.75
470.023	344.75
470.243	368.75
470.462	363.75
470.681	368.75
470.901	362.75
471.12	370.75
471.339	362.75
471.558	338.75
471.777	349.75
471.997	353.75
472.216	362.75
472.435	355.75
472.654	364.75
472.873	352.75
473.092	370.75
473.311	364.75
473.53	370.75
473.749	364.75
473.968	328.75
474.187	347.75
474.406	375.75
474.625	374.75
474.844	376.75
475.063	356.75
475.282	356.75
475.501	373.75
475.72	374.75
475.939	373.75
476.158	384.75
476.377	375.75
476.596	403.75
476.814	381.75
477.033	384.75
477.252	385.75
477.471	390.75
477.69	381.75
477.908	417.75
478.127	413.75
478.346	412.75
478.564	422.75
478.783	407.75
479.002	413.75
479.22	406.75
479.439	424.75
479.658	432.75
479.876	424.75
480.095	442.75
480.313	458.75
480.532	441.75
480.751	436.75
480.969	416.75
481.188	429.75
481.406	429.75
481.624	413.75
481.843	435.75
482.061	440.75
482.28	423.75
482.498	421.75
482.717	429.75
482.935	410.75
483.153	427.75
483.372	404.75
483.59	432.75
483.808	429.75
484.027	425.75
484.245	441.75
484.463	435.75
484.681	435.75
484.9	425.75
485.118	436.75
485.336	434.75
485.554	454.75
485.772	450.75
485.99	439.75
486.209	448.75
486.427	450.75
486.645	436.75
486.863	451.75
487.081	429.75
487.299	434.75
487.517	423.75
487.735	436.75
487.953	458.75
488.171	438.75
488.389	445.75
488.607	430.75
488.825	428.75
489.043	433.75
489.261	440.75
489.479	451.75
489.696	450.75
489.914	422.75
490.132	437.75
490.35	444.75
490.568	465.75
490.786	440.75
491.003	440.75
491.221	424.75
491.439	443.75
491.657	441.75
491.874	427.75
492.092	452.75
492.31	453.75
492.527	459.75
492.745	449.75
492.963	445.75
493.18	426.75
493.398	445.75
493.615	433.75
493.833	445.75
494.05	468.75
494.268	465.75
494.485	458.75
494.703	442.75
494.92	477.75
495.138	440.75
495.355	455.75
495.573	464.75
495.79	469.75
496.008	456.75
496.225	488.75
496.442	460.75
496.66	470.75
496.877	492.75
497.094	486.75
497.312	485.75
497.529	475.75
497.746	496.75
497.963	485.75
498.181	526.75
498.398	520.75
498.615	549.75
498.832	549.75
499.049	569.75
499.267	624.75
499.484	628.75
499.701	625.75
499.918	695.75
500.135	727.75
500.352	770.75
500.569	759.75
500.786	742.75
501.003	733.75
501.22	702.75
501.437	658.75
501.654	647.75
501.871	634.75
