Data from Fe(NO3)3@0.05M.TitratingCurve.Agarose3%dH2O.NegLispCup.LampEnergy10.LIBS07252019_HRD10591_16-45-55-334.txt Node
Date: Thu Jul 25 16:45:55 EDT 2019
User: cochatt
Spectrometer: HR+D1059
Trigger mode: 1
Integration Time (sec): 1.000000E-1
Scans to average: 1
Electric dark correction enabled: true
Nonlinearity correction enabled: false
Boxcar width: 0
XAxis mode: Wavelengths
Number of Pixels in Spectrum: 2048
>>>>>Begin Spectral Data<<<<<
223.165	-24.06
223.4	-24.06
223.635	-24.06
223.869	-17.06
224.104	-19.06
224.338	-12.06
224.573	-9.06
224.808	-11.06
225.042	-20.06
225.277	-10.06
225.511	6.94
225.746	1.94
225.98	0.94
226.215	0.94
226.449	10.94
226.683	27.94
226.918	37.94
227.152	34.94
227.387	26.94
227.621	35.94
227.856	56.94
228.09	48.94
228.324	43.94
228.559	55.94
228.793	59.94
229.027	102.94
229.262	117.94
229.496	113.94
229.73	126.94
229.964	126.94
230.199	127.94
230.433	122.94
230.667	130.94
230.901	130.94
231.136	119.94
231.37	122.94
231.604	142.94
231.838	132.94
232.072	156.94
232.306	146.94
232.541	155.94
232.775	147.94
233.009	128.94
233.243	146.94
233.477	148.94
233.711	146.94
233.945	155.94
234.179	149.94
234.413	169.94
234.647	162.94
234.881	183.94
235.115	167.94
235.349	171.94
235.583	161.94
235.817	155.94
236.051	166.94
236.285	167.94
236.519	175.94
236.753	182.94
236.987	181.94
237.221	155.94
237.455	167.94
237.689	164.94
237.922	198.94
238.156	191.94
238.39	180.94
238.624	207.94
238.858	202.94
239.091	184.94
239.325	169.94
239.559	179.94
239.793	198.94
240.027	200.94
240.26	219.94
240.494	207.94
240.728	202.94
240.961	193.94
241.195	218.94
241.429	203.94
241.662	200.94
241.896	186.94
242.13	198.94
242.363	192.94
242.597	202.94
242.83	196.94
243.064	201.94
243.298	191.94
243.531	211.94
243.765	202.94
243.998	224.94
244.232	216.94
244.465	210.94
244.699	209.94
244.932	206.94
245.166	230.94
245.399	208.94
245.633	222.94
245.866	216.94
246.099	223.94
246.333	229.94
246.566	220.94
246.8	225.94
247.033	227.94
247.266	241.94
247.5	236.94
247.733	231.94
247.966	238.94
248.2	234.94
248.433	246.94
248.666	268.94
248.899	254.94
249.133	261.94
249.366	267.94
249.599	288.94
249.832	271.94
250.066	279.94
250.299	278.94
250.532	253.94
250.765	249.94
250.998	242.94
251.231	250.94
251.465	251.94
251.698	251.94
251.931	261.94
252.164	284.94
252.397	279.94
252.63	277.94
252.863	284.94
253.096	282.94
253.329	294.94
253.562	280.94
253.795	302.94
254.028	284.94
254.261	324.94
254.494	307.94
254.727	299.94
254.96	285.94
255.193	303.94
255.426	308.94
255.659	284.94
255.892	286.94
256.124	281.94
256.357	302.94
256.59	295.94
256.823	308.94
257.056	321.94
257.289	298.94
257.521	311.94
257.754	312.94
257.987	316.94
258.22	294.94
258.452	305.94
258.685	326.94
258.918	343.94
259.151	344.94
259.383	320.94
259.616	338.94
259.849	349.94
260.081	376.94
260.314	422.94
260.547	360.94
260.779	346.94
261.012	347.94
261.244	344.94
261.477	378.94
261.71	388.94
261.942	346.94
262.175	356.94
262.407	340.94
262.64	353.94
262.872	362.94
263.105	370.94
263.337	409.94
263.57	385.94
263.802	337.94
264.035	363.94
264.267	350.94
264.499	353.94
264.732	344.94
264.964	343.94
265.197	336.94
265.429	338.94
265.661	338.94
265.894	346.94
266.126	345.94
266.358	355.94
266.591	345.94
266.823	348.94
267.055	358.94
267.287	363.94
267.52	352.94
267.752	362.94
267.984	377.94
268.216	380.94
268.448	376.94
268.681	383.94
268.913	372.94
269.145	374.94
269.377	359.94
269.609	376.94
269.841	404.94
270.073	388.94
270.306	387.94
270.538	390.94
270.77	396.94
271.002	393.94
271.234	391.94
271.466	396.94
271.698	393.94
271.93	399.94
272.162	404.94
272.394	384.94
272.626	417.94
272.858	415.94
273.09	405.94
273.322	420.94
273.553	433.94
273.785	440.94
274.017	459.94
274.249	485.94
274.481	481.94
274.713	504.94
274.945	531.94
275.176	519.94
275.408	504.94
275.64	474.94
275.872	499.94
276.104	460.94
276.335	428.94
276.567	409.94
276.799	438.94
277.031	428.94
277.262	450.94
277.494	427.94
277.726	415.94
277.957	433.94
278.189	456.94
278.421	440.94
278.652	436.94
278.884	439.94
279.115	459.94
279.347	431.94
279.579	464.94
279.81	426.94
280.042	436.94
280.273	467.94
280.505	465.94
280.736	444.94
280.968	440.94
281.199	442.94
281.431	468.94
281.662	438.94
281.894	456.94
282.125	451.94
282.356	458.94
282.588	451.94
282.819	450.94
283.051	456.94
283.282	460.94
283.513	464.94
283.745	466.94
283.976	470.94
284.207	465.94
284.439	488.94
284.67	506.94
284.901	460.94
285.132	482.94
285.364	484.94
285.595	503.94
285.826	478.94
286.057	490.94
286.288	481.94
286.52	481.94
286.751	486.94
286.982	503.94
287.213	510.94
287.444	485.94
287.675	480.94
287.906	505.94
288.138	494.94
288.369	499.94
288.6	488.94
288.831	489.94
289.062	474.94
289.293	486.94
289.524	524.94
289.755	491.94
289.986	485.94
290.217	488.94
290.448	513.94
290.679	506.94
290.91	512.94
291.141	498.94
291.371	486.94
291.602	518.94
291.833	513.94
292.064	525.94
292.295	502.94
292.526	498.94
292.757	516.94
292.987	497.94
293.218	501.94
293.449	496.94
293.68	505.94
293.91	499.94
294.141	516.94
294.372	496.94
294.603	520.94
294.833	509.94
295.064	523.94
295.295	543.94
295.525	514.94
295.756	521.94
295.987	519.94
296.217	528.94
296.448	521.94
296.679	531.94
296.909	547.94
297.14	541.94
297.37	537.94
297.601	550.94
297.831	540.94
298.062	538.94
298.292	538.94
298.523	542.94
298.753	572.94
298.984	547.94
299.214	558.94
299.445	558.94
299.675	548.94
299.905	564.94
300.136	564.94
300.366	547.94
300.597	551.94
300.827	563.94
301.057	554.94
301.288	553.94
301.518	560.94
301.748	558.94
301.979	581.94
302.209	608.94
302.439	591.94
302.669	582.94
302.9	556.94
303.13	570.94
303.36	570.94
303.59	562.94
303.82	573.94
304.051	596.94
304.281	572.94
304.511	583.94
304.741	575.94
304.971	587.94
305.201	570.94
305.431	587.94
305.661	591.94
305.891	588.94
306.121	586.94
306.352	582.94
306.582	574.94
306.812	577.94
307.042	575.94
307.272	555.94
307.502	563.94
307.731	587.94
307.961	585.94
308.191	572.94
308.421	580.94
308.651	567.94
308.881	572.94
309.111	579.94
309.341	580.94
309.571	575.94
309.8	582.94
310.03	585.94
310.26	592.94
310.49	562.94
310.72	595.94
310.949	579.94
311.179	575.94
311.409	575.94
311.639	608.94
311.868	617.94
312.098	583.94
312.328	636.94
312.557	626.94
312.787	600.94
313.017	582.94
313.246	618.94
313.476	617.94
313.706	599.94
313.935	608.94
314.165	626.94
314.394	616.94
314.624	620.94
314.853	626.94
315.083	619.94
315.312	613.94
315.542	634.94
315.771	610.94
316.001	619.94
316.23	632.94
316.46	634.94
316.689	608.94
316.919	603.94
317.148	639.94
317.377	632.94
317.607	620.94
317.836	623.94
318.065	620.94
318.295	638.94
318.524	642.94
318.753	621.94
318.983	654.94
319.212	645.94
319.441	631.94
319.67	637.94
319.9	640.94
320.129	617.94
320.358	640.94
320.587	636.94
320.816	640.94
321.046	654.94
321.275	637.94
321.504	642.94
321.733	638.94
321.962	638.94
322.191	649.94
322.42	641.94
322.649	650.94
322.878	658.94
323.108	648.94
323.337	681.94
323.566	643.94
323.795	662.94
324.024	670.94
324.253	656.94
324.482	659.94
324.71	642.94
324.939	673.94
325.168	681.94
325.397	684.94
325.626	667.94
325.855	662.94
326.084	687.94
326.313	678.94
326.542	700.94
326.77	703.94
326.999	698.94
327.228	668.94
327.457	659.94
327.686	678.94
327.914	704.94
328.143	682.94
328.372	690.94
328.6	714.94
328.829	690.94
329.058	696.94
329.287	675.94
329.515	680.94
329.744	693.94
329.972	688.94
330.201	687.94
330.43	684.94
330.658	721.94
330.887	732.94
331.115	692.94
331.344	708.94
331.572	704.94
331.801	712.94
332.03	729.94
332.258	741.94
332.486	737.94
332.715	772.94
332.943	751.94
333.172	752.94
333.4	782.94
333.629	765.94
333.857	790.94
334.085	800.94
334.314	797.94
334.542	815.94
334.771	819.94
334.999	793.94
335.227	830.94
335.455	824.94
335.684	812.94
335.912	801.94
336.14	803.94
336.369	788.94
336.597	801.94
336.825	802.94
337.053	792.94
337.281	825.94
337.51	794.94
337.738	790.94
337.966	784.94
338.194	783.94
338.422	776.94
338.65	769.94
338.878	754.94
339.106	751.94
339.334	747.94
339.562	750.94
339.79	723.94
340.018	726.94
340.246	731.94
340.474	721.94
340.702	735.94
340.93	754.94
341.158	747.94
341.386	743.94
341.614	746.94
341.842	729.94
342.07	751.94
342.298	726.94
342.526	715.94
342.754	758.94
342.981	736.94
343.209	741.94
343.437	758.94
343.665	762.94
343.893	789.94
344.12	806.94
344.348	826.94
344.576	793.94
344.804	784.94
345.031	779.94
345.259	747.94
345.487	750.94
345.714	754.94
345.942	737.94
346.17	704.94
346.397	721.94
346.625	729.94
346.853	716.94
347.08	740.94
347.308	740.94
347.535	691.94
347.763	734.94
347.99	725.94
348.218	712.94
348.445	712.94
348.673	697.94
348.9	721.94
349.128	698.94
349.355	742.94
349.583	712.94
349.81	705.94
350.037	681.94
350.265	693.94
350.492	686.94
350.72	685.94
350.947	703.94
351.174	669.94
351.402	700.94
351.629	694.94
351.856	687.94
352.083	694.94
352.311	709.94
352.538	723.94
352.765	709.94
352.992	684.94
353.22	674.94
353.447	678.94
353.674	702.94
353.901	674.94
354.128	689.94
354.355	703.94
354.583	689.94
354.81	681.94
355.037	708.94
355.264	698.94
355.491	698.94
355.718	709.94
355.945	697.94
356.172	699.94
356.399	715.94
356.626	726.94
356.853	748.94
357.08	716.94
357.307	726.94
357.534	719.94
357.761	721.94
357.988	709.94
358.215	766.94
358.441	738.94
358.668	712.94
358.895	702.94
359.122	705.94
359.349	715.94
359.576	682.94
359.802	683.94
360.029	689.94
360.256	726.94
360.483	713.94
360.709	714.94
360.936	736.94
361.163	710.94
361.39	728.94
361.616	704.94
361.843	717.94
362.07	725.94
362.296	745.94
362.523	695.94
362.749	704.94
362.976	705.94
363.203	742.94
363.429	705.94
363.656	729.94
363.882	713.94
364.109	711.94
364.335	717.94
364.562	714.94
364.788	699.94
365.015	740.94
365.241	702.94
365.468	708.94
365.694	704.94
365.92	710.94
366.147	718.94
366.373	709.94
366.599	718.94
366.826	722.94
367.052	737.94
367.278	728.94
367.505	735.94
367.731	731.94
367.957	711.94
368.184	731.94
368.41	751.94
368.636	761.94
368.862	730.94
369.089	741.94
369.315	747.94
369.541	764.94
369.767	764.94
369.993	769.94
370.219	759.94
370.445	752.94
370.672	761.94
370.898	757.94
371.124	807.94
371.35	778.94
371.576	770.94
371.802	803.94
372.028	823.94
372.254	822.94
372.48	800.94
372.706	799.94
372.932	801.94
373.158	795.94
373.384	824.94
373.61	862.94
373.835	904.94
374.061	829.94
374.287	792.94
374.513	823.94
374.739	886.94
374.965	868.94
375.191	882.94
375.416	827.94
375.642	800.94
375.868	850.94
376.094	826.94
376.319	786.94
376.545	837.94
376.771	830.94
376.997	809.94
377.222	806.94
377.448	801.94
377.674	784.94
377.899	770.94
378.125	771.94
378.35	776.94
378.576	775.94
378.802	789.94
379.027	814.94
379.253	789.94
379.478	784.94
379.704	797.94
379.929	786.94
380.155	788.94
380.38	828.94
380.606	804.94
380.831	773.94
381.057	789.94
381.282	806.94
381.507	831.94
381.733	844.94
381.958	825.94
382.184	841.94
382.409	892.94
382.634	840.94
382.86	887.94
383.085	842.94
383.31	834.94
383.535	851.94
383.761	847.94
383.986	859.94
384.211	890.94
384.436	873.94
384.662	853.94
384.887	886.94
385.112	864.94
385.337	880.94
385.562	899.94
385.787	909.94
386.013	928.94
386.238	931.94
386.463	932.94
386.688	943.94
386.913	896.94
387.138	899.94
387.363	924.94
387.588	930.94
387.813	947.94
388.038	945.94
388.263	935.94
388.488	938.94
388.713	949.94
388.938	935.94
389.163	939.94
389.387	949.94
389.612	936.94
389.837	931.94
390.062	933.94
390.287	954.94
390.512	956.94
390.736	932.94
390.961	924.94
391.186	927.94
391.411	966.94
391.636	970.94
391.86	1004.94
392.085	981.94
392.31	1003.94
392.534	981.94
392.759	1002.94
392.984	984.94
393.208	999.94
393.433	1003.94
393.658	985.94
393.882	998.94
394.107	979.94
394.331	983.94
394.556	1001.94
394.78	968.94
395.005	983.94
395.229	983.94
395.454	998.94
395.678	1000.94
395.903	1006.94
396.127	1012.94
396.352	1010.94
396.576	1025.94
396.801	1030.94
397.025	1041.94
397.249	1024.94
397.474	1032.94
397.698	1059.94
397.922	1048.94
398.147	1083.94
398.371	1078.94
398.595	1106.94
398.82	1128.94
399.044	1175.94
399.268	1173.94
399.492	1242.94
399.717	1250.94
399.941	1300.94
400.165	1279.94
400.389	1288.94
400.613	1243.94
400.837	1217.94
401.062	1200.94
401.286	1187.94
401.51	1158.94
401.734	1123.94
401.958	1162.94
402.182	1146.94
402.406	1121.94
402.63	1120.94
402.854	1143.94
403.078	1104.94
403.302	1119.94
403.526	1098.94
403.75	1129.94
403.974	1148.94
404.198	1129.94
404.422	1148.94
404.645	1151.94
404.869	1195.94
405.093	1162.94
405.317	1177.94
405.541	1180.94
405.765	1176.94
405.988	1199.94
406.212	1194.94
406.436	1222.94
406.66	1257.94
406.883	1232.94
407.107	1225.94
407.331	1257.94
407.555	1317.94
407.778	1305.94
408.002	1277.94
408.226	1282.94
408.449	1285.94
408.673	1258.94
408.896	1282.94
409.12	1234.94
409.344	1268.94
409.567	1232.94
409.791	1252.94
410.014	1226.94
410.238	1207.94
410.461	1230.94
410.685	1199.94
410.908	1214.94
411.132	1210.94
411.355	1187.94
411.578	1180.94
411.802	1175.94
412.025	1188.94
412.249	1188.94
412.472	1165.94
412.695	1200.94
412.919	1178.94
413.142	1145.94
413.365	1147.94
413.589	1161.94
413.812	1168.94
414.035	1178.94
414.258	1154.94
414.482	1185.94
414.705	1185.94
414.928	1167.94
415.151	1163.94
415.374	1155.94
415.597	1135.94
415.821	1129.94
416.044	1110.94
416.267	1128.94
416.49	1149.94
416.713	1107.94
416.936	1124.94
417.159	1119.94
417.382	1092.94
417.605	1095.94
417.828	1107.94
418.051	1106.94
418.274	1115.94
418.497	1104.94
418.72	1099.94
418.943	1056.94
419.166	1170.94
419.389	1220.94
419.611	1241.94
419.834	1180.94
420.057	1164.94
420.28	1121.94
420.503	1059.94
420.726	1091.94
420.948	1071.94
421.171	1072.94
421.394	1104.94
421.617	1103.94
421.839	1103.94
422.062	1120.94
422.285	1088.94
422.507	1073.94
422.73	1099.94
422.953	1088.94
423.175	1103.94
423.398	1098.94
423.621	1076.94
423.843	1105.94
424.066	1108.94
424.288	1094.94
424.511	1048.94
424.733	1115.94
424.956	1091.94
425.178	1116.94
425.401	1088.94
425.623	1134.94
425.846	1098.94
426.068	1094.94
426.291	1112.94
426.513	1096.94
426.735	1095.94
426.958	1098.94
427.18	1064.94
427.402	1093.94
427.625	1062.94
427.847	1020.94
428.069	1071.94
428.292	1056.94
428.514	1047.94
428.736	1068.94
428.958	1058.94
429.181	1036.94
429.403	1059.94
429.625	1028.94
429.847	1045.94
430.069	1062.94
430.292	1043.94
430.514	1031.94
430.736	1073.94
430.958	1060.94
431.18	1060.94
431.402	1078.94
431.624	1032.94
431.846	1051.94
432.068	1012.94
432.29	1046.94
432.512	1058.94
432.734	1098.94
432.956	1097.94
433.178	1064.94
433.4	1068.94
433.622	1092.94
433.844	1098.94
434.066	1094.94
434.287	1082.94
434.509	1066.94
434.731	1082.94
434.953	1129.94
435.175	1107.94
435.397	1122.94
435.618	1094.94
435.84	1094.94
436.062	1074.94
436.284	1061.94
436.505	1048.94
436.727	1063.94
436.949	1039.94
437.17	1070.94
437.392	1062.94
437.614	1058.94
437.835	1046.94
438.057	1023.94
438.278	1042.94
438.5	1056.94
438.721	1055.94
438.943	1049.94
439.165	1036.94
439.386	1033.94
439.608	1049.94
439.829	1030.94
440.05	1045.94
440.272	1055.94
440.493	1063.94
440.715	1076.94
440.936	1096.94
441.158	1066.94
441.379	1105.94
441.6	1102.94
441.822	1099.94
442.043	1095.94
442.264	1102.94
442.486	1088.94
442.707	1111.94
442.928	1110.94
443.149	1111.94
443.371	1107.94
443.592	1093.94
443.813	1128.94
444.034	1114.94
444.255	1131.94
444.476	1154.94
444.698	1158.94
444.919	1152.94
445.14	1234.94
445.361	1189.94
445.582	1171.94
445.803	1114.94
446.024	1087.94
446.245	1123.94
446.466	1059.94
446.687	1050.94
446.908	1068.94
447.129	1038.94
447.35	999.94
447.571	1045.94
447.792	1021.94
448.013	1015.94
448.234	986.94
448.455	1000.94
448.675	971.94
448.896	1006.94
449.117	986.94
449.338	991.94
449.559	970.94
449.779	957.94
450	980.94
450.221	972.94
450.442	1003.94
450.662	959.94
450.883	1003.94
451.104	1000.94
451.324	958.94
451.545	979.94
451.766	956.94
451.986	951.94
452.207	965.94
452.428	982.94
452.648	947.94
452.869	944.94
453.089	952.94
453.31	923.94
453.53	938.94
453.751	920.94
453.971	931.94
454.192	923.94
454.412	921.94
454.633	936.94
454.853	909.94
455.073	946.94
455.294	951.94
455.514	926.94
455.734	928.94
455.955	916.94
456.175	896.94
456.395	922.94
456.616	910.94
456.836	926.94
457.056	933.94
457.276	919.94
457.497	933.94
457.717	940.94
457.937	962.94
458.157	926.94
458.377	949.94
458.598	984.94
458.818	988.94
459.038	1013.94
459.258	963.94
459.478	1027.94
459.698	1054.94
459.918	1079.94
460.138	1083.94
460.358	1114.94
460.578	1102.94
460.798	1102.94
461.018	1140.94
461.238	1129.94
461.458	1148.94
461.678	1147.94
461.898	1159.94
462.118	1163.94
462.338	1208.94
462.558	1231.94
462.777	1236.94
462.997	1282.94
463.217	1290.94
463.437	1309.94
463.657	1299.94
463.876	1281.94
464.096	1256.94
464.316	1211.94
464.536	1232.94
464.755	1230.94
464.975	1194.94
465.195	1165.94
465.414	1158.94
465.634	1087.94
465.854	1122.94
466.073	1079.94
466.293	1086.94
466.512	1024.94
466.732	1027.94
466.951	1043.94
467.171	1030.94
467.391	1032.94
467.61	1027.94
467.829	1022.94
468.049	1018.94
468.268	1027.94
468.488	1009.94
468.707	1019.94
468.927	1034.94
469.146	1012.94
469.365	1026.94
469.585	1006.94
469.804	1046.94
470.023	1019.94
470.243	1040.94
470.462	1056.94
470.681	1042.94
470.901	1039.94
471.12	1039.94
471.339	1014.94
471.558	1043.94
471.777	1020.94
471.997	1003.94
472.216	1022.94
472.435	1002.94
472.654	1018.94
472.873	970.94
473.092	995.94
473.311	1008.94
473.53	1003.94
473.749	994.94
473.968	1012.94
474.187	1030.94
474.406	979.94
474.625	1012.94
474.844	1047.94
475.063	1029.94
475.282	1013.94
475.501	1024.94
475.72	1045.94
475.939	1042.94
476.158	1047.94
476.377	1061.94
476.596	1087.94
476.814	1147.94
477.033	1063.94
477.252	1110.94
477.471	1101.94
477.69	1139.94
477.908	1142.94
478.127	1119.94
478.346	1154.94
478.564	1156.94
478.783	1176.94
479.002	1166.94
479.22	1202.94
479.439	1240.94
479.658	1218.94
479.876	1194.94
480.095	1207.94
480.313	1211.94
480.532	1222.94
480.751	1224.94
480.969	1234.94
481.188	1212.94
481.406	1217.94
481.624	1184.94
481.843	1174.94
482.061	1147.94
482.28	1168.94
482.498	1193.94
482.717	1195.94
482.935	1178.94
483.153	1161.94
483.372	1174.94
483.59	1169.94
483.808	1182.94
484.027	1191.94
484.245	1176.94
484.463	1190.94
484.681	1202.94
484.9	1214.94
485.118	1208.94
485.336	1193.94
485.554	1212.94
485.772	1224.94
485.99	1216.94
486.209	1224.94
486.427	1200.94
486.645	1207.94
486.863	1241.94
487.081	1234.94
487.299	1220.94
487.517	1194.94
487.735	1208.94
487.953	1248.94
488.171	1233.94
488.389	1208.94
488.607	1174.94
488.825	1211.94
489.043	1192.94
489.261	1214.94
489.479	1227.94
489.696	1229.94
489.914	1218.94
490.132	1221.94
490.35	1226.94
490.568	1210.94
490.786	1201.94
491.003	1235.94
491.221	1247.94
491.439	1249.94
491.657	1251.94
491.874	1271.94
492.092	1244.94
492.31	1299.94
492.527	1263.94
492.745	1276.94
492.963	1248.94
493.18	1254.94
493.398	1278.94
493.615	1295.94
493.833	1306.94
494.05	1281.94
494.268	1283.94
494.485	1269.94
494.703	1243.94
494.92	1289.94
495.138	1288.94
495.355	1297.94
495.573	1324.94
495.79	1328.94
496.008	1374.94
