Data from Fe(NO3)3@0.025M.TitratingCurve.Agarose3%dH2O.NegLispCup.LampEnergy10.LIBS07252019_HRD10591_16-54-24-335.txt Node
Date: Thu Jul 25 16:54:24 EDT 2019
User: cochatt
Spectrometer: HR+D1059
Trigger mode: 1
Integration Time (sec): 1.000000E-1
Scans to average: 1
Electric dark correction enabled: true
Nonlinearity correction enabled: false
Boxcar width: 0
XAxis mode: Wavelengths
Number of Pixels in Spectrum: 2048
>>>>>Begin Spectral Data<<<<<
223.165	-20.31
223.4	-20.31
223.635	-20.31
223.869	-23.31
224.104	-23.31
224.338	-1.31
224.573	-12.31
224.808	-15.31
225.042	-8.31
225.277	-11.31
225.511	-2.31
225.746	-2.31
225.98	8.69
226.215	10.69
226.449	19.69
226.683	22.69
226.918	31.69
227.152	26.69
227.387	44.69
227.621	43.69
227.856	33.69
228.09	44.69
228.324	40.69
228.559	54.69
228.793	73.69
229.027	97.69
229.262	91.69
229.496	104.69
229.73	113.69
229.964	119.69
230.199	123.69
230.433	113.69
230.667	107.69
230.901	106.69
231.136	130.69
231.37	115.69
231.604	120.69
231.838	119.69
232.072	112.69
232.306	122.69
232.541	124.69
232.775	130.69
233.009	135.69
233.243	116.69
233.477	139.69
233.711	135.69
233.945	146.69
234.179	131.69
234.413	137.69
234.647	118.69
234.881	131.69
235.115	137.69
235.349	124.69
235.583	153.69
235.817	146.69
236.051	142.69
236.285	136.69
236.519	133.69
236.753	149.69
236.987	133.69
237.221	138.69
237.455	127.69
237.689	147.69
237.922	142.69
238.156	150.69
238.39	158.69
238.624	159.69
238.858	145.69
239.091	157.69
239.325	157.69
239.559	152.69
239.793	153.69
240.027	153.69
240.26	162.69
240.494	164.69
240.728	147.69
240.961	181.69
241.195	170.69
241.429	165.69
241.662	168.69
241.896	155.69
242.13	176.69
242.363	167.69
242.597	176.69
242.83	169.69
243.064	164.69
243.298	160.69
243.531	160.69
243.765	148.69
243.998	172.69
244.232	190.69
244.465	180.69
244.699	167.69
244.932	165.69
245.166	185.69
245.399	159.69
245.633	200.69
245.866	183.69
246.099	168.69
246.333	170.69
246.566	169.69
246.8	193.69
247.033	205.69
247.266	169.69
247.5	179.69
247.733	173.69
247.966	191.69
248.2	197.69
248.433	208.69
248.666	205.69
248.899	195.69
249.133	208.69
249.366	212.69
249.599	204.69
249.832	198.69
250.066	202.69
250.299	189.69
250.532	199.69
250.765	215.69
250.998	204.69
251.231	205.69
251.465	212.69
251.698	210.69
251.931	202.69
252.164	210.69
252.397	215.69
252.63	228.69
252.863	219.69
253.096	226.69
253.329	234.69
253.562	220.69
253.795	228.69
254.028	238.69
254.261	233.69
254.494	246.69
254.727	227.69
254.96	236.69
255.193	222.69
255.426	230.69
255.659	210.69
255.892	230.69
256.124	239.69
256.357	227.69
256.59	241.69
256.823	243.69
257.056	226.69
257.289	236.69
257.521	230.69
257.754	240.69
257.987	237.69
258.22	243.69
258.452	229.69
258.685	245.69
258.918	248.69
259.151	242.69
259.383	241.69
259.616	245.69
259.849	249.69
260.081	288.69
260.314	294.69
260.547	276.69
260.779	264.69
261.012	256.69
261.244	276.69
261.477	277.69
261.71	261.69
261.942	275.69
262.175	256.69
262.407	266.69
262.64	251.69
262.872	274.69
263.105	282.69
263.337	273.69
263.57	268.69
263.802	277.69
264.035	258.69
264.267	263.69
264.499	269.69
264.732	283.69
264.964	272.69
265.197	257.69
265.429	273.69
265.661	273.69
265.894	264.69
266.126	269.69
266.358	276.69
266.591	266.69
266.823	276.69
267.055	268.69
267.287	281.69
267.52	281.69
267.752	278.69
267.984	292.69
268.216	251.69
268.448	282.69
268.681	274.69
268.913	284.69
269.145	291.69
269.377	279.69
269.609	278.69
269.841	289.69
270.073	296.69
270.306	299.69
270.538	291.69
270.77	286.69
271.002	306.69
271.234	316.69
271.466	296.69
271.698	308.69
271.93	299.69
272.162	307.69
272.394	292.69
272.626	327.69
272.858	305.69
273.09	330.69
273.322	305.69
273.553	326.69
273.785	320.69
274.017	333.69
274.249	359.69
274.481	353.69
274.713	336.69
274.945	371.69
275.176	368.69
275.408	356.69
275.64	354.69
275.872	348.69
276.104	339.69
276.335	339.69
276.567	343.69
276.799	330.69
277.031	332.69
277.262	333.69
277.494	328.69
277.726	340.69
277.957	336.69
278.189	332.69
278.421	328.69
278.652	336.69
278.884	349.69
279.115	355.69
279.347	344.69
279.579	334.69
279.81	327.69
280.042	354.69
280.273	355.69
280.505	358.69
280.736	347.69
280.968	360.69
281.199	351.69
281.431	380.69
281.662	348.69
281.894	364.69
282.125	350.69
282.356	348.69
282.588	355.69
282.819	361.69
283.051	340.69
283.282	357.69
283.513	357.69
283.745	365.69
283.976	376.69
284.207	362.69
284.439	361.69
284.67	372.69
284.901	397.69
285.132	370.69
285.364	357.69
285.595	371.69
285.826	381.69
286.057	380.69
286.288	385.69
286.52	374.69
286.751	357.69
286.982	379.69
287.213	383.69
287.444	387.69
287.675	375.69
287.906	361.69
288.138	358.69
288.369	373.69
288.6	379.69
288.831	367.69
289.062	384.69
289.293	379.69
289.524	389.69
289.755	382.69
289.986	375.69
290.217	371.69
290.448	398.69
290.679	388.69
290.91	400.69
291.141	394.69
291.371	394.69
291.602	405.69
291.833	369.69
292.064	374.69
292.295	400.69
292.526	388.69
292.757	381.69
292.987	379.69
293.218	392.69
293.449	429.69
293.68	396.69
293.91	407.69
294.141	401.69
294.372	399.69
294.603	402.69
294.833	389.69
295.064	384.69
295.295	402.69
295.525	398.69
295.756	411.69
295.987	410.69
296.217	429.69
296.448	393.69
296.679	386.69
296.909	402.69
297.14	417.69
297.37	421.69
297.601	415.69
297.831	416.69
298.062	426.69
298.292	426.69
298.523	426.69
298.753	445.69
298.984	435.69
299.214	419.69
299.445	418.69
299.675	434.69
299.905	441.69
300.136	427.69
300.366	429.69
300.597	430.69
300.827	436.69
301.057	421.69
301.288	437.69
301.518	452.69
301.748	437.69
301.979	447.69
302.209	437.69
302.439	467.69
302.669	454.69
302.9	437.69
303.13	448.69
303.36	451.69
303.59	447.69
303.82	435.69
304.051	457.69
304.281	447.69
304.511	433.69
304.741	463.69
304.971	469.69
305.201	435.69
305.431	451.69
305.661	449.69
305.891	456.69
306.121	454.69
306.352	461.69
306.582	466.69
306.812	439.69
307.042	467.69
307.272	453.69
307.502	437.69
307.731	445.69
307.961	456.69
308.191	463.69
308.421	438.69
308.651	440.69
308.881	456.69
309.111	450.69
309.341	457.69
309.571	458.69
309.8	457.69
310.03	484.69
310.26	457.69
310.49	428.69
310.72	461.69
310.949	439.69
311.179	467.69
311.409	473.69
311.639	461.69
311.868	461.69
312.098	493.69
312.328	480.69
312.557	463.69
312.787	448.69
313.017	470.69
313.246	480.69
313.476	486.69
313.706	501.69
313.935	477.69
314.165	496.69
314.394	488.69
314.624	506.69
314.853	479.69
315.083	468.69
315.312	494.69
315.542	464.69
315.771	497.69
316.001	482.69
316.23	502.69
316.46	497.69
316.689	483.69
316.919	525.69
317.148	509.69
317.377	483.69
317.607	495.69
317.836	507.69
318.065	501.69
318.295	497.69
318.524	498.69
318.753	508.69
318.983	511.69
319.212	509.69
319.441	485.69
319.67	500.69
319.9	529.69
320.129	513.69
320.358	516.69
320.587	504.69
320.816	488.69
321.046	525.69
321.275	493.69
321.504	503.69
321.733	499.69
321.962	508.69
322.191	517.69
322.42	508.69
322.649	496.69
322.878	509.69
323.108	515.69
323.337	509.69
323.566	536.69
323.795	547.69
324.024	527.69
324.253	526.69
324.482	525.69
324.71	519.69
324.939	525.69
325.168	513.69
325.397	536.69
325.626	532.69
325.855	526.69
326.084	537.69
326.313	537.69
326.542	529.69
326.77	539.69
326.999	539.69
327.228	535.69
327.457	531.69
327.686	532.69
327.914	550.69
328.143	548.69
328.372	535.69
328.6	531.69
328.829	533.69
329.058	548.69
329.287	505.69
329.515	541.69
329.744	550.69
329.972	539.69
330.201	534.69
330.43	559.69
330.658	549.69
330.887	573.69
331.115	525.69
331.344	573.69
331.572	560.69
331.801	538.69
332.03	570.69
332.258	585.69
332.486	591.69
332.715	575.69
332.943	593.69
333.172	602.69
333.4	608.69
333.629	620.69
333.857	617.69
334.085	615.69
334.314	614.69
334.542	645.69
334.771	620.69
334.999	627.69
335.227	628.69
335.455	624.69
335.684	634.69
335.912	664.69
336.14	632.69
336.369	603.69
336.597	625.69
336.825	618.69
337.053	637.69
337.281	618.69
337.51	620.69
337.738	600.69
337.966	600.69
338.194	590.69
338.422	594.69
338.65	597.69
338.878	619.69
339.106	588.69
339.334	594.69
339.562	585.69
339.79	597.69
340.018	587.69
340.246	563.69
340.474	602.69
340.702	605.69
340.93	562.69
341.158	577.69
341.386	584.69
341.614	583.69
341.842	571.69
342.07	587.69
342.298	563.69
342.526	603.69
342.754	579.69
342.981	559.69
343.209	581.69
343.437	594.69
343.665	602.69
343.893	609.69
344.12	633.69
344.348	642.69
344.576	611.69
344.804	597.69
345.031	594.69
345.259	587.69
345.487	582.69
345.714	565.69
345.942	569.69
346.17	611.69
346.397	573.69
346.625	569.69
346.853	555.69
347.08	567.69
347.308	567.69
347.535	563.69
347.763	572.69
347.99	561.69
348.218	547.69
348.445	559.69
348.673	553.69
348.9	572.69
349.128	559.69
349.355	560.69
349.583	564.69
349.81	546.69
350.037	551.69
350.265	537.69
350.492	565.69
350.72	529.69
350.947	532.69
351.174	542.69
351.402	566.69
351.629	560.69
351.856	575.69
352.083	552.69
352.311	546.69
352.538	536.69
352.765	552.69
352.992	566.69
353.22	533.69
353.447	543.69
353.674	529.69
353.901	550.69
354.128	561.69
354.355	549.69
354.583	563.69
354.81	545.69
355.037	547.69
355.264	546.69
355.491	551.69
355.718	549.69
355.945	561.69
356.172	561.69
356.399	553.69
356.626	551.69
356.853	555.69
357.08	555.69
357.307	586.69
357.534	562.69
357.761	575.69
357.988	548.69
358.215	578.69
358.441	567.69
358.668	555.69
358.895	551.69
359.122	561.69
359.349	559.69
359.576	544.69
359.802	532.69
360.029	566.69
360.256	541.69
360.483	561.69
360.709	559.69
360.936	562.69
361.163	551.69
361.39	542.69
361.616	562.69
361.843	569.69
362.07	563.69
362.296	561.69
362.523	565.69
362.749	578.69
362.976	547.69
363.203	551.69
363.429	555.69
363.656	566.69
363.882	541.69
364.109	568.69
364.335	563.69
364.562	540.69
364.788	555.69
365.015	562.69
365.241	561.69
365.468	586.69
365.694	593.69
365.92	571.69
366.147	556.69
366.373	583.69
366.599	566.69
366.826	555.69
367.052	576.69
367.278	544.69
367.505	564.69
367.731	572.69
367.957	559.69
368.184	566.69
368.41	565.69
368.636	561.69
368.862	552.69
369.089	580.69
369.315	588.69
369.541	602.69
369.767	601.69
369.993	575.69
370.219	587.69
370.445	587.69
370.672	585.69
370.898	575.69
371.124	599.69
371.35	596.69
371.576	589.69
371.802	622.69
372.028	609.69
372.254	602.69
372.48	602.69
372.706	601.69
372.932	593.69
373.158	616.69
373.384	612.69
373.61	627.69
373.835	610.69
374.061	623.69
374.287	637.69
374.513	635.69
374.739	625.69
374.965	630.69
375.191	639.69
375.416	651.69
375.642	633.69
375.868	646.69
376.094	627.69
376.319	615.69
376.545	611.69
376.771	616.69
376.997	610.69
377.222	617.69
377.448	611.69
377.674	597.69
377.899	598.69
378.125	580.69
378.35	584.69
378.576	605.69
378.802	589.69
379.027	618.69
379.253	581.69
379.478	596.69
379.704	584.69
379.929	608.69
380.155	596.69
380.38	615.69
380.606	605.69
380.831	596.69
381.057	619.69
381.282	596.69
381.507	610.69
381.733	623.69
381.958	637.69
382.184	616.69
382.409	645.69
382.634	619.69
382.86	616.69
383.085	616.69
383.31	656.69
383.535	642.69
383.761	635.69
383.986	648.69
384.211	650.69
384.436	670.69
384.662	651.69
384.887	668.69
385.112	644.69
385.337	660.69
385.562	670.69
385.787	674.69
386.013	682.69
386.238	679.69
386.463	692.69
386.688	683.69
386.913	641.69
387.138	668.69
387.363	701.69
387.588	699.69
387.813	700.69
388.038	680.69
388.263	683.69
388.488	687.69
388.713	671.69
388.938	701.69
389.163	685.69
389.387	739.69
389.612	672.69
389.837	685.69
390.062	686.69
390.287	691.69
390.512	717.69
390.736	709.69
390.961	719.69
391.186	731.69
391.411	717.69
391.636	716.69
391.86	723.69
392.085	726.69
392.31	740.69
392.534	753.69
392.759	726.69
392.984	729.69
393.208	732.69
393.433	731.69
393.658	731.69
393.882	741.69
394.107	726.69
394.331	728.69
394.556	748.69
394.78	725.69
395.005	726.69
395.229	708.69
395.454	735.69
395.678	746.69
395.903	720.69
396.127	728.69
396.352	746.69
396.576	739.69
396.801	737.69
397.025	753.69
397.249	733.69
397.474	744.69
397.698	742.69
397.922	785.69
398.147	772.69
398.371	780.69
398.595	819.69
398.82	825.69
399.044	820.69
399.268	864.69
399.492	925.69
399.717	941.69
399.941	964.69
400.165	931.69
400.389	924.69
400.613	872.69
400.837	864.69
401.062	837.69
401.286	832.69
401.51	826.69
401.734	824.69
401.958	836.69
402.182	819.69
402.406	811.69
402.63	803.69
402.854	824.69
403.078	828.69
403.302	829.69
403.526	830.69
403.75	841.69
403.974	844.69
404.198	794.69
404.422	851.69
404.645	859.69
404.869	850.69
405.093	825.69
405.317	845.69
405.541	863.69
405.765	849.69
405.988	860.69
406.212	857.69
406.436	860.69
406.66	863.69
406.883	876.69
407.107	904.69
407.331	915.69
407.555	925.69
407.778	933.69
408.002	927.69
408.226	925.69
408.449	937.69
408.673	896.69
408.896	878.69
409.12	862.69
409.344	899.69
409.567	869.69
409.791	887.69
410.014	876.69
410.238	873.69
410.461	855.69
410.685	852.69
410.908	880.69
411.132	865.69
411.355	821.69
411.578	829.69
411.802	868.69
412.025	824.69
412.249	839.69
412.472	818.69
412.695	823.69
412.919	837.69
413.142	818.69
413.365	834.69
413.589	873.69
413.812	825.69
414.035	811.69
414.258	832.69
414.482	835.69
414.705	828.69
414.928	821.69
415.151	794.69
415.374	825.69
415.597	820.69
415.821	808.69
416.044	784.69
416.267	775.69
416.49	782.69
416.713	787.69
416.936	797.69
417.159	779.69
417.382	780.69
417.605	760.69
417.828	786.69
418.051	736.69
418.274	767.69
418.497	775.69
418.72	791.69
418.943	766.69
419.166	805.69
419.389	857.69
419.611	851.69
419.834	806.69
420.057	815.69
420.28	767.69
420.503	765.69
420.726	751.69
420.948	762.69
421.171	755.69
421.394	777.69
421.617	767.69
421.839	748.69
422.062	772.69
422.285	751.69
422.507	767.69
422.73	768.69
422.953	763.69
423.175	780.69
423.398	752.69
423.621	734.69
423.843	785.69
424.066	776.69
424.288	775.69
424.511	768.69
424.733	746.69
424.956	780.69
425.178	760.69
425.401	732.69
425.623	748.69
425.846	747.69
426.068	767.69
426.291	741.69
426.513	750.69
426.735	758.69
426.958	762.69
427.18	726.69
427.402	755.69
427.625	753.69
427.847	754.69
428.069	716.69
428.292	729.69
428.514	723.69
428.736	717.69
428.958	727.69
429.181	717.69
429.403	704.69
429.625	706.69
429.847	718.69
430.069	724.69
430.292	735.69
430.514	728.69
430.736	718.69
430.958	709.69
431.18	719.69
431.402	728.69
431.624	724.69
431.846	733.69
432.068	732.69
432.29	737.69
432.512	717.69
432.734	762.69
432.956	729.69
433.178	763.69
433.4	736.69
433.622	727.69
433.844	733.69
434.066	756.69
434.287	752.69
434.509	724.69
434.731	772.69
434.953	744.69
435.175	776.69
435.397	763.69
435.618	749.69
435.84	743.69
436.062	737.69
436.284	717.69
436.505	715.69
436.727	725.69
436.949	715.69
437.17	715.69
437.392	724.69
437.614	717.69
437.835	718.69
438.057	696.69
438.278	689.69
438.5	706.69
438.721	699.69
438.943	714.69
439.165	686.69
439.386	696.69
439.608	727.69
439.829	725.69
440.05	685.69
440.272	707.69
440.493	701.69
440.715	708.69
440.936	727.69
441.158	711.69
441.379	713.69
441.6	745.69
441.822	740.69
442.043	724.69
442.264	776.69
442.486	720.69
442.707	772.69
442.928	742.69
443.149	759.69
443.371	709.69
443.592	738.69
443.813	740.69
444.034	736.69
444.255	730.69
444.476	746.69
444.698	759.69
444.919	760.69
445.14	889.69
445.361	825.69
445.582	744.69
445.803	739.69
446.024	727.69
446.245	740.69
446.466	726.69
446.687	723.69
446.908	712.69
447.129	686.69
447.35	695.69
447.571	674.69
447.792	684.69
448.013	675.69
448.234	679.69
448.455	661.69
448.675	665.69
448.896	643.69
449.117	669.69
449.338	661.69
449.559	657.69
449.779	662.69
450	673.69
450.221	639.69
450.442	647.69
450.662	659.69
450.883	647.69
451.104	668.69
451.324	663.69
451.545	669.69
451.766	663.69
451.986	637.69
452.207	663.69
452.428	654.69
452.648	650.69
452.869	616.69
453.089	633.69
453.31	640.69
453.53	624.69
453.751	633.69
453.971	621.69
454.192	655.69
454.412	609.69
454.633	634.69
454.853	613.69
455.073	637.69
455.294	632.69
455.514	617.69
455.734	613.69
455.955	619.69
456.175	633.69
456.395	640.69
456.616	643.69
456.836	632.69
457.056	668.69
457.276	618.69
457.497	660.69
457.717	633.69
457.937	605.69
458.157	637.69
458.377	643.69
458.598	676.69
458.818	662.69
459.038	687.69
459.258	696.69
459.478	711.69
459.698	727.69
459.918	724.69
460.138	739.69
460.358	748.69
460.578	767.69
460.798	752.69
461.018	796.69
461.238	760.69
461.458	754.69
461.678	755.69
461.898	786.69
462.118	785.69
462.338	805.69
462.558	817.69
462.777	827.69
462.997	859.69
463.217	891.69
463.437	860.69
463.657	852.69
463.876	827.69
464.096	855.69
464.316	852.69
464.536	832.69
464.755	828.69
464.975	808.69
465.195	759.69
465.414	780.69
465.634	757.69
465.854	743.69
466.073	714.69
466.293	721.69
466.512	690.69
466.732	698.69
466.951	689.69
467.171	677.69
467.391	684.69
467.61	705.69
467.829	711.69
468.049	698.69
468.268	664.69
468.488	652.69
468.707	684.69
468.927	705.69
469.146	692.69
469.365	687.69
469.585	649.69
469.804	682.69
470.023	691.69
470.243	664.69
470.462	690.69
470.681	693.69
470.901	702.69
471.12	678.69
471.339	708.69
471.558	673.69
471.777	707.69
471.997	707.69
472.216	665.69
472.435	689.69
472.654	679.69
472.873	682.69
473.092	688.69
473.311	681.69
473.53	688.69
473.749	675.69
473.968	692.69
474.187	679.69
474.406	697.69
474.625	696.69
474.844	713.69
475.063	707.69
475.282	737.69
475.501	717.69
475.72	728.69
475.939	711.69
476.158	744.69
476.377	715.69
476.596	759.69
476.814	767.69
477.033	742.69
477.252	747.69
477.471	764.69
477.69	752.69
477.908	802.69
478.127	813.69
478.346	760.69
478.564	778.69
478.783	779.69
479.002	770.69
479.22	799.69
479.439	832.69
479.658	831.69
479.876	852.69
480.095	837.69
480.313	851.69
480.532	845.69
480.751	843.69
480.969	873.69
481.188	840.69
481.406	812.69
481.624	823.69
481.843	801.69
482.061	819.69
482.28	834.69
482.498	832.69
482.717	844.69
482.935	832.69
483.153	831.69
483.372	831.69
483.59	844.69
483.808	863.69
484.027	825.69
484.245	810.69
484.463	815.69
484.681	835.69
484.9	847.69
485.118	867.69
485.336	854.69
485.554	873.69
485.772	844.69
485.99	848.69
486.209	872.69
486.427	851.69
486.645	848.69
486.863	895.69
487.081	851.69
487.299	840.69
487.517	843.69
487.735	845.69
487.953	845.69
488.171	829.69
488.389	836.69
488.607	855.69
488.825	861.69
489.043	863.69
489.261	874.69
489.479	863.69
489.696	870.69
489.914	817.69
490.132	841.69
490.35	881.69
490.568	851.69
490.786	837.69
491.003	858.69
491.221	859.69
491.439	853.69
491.657	860.69
491.874	819.69
492.092	850.69
492.31	849.69
492.527	861.69
492.745	857.69
492.963	862.69
493.18	863.69
493.398	865.69
493.615	881.69
493.833	883.69
494.05	868.69
494.268	883.69
494.485	848.69
494.703	885.69
494.92	885.69
495.138	884.69
495.355	899.69
495.573	889.69
495.79	876.69
496.008	923.69
496.225	919.69
496.442	923.69
496.66	936.69
496.877	932.69
497.094	959.69
497.312	967.69
497.529	997.69
497.746	1002.69
497.963	1011.69
498.181	1052.69
498.398	1057.69
498.615	1128.69
498.832	1155.69
499.049	1177.69
499.267	1192.69
499.484	1248.69
499.701	1309.69
499.918	1355.69
500.135	1413.69
500.352	1495.69
500.569	1506.69
500.786	1496.69
501.003	1426.69
501.22	1435.69
