Data from Fe(NO3)3@0.0125M.TitratingCurve.Agarose3%dH2O.NegLispCup.LampEnergy10.LIBS07252019_HRD10591_16-58-47-338.txt Node
Date: Thu Jul 25 16:58:47 EDT 2019
User: cochatt
Spectrometer: HR+D1059
Trigger mode: 1
Integration Time (sec): 1.000000E-1
Scans to average: 1
Electric dark correction enabled: true
Nonlinearity correction enabled: false
Boxcar width: 0
XAxis mode: Wavelengths
Number of Pixels in Spectrum: 2048
>>>>>Begin Spectral Data<<<<<
223.165	-27.56
223.4	-27.56
223.635	-27.56
223.869	-10.56
224.104	-17.56
224.338	-11.56
224.573	-17.56
224.808	-18.56
225.042	3.44
225.277	-0.56
225.511	11.44
225.746	14.44
225.98	7.44
226.215	0.44
226.449	9.44
226.683	12.44
226.918	24.44
227.152	20.44
227.387	28.44
227.621	41.44
227.856	50.44
228.09	44.44
228.324	52.44
228.559	48.44
228.793	70.44
229.027	101.44
229.262	105.44
229.496	113.44
229.73	113.44
229.964	112.44
230.199	114.44
230.433	121.44
230.667	131.44
230.901	135.44
231.136	123.44
231.37	142.44
231.604	141.44
231.838	132.44
232.072	142.44
232.306	132.44
232.541	133.44
232.775	135.44
233.009	148.44
233.243	138.44
233.477	140.44
233.711	152.44
233.945	144.44
234.179	136.44
234.413	145.44
234.647	148.44
234.881	171.44
235.115	144.44
235.349	149.44
235.583	152.44
235.817	145.44
236.051	149.44
236.285	147.44
236.519	160.44
236.753	159.44
236.987	151.44
237.221	170.44
237.455	156.44
237.689	165.44
237.922	159.44
238.156	185.44
238.39	171.44
238.624	197.44
238.858	163.44
239.091	163.44
239.325	168.44
239.559	170.44
239.793	178.44
240.027	187.44
240.26	178.44
240.494	178.44
240.728	185.44
240.961	200.44
241.195	184.44
241.429	188.44
241.662	205.44
241.896	188.44
242.13	185.44
242.363	195.44
242.597	188.44
242.83	203.44
243.064	207.44
243.298	192.44
243.531	191.44
243.765	202.44
243.998	209.44
244.232	203.44
244.465	202.44
244.699	194.44
244.932	205.44
245.166	205.44
245.399	212.44
245.633	211.44
245.866	206.44
246.099	220.44
246.333	219.44
246.566	215.44
246.8	212.44
247.033	222.44
247.266	229.44
247.5	220.44
247.733	225.44
247.966	227.44
248.2	224.44
248.433	244.44
248.666	243.44
248.899	229.44
249.133	233.44
249.366	246.44
249.599	248.44
249.832	255.44
250.066	241.44
250.299	236.44
250.532	231.44
250.765	255.44
250.998	262.44
251.231	248.44
251.465	275.44
251.698	262.44
251.931	254.44
252.164	253.44
252.397	280.44
252.63	258.44
252.863	258.44
253.096	274.44
253.329	278.44
253.562	277.44
253.795	275.44
254.028	261.44
254.261	277.44
254.494	275.44
254.727	299.44
254.96	263.44
255.193	297.44
255.426	305.44
255.659	270.44
255.892	286.44
256.124	287.44
256.357	298.44
256.59	290.44
256.823	292.44
257.056	285.44
257.289	284.44
257.521	300.44
257.754	302.44
257.987	292.44
258.22	291.44
258.452	294.44
258.685	299.44
258.918	331.44
259.151	316.44
259.383	335.44
259.616	319.44
259.849	315.44
260.081	328.44
260.314	347.44
260.547	339.44
260.779	316.44
261.012	313.44
261.244	328.44
261.477	325.44
261.71	338.44
261.942	327.44
262.175	327.44
262.407	348.44
262.64	315.44
262.872	347.44
263.105	345.44
263.337	352.44
263.57	352.44
263.802	338.44
264.035	351.44
264.267	353.44
264.499	340.44
264.732	331.44
264.964	338.44
265.197	337.44
265.429	345.44
265.661	355.44
265.894	346.44
266.126	336.44
266.358	352.44
266.591	363.44
266.823	351.44
267.055	369.44
267.287	355.44
267.52	331.44
267.752	368.44
267.984	371.44
268.216	361.44
268.448	359.44
268.681	385.44
268.913	394.44
269.145	401.44
269.377	361.44
269.609	374.44
269.841	382.44
270.073	377.44
270.306	404.44
270.538	385.44
270.77	384.44
271.002	393.44
271.234	398.44
271.466	402.44
271.698	407.44
271.93	395.44
272.162	404.44
272.394	405.44
272.626	404.44
272.858	417.44
273.09	411.44
273.322	434.44
273.553	425.44
273.785	425.44
274.017	447.44
274.249	443.44
274.481	444.44
274.713	456.44
274.945	459.44
275.176	464.44
275.408	468.44
275.64	437.44
275.872	465.44
276.104	446.44
276.335	429.44
276.567	443.44
276.799	430.44
277.031	435.44
277.262	457.44
277.494	461.44
277.726	449.44
277.957	457.44
278.189	456.44
278.421	439.44
278.652	442.44
278.884	453.44
279.115	456.44
279.347	433.44
279.579	447.44
279.81	457.44
280.042	468.44
280.273	479.44
280.505	473.44
280.736	471.44
280.968	475.44
281.199	472.44
281.431	487.44
281.662	482.44
281.894	481.44
282.125	491.44
282.356	487.44
282.588	497.44
282.819	467.44
283.051	495.44
283.282	470.44
283.513	504.44
283.745	472.44
283.976	484.44
284.207	508.44
284.439	498.44
284.67	470.44
284.901	490.44
285.132	503.44
285.364	520.44
285.595	525.44
285.826	500.44
286.057	519.44
286.288	540.44
286.52	504.44
286.751	503.44
286.982	523.44
287.213	519.44
287.444	530.44
287.675	518.44
287.906	509.44
288.138	528.44
288.369	514.44
288.6	542.44
288.831	520.44
289.062	523.44
289.293	526.44
289.524	524.44
289.755	536.44
289.986	534.44
290.217	533.44
290.448	536.44
290.679	544.44
290.91	525.44
291.141	545.44
291.371	549.44
291.602	531.44
291.833	548.44
292.064	554.44
292.295	541.44
292.526	542.44
292.757	539.44
292.987	542.44
293.218	527.44
293.449	548.44
293.68	533.44
293.91	554.44
294.141	554.44
294.372	547.44
294.603	542.44
294.833	566.44
295.064	567.44
295.295	558.44
295.525	546.44
295.756	573.44
295.987	537.44
296.217	549.44
296.448	557.44
296.679	560.44
296.909	589.44
297.14	581.44
297.37	585.44
297.601	575.44
297.831	585.44
298.062	576.44
298.292	581.44
298.523	594.44
298.753	598.44
298.984	602.44
299.214	597.44
299.445	610.44
299.675	598.44
299.905	612.44
300.136	625.44
300.366	595.44
300.597	617.44
300.827	607.44
301.057	618.44
301.288	586.44
301.518	604.44
301.748	618.44
301.979	625.44
302.209	610.44
302.439	610.44
302.669	612.44
302.9	640.44
303.13	630.44
303.36	626.44
303.59	607.44
303.82	637.44
304.051	644.44
304.281	640.44
304.511	666.44
304.741	649.44
304.971	628.44
305.201	616.44
305.431	632.44
305.661	672.44
305.891	647.44
306.121	650.44
306.352	625.44
306.582	636.44
306.812	642.44
307.042	656.44
307.272	646.44
307.502	625.44
307.731	642.44
307.961	646.44
308.191	642.44
308.421	641.44
308.651	644.44
308.881	642.44
309.111	664.44
309.341	666.44
309.571	647.44
309.8	680.44
310.03	667.44
310.26	683.44
310.49	644.44
310.72	690.44
310.949	672.44
311.179	684.44
311.409	675.44
311.639	684.44
311.868	673.44
312.098	672.44
312.328	684.44
312.557	673.44
312.787	684.44
313.017	683.44
313.246	680.44
313.476	673.44
313.706	672.44
313.935	711.44
314.165	700.44
314.394	726.44
314.624	697.44
314.853	707.44
315.083	678.44
315.312	726.44
315.542	709.44
315.771	717.44
316.001	700.44
316.23	715.44
316.46	697.44
316.689	713.44
316.919	694.44
317.148	734.44
317.377	721.44
317.607	714.44
317.836	729.44
318.065	727.44
318.295	739.44
318.524	757.44
318.753	734.44
318.983	711.44
319.212	716.44
319.441	750.44
319.67	727.44
319.9	737.44
320.129	743.44
320.358	753.44
320.587	733.44
320.816	742.44
321.046	739.44
321.275	757.44
321.504	743.44
321.733	770.44
321.962	781.44
322.191	744.44
322.42	736.44
322.649	780.44
322.878	769.44
323.108	766.44
323.337	737.44
323.566	737.44
323.795	796.44
324.024	772.44
324.253	781.44
324.482	780.44
324.71	781.44
324.939	785.44
325.168	792.44
325.397	780.44
325.626	771.44
325.855	778.44
326.084	792.44
326.313	795.44
326.542	781.44
326.77	792.44
326.999	792.44
327.228	757.44
327.457	802.44
327.686	804.44
327.914	814.44
328.143	809.44
328.372	788.44
328.6	760.44
328.829	773.44
329.058	800.44
329.287	798.44
329.515	799.44
329.744	795.44
329.972	802.44
330.201	799.44
330.43	785.44
330.658	802.44
330.887	811.44
331.115	808.44
331.344	821.44
331.572	807.44
331.801	810.44
332.03	845.44
332.258	839.44
332.486	842.44
332.715	826.44
332.943	827.44
333.172	827.44
333.4	869.44
333.629	844.44
333.857	838.44
334.085	872.44
334.314	885.44
334.542	876.44
334.771	888.44
334.999	860.44
335.227	884.44
335.455	900.44
335.684	893.44
335.912	888.44
336.14	893.44
336.369	873.44
336.597	916.44
336.825	893.44
337.053	862.44
337.281	869.44
337.51	887.44
337.738	865.44
337.966	869.44
338.194	867.44
338.422	841.44
338.65	864.44
338.878	849.44
339.106	857.44
339.334	859.44
339.562	866.44
339.79	844.44
340.018	854.44
340.246	861.44
340.474	865.44
340.702	846.44
340.93	838.44
341.158	873.44
341.386	863.44
341.614	859.44
341.842	823.44
342.07	833.44
342.298	864.44
342.526	843.44
342.754	831.44
342.981	832.44
343.209	850.44
343.437	876.44
343.665	864.44
343.893	880.44
344.12	872.44
344.348	862.44
344.576	855.44
344.804	884.44
345.031	840.44
345.259	881.44
345.487	842.44
345.714	870.44
345.942	852.44
346.17	844.44
346.397	839.44
346.625	854.44
346.853	829.44
347.08	826.44
347.308	876.44
347.535	832.44
347.763	822.44
347.99	827.44
348.218	835.44
348.445	820.44
348.673	831.44
348.9	823.44
349.128	814.44
349.355	832.44
349.583	860.44
349.81	835.44
350.037	830.44
350.265	818.44
350.492	829.44
350.72	834.44
350.947	835.44
351.174	833.44
351.402	802.44
351.629	831.44
351.856	813.44
352.083	821.44
352.311	816.44
352.538	822.44
352.765	804.44
352.992	861.44
353.22	823.44
353.447	853.44
353.674	820.44
353.901	825.44
354.128	816.44
354.355	821.44
354.583	824.44
354.81	818.44
355.037	824.44
355.264	818.44
355.491	818.44
355.718	804.44
355.945	832.44
356.172	805.44
356.399	821.44
356.626	808.44
356.853	844.44
357.08	827.44
357.307	845.44
357.534	835.44
357.761	828.44
357.988	841.44
358.215	834.44
358.441	836.44
358.668	822.44
358.895	813.44
359.122	837.44
359.349	844.44
359.576	790.44
359.802	817.44
360.029	820.44
360.256	839.44
360.483	822.44
360.709	822.44
360.936	853.44
361.163	842.44
361.39	808.44
361.616	845.44
361.843	825.44
362.07	832.44
362.296	859.44
362.523	838.44
362.749	839.44
362.976	822.44
363.203	850.44
363.429	855.44
363.656	814.44
363.882	862.44
364.109	846.44
364.335	844.44
364.562	859.44
364.788	858.44
365.015	851.44
365.241	855.44
365.468	851.44
365.694	860.44
365.92	859.44
366.147	834.44
366.373	870.44
366.599	867.44
366.826	852.44
367.052	834.44
367.278	870.44
367.505	864.44
367.731	880.44
367.957	854.44
368.184	854.44
368.41	877.44
368.636	856.44
368.862	887.44
369.089	872.44
369.315	846.44
369.541	865.44
369.767	864.44
369.993	872.44
370.219	890.44
370.445	859.44
370.672	901.44
370.898	894.44
371.124	876.44
371.35	893.44
371.576	869.44
371.802	884.44
372.028	896.44
372.254	883.44
372.48	893.44
372.706	907.44
372.932	929.44
373.158	914.44
373.384	922.44
373.61	920.44
373.835	892.44
374.061	894.44
374.287	871.44
374.513	902.44
374.739	872.44
374.965	903.44
375.191	917.44
375.416	896.44
375.642	890.44
375.868	916.44
376.094	908.44
376.319	902.44
376.545	895.44
376.771	893.44
376.997	889.44
377.222	868.44
377.448	907.44
377.674	895.44
377.899	860.44
378.125	882.44
378.35	896.44
378.576	890.44
378.802	866.44
379.027	886.44
379.253	916.44
379.478	888.44
379.704	886.44
379.929	890.44
380.155	899.44
380.38	880.44
380.606	902.44
380.831	888.44
381.057	913.44
381.282	894.44
381.507	874.44
381.733	912.44
381.958	875.44
382.184	918.44
382.409	932.44
382.634	906.44
382.86	918.44
383.085	902.44
383.31	916.44
383.535	929.44
383.761	908.44
383.986	932.44
384.211	944.44
384.436	945.44
384.662	923.44
384.887	944.44
385.112	953.44
385.337	931.44
385.562	921.44
385.787	947.44
386.013	970.44
386.238	941.44
386.463	961.44
386.688	985.44
386.913	974.44
387.138	940.44
387.363	941.44
387.588	968.44
387.813	984.44
388.038	948.44
388.263	982.44
388.488	988.44
388.713	984.44
388.938	974.44
389.163	977.44
389.387	981.44
389.612	974.44
389.837	967.44
390.062	993.44
390.287	963.44
390.512	981.44
390.736	1010.44
390.961	996.44
391.186	986.44
391.411	987.44
391.636	1011.44
391.86	988.44
392.085	1017.44
392.31	982.44
392.534	998.44
392.759	992.44
392.984	978.44
393.208	1014.44
393.433	1013.44
393.658	1012.44
393.882	999.44
394.107	1001.44
394.331	1002.44
394.556	1004.44
394.78	1009.44
395.005	1014.44
395.229	985.44
395.454	1016.44
395.678	1032.44
395.903	1011.44
396.127	1022.44
396.352	1021.44
396.576	1030.44
396.801	1027.44
397.025	1014.44
397.249	1028.44
397.474	1043.44
397.698	1032.44
397.922	1067.44
398.147	1050.44
398.371	1052.44
398.595	1072.44
398.82	1060.44
399.044	1080.44
399.268	1121.44
399.492	1098.44
399.717	1131.44
399.941	1172.44
400.165	1141.44
400.389	1161.44
400.613	1149.44
400.837	1111.44
401.062	1104.44
401.286	1099.44
401.51	1106.44
401.734	1040.44
401.958	1107.44
402.182	1068.44
402.406	1069.44
402.63	1063.44
402.854	1059.44
403.078	1073.44
403.302	1069.44
403.526	1053.44
403.75	1061.44
403.974	1083.44
404.198	1074.44
404.422	1054.44
404.645	1032.44
404.869	1065.44
405.093	1109.44
405.317	1090.44
405.541	1111.44
405.765	1088.44
405.988	1079.44
406.212	1110.44
406.436	1113.44
406.66	1139.44
406.883	1144.44
407.107	1141.44
407.331	1141.44
407.555	1180.44
407.778	1179.44
408.002	1155.44
408.226	1136.44
408.449	1195.44
408.673	1180.44
408.896	1144.44
409.12	1153.44
409.344	1147.44
409.567	1140.44
409.791	1131.44
410.014	1104.44
410.238	1117.44
410.461	1139.44
410.685	1144.44
410.908	1114.44
411.132	1116.44
411.355	1095.44
411.578	1099.44
411.802	1101.44
412.025	1079.44
412.249	1073.44
412.472	1133.44
412.695	1115.44
412.919	1063.44
413.142	1060.44
413.365	1080.44
413.589	1089.44
413.812	1078.44
414.035	1064.44
414.258	1098.44
414.482	1092.44
414.705	1085.44
414.928	1067.44
415.151	1056.44
415.374	1061.44
415.597	1048.44
415.821	1053.44
416.044	1045.44
416.267	1051.44
416.49	1026.44
416.713	1036.44
416.936	1052.44
417.159	1029.44
417.382	1008.44
417.605	1010.44
417.828	989.44
418.051	1060.44
418.274	1046.44
418.497	1028.44
418.72	991.44
418.943	988.44
419.166	1036.44
419.389	1077.44
419.611	1094.44
419.834	1066.44
420.057	1052.44
420.28	1004.44
420.503	968.44
420.726	966.44
420.948	1000.44
421.171	1029.44
421.394	1000.44
421.617	1011.44
421.839	1014.44
422.062	1027.44
422.285	1016.44
422.507	1013.44
422.73	1006.44
422.953	1029.44
423.175	1001.44
423.398	1037.44
423.621	1002.44
423.843	1005.44
424.066	1045.44
424.288	1003.44
424.511	990.44
424.733	1032.44
424.956	987.44
425.178	979.44
425.401	1006.44
425.623	1022.44
425.846	1009.44
426.068	1035.44
426.291	987.44
426.513	1014.44
426.735	982.44
426.958	1001.44
427.18	979.44
427.402	993.44
427.625	983.44
427.847	1003.44
428.069	1006.44
428.292	1014.44
428.514	991.44
428.736	1014.44
428.958	1005.44
429.181	982.44
429.403	988.44
429.625	978.44
429.847	980.44
430.069	977.44
430.292	1001.44
430.514	991.44
430.736	995.44
430.958	996.44
431.18	998.44
431.402	993.44
431.624	949.44
431.846	977.44
432.068	969.44
432.29	992.44
432.512	977.44
432.734	995.44
432.956	948.44
433.178	999.44
433.4	999.44
433.622	996.44
433.844	1017.44
434.066	995.44
434.287	988.44
434.509	997.44
434.731	992.44
434.953	1001.44
435.175	979.44
435.397	1005.44
435.618	996.44
435.84	996.44
436.062	976.44
436.284	958.44
436.505	972.44
436.727	994.44
436.949	990.44
437.17	982.44
437.392	980.44
437.614	962.44
437.835	946.44
438.057	946.44
438.278	938.44
438.5	989.44
438.721	954.44
438.943	936.44
439.165	965.44
439.386	932.44
439.608	968.44
439.829	942.44
440.05	920.44
440.272	946.44
440.493	971.44
440.715	973.44
440.936	971.44
441.158	969.44
441.379	989.44
441.6	970.44
441.822	984.44
442.043	993.44
442.264	985.44
442.486	975.44
442.707	988.44
442.928	948.44
443.149	992.44
443.371	954.44
443.592	972.44
443.813	992.44
444.034	968.44
444.255	1008.44
444.476	955.44
444.698	1020.44
444.919	990.44
445.14	1066.44
445.361	1015.44
445.582	980.44
445.803	996.44
446.024	973.44
446.245	974.44
446.466	966.44
446.687	951.44
446.908	942.44
447.129	926.44
447.35	956.44
447.571	934.44
447.792	939.44
448.013	945.44
448.234	923.44
448.455	909.44
448.675	917.44
448.896	903.44
449.117	902.44
449.338	892.44
449.559	916.44
449.779	894.44
450	907.44
450.221	874.44
450.442	910.44
450.662	871.44
450.883	892.44
451.104	910.44
451.324	890.44
451.545	889.44
451.766	906.44
451.986	892.44
452.207	878.44
452.428	892.44
452.648	892.44
452.869	878.44
453.089	865.44
453.31	867.44
453.53	871.44
453.751	893.44
453.971	887.44
454.192	886.44
454.412	864.44
454.633	850.44
454.853	911.44
455.073	889.44
455.294	892.44
455.514	874.44
455.734	871.44
455.955	860.44
456.175	871.44
456.395	895.44
456.616	892.44
456.836	884.44
457.056	898.44
457.276	861.44
457.497	898.44
457.717	865.44
457.937	886.44
458.157	896.44
458.377	881.44
458.598	896.44
458.818	894.44
459.038	914.44
459.258	902.44
459.478	924.44
459.698	952.44
459.918	952.44
460.138	934.44
460.358	966.44
460.578	1005.44
460.798	944.44
461.018	965.44
461.238	980.44
461.458	983.44
461.678	995.44
461.898	988.44
462.118	1003.44
462.338	996.44
462.558	1027.44
462.777	1014.44
462.997	1051.44
463.217	1039.44
463.437	1074.44
463.657	1048.44
463.876	1031.44
464.096	1012.44
464.316	1031.44
464.536	1011.44
464.755	1017.44
464.975	1011.44
465.195	1003.44
465.414	985.44
465.634	975.44
465.854	983.44
466.073	973.44
466.293	975.44
466.512	930.44
466.732	965.44
466.951	936.44
467.171	960.44
467.391	950.44
467.61	969.44
467.829	919.44
468.049	924.44
468.268	917.44
468.488	948.44
468.707	953.44
468.927	932.44
469.146	934.44
469.365	924.44
469.585	903.44
469.804	934.44
470.023	972.44
470.243	944.44
470.462	933.44
470.681	962.44
470.901	963.44
471.12	916.44
471.339	957.44
471.558	943.44
471.777	976.44
471.997	961.44
472.216	948.44
472.435	981.44
472.654	969.44
472.873	974.44
473.092	956.44
473.311	934.44
473.53	946.44
473.749	939.44
473.968	958.44
474.187	961.44
474.406	962.44
474.625	959.44
474.844	986.44
475.063	983.44
475.282	977.44
475.501	997.44
475.72	1016.44
475.939	1010.44
476.158	1011.44
476.377	1045.44
476.596	1018.44
476.814	1049.44
477.033	1014.44
477.252	1047.44
477.471	1054.44
477.69	1019.44
477.908	1061.44
478.127	1086.44
478.346	1058.44
478.564	1074.44
478.783	1063.44
479.002	1096.44
479.22	1098.44
479.439	1141.44
479.658	1127.44
479.876	1126.44
480.095	1133.44
480.313	1104.44
480.532	1146.44
480.751	1141.44
480.969	1143.44
481.188	1128.44
481.406	1147.44
481.624	1122.44
481.843	1116.44
482.061	1140.44
482.28	1146.44
482.498	1103.44
482.717	1115.44
482.935	1142.44
483.153	1172.44
483.372	1149.44
483.59	1149.44
483.808	1175.44
484.027	1166.44
484.245	1166.44
484.463	1149.44
484.681	1171.44
484.9	1154.44
485.118	1174.44
485.336	1187.44
485.554	1193.44
485.772	1167.44
485.99	1174.44
486.209	1178.44
486.427	1187.44
486.645	1161.44
486.863	1211.44
487.081	1204.44
487.299	1196.44
487.517	1172.44
487.735	1152.44
487.953	1190.44
488.171	1198.44
488.389	1185.44
488.607	1194.44
488.825	1181.44
489.043	1190.44
489.261	1198.44
489.479	1182.44
489.696	1169.44
489.914	1181.44
490.132	1222.44
490.35	1224.44
490.568	1204.44
490.786	1173.44
491.003	1172.44
491.221	1212.44
491.439	1215.44
491.657	1187.44
491.874	1213.44
492.092	1214.44
492.31	1200.44
492.527	1206.44
492.745	1212.44
492.963	1216.44
493.18	1242.44
493.398	1237.44
493.615	1236.44
493.833	1236.44
494.05	1229.44
494.268	1231.44
494.485	1248.44
494.703	1253.44
494.92	1231.44
495.138	1194.44
495.355	1221.44
495.573	1249.44
495.79	1259.44
496.008	1280.44
496.225	1309.44
496.442	1276.44
496.66	1285.44
496.877	1274.44
497.094	1268.44
497.312	1320.44
497.529	1330.44
497.746	1346.44
