Data from Fe(NO3)3@0.0125M.TitratingCurve.Agarose3%dH2O.NegLispCup.LampEnergy10.LIBS07252019_HRD10591_17-00-34-337.txt Node
Date: Thu Jul 25 17:00:34 EDT 2019
User: cochatt
Spectrometer: HR+D1059
Trigger mode: 1
Integration Time (sec): 1.000000E-1
Scans to average: 1
Electric dark correction enabled: true
Nonlinearity correction enabled: false
Boxcar width: 0
XAxis mode: Wavelengths
Number of Pixels in Spectrum: 2048
>>>>>Begin Spectral Data<<<<<
223.165	-6.75
223.4	-6.75
223.635	-6.75
223.869	-9.75
224.104	-23.75
224.338	-3.75
224.573	-3.75
224.808	-14.75
225.042	-11.75
225.277	-15.75
225.511	-2.75
225.746	-9.75
225.98	-4.75
226.215	17.25
226.449	20.25
226.683	23.25
226.918	24.25
227.152	22.25
227.387	36.25
227.621	49.25
227.856	39.25
228.09	48.25
228.324	53.25
228.559	65.25
228.793	74.25
229.027	75.25
229.262	91.25
229.496	89.25
229.73	92.25
229.964	101.25
230.199	88.25
230.433	88.25
230.667	100.25
230.901	99.25
231.136	90.25
231.37	109.25
231.604	91.25
231.838	115.25
232.072	104.25
232.306	109.25
232.541	118.25
232.775	95.25
233.009	104.25
233.243	113.25
233.477	92.25
233.711	101.25
233.945	99.25
234.179	96.25
234.413	113.25
234.647	105.25
234.881	114.25
235.115	109.25
235.349	108.25
235.583	102.25
235.817	120.25
236.051	106.25
236.285	110.25
236.519	113.25
236.753	112.25
236.987	97.25
237.221	104.25
237.455	105.25
237.689	116.25
237.922	109.25
238.156	117.25
238.39	94.25
238.624	124.25
238.858	120.25
239.091	104.25
239.325	109.25
239.559	100.25
239.793	113.25
240.027	122.25
240.26	135.25
240.494	98.25
240.728	113.25
240.961	120.25
241.195	119.25
241.429	121.25
241.662	125.25
241.896	132.25
242.13	118.25
242.363	105.25
242.597	112.25
242.83	117.25
243.064	117.25
243.298	122.25
243.531	129.25
243.765	117.25
243.998	120.25
244.232	133.25
244.465	125.25
244.699	135.25
244.932	130.25
245.166	136.25
245.399	131.25
245.633	137.25
245.866	121.25
246.099	135.25
246.333	137.25
246.566	133.25
246.8	133.25
247.033	129.25
247.266	115.25
247.5	139.25
247.733	148.25
247.966	142.25
248.2	132.25
248.433	141.25
248.666	133.25
248.899	137.25
249.133	145.25
249.366	151.25
249.599	142.25
249.832	129.25
250.066	143.25
250.299	132.25
250.532	135.25
250.765	132.25
250.998	144.25
251.231	145.25
251.465	148.25
251.698	136.25
251.931	143.25
252.164	134.25
252.397	150.25
252.63	165.25
252.863	140.25
253.096	152.25
253.329	147.25
253.562	158.25
253.795	160.25
254.028	156.25
254.261	156.25
254.494	142.25
254.727	152.25
254.96	148.25
255.193	156.25
255.426	161.25
255.659	155.25
255.892	159.25
256.124	170.25
256.357	146.25
256.59	171.25
256.823	158.25
257.056	172.25
257.289	164.25
257.521	142.25
257.754	150.25
257.987	168.25
258.22	155.25
258.452	165.25
258.685	168.25
258.918	164.25
259.151	170.25
259.383	162.25
259.616	151.25
259.849	170.25
260.081	177.25
260.314	185.25
260.547	194.25
260.779	190.25
261.012	177.25
261.244	178.25
261.477	169.25
261.71	172.25
261.942	178.25
262.175	178.25
262.407	174.25
262.64	182.25
262.872	173.25
263.105	174.25
263.337	188.25
263.57	190.25
263.802	194.25
264.035	171.25
264.267	188.25
264.499	168.25
264.732	166.25
264.964	195.25
265.197	169.25
265.429	173.25
265.661	184.25
265.894	169.25
266.126	180.25
266.358	178.25
266.591	173.25
266.823	180.25
267.055	188.25
267.287	203.25
267.52	188.25
267.752	190.25
267.984	185.25
268.216	188.25
268.448	186.25
268.681	189.25
268.913	194.25
269.145	194.25
269.377	197.25
269.609	186.25
269.841	187.25
270.073	193.25
270.306	188.25
270.538	187.25
270.77	180.25
271.002	191.25
271.234	184.25
271.466	200.25
271.698	214.25
271.93	207.25
272.162	204.25
272.394	184.25
272.626	204.25
272.858	208.25
273.09	189.25
273.322	221.25
273.553	198.25
273.785	220.25
274.017	217.25
274.249	213.25
274.481	222.25
274.713	221.25
274.945	243.25
275.176	237.25
275.408	221.25
275.64	217.25
275.872	233.25
276.104	234.25
276.335	209.25
276.567	212.25
276.799	213.25
277.031	217.25
277.262	209.25
277.494	213.25
277.726	217.25
277.957	235.25
278.189	209.25
278.421	205.25
278.652	203.25
278.884	245.25
279.115	209.25
279.347	212.25
279.579	213.25
279.81	227.25
280.042	229.25
280.273	213.25
280.505	216.25
280.736	222.25
280.968	241.25
281.199	230.25
281.431	233.25
281.662	227.25
281.894	226.25
282.125	219.25
282.356	225.25
282.588	210.25
282.819	217.25
283.051	221.25
283.282	206.25
283.513	224.25
283.745	235.25
283.976	233.25
284.207	244.25
284.439	232.25
284.67	230.25
284.901	249.25
285.132	227.25
285.364	245.25
285.595	243.25
285.826	226.25
286.057	244.25
286.288	226.25
286.52	229.25
286.751	240.25
286.982	237.25
287.213	232.25
287.444	254.25
287.675	235.25
287.906	254.25
288.138	240.25
288.369	249.25
288.6	252.25
288.831	249.25
289.062	244.25
289.293	248.25
289.524	242.25
289.755	244.25
289.986	263.25
290.217	242.25
290.448	230.25
290.679	260.25
290.91	238.25
291.141	272.25
291.371	271.25
291.602	262.25
291.833	233.25
292.064	247.25
292.295	267.25
292.526	278.25
292.757	258.25
292.987	268.25
293.218	278.25
293.449	251.25
293.68	270.25
293.91	270.25
294.141	248.25
294.372	260.25
294.603	252.25
294.833	245.25
295.064	263.25
295.295	272.25
295.525	252.25
295.756	263.25
295.987	251.25
296.217	270.25
296.448	271.25
296.679	256.25
296.909	258.25
297.14	269.25
297.37	266.25
297.601	256.25
297.831	262.25
298.062	279.25
298.292	283.25
298.523	288.25
298.753	290.25
298.984	289.25
299.214	284.25
299.445	280.25
299.675	278.25
299.905	273.25
300.136	276.25
300.366	271.25
300.597	278.25
300.827	287.25
301.057	292.25
301.288	301.25
301.518	274.25
301.748	298.25
301.979	299.25
302.209	282.25
302.439	294.25
302.669	288.25
302.9	307.25
303.13	285.25
303.36	300.25
303.59	288.25
303.82	299.25
304.051	289.25
304.281	292.25
304.511	281.25
304.741	292.25
304.971	293.25
305.201	291.25
305.431	293.25
305.661	301.25
305.891	297.25
306.121	280.25
306.352	296.25
306.582	282.25
306.812	313.25
307.042	290.25
307.272	298.25
307.502	277.25
307.731	295.25
307.961	298.25
308.191	294.25
308.421	297.25
308.651	286.25
308.881	314.25
309.111	300.25
309.341	308.25
309.571	297.25
309.8	308.25
310.03	299.25
310.26	291.25
310.49	289.25
310.72	293.25
310.949	310.25
311.179	308.25
311.409	293.25
311.639	302.25
311.868	308.25
312.098	296.25
312.328	299.25
312.557	307.25
312.787	324.25
313.017	314.25
313.246	315.25
313.476	321.25
313.706	313.25
313.935	310.25
314.165	309.25
314.394	312.25
314.624	320.25
314.853	307.25
315.083	316.25
315.312	302.25
315.542	321.25
315.771	306.25
316.001	311.25
316.23	314.25
316.46	327.25
316.689	332.25
316.919	318.25
317.148	349.25
317.377	325.25
317.607	317.25
317.836	323.25
318.065	343.25
318.295	322.25
318.524	323.25
318.753	341.25
318.983	324.25
319.212	318.25
319.441	326.25
319.67	325.25
319.9	311.25
320.129	329.25
320.358	341.25
320.587	334.25
320.816	347.25
321.046	341.25
321.275	330.25
321.504	331.25
321.733	332.25
321.962	319.25
322.191	328.25
322.42	335.25
322.649	332.25
322.878	348.25
323.108	330.25
323.337	334.25
323.566	324.25
323.795	333.25
324.024	327.25
324.253	344.25
324.482	345.25
324.71	344.25
324.939	339.25
325.168	342.25
325.397	342.25
325.626	345.25
325.855	366.25
326.084	350.25
326.313	356.25
326.542	334.25
326.77	323.25
326.999	348.25
327.228	349.25
327.457	364.25
327.686	355.25
327.914	344.25
328.143	374.25
328.372	365.25
328.6	363.25
328.829	345.25
329.058	370.25
329.287	373.25
329.515	351.25
329.744	365.25
329.972	358.25
330.201	357.25
330.43	368.25
330.658	376.25
330.887	381.25
331.115	377.25
331.344	363.25
331.572	358.25
331.801	389.25
332.03	373.25
332.258	377.25
332.486	379.25
332.715	372.25
332.943	383.25
333.172	379.25
333.4	401.25
333.629	384.25
333.857	388.25
334.085	391.25
334.314	401.25
334.542	404.25
334.771	406.25
334.999	408.25
335.227	397.25
335.455	400.25
335.684	419.25
335.912	395.25
336.14	413.25
336.369	398.25
336.597	426.25
336.825	410.25
337.053	396.25
337.281	423.25
337.51	405.25
337.738	410.25
337.966	393.25
338.194	384.25
338.422	395.25
338.65	380.25
338.878	379.25
339.106	368.25
339.334	385.25
339.562	396.25
339.79	391.25
340.018	390.25
340.246	380.25
340.474	379.25
340.702	376.25
340.93	414.25
341.158	386.25
341.386	374.25
341.614	390.25
341.842	390.25
342.07	381.25
342.298	358.25
342.526	383.25
342.754	380.25
342.981	420.25
343.209	404.25
343.437	385.25
343.665	398.25
343.893	408.25
344.12	381.25
344.348	422.25
344.576	391.25
344.804	400.25
345.031	400.25
345.259	377.25
345.487	384.25
345.714	376.25
345.942	381.25
346.17	393.25
346.397	394.25
346.625	380.25
346.853	365.25
347.08	380.25
347.308	371.25
347.535	378.25
347.763	393.25
347.99	365.25
348.218	374.25
348.445	366.25
348.673	372.25
348.9	369.25
349.128	371.25
349.355	361.25
349.583	380.25
349.81	384.25
350.037	366.25
350.265	378.25
350.492	375.25
350.72	380.25
350.947	375.25
351.174	397.25
351.402	357.25
351.629	358.25
351.856	364.25
352.083	387.25
352.311	378.25
352.538	362.25
352.765	340.25
352.992	386.25
353.22	378.25
353.447	387.25
353.674	378.25
353.901	374.25
354.128	365.25
354.355	364.25
354.583	365.25
354.81	364.25
355.037	374.25
355.264	373.25
355.491	370.25
355.718	382.25
355.945	352.25
356.172	378.25
356.399	378.25
356.626	398.25
356.853	387.25
357.08	402.25
357.307	388.25
357.534	372.25
357.761	377.25
357.988	386.25
358.215	388.25
358.441	390.25
358.668	380.25
358.895	368.25
359.122	388.25
359.349	353.25
359.576	384.25
359.802	374.25
360.029	356.25
360.256	358.25
360.483	377.25
360.709	368.25
360.936	374.25
361.163	384.25
361.39	375.25
361.616	380.25
361.843	381.25
362.07	381.25
362.296	371.25
362.523	386.25
362.749	383.25
362.976	392.25
363.203	389.25
363.429	398.25
363.656	388.25
363.882	373.25
364.109	399.25
364.335	385.25
364.562	382.25
364.788	406.25
365.015	383.25
365.241	389.25
365.468	377.25
365.694	401.25
365.92	386.25
366.147	392.25
366.373	400.25
366.599	393.25
366.826	374.25
367.052	386.25
367.278	392.25
367.505	366.25
367.731	380.25
367.957	390.25
368.184	409.25
368.41	396.25
368.636	404.25
368.862	394.25
369.089	391.25
369.315	398.25
369.541	410.25
369.767	397.25
369.993	410.25
370.219	413.25
370.445	404.25
370.672	397.25
370.898	411.25
371.124	388.25
371.35	397.25
371.576	410.25
371.802	412.25
372.028	409.25
372.254	424.25
372.48	420.25
372.706	406.25
372.932	392.25
373.158	431.25
373.384	428.25
373.61	424.25
373.835	425.25
374.061	421.25
374.287	435.25
374.513	426.25
374.739	450.25
374.965	428.25
375.191	436.25
375.416	422.25
375.642	427.25
375.868	439.25
376.094	442.25
376.319	412.25
376.545	416.25
376.771	392.25
376.997	407.25
377.222	418.25
377.448	410.25
377.674	408.25
377.899	399.25
378.125	388.25
378.35	417.25
378.576	414.25
378.802	408.25
379.027	409.25
379.253	409.25
379.478	399.25
379.704	414.25
379.929	430.25
380.155	412.25
380.38	412.25
380.606	420.25
380.831	420.25
381.057	419.25
381.282	431.25
381.507	439.25
381.733	425.25
381.958	438.25
382.184	442.25
382.409	443.25
382.634	425.25
382.86	434.25
383.085	441.25
383.31	421.25
383.535	462.25
383.761	437.25
383.986	456.25
384.211	432.25
384.436	434.25
384.662	435.25
384.887	466.25
385.112	452.25
385.337	451.25
385.562	449.25
385.787	485.25
386.013	499.25
386.238	468.25
386.463	446.25
386.688	484.25
386.913	456.25
387.138	458.25
387.363	448.25
387.588	476.25
387.813	474.25
388.038	456.25
388.263	454.25
388.488	465.25
388.713	486.25
388.938	473.25
389.163	463.25
389.387	442.25
389.612	465.25
389.837	458.25
390.062	462.25
390.287	475.25
390.512	473.25
390.736	469.25
390.961	479.25
391.186	482.25
391.411	482.25
391.636	484.25
391.86	499.25
392.085	498.25
392.31	500.25
392.534	498.25
392.759	500.25
392.984	469.25
393.208	493.25
393.433	522.25
393.658	534.25
393.882	483.25
394.107	504.25
394.331	484.25
394.556	470.25
394.78	494.25
395.005	488.25
395.229	502.25
395.454	511.25
395.678	515.25
395.903	499.25
396.127	512.25
396.352	515.25
396.576	496.25
396.801	525.25
397.025	544.25
397.249	538.25
397.474	534.25
397.698	532.25
397.922	533.25
398.147	534.25
398.371	492.25
398.595	516.25
398.82	554.25
399.044	561.25
399.268	567.25
399.492	577.25
399.717	611.25
399.941	599.25
400.165	601.25
400.389	601.25
400.613	573.25
400.837	561.25
401.062	570.25
401.286	556.25
401.51	548.25
401.734	544.25
401.958	556.25
402.182	538.25
402.406	529.25
402.63	546.25
402.854	545.25
403.078	545.25
403.302	529.25
403.526	561.25
403.75	530.25
403.974	555.25
404.198	552.25
404.422	550.25
404.645	563.25
404.869	564.25
405.093	549.25
405.317	564.25
405.541	557.25
405.765	549.25
405.988	560.25
406.212	581.25
406.436	583.25
406.66	581.25
406.883	579.25
407.107	589.25
407.331	602.25
407.555	620.25
407.778	621.25
408.002	606.25
408.226	616.25
408.449	619.25
408.673	593.25
408.896	593.25
409.12	580.25
409.344	574.25
409.567	574.25
409.791	586.25
410.014	589.25
410.238	594.25
410.461	585.25
410.685	584.25
410.908	567.25
411.132	586.25
411.355	573.25
411.578	578.25
411.802	557.25
412.025	564.25
412.249	553.25
412.472	583.25
412.695	572.25
412.919	537.25
413.142	562.25
413.365	540.25
413.589	572.25
413.812	539.25
414.035	548.25
414.258	541.25
414.482	548.25
414.705	550.25
414.928	562.25
415.151	562.25
415.374	555.25
415.597	542.25
415.821	567.25
416.044	536.25
416.267	526.25
416.49	523.25
416.713	556.25
416.936	528.25
417.159	540.25
417.382	513.25
417.605	512.25
417.828	540.25
418.051	529.25
418.274	527.25
418.497	552.25
418.72	506.25
418.943	515.25
419.166	568.25
419.389	574.25
419.611	567.25
419.834	549.25
420.057	538.25
420.28	532.25
420.503	523.25
420.726	542.25
420.948	536.25
421.171	530.25
421.394	525.25
421.617	539.25
421.839	528.25
422.062	516.25
422.285	524.25
422.507	523.25
422.73	538.25
422.953	533.25
423.175	540.25
423.398	540.25
423.621	529.25
423.843	524.25
424.066	537.25
424.288	510.25
424.511	516.25
424.733	490.25
424.956	526.25
425.178	506.25
425.401	540.25
425.623	517.25
425.846	521.25
426.068	537.25
426.291	528.25
426.513	543.25
426.735	534.25
426.958	530.25
427.18	518.25
427.402	513.25
427.625	501.25
427.847	517.25
428.069	525.25
428.292	529.25
428.514	536.25
428.736	506.25
428.958	500.25
429.181	512.25
429.403	507.25
429.625	504.25
429.847	514.25
430.069	520.25
430.292	498.25
430.514	498.25
430.736	518.25
430.958	512.25
431.18	520.25
431.402	521.25
431.624	504.25
431.846	493.25
432.068	510.25
432.29	526.25
432.512	523.25
432.734	522.25
432.956	531.25
433.178	514.25
433.4	504.25
433.622	534.25
433.844	514.25
434.066	507.25
434.287	547.25
434.509	510.25
434.731	520.25
434.953	518.25
435.175	527.25
435.397	557.25
435.618	533.25
435.84	538.25
436.062	515.25
436.284	506.25
436.505	498.25
436.727	502.25
436.949	492.25
437.17	513.25
437.392	500.25
437.614	521.25
437.835	492.25
438.057	510.25
438.278	484.25
438.5	489.25
438.721	529.25
438.943	493.25
439.165	513.25
439.386	520.25
439.608	512.25
439.829	518.25
440.05	493.25
440.272	505.25
440.493	491.25
440.715	509.25
440.936	542.25
441.158	504.25
441.379	530.25
441.6	541.25
441.822	516.25
442.043	534.25
442.264	518.25
442.486	509.25
442.707	517.25
442.928	521.25
443.149	522.25
443.371	531.25
443.592	524.25
443.813	529.25
444.034	516.25
444.255	530.25
444.476	556.25
444.698	520.25
444.919	558.25
445.14	644.25
445.361	587.25
445.582	505.25
445.803	517.25
446.024	511.25
446.245	511.25
446.466	498.25
446.687	505.25
446.908	508.25
447.129	504.25
447.35	486.25
447.571	485.25
447.792	501.25
448.013	461.25
448.234	489.25
448.455	494.25
448.675	490.25
448.896	474.25
449.117	481.25
449.338	486.25
449.559	452.25
449.779	468.25
450	478.25
450.221	475.25
450.442	478.25
450.662	478.25
450.883	469.25
451.104	472.25
451.324	474.25
451.545	478.25
451.766	452.25
451.986	481.25
452.207	490.25
452.428	477.25
452.648	502.25
452.869	458.25
453.089	454.25
453.31	469.25
453.53	467.25
453.751	435.25
453.971	447.25
454.192	470.25
454.412	443.25
454.633	462.25
454.853	464.25
455.073	473.25
455.294	452.25
455.514	446.25
455.734	452.25
455.955	449.25
456.175	460.25
456.395	437.25
456.616	469.25
456.836	477.25
457.056	474.25
457.276	457.25
457.497	450.25
457.717	462.25
457.937	474.25
458.157	481.25
458.377	462.25
458.598	473.25
458.818	490.25
459.038	494.25
459.258	524.25
459.478	502.25
459.698	510.25
459.918	509.25
460.138	512.25
460.358	525.25
460.578	548.25
460.798	540.25
461.018	548.25
461.238	543.25
461.458	559.25
461.678	539.25
461.898	547.25
462.118	569.25
462.338	570.25
462.558	570.25
462.777	589.25
462.997	590.25
463.217	601.25
463.437	623.25
463.657	589.25
463.876	570.25
464.096	601.25
464.316	578.25
464.536	572.25
464.755	571.25
464.975	574.25
465.195	573.25
465.414	548.25
465.634	545.25
465.854	539.25
466.073	548.25
466.293	535.25
466.512	518.25
466.732	519.25
466.951	507.25
467.171	516.25
467.391	482.25
467.61	516.25
467.829	519.25
468.049	482.25
468.268	492.25
468.488	492.25
468.707	498.25
468.927	484.25
469.146	484.25
469.365	498.25
469.585	513.25
469.804	532.25
470.023	541.25
470.243	537.25
470.462	531.25
470.681	514.25
470.901	478.25
471.12	473.25
471.339	514.25
471.558	525.25
471.777	532.25
471.997	519.25
472.216	519.25
472.435	524.25
472.654	536.25
472.873	517.25
473.092	526.25
473.311	530.25
473.53	522.25
473.749	530.25
473.968	497.25
474.187	518.25
474.406	482.25
474.625	514.25
474.844	509.25
475.063	543.25
475.282	526.25
475.501	523.25
475.72	538.25
475.939	553.25
476.158	543.25
476.377	546.25
476.596	549.25
476.814	545.25
477.033	522.25
477.252	557.25
477.471	566.25
477.69	567.25
477.908	581.25
478.127	590.25
478.346	587.25
478.564	577.25
478.783	598.25
479.002	584.25
479.22	588.25
479.439	604.25
479.658	604.25
479.876	608.25
480.095	619.25
480.313	611.25
480.532	615.25
480.751	638.25
480.969	634.25
481.188	616.25
481.406	594.25
481.624	590.25
481.843	600.25
482.061	636.25
482.28	609.25
482.498	620.25
482.717	610.25
482.935	621.25
483.153	616.25
483.372	626.25
483.59	634.25
483.808	630.25
484.027	621.25
484.245	630.25
484.463	631.25
484.681	630.25
484.9	621.25
485.118	631.25
485.336	652.25
485.554	633.25
485.772	645.25
485.99	638.25
486.209	600.25
486.427	632.25
486.645	635.25
486.863	626.25
487.081	628.25
487.299	625.25
487.517	644.25
487.735	649.25
487.953	636.25
488.171	652.25
488.389	630.25
488.607	644.25
488.825	636.25
489.043	641.25
489.261	654.25
489.479	644.25
489.696	654.25
489.914	637.25
490.132	646.25
490.35	621.25
490.568	633.25
490.786	640.25
491.003	628.25
491.221	648.25
491.439	631.25
491.657	638.25
491.874	650.25
492.092	640.25
492.31	655.25
492.527	662.25
492.745	646.25
492.963	674.25
493.18	664.25
493.398	651.25
493.615	650.25
493.833	658.25
494.05	675.25
494.268	681.25
494.485	664.25
494.703	681.25
494.92	653.25
495.138	677.25
495.355	697.25
495.573	650.25
495.79	681.25
496.008	677.25
496.225	682.25
496.442	712.25
496.66	683.25
496.877	716.25
497.094	709.25
497.312	708.25
497.529	694.25
497.746	739.25
497.963	716.25
498.181	783.25
498.398	756.25
498.615	806.25
498.832	833.25
499.049	832.25
499.267	868.25
499.484	864.25
499.701	899.25
499.918	941.25
500.135	991.25
500.352	998.25
500.569	1012.25
500.786	1016.25
501.003	994.25
501.22	937.25
501.437	945.25
501.654	916.25
