Data from Fe(NO3)3@0.05M.TitratingCurve.Agarose3%dH2O.NegLispCup.LampEnergy10.LIBS07252019_HRD10591_16-46-09-334.txt Node
Date: Thu Jul 25 16:46:09 EDT 2019
User: cochatt
Spectrometer: HR+D1059
Trigger mode: 1
Integration Time (sec): 1.000000E-1
Scans to average: 1
Electric dark correction enabled: true
Nonlinearity correction enabled: false
Boxcar width: 0
XAxis mode: Wavelengths
Number of Pixels in Spectrum: 2048
>>>>>Begin Spectral Data<<<<<
223.165	0.5
223.4	0.5
223.635	0.5
223.869	-27.5
224.104	-15.5
224.338	-11.5
224.573	-13.5
224.808	-25.5
225.042	-3.5
225.277	-5.5
225.511	6.5
225.746	-0.5
225.98	8.5
226.215	10.5
226.449	17.5
226.683	12.5
226.918	21.5
227.152	25.5
227.387	34.5
227.621	33.5
227.856	43.5
228.09	48.5
228.324	46.5
228.559	53.5
228.793	59.5
229.027	107.5
229.262	106.5
229.496	108.5
229.73	126.5
229.964	132.5
230.199	133.5
230.433	137.5
230.667	136.5
230.901	142.5
231.136	122.5
231.37	142.5
231.604	134.5
231.838	137.5
232.072	149.5
232.306	155.5
232.541	149.5
232.775	158.5
233.009	141.5
233.243	137.5
233.477	146.5
233.711	177.5
233.945	182.5
234.179	166.5
234.413	184.5
234.647	165.5
234.881	165.5
235.115	178.5
235.349	176.5
235.583	165.5
235.817	166.5
236.051	173.5
236.285	184.5
236.519	167.5
236.753	176.5
236.987	170.5
237.221	148.5
237.455	181.5
237.689	169.5
237.922	174.5
238.156	194.5
238.39	220.5
238.624	213.5
238.858	229.5
239.091	188.5
239.325	205.5
239.559	202.5
239.793	190.5
240.027	228.5
240.26	208.5
240.494	214.5
240.728	210.5
240.961	224.5
241.195	229.5
241.429	214.5
241.662	228.5
241.896	221.5
242.13	206.5
242.363	206.5
242.597	215.5
242.83	207.5
243.064	218.5
243.298	215.5
243.531	236.5
243.765	229.5
243.998	230.5
244.232	202.5
244.465	224.5
244.699	227.5
244.932	239.5
245.166	240.5
245.399	239.5
245.633	238.5
245.866	226.5
246.099	250.5
246.333	240.5
246.566	263.5
246.8	264.5
247.033	251.5
247.266	265.5
247.5	255.5
247.733	240.5
247.966	257.5
248.2	266.5
248.433	275.5
248.666	274.5
248.899	287.5
249.133	263.5
249.366	283.5
249.599	310.5
249.832	281.5
250.066	294.5
250.299	296.5
250.532	275.5
250.765	304.5
250.998	284.5
251.231	297.5
251.465	284.5
251.698	282.5
251.931	297.5
252.164	287.5
252.397	315.5
252.63	307.5
252.863	318.5
253.096	330.5
253.329	343.5
253.562	310.5
253.795	330.5
254.028	357.5
254.261	349.5
254.494	344.5
254.727	329.5
254.96	334.5
255.193	320.5
255.426	323.5
255.659	309.5
255.892	328.5
256.124	321.5
256.357	322.5
256.59	358.5
256.823	322.5
257.056	322.5
257.289	326.5
257.521	345.5
257.754	334.5
257.987	334.5
258.22	329.5
258.452	346.5
258.685	366.5
258.918	366.5
259.151	351.5
259.383	368.5
259.616	365.5
259.849	398.5
260.081	433.5
260.314	454.5
260.547	408.5
260.779	373.5
261.012	411.5
261.244	397.5
261.477	406.5
261.71	398.5
261.942	378.5
262.175	381.5
262.407	390.5
262.64	392.5
262.872	412.5
263.105	422.5
263.337	415.5
263.57	414.5
263.802	394.5
264.035	373.5
264.267	369.5
264.499	357.5
264.732	365.5
264.964	375.5
265.197	386.5
265.429	384.5
265.661	373.5
265.894	398.5
266.126	380.5
266.358	388.5
266.591	376.5
266.823	399.5
267.055	393.5
267.287	415.5
267.52	375.5
267.752	395.5
267.984	405.5
268.216	404.5
268.448	409.5
268.681	400.5
268.913	399.5
269.145	420.5
269.377	408.5
269.609	417.5
269.841	416.5
270.073	403.5
270.306	398.5
270.538	433.5
270.77	422.5
271.002	438.5
271.234	421.5
271.466	445.5
271.698	447.5
271.93	420.5
272.162	451.5
272.394	422.5
272.626	424.5
272.858	433.5
273.09	446.5
273.322	454.5
273.553	466.5
273.785	486.5
274.017	529.5
274.249	540.5
274.481	529.5
274.713	545.5
274.945	609.5
275.176	603.5
275.408	583.5
275.64	574.5
275.872	577.5
276.104	512.5
276.335	472.5
276.567	485.5
276.799	471.5
277.031	485.5
277.262	486.5
277.494	497.5
277.726	478.5
277.957	492.5
278.189	489.5
278.421	495.5
278.652	479.5
278.884	511.5
279.115	486.5
279.347	476.5
279.579	479.5
279.81	473.5
280.042	490.5
280.273	512.5
280.505	508.5
280.736	473.5
280.968	482.5
281.199	493.5
281.431	516.5
281.662	512.5
281.894	497.5
282.125	506.5
282.356	504.5
282.588	506.5
282.819	505.5
283.051	516.5
283.282	522.5
283.513	510.5
283.745	507.5
283.976	536.5
284.207	520.5
284.439	525.5
284.67	549.5
284.901	543.5
285.132	544.5
285.364	530.5
285.595	522.5
285.826	535.5
286.057	540.5
286.288	535.5
286.52	530.5
286.751	550.5
286.982	560.5
287.213	551.5
287.444	551.5
287.675	557.5
287.906	554.5
288.138	539.5
288.369	524.5
288.6	545.5
288.831	559.5
289.062	569.5
289.293	536.5
289.524	537.5
289.755	560.5
289.986	582.5
290.217	540.5
290.448	565.5
290.679	538.5
290.91	554.5
291.141	563.5
291.371	552.5
291.602	539.5
291.833	557.5
292.064	557.5
292.295	553.5
292.526	596.5
292.757	596.5
292.987	553.5
293.218	536.5
293.449	566.5
293.68	559.5
293.91	539.5
294.141	557.5
294.372	580.5
294.603	590.5
294.833	569.5
295.064	576.5
295.295	560.5
295.525	582.5
295.756	573.5
295.987	566.5
296.217	578.5
296.448	592.5
296.679	568.5
296.909	574.5
297.14	595.5
297.37	588.5
297.601	593.5
297.831	585.5
298.062	582.5
298.292	599.5
298.523	628.5
298.753	640.5
298.984	593.5
299.214	626.5
299.445	594.5
299.675	592.5
299.905	613.5
300.136	589.5
300.366	620.5
300.597	596.5
300.827	644.5
301.057	636.5
301.288	599.5
301.518	625.5
301.748	637.5
301.979	664.5
302.209	630.5
302.439	643.5
302.669	628.5
302.9	627.5
303.13	647.5
303.36	624.5
303.59	617.5
303.82	644.5
304.051	649.5
304.281	628.5
304.511	617.5
304.741	627.5
304.971	637.5
305.201	631.5
305.431	643.5
305.661	639.5
305.891	630.5
306.121	632.5
306.352	648.5
306.582	640.5
306.812	637.5
307.042	654.5
307.272	678.5
307.502	654.5
307.731	634.5
307.961	654.5
308.191	666.5
308.421	646.5
308.651	658.5
308.881	664.5
309.111	631.5
309.341	622.5
309.571	648.5
309.8	647.5
310.03	670.5
310.26	654.5
310.49	658.5
310.72	664.5
310.949	685.5
311.179	678.5
311.409	649.5
311.639	677.5
311.868	678.5
312.098	661.5
312.328	656.5
312.557	687.5
312.787	678.5
313.017	664.5
313.246	686.5
313.476	649.5
313.706	680.5
313.935	678.5
314.165	694.5
314.394	696.5
314.624	681.5
314.853	664.5
315.083	682.5
315.312	692.5
315.542	701.5
315.771	699.5
316.001	709.5
316.23	692.5
316.46	717.5
316.689	700.5
316.919	670.5
317.148	696.5
317.377	710.5
317.607	699.5
317.836	710.5
318.065	714.5
318.295	727.5
318.524	700.5
318.753	710.5
318.983	721.5
319.212	706.5
319.441	694.5
319.67	702.5
319.9	711.5
320.129	684.5
320.358	701.5
320.587	690.5
320.816	717.5
321.046	711.5
321.275	705.5
321.504	713.5
321.733	718.5
321.962	735.5
322.191	739.5
322.42	712.5
322.649	743.5
322.878	744.5
323.108	734.5
323.337	720.5
323.566	752.5
323.795	723.5
324.024	741.5
324.253	730.5
324.482	713.5
324.71	743.5
324.939	723.5
325.168	740.5
325.397	754.5
325.626	756.5
325.855	763.5
326.084	769.5
326.313	772.5
326.542	771.5
326.77	769.5
326.999	773.5
327.228	742.5
327.457	765.5
327.686	746.5
327.914	765.5
328.143	766.5
328.372	765.5
328.6	772.5
328.829	769.5
329.058	793.5
329.287	773.5
329.515	780.5
329.744	780.5
329.972	785.5
330.201	784.5
330.43	792.5
330.658	808.5
330.887	789.5
331.115	786.5
331.344	798.5
331.572	796.5
331.801	790.5
332.03	821.5
332.258	831.5
332.486	807.5
332.715	835.5
332.943	850.5
333.172	835.5
333.4	858.5
333.629	881.5
333.857	855.5
334.085	854.5
334.314	880.5
334.542	878.5
334.771	889.5
334.999	871.5
335.227	861.5
335.455	898.5
335.684	860.5
335.912	877.5
336.14	873.5
336.369	866.5
336.597	888.5
336.825	898.5
337.053	876.5
337.281	855.5
337.51	882.5
337.738	862.5
337.966	872.5
338.194	850.5
338.422	848.5
338.65	857.5
338.878	861.5
339.106	873.5
339.334	869.5
339.562	834.5
339.79	818.5
340.018	819.5
340.246	831.5
340.474	815.5
340.702	839.5
340.93	837.5
341.158	835.5
341.386	833.5
341.614	828.5
341.842	803.5
342.07	822.5
342.298	806.5
342.526	809.5
342.754	804.5
342.981	833.5
343.209	844.5
343.437	880.5
343.665	850.5
343.893	888.5
344.12	892.5
344.348	892.5
344.576	869.5
344.804	878.5
345.031	868.5
345.259	851.5
345.487	860.5
345.714	834.5
345.942	846.5
346.17	798.5
346.397	817.5
346.625	801.5
346.853	820.5
347.08	822.5
347.308	800.5
347.535	798.5
347.763	797.5
347.99	809.5
348.218	768.5
348.445	796.5
348.673	774.5
348.9	778.5
349.128	791.5
349.355	799.5
349.583	782.5
349.81	786.5
350.037	780.5
350.265	783.5
350.492	784.5
350.72	798.5
350.947	765.5
351.174	773.5
351.402	777.5
351.629	783.5
351.856	793.5
352.083	771.5
352.311	784.5
352.538	754.5
352.765	772.5
352.992	766.5
353.22	792.5
353.447	775.5
353.674	770.5
353.901	767.5
354.128	770.5
354.355	782.5
354.583	752.5
354.81	795.5
355.037	765.5
355.264	769.5
355.491	751.5
355.718	794.5
355.945	793.5
356.172	782.5
356.399	768.5
356.626	802.5
356.853	799.5
357.08	813.5
357.307	822.5
357.534	768.5
357.761	769.5
357.988	793.5
358.215	804.5
358.441	810.5
358.668	818.5
358.895	813.5
359.122	778.5
359.349	784.5
359.576	805.5
359.802	776.5
360.029	770.5
360.256	803.5
360.483	809.5
360.709	819.5
360.936	802.5
361.163	802.5
361.39	815.5
361.616	777.5
361.843	799.5
362.07	798.5
362.296	812.5
362.523	797.5
362.749	794.5
362.976	822.5
363.203	816.5
363.429	814.5
363.656	831.5
363.882	816.5
364.109	808.5
364.335	788.5
364.562	781.5
364.788	808.5
365.015	826.5
365.241	804.5
365.468	809.5
365.694	810.5
365.92	800.5
366.147	812.5
366.373	809.5
366.599	807.5
366.826	825.5
367.052	808.5
367.278	805.5
367.505	828.5
367.731	826.5
367.957	831.5
368.184	824.5
368.41	844.5
368.636	857.5
368.862	864.5
369.089	829.5
369.315	822.5
369.541	852.5
369.767	857.5
369.993	843.5
370.219	850.5
370.445	847.5
370.672	867.5
370.898	882.5
371.124	851.5
371.35	888.5
371.576	858.5
371.802	868.5
372.028	858.5
372.254	914.5
372.48	873.5
372.706	887.5
372.932	894.5
373.158	892.5
373.384	916.5
373.61	902.5
373.835	931.5
374.061	852.5
374.287	891.5
374.513	880.5
374.739	907.5
374.965	925.5
375.191	936.5
375.416	912.5
375.642	897.5
375.868	912.5
376.094	902.5
376.319	879.5
376.545	911.5
376.771	860.5
376.997	894.5
377.222	880.5
377.448	880.5
377.674	877.5
377.899	849.5
378.125	869.5
378.35	839.5
378.576	883.5
378.802	848.5
379.027	904.5
379.253	889.5
379.478	877.5
379.704	888.5
379.929	902.5
380.155	886.5
380.38	885.5
380.606	883.5
380.831	880.5
381.057	887.5
381.282	890.5
381.507	902.5
381.733	920.5
381.958	930.5
382.184	920.5
382.409	940.5
382.634	955.5
382.86	947.5
383.085	930.5
383.31	913.5
383.535	928.5
383.761	919.5
383.986	950.5
384.211	985.5
384.436	972.5
384.662	967.5
384.887	989.5
385.112	973.5
385.337	978.5
385.562	1021.5
385.787	995.5
386.013	1012.5
386.238	1020.5
386.463	1030.5
386.688	1042.5
386.913	1022.5
387.138	1022.5
387.363	991.5
387.588	1004.5
387.813	1007.5
388.038	1006.5
388.263	1000.5
388.488	1010.5
388.713	1034.5
388.938	1040.5
389.163	1009.5
389.387	1054.5
389.612	1044.5
389.837	1025.5
390.062	1006.5
390.287	1075.5
390.512	1036.5
390.736	1028.5
390.961	1040.5
391.186	1054.5
391.411	1076.5
391.636	1086.5
391.86	1074.5
392.085	1088.5
392.31	1080.5
392.534	1084.5
392.759	1069.5
392.984	1074.5
393.208	1073.5
393.433	1107.5
393.658	1087.5
393.882	1080.5
394.107	1041.5
394.331	1090.5
394.556	1100.5
394.78	1081.5
395.005	1084.5
395.229	1074.5
395.454	1108.5
395.678	1124.5
395.903	1123.5
396.127	1096.5
396.352	1072.5
396.576	1094.5
396.801	1086.5
397.025	1140.5
397.249	1115.5
397.474	1140.5
397.698	1176.5
397.922	1184.5
398.147	1185.5
398.371	1216.5
398.595	1205.5
398.82	1205.5
399.044	1243.5
399.268	1311.5
399.492	1365.5
399.717	1384.5
399.941	1442.5
400.165	1378.5
400.389	1358.5
400.613	1304.5
400.837	1296.5
401.062	1283.5
401.286	1273.5
401.51	1275.5
401.734	1249.5
401.958	1207.5
402.182	1228.5
402.406	1212.5
402.63	1241.5
402.854	1242.5
403.078	1240.5
403.302	1254.5
403.526	1226.5
403.75	1261.5
403.974	1260.5
404.198	1273.5
404.422	1276.5
404.645	1247.5
404.869	1283.5
405.093	1283.5
405.317	1252.5
405.541	1296.5
405.765	1289.5
405.988	1278.5
406.212	1303.5
406.436	1295.5
406.66	1311.5
406.883	1310.5
407.107	1356.5
407.331	1362.5
407.555	1392.5
407.778	1430.5
408.002	1399.5
408.226	1410.5
408.449	1425.5
408.673	1361.5
408.896	1319.5
409.12	1344.5
409.344	1366.5
409.567	1335.5
409.791	1331.5
410.014	1305.5
410.238	1284.5
410.461	1288.5
410.685	1316.5
410.908	1269.5
411.132	1312.5
411.355	1253.5
411.578	1300.5
411.802	1280.5
412.025	1282.5
412.249	1314.5
412.472	1255.5
412.695	1265.5
412.919	1262.5
413.142	1256.5
413.365	1277.5
413.589	1258.5
413.812	1242.5
414.035	1232.5
414.258	1263.5
414.482	1264.5
414.705	1254.5
414.928	1234.5
415.151	1255.5
415.374	1244.5
415.597	1232.5
415.821	1211.5
416.044	1218.5
416.267	1201.5
416.49	1185.5
416.713	1200.5
416.936	1209.5
417.159	1193.5
417.382	1167.5
417.605	1183.5
417.828	1174.5
418.051	1177.5
418.274	1190.5
418.497	1174.5
418.72	1190.5
418.943	1176.5
419.166	1228.5
419.389	1344.5
419.611	1276.5
419.834	1241.5
420.057	1234.5
420.28	1174.5
420.503	1166.5
420.726	1183.5
420.948	1182.5
421.171	1172.5
421.394	1170.5
421.617	1172.5
421.839	1180.5
422.062	1185.5
422.285	1145.5
422.507	1190.5
422.73	1170.5
422.953	1162.5
423.175	1162.5
423.398	1191.5
423.621	1180.5
423.843	1209.5
424.066	1225.5
424.288	1173.5
424.511	1168.5
424.733	1172.5
424.956	1168.5
425.178	1173.5
425.401	1202.5
425.623	1202.5
425.846	1156.5
426.068	1176.5
426.291	1175.5
426.513	1168.5
426.735	1160.5
426.958	1162.5
427.18	1172.5
427.402	1172.5
427.625	1150.5
427.847	1119.5
428.069	1152.5
428.292	1157.5
428.514	1101.5
428.736	1114.5
428.958	1133.5
429.181	1103.5
429.403	1126.5
429.625	1112.5
429.847	1127.5
430.069	1111.5
430.292	1137.5
430.514	1118.5
430.736	1133.5
430.958	1148.5
431.18	1145.5
431.402	1134.5
431.624	1119.5
431.846	1126.5
432.068	1114.5
432.29	1140.5
432.512	1143.5
432.734	1194.5
432.956	1163.5
433.178	1151.5
433.4	1162.5
433.622	1156.5
433.844	1144.5
434.066	1132.5
434.287	1155.5
434.509	1161.5
434.731	1185.5
434.953	1170.5
435.175	1201.5
435.397	1217.5
435.618	1159.5
435.84	1143.5
436.062	1141.5
436.284	1130.5
436.505	1144.5
436.727	1134.5
436.949	1105.5
437.17	1129.5
437.392	1130.5
437.614	1133.5
437.835	1089.5
438.057	1102.5
438.278	1082.5
438.5	1146.5
438.721	1119.5
438.943	1124.5
439.165	1127.5
439.386	1110.5
439.608	1124.5
439.829	1119.5
440.05	1094.5
440.272	1117.5
440.493	1124.5
440.715	1128.5
440.936	1120.5
441.158	1126.5
441.379	1160.5
441.6	1172.5
441.822	1179.5
442.043	1184.5
442.264	1170.5
442.486	1128.5
442.707	1135.5
442.928	1190.5
443.149	1208.5
443.371	1202.5
443.592	1154.5
443.813	1169.5
444.034	1193.5
444.255	1200.5
444.476	1174.5
444.698	1199.5
444.919	1222.5
445.14	1378.5
445.361	1250.5
445.582	1215.5
445.803	1174.5
446.024	1151.5
446.245	1142.5
446.466	1148.5
446.687	1146.5
446.908	1138.5
447.129	1096.5
447.35	1116.5
447.571	1099.5
447.792	1042.5
448.013	1079.5
448.234	1089.5
448.455	1050.5
448.675	1065.5
448.896	1055.5
449.117	1057.5
449.338	1055.5
449.559	1045.5
449.779	1021.5
450	1020.5
450.221	1010.5
450.442	1034.5
450.662	1041.5
450.883	1035.5
451.104	1061.5
451.324	1019.5
451.545	1059.5
451.766	1030.5
451.986	1028.5
452.207	1037.5
452.428	1028.5
452.648	1032.5
452.869	999.5
453.089	982.5
453.31	1029.5
453.53	990.5
453.751	989.5
453.971	1013.5
454.192	997.5
454.412	970.5
454.633	1002.5
454.853	970.5
455.073	969.5
455.294	1007.5
455.514	995.5
455.734	991.5
455.955	1003.5
456.175	985.5
456.395	975.5
456.616	982.5
456.836	1031.5
457.056	983.5
457.276	988.5
457.497	996.5
457.717	1013.5
457.937	1013.5
458.157	996.5
458.377	1003.5
458.598	1036.5
458.818	1038.5
459.038	1060.5
459.258	1074.5
459.478	1107.5
459.698	1113.5
459.918	1117.5
460.138	1134.5
460.358	1173.5
460.578	1204.5
460.798	1196.5
461.018	1210.5
461.238	1207.5
461.458	1217.5
461.678	1204.5
461.898	1248.5
462.118	1243.5
462.338	1254.5
462.558	1271.5
462.777	1305.5
462.997	1302.5
463.217	1336.5
463.437	1376.5
463.657	1337.5
463.876	1325.5
464.096	1343.5
464.316	1278.5
464.536	1267.5
464.755	1301.5
464.975	1298.5
465.195	1237.5
465.414	1192.5
465.634	1179.5
465.854	1189.5
466.073	1170.5
466.293	1149.5
466.512	1139.5
466.732	1109.5
466.951	1113.5
467.171	1105.5
467.391	1135.5
467.61	1095.5
467.829	1092.5
468.049	1102.5
468.268	1082.5
468.488	1083.5
468.707	1113.5
468.927	1096.5
469.146	1113.5
469.365	1102.5
469.585	1091.5
469.804	1101.5
470.023	1113.5
470.243	1114.5
470.462	1111.5
470.681	1100.5
470.901	1143.5
471.12	1117.5
471.339	1100.5
471.558	1091.5
471.777	1127.5
471.997	1088.5
472.216	1097.5
472.435	1124.5
472.654	1118.5
472.873	1088.5
473.092	1097.5
473.311	1110.5
473.53	1112.5
473.749	1075.5
473.968	1068.5
474.187	1083.5
474.406	1101.5
474.625	1101.5
474.844	1094.5
475.063	1135.5
475.282	1108.5
475.501	1128.5
475.72	1134.5
475.939	1158.5
476.158	1153.5
476.377	1158.5
476.596	1183.5
476.814	1241.5
477.033	1158.5
477.252	1166.5
477.471	1177.5
477.69	1218.5
477.908	1263.5
478.127	1234.5
478.346	1208.5
478.564	1225.5
478.783	1261.5
479.002	1300.5
479.22	1324.5
479.439	1373.5
479.658	1328.5
479.876	1310.5
480.095	1320.5
480.313	1363.5
480.532	1303.5
480.751	1358.5
480.969	1332.5
481.188	1319.5
481.406	1356.5
481.624	1331.5
481.843	1308.5
482.061	1326.5
482.28	1341.5
482.498	1342.5
482.717	1319.5
482.935	1345.5
483.153	1321.5
483.372	1333.5
483.59	1306.5
483.808	1333.5
484.027	1308.5
484.245	1351.5
484.463	1348.5
484.681	1359.5
484.9	1328.5
485.118	1337.5
485.336	1349.5
485.554	1361.5
485.772	1331.5
485.99	1350.5
486.209	1353.5
486.427	1360.5
486.645	1355.5
486.863	1357.5
487.081	1386.5
487.299	1400.5
487.517	1347.5
487.735	1350.5
487.953	1396.5
488.171	1376.5
488.389	1349.5
488.607	1352.5
488.825	1346.5
489.043	1369.5
489.261	1373.5
489.479	1366.5
489.696	1375.5
489.914	1357.5
490.132	1356.5
490.35	1378.5
490.568	1351.5
490.786	1388.5
491.003	1364.5
491.221	1408.5
491.439	1407.5
491.657	1401.5
491.874	1398.5
492.092	1417.5
492.31	1418.5
492.527	1449.5
492.745	1454.5
492.963	1394.5
493.18	1425.5
493.398	1394.5
493.615	1448.5
493.833	1399.5
494.05	1383.5
494.268	1406.5
494.485	1430.5
494.703	1416.5
494.92	1421.5
495.138	1410.5
495.355	1444.5
495.573	1444.5
495.79	1429.5
496.008	1449.5
496.225	1484.5
496.442	1484.5
496.66	1505.5
496.877	1494.5
497.094	1537.5
497.312	1509.5
497.529	1540.5
497.746	1567.5
497.963	1575.5
498.181	1650.5
498.398	1674.5
498.615	1750.5
498.832	1800.5
499.049	1846.5
499.267	1873.5
499.484	1972.5
499.701	2056.5
499.918	2089.5
500.135	2240.5
500.352	2277.5
500.569	2327.5
500.786	2326.5
501.003	2323.5
501.22	2209.5
501.437	2137.5
501.654	2032.5
501.871	1953.5
502.088	1891.5
502.305	1842.5
502.522	1759.5
502.739	1737.5
502.956	1648.5
503.172	1606.5
503.389	1573.5
503.606	1580.5
503.823	1505.5
504.04	1569.5
504.256	1517.5
504.473	1474.5
504.69	1467.5
504.907	1459.5
505.123	1430.5
505.34	1448.5
505.557	1366.5
505.773	1345.5
505.99	1346.5
506.207	1301.5
506.423	1319.5
506.64	1280.5
506.856	1260.5
507.073	1269.5
507.289	1249.5
507.506	1256.5
507.722	1237.5
507.939	1235.5
508.155	1226.5
508.372	1230.5
508.588	1177.5
508.805	1175.5
509.021	1186.5
509.238	1167.5
509.454	1165.5
509.67	1168.5
509.887	1143.5
510.103	1137.5
510.319	1133.5
510.536	1144.5
510.752	1117.5
510.968	1136.5
511.184	1122.5
511.401	1119.5
511.617	1121.5
