Data from Fe(NO3)3@0.1M.TitratingCurve.Agarose3%dH2O.NegLispCup.LampEnergy10.LIBS07252019_HRD10591_16-42-03-333.txt Node
Date: Thu Jul 25 16:42:03 EDT 2019
User: cochatt
Spectrometer: HR+D1059
Trigger mode: 1
Integration Time (sec): 1.000000E-1
Scans to average: 1
Electric dark correction enabled: true
Nonlinearity correction enabled: false
Boxcar width: 0
XAxis mode: Wavelengths
Number of Pixels in Spectrum: 2048
>>>>>Begin Spectral Data<<<<<
223.165	-14.19
223.4	-14.19
223.635	-14.19
223.869	-20.19
224.104	-17.19
224.338	-16.19
224.573	-6.19
224.808	-14.19
225.042	-13.19
225.277	-2.19
225.511	-4.19
225.746	-8.19
225.98	14.81
226.215	14.81
226.449	12.81
226.683	21.81
226.918	19.81
227.152	31.81
227.387	40.81
227.621	37.81
227.856	52.81
228.09	53.81
228.324	53.81
228.559	54.81
228.793	71.81
229.027	71.81
229.262	70.81
229.496	63.81
229.73	85.81
229.964	87.81
230.199	70.81
230.433	93.81
230.667	94.81
230.901	81.81
231.136	93.81
231.37	88.81
231.604	88.81
231.838	91.81
232.072	84.81
232.306	87.81
232.541	89.81
232.775	95.81
233.009	103.81
233.243	90.81
233.477	62.81
233.711	97.81
233.945	86.81
234.179	95.81
234.413	101.81
234.647	104.81
234.881	95.81
235.115	98.81
235.349	88.81
235.583	82.81
235.817	88.81
236.051	88.81
236.285	84.81
236.519	100.81
236.753	113.81
236.987	87.81
237.221	95.81
237.455	85.81
237.689	93.81
237.922	106.81
238.156	89.81
238.39	95.81
238.624	91.81
238.858	98.81
239.091	93.81
239.325	92.81
239.559	91.81
239.793	88.81
240.027	108.81
240.26	101.81
240.494	122.81
240.728	96.81
240.961	106.81
241.195	100.81
241.429	91.81
241.662	97.81
241.896	89.81
242.13	94.81
242.363	94.81
242.597	85.81
242.83	97.81
243.064	104.81
243.298	95.81
243.531	88.81
243.765	96.81
243.998	95.81
244.232	106.81
244.465	106.81
244.699	99.81
244.932	94.81
245.166	107.81
245.399	109.81
245.633	90.81
245.866	109.81
246.099	104.81
246.333	98.81
246.566	100.81
246.8	119.81
247.033	103.81
247.266	117.81
247.5	112.81
247.733	117.81
247.966	91.81
248.2	91.81
248.433	121.81
248.666	106.81
248.899	102.81
249.133	107.81
249.366	98.81
249.599	105.81
249.832	102.81
250.066	110.81
250.299	104.81
250.532	101.81
250.765	116.81
250.998	113.81
251.231	111.81
251.465	111.81
251.698	106.81
251.931	115.81
252.164	107.81
252.397	105.81
252.63	114.81
252.863	109.81
253.096	117.81
253.329	110.81
253.562	109.81
253.795	98.81
254.028	116.81
254.261	114.81
254.494	113.81
254.727	109.81
254.96	109.81
255.193	92.81
255.426	99.81
255.659	125.81
255.892	127.81
256.124	107.81
256.357	113.81
256.59	97.81
256.823	117.81
257.056	108.81
257.289	124.81
257.521	103.81
257.754	111.81
257.987	108.81
258.22	124.81
258.452	118.81
258.685	111.81
258.918	120.81
259.151	122.81
259.383	115.81
259.616	124.81
259.849	124.81
260.081	120.81
260.314	99.81
260.547	103.81
260.779	124.81
261.012	115.81
261.244	122.81
261.477	139.81
261.71	112.81
261.942	115.81
262.175	119.81
262.407	127.81
262.64	111.81
262.872	117.81
263.105	128.81
263.337	126.81
263.57	112.81
263.802	123.81
264.035	133.81
264.267	111.81
264.499	107.81
264.732	126.81
264.964	129.81
265.197	124.81
265.429	117.81
265.661	108.81
265.894	139.81
266.126	126.81
266.358	132.81
266.591	105.81
266.823	131.81
267.055	123.81
267.287	128.81
267.52	142.81
267.752	127.81
267.984	110.81
268.216	138.81
268.448	136.81
268.681	134.81
268.913	123.81
269.145	131.81
269.377	122.81
269.609	136.81
269.841	140.81
270.073	127.81
270.306	123.81
270.538	140.81
270.77	124.81
271.002	126.81
271.234	137.81
271.466	132.81
271.698	124.81
271.93	142.81
272.162	140.81
272.394	122.81
272.626	121.81
272.858	132.81
273.09	119.81
273.322	127.81
273.553	117.81
273.785	123.81
274.017	138.81
274.249	153.81
274.481	126.81
274.713	129.81
274.945	155.81
275.176	136.81
275.408	139.81
275.64	126.81
275.872	139.81
276.104	133.81
276.335	151.81
276.567	129.81
276.799	139.81
277.031	140.81
277.262	146.81
277.494	132.81
277.726	130.81
277.957	129.81
278.189	133.81
278.421	133.81
278.652	137.81
278.884	145.81
279.115	145.81
279.347	153.81
279.579	153.81
279.81	135.81
280.042	149.81
280.273	141.81
280.505	141.81
280.736	137.81
280.968	128.81
281.199	151.81
281.431	140.81
281.662	159.81
281.894	137.81
282.125	138.81
282.356	147.81
282.588	151.81
282.819	139.81
283.051	158.81
283.282	139.81
283.513	134.81
283.745	135.81
283.976	144.81
284.207	133.81
284.439	151.81
284.67	150.81
284.901	154.81
285.132	147.81
285.364	139.81
285.595	145.81
285.826	138.81
286.057	149.81
286.288	156.81
286.52	138.81
286.751	149.81
286.982	156.81
287.213	165.81
287.444	141.81
287.675	164.81
287.906	155.81
288.138	157.81
288.369	155.81
288.6	162.81
288.831	165.81
289.062	150.81
289.293	152.81
289.524	158.81
289.755	155.81
289.986	164.81
290.217	157.81
290.448	154.81
290.679	163.81
290.91	165.81
291.141	153.81
291.371	160.81
291.602	145.81
291.833	153.81
292.064	167.81
292.295	158.81
292.526	153.81
292.757	158.81
292.987	152.81
293.218	174.81
293.449	159.81
293.68	158.81
293.91	153.81
294.141	137.81
294.372	158.81
294.603	163.81
294.833	162.81
295.064	163.81
295.295	160.81
295.525	147.81
295.756	165.81
295.987	167.81
296.217	150.81
296.448	174.81
296.679	163.81
296.909	168.81
297.14	152.81
297.37	168.81
297.601	171.81
297.831	174.81
298.062	161.81
298.292	156.81
298.523	173.81
298.753	167.81
298.984	152.81
299.214	161.81
299.445	173.81
299.675	156.81
299.905	166.81
300.136	169.81
300.366	165.81
300.597	171.81
300.827	170.81
301.057	173.81
301.288	164.81
301.518	167.81
301.748	171.81
301.979	172.81
302.209	187.81
302.439	172.81
302.669	167.81
302.9	163.81
303.13	165.81
303.36	169.81
303.59	171.81
303.82	163.81
304.051	167.81
304.281	168.81
304.511	188.81
304.741	176.81
304.971	183.81
305.201	155.81
305.431	167.81
305.661	167.81
305.891	152.81
306.121	176.81
306.352	171.81
306.582	164.81
306.812	168.81
307.042	160.81
307.272	165.81
307.502	169.81
307.731	168.81
307.961	160.81
308.191	155.81
308.421	165.81
308.651	175.81
308.881	184.81
309.111	167.81
309.341	152.81
309.571	169.81
309.8	168.81
310.03	168.81
310.26	168.81
310.49	179.81
310.72	152.81
310.949	185.81
311.179	176.81
311.409	163.81
311.639	197.81
311.868	165.81
312.098	179.81
312.328	180.81
312.557	182.81
312.787	187.81
313.017	167.81
313.246	175.81
313.476	181.81
313.706	186.81
313.935	183.81
314.165	190.81
314.394	177.81
314.624	183.81
314.853	177.81
315.083	179.81
315.312	181.81
315.542	177.81
315.771	181.81
316.001	180.81
316.23	191.81
316.46	183.81
316.689	179.81
316.919	173.81
317.148	179.81
317.377	195.81
317.607	178.81
317.836	174.81
318.065	177.81
318.295	185.81
318.524	183.81
318.753	185.81
318.983	187.81
319.212	193.81
319.441	176.81
319.67	170.81
319.9	192.81
320.129	189.81
320.358	180.81
320.587	170.81
320.816	180.81
321.046	159.81
321.275	198.81
321.504	189.81
321.733	178.81
321.962	170.81
322.191	182.81
322.42	183.81
322.649	193.81
322.878	174.81
323.108	187.81
323.337	184.81
323.566	180.81
323.795	186.81
324.024	184.81
324.253	201.81
324.482	191.81
324.71	186.81
324.939	198.81
325.168	195.81
325.397	187.81
325.626	185.81
325.855	189.81
326.084	208.81
326.313	199.81
326.542	178.81
326.77	207.81
326.999	201.81
327.228	184.81
327.457	191.81
327.686	189.81
327.914	194.81
328.143	194.81
328.372	187.81
328.6	197.81
328.829	200.81
329.058	195.81
329.287	193.81
329.515	201.81
329.744	191.81
329.972	191.81
330.201	204.81
330.43	195.81
330.658	201.81
330.887	200.81
331.115	208.81
331.344	193.81
331.572	209.81
331.801	204.81
332.03	215.81
332.258	223.81
332.486	202.81
332.715	223.81
332.943	223.81
333.172	230.81
333.4	233.81
333.629	241.81
333.857	230.81
334.085	243.81
334.314	229.81
334.542	249.81
334.771	234.81
334.999	223.81
335.227	219.81
335.455	218.81
335.684	229.81
335.912	217.81
336.14	209.81
336.369	230.81
336.597	228.81
336.825	235.81
337.053	221.81
337.281	220.81
337.51	209.81
337.738	197.81
337.966	210.81
338.194	228.81
338.422	220.81
338.65	216.81
338.878	208.81
339.106	207.81
339.334	209.81
339.562	206.81
339.79	172.81
340.018	193.81
340.246	195.81
340.474	207.81
340.702	229.81
340.93	202.81
341.158	194.81
341.386	197.81
341.614	209.81
341.842	202.81
342.07	200.81
342.298	215.81
342.526	190.81
342.754	193.81
342.981	217.81
343.209	212.81
343.437	191.81
343.665	213.81
343.893	227.81
344.12	226.81
344.348	229.81
344.576	219.81
344.804	225.81
345.031	206.81
345.259	209.81
345.487	217.81
345.714	208.81
345.942	206.81
346.17	193.81
346.397	195.81
346.625	197.81
346.853	203.81
347.08	198.81
347.308	199.81
347.535	211.81
347.763	187.81
347.99	202.81
348.218	209.81
348.445	191.81
348.673	199.81
348.9	213.81
349.128	212.81
349.355	187.81
349.583	182.81
349.81	181.81
350.037	196.81
350.265	200.81
350.492	208.81
350.72	195.81
350.947	183.81
351.174	189.81
351.402	179.81
351.629	177.81
351.856	207.81
352.083	196.81
352.311	199.81
352.538	207.81
352.765	209.81
352.992	207.81
353.22	208.81
353.447	203.81
353.674	191.81
353.901	189.81
354.128	193.81
354.355	183.81
354.583	214.81
354.81	206.81
355.037	200.81
355.264	206.81
355.491	194.81
355.718	195.81
355.945	197.81
356.172	205.81
356.399	180.81
356.626	192.81
356.853	205.81
357.08	203.81
357.307	209.81
357.534	203.81
357.761	197.81
357.988	205.81
358.215	199.81
358.441	196.81
358.668	207.81
358.895	199.81
359.122	203.81
359.349	199.81
359.576	204.81
359.802	211.81
360.029	208.81
360.256	200.81
360.483	211.81
360.709	214.81
360.936	210.81
361.163	219.81
361.39	215.81
361.616	211.81
361.843	192.81
362.07	203.81
362.296	206.81
362.523	219.81
362.749	193.81
362.976	208.81
363.203	212.81
363.429	218.81
363.656	213.81
363.882	201.81
364.109	217.81
364.335	185.81
364.562	200.81
364.788	200.81
365.015	198.81
365.241	195.81
365.468	191.81
365.694	199.81
365.92	194.81
366.147	197.81
366.373	214.81
366.599	206.81
366.826	209.81
367.052	202.81
367.278	205.81
367.505	211.81
367.731	219.81
367.957	207.81
368.184	215.81
368.41	204.81
368.636	223.81
368.862	204.81
369.089	201.81
369.315	197.81
369.541	189.81
369.767	197.81
369.993	208.81
370.219	203.81
370.445	215.81
370.672	208.81
370.898	226.81
371.124	223.81
371.35	217.81
371.576	224.81
371.802	222.81
372.028	214.81
372.254	209.81
372.48	208.81
372.706	209.81
372.932	227.81
373.158	212.81
373.384	219.81
373.61	209.81
373.835	208.81
374.061	219.81
374.287	219.81
374.513	218.81
374.739	241.81
374.965	246.81
375.191	227.81
375.416	225.81
375.642	205.81
375.868	233.81
376.094	216.81
376.319	211.81
376.545	224.81
376.771	221.81
376.997	210.81
377.222	224.81
377.448	227.81
377.674	219.81
377.899	214.81
378.125	215.81
378.35	207.81
378.576	195.81
378.802	209.81
379.027	219.81
379.253	215.81
379.478	204.81
379.704	217.81
379.929	187.81
380.155	193.81
380.38	218.81
380.606	222.81
380.831	217.81
381.057	217.81
381.282	216.81
381.507	229.81
381.733	227.81
381.958	226.81
382.184	229.81
382.409	234.81
382.634	230.81
382.86	223.81
383.085	220.81
383.31	227.81
383.535	240.81
383.761	226.81
383.986	236.81
384.211	232.81
384.436	234.81
384.662	215.81
384.887	239.81
385.112	238.81
385.337	252.81
385.562	232.81
385.787	243.81
386.013	259.81
386.238	253.81
386.463	250.81
386.688	237.81
386.913	241.81
387.138	248.81
387.363	247.81
387.588	251.81
387.813	224.81
388.038	235.81
388.263	249.81
388.488	250.81
388.713	251.81
388.938	249.81
389.163	240.81
389.387	259.81
389.612	250.81
389.837	247.81
390.062	270.81
390.287	256.81
390.512	243.81
390.736	259.81
390.961	273.81
391.186	249.81
391.411	276.81
391.636	248.81
391.86	276.81
392.085	280.81
392.31	298.81
392.534	274.81
392.759	268.81
392.984	270.81
393.208	263.81
393.433	264.81
393.658	256.81
393.882	250.81
394.107	263.81
394.331	271.81
394.556	263.81
394.78	278.81
395.005	264.81
395.229	272.81
395.454	274.81
395.678	280.81
395.903	273.81
396.127	279.81
396.352	277.81
396.576	273.81
396.801	269.81
397.025	270.81
397.249	269.81
397.474	265.81
397.698	280.81
397.922	267.81
398.147	281.81
398.371	292.81
398.595	292.81
398.82	314.81
399.044	308.81
399.268	349.81
399.492	357.81
399.717	404.81
399.941	368.81
400.165	343.81
400.389	342.81
400.613	318.81
400.837	299.81
401.062	295.81
401.286	298.81
401.51	302.81
401.734	295.81
401.958	293.81
402.182	325.81
402.406	296.81
402.63	321.81
402.854	315.81
403.078	310.81
403.302	316.81
403.526	301.81
403.75	320.81
403.974	317.81
404.198	316.81
404.422	328.81
404.645	319.81
404.869	309.81
405.093	321.81
405.317	310.81
405.541	299.81
405.765	310.81
405.988	309.81
406.212	330.81
406.436	330.81
406.66	344.81
406.883	341.81
407.107	350.81
407.331	341.81
407.555	360.81
407.778	351.81
408.002	348.81
408.226	341.81
408.449	350.81
408.673	336.81
408.896	335.81
409.12	337.81
409.344	331.81
409.567	339.81
409.791	342.81
410.014	338.81
410.238	326.81
410.461	332.81
410.685	327.81
410.908	325.81
411.132	334.81
411.355	322.81
411.578	333.81
411.802	318.81
412.025	317.81
412.249	328.81
412.472	324.81
412.695	316.81
412.919	322.81
413.142	317.81
413.365	310.81
413.589	301.81
413.812	297.81
414.035	312.81
414.258	315.81
414.482	308.81
414.705	299.81
414.928	307.81
415.151	312.81
415.374	305.81
415.597	297.81
415.821	294.81
416.044	316.81
416.267	296.81
416.49	305.81
416.713	300.81
416.936	314.81
417.159	313.81
417.382	303.81
417.605	293.81
417.828	305.81
418.051	309.81
418.274	319.81
418.497	311.81
418.72	298.81
418.943	309.81
419.166	321.81
419.389	347.81
419.611	334.81
419.834	329.81
420.057	315.81
420.28	334.81
420.503	305.81
420.726	320.81
420.948	319.81
421.171	297.81
421.394	319.81
421.617	310.81
421.839	306.81
422.062	310.81
422.285	289.81
422.507	300.81
422.73	318.81
422.953	308.81
423.175	310.81
423.398	301.81
423.621	304.81
423.843	318.81
424.066	331.81
424.288	309.81
424.511	304.81
424.733	335.81
424.956	320.81
425.178	317.81
425.401	319.81
425.623	311.81
425.846	309.81
426.068	300.81
426.291	315.81
426.513	305.81
426.735	307.81
426.958	310.81
427.18	273.81
427.402	291.81
427.625	299.81
427.847	297.81
428.069	301.81
428.292	297.81
428.514	292.81
428.736	296.81
428.958	295.81
429.181	298.81
429.403	292.81
429.625	295.81
429.847	283.81
430.069	276.81
430.292	299.81
430.514	292.81
430.736	286.81
430.958	299.81
431.18	301.81
431.402	287.81
431.624	289.81
431.846	300.81
432.068	274.81
432.29	278.81
432.512	286.81
432.734	288.81
432.956	305.81
433.178	295.81
433.4	312.81
433.622	293.81
433.844	297.81
434.066	315.81
434.287	312.81
434.509	280.81
434.731	317.81
434.953	320.81
435.175	293.81
435.397	309.81
435.618	299.81
435.84	310.81
436.062	299.81
436.284	292.81
436.505	299.81
436.727	291.81
436.949	297.81
437.17	311.81
437.392	309.81
437.614	292.81
437.835	289.81
438.057	279.81
438.278	295.81
438.5	285.81
438.721	290.81
438.943	301.81
439.165	295.81
439.386	297.81
439.608	323.81
439.829	314.81
440.05	317.81
440.272	300.81
440.493	304.81
440.715	298.81
440.936	296.81
441.158	314.81
441.379	316.81
441.6	331.81
441.822	345.81
442.043	322.81
442.264	312.81
442.486	335.81
442.707	322.81
442.928	316.81
443.149	315.81
443.371	332.81
443.592	310.81
443.813	323.81
444.034	332.81
444.255	345.81
444.476	365.81
444.698	341.81
444.919	343.81
445.14	426.81
445.361	379.81
445.582	347.81
445.803	321.81
446.024	320.81
446.245	347.81
446.466	338.81
446.687	331.81
446.908	333.81
447.129	329.81
447.35	313.81
447.571	326.81
447.792	277.81
448.013	317.81
448.234	307.81
448.455	307.81
448.675	305.81
448.896	271.81
449.117	300.81
449.338	299.81
449.559	283.81
449.779	278.81
450	273.81
450.221	282.81
450.442	295.81
450.662	290.81
450.883	282.81
451.104	294.81
451.324	283.81
451.545	284.81
451.766	285.81
451.986	287.81
452.207	310.81
452.428	281.81
452.648	273.81
452.869	273.81
453.089	278.81
453.31	291.81
453.53	252.81
453.751	281.81
453.971	265.81
454.192	268.81
454.412	260.81
454.633	293.81
454.853	304.81
455.073	269.81
455.294	260.81
455.514	276.81
455.734	266.81
455.955	264.81
456.175	304.81
456.395	284.81
456.616	265.81
456.836	255.81
457.056	264.81
457.276	275.81
457.497	282.81
457.717	281.81
457.937	278.81
458.157	283.81
458.377	275.81
458.598	289.81
458.818	297.81
459.038	294.81
459.258	285.81
459.478	292.81
459.698	307.81
459.918	298.81
460.138	318.81
460.358	327.81
460.578	319.81
460.798	307.81
461.018	324.81
461.238	319.81
461.458	345.81
461.678	329.81
461.898	323.81
462.118	346.81
462.338	370.81
462.558	349.81
462.777	378.81
462.997	372.81
463.217	401.81
463.437	392.81
463.657	389.81
463.876	363.81
464.096	356.81
464.316	367.81
464.536	355.81
464.755	351.81
464.975	346.81
465.195	345.81
465.414	340.81
465.634	318.81
465.854	320.81
466.073	312.81
466.293	300.81
466.512	293.81
466.732	292.81
466.951	284.81
467.171	300.81
467.391	280.81
467.61	314.81
467.829	309.81
468.049	298.81
468.268	303.81
468.488	284.81
468.707	318.81
468.927	300.81
469.146	297.81
469.365	297.81
469.585	289.81
469.804	304.81
470.023	306.81
470.243	307.81
470.462	295.81
470.681	323.81
470.901	304.81
471.12	297.81
471.339	292.81
471.558	305.81
471.777	289.81
471.997	297.81
472.216	301.81
472.435	279.81
472.654	281.81
472.873	263.81
473.092	289.81
473.311	286.81
473.53	276.81
473.749	278.81
473.968	299.81
474.187	272.81
474.406	271.81
474.625	282.81
474.844	303.81
475.063	293.81
475.282	270.81
475.501	297.81
475.72	285.81
475.939	291.81
476.158	287.81
476.377	279.81
476.596	291.81
476.814	288.81
477.033	301.81
477.252	315.81
477.471	297.81
477.69	297.81
477.908	318.81
478.127	324.81
478.346	321.81
478.564	323.81
478.783	326.81
479.002	323.81
479.22	337.81
479.439	329.81
479.658	318.81
479.876	321.81
480.095	313.81
480.313	332.81
480.532	327.81
480.751	337.81
480.969	322.81
481.188	331.81
481.406	340.81
481.624	317.81
481.843	300.81
482.061	325.81
482.28	327.81
482.498	325.81
482.717	307.81
482.935	288.81
483.153	323.81
483.372	319.81
483.59	315.81
483.808	311.81
484.027	313.81
484.245	298.81
484.463	327.81
484.681	346.81
484.9	325.81
485.118	323.81
485.336	315.81
485.554	321.81
485.772	304.81
485.99	311.81
486.209	315.81
486.427	319.81
486.645	316.81
486.863	331.81
487.081	319.81
487.299	320.81
487.517	321.81
487.735	311.81
487.953	326.81
488.171	327.81
488.389	329.81
488.607	335.81
488.825	321.81
489.043	315.81
489.261	331.81
489.479	311.81
489.696	317.81
489.914	320.81
490.132	341.81
490.35	318.81
490.568	315.81
490.786	336.81
491.003	331.81
491.221	338.81
491.439	360.81
491.657	345.81
491.874	341.81
492.092	337.81
492.31	359.81
492.527	348.81
492.745	348.81
492.963	325.81
493.18	339.81
493.398	341.81
493.615	338.81
493.833	334.81
494.05	314.81
494.268	353.81
494.485	333.81
494.703	341.81
494.92	327.81
495.138	329.81
495.355	335.81
495.573	350.81
495.79	329.81
496.008	342.81
496.225	360.81
496.442	361.81
496.66	356.81
496.877	350.81
497.094	364.81
497.312	365.81
497.529	385.81
497.746	357.81
497.963	360.81
498.181	376.81
498.398	385.81
498.615	419.81
498.832	440.81
499.049	443.81
499.267	494.81
499.484	503.81
499.701	551.81
499.918	589.81
500.135	604.81
500.352	661.81
500.569	686.81
500.786	705.81
501.003	649.81
501.22	609.81
501.437	569.81
501.654	529.81
501.871	496.81
502.088	449.81
502.305	444.81
502.522	425.81
