Data from Fe(NO3)3@0.025M.TitratingCurve.Agarose3%dH2O.NegLispCup.LampEnergy10.LIBS07252019_HRD10591_16-53-44-335.txt Node
Date: Thu Jul 25 16:53:44 EDT 2019
User: cochatt
Spectrometer: HR+D1059
Trigger mode: 1
Integration Time (sec): 1.000000E-1
Scans to average: 1
Electric dark correction enabled: true
Nonlinearity correction enabled: false
Boxcar width: 0
XAxis mode: Wavelengths
Number of Pixels in Spectrum: 2048
>>>>>Begin Spectral Data<<<<<
223.165	-14.88
223.4	-14.88
223.635	-14.88
223.869	-11.88
224.104	-22.88
224.338	-4.88
224.573	-10.88
224.808	-19.88
225.042	-4.88
225.277	-4.88
225.511	6.12
225.746	-2.88
225.98	8.12
226.215	1.12
226.449	24.12
226.683	19.12
226.918	14.12
227.152	25.12
227.387	29.12
227.621	36.12
227.856	45.12
228.09	59.12
228.324	53.12
228.559	45.12
228.793	68.12
229.027	85.12
229.262	102.12
229.496	86.12
229.73	102.12
229.964	115.12
230.199	104.12
230.433	113.12
230.667	108.12
230.901	85.12
231.136	109.12
231.37	116.12
231.604	110.12
231.838	100.12
232.072	125.12
232.306	129.12
232.541	117.12
232.775	127.12
233.009	107.12
233.243	102.12
233.477	124.12
233.711	115.12
233.945	132.12
234.179	134.12
234.413	116.12
234.647	125.12
234.881	114.12
235.115	121.12
235.349	141.12
235.583	132.12
235.817	115.12
236.051	141.12
236.285	118.12
236.519	133.12
236.753	133.12
236.987	130.12
237.221	119.12
237.455	131.12
237.689	140.12
237.922	141.12
238.156	127.12
238.39	125.12
238.624	124.12
238.858	125.12
239.091	125.12
239.325	128.12
239.559	123.12
239.793	123.12
240.027	125.12
240.26	143.12
240.494	129.12
240.728	130.12
240.961	141.12
241.195	153.12
241.429	151.12
241.662	141.12
241.896	140.12
242.13	129.12
242.363	159.12
242.597	140.12
242.83	148.12
243.064	127.12
243.298	145.12
243.531	149.12
243.765	154.12
243.998	153.12
244.232	152.12
244.465	143.12
244.699	148.12
244.932	161.12
245.166	153.12
245.399	150.12
245.633	153.12
245.866	172.12
246.099	157.12
246.333	165.12
246.566	158.12
246.8	157.12
247.033	175.12
247.266	161.12
247.5	153.12
247.733	154.12
247.966	159.12
248.2	173.12
248.433	189.12
248.666	177.12
248.899	165.12
249.133	164.12
249.366	177.12
249.599	194.12
249.832	166.12
250.066	169.12
250.299	177.12
250.532	192.12
250.765	166.12
250.998	175.12
251.231	167.12
251.465	184.12
251.698	190.12
251.931	189.12
252.164	174.12
252.397	194.12
252.63	188.12
252.863	164.12
253.096	167.12
253.329	193.12
253.562	198.12
253.795	188.12
254.028	181.12
254.261	185.12
254.494	199.12
254.727	203.12
254.96	191.12
255.193	191.12
255.426	177.12
255.659	202.12
255.892	188.12
256.124	198.12
256.357	211.12
256.59	207.12
256.823	209.12
257.056	189.12
257.289	206.12
257.521	198.12
257.754	204.12
257.987	193.12
258.22	207.12
258.452	204.12
258.685	222.12
258.918	219.12
259.151	204.12
259.383	205.12
259.616	215.12
259.849	216.12
260.081	217.12
260.314	234.12
260.547	221.12
260.779	218.12
261.012	214.12
261.244	232.12
261.477	222.12
261.71	227.12
261.942	225.12
262.175	221.12
262.407	219.12
262.64	226.12
262.872	229.12
263.105	225.12
263.337	232.12
263.57	225.12
263.802	228.12
264.035	227.12
264.267	225.12
264.499	213.12
264.732	255.12
264.964	233.12
265.197	253.12
265.429	246.12
265.661	250.12
265.894	260.12
266.126	235.12
266.358	250.12
266.591	233.12
266.823	231.12
267.055	235.12
267.287	269.12
267.52	248.12
267.752	232.12
267.984	262.12
268.216	245.12
268.448	247.12
268.681	260.12
268.913	255.12
269.145	257.12
269.377	257.12
269.609	274.12
269.841	268.12
270.073	253.12
270.306	254.12
270.538	260.12
270.77	254.12
271.002	265.12
271.234	254.12
271.466	262.12
271.698	261.12
271.93	254.12
272.162	265.12
272.394	275.12
272.626	266.12
272.858	285.12
273.09	271.12
273.322	288.12
273.553	263.12
273.785	297.12
274.017	289.12
274.249	288.12
274.481	284.12
274.713	285.12
274.945	291.12
275.176	287.12
275.408	275.12
275.64	296.12
275.872	296.12
276.104	302.12
276.335	301.12
276.567	285.12
276.799	278.12
277.031	299.12
277.262	291.12
277.494	317.12
277.726	289.12
277.957	322.12
278.189	295.12
278.421	309.12
278.652	305.12
278.884	322.12
279.115	293.12
279.347	306.12
279.579	297.12
279.81	296.12
280.042	314.12
280.273	311.12
280.505	298.12
280.736	310.12
280.968	311.12
281.199	308.12
281.431	309.12
281.662	326.12
281.894	315.12
282.125	330.12
282.356	305.12
282.588	319.12
282.819	321.12
283.051	331.12
283.282	327.12
283.513	323.12
283.745	308.12
283.976	327.12
284.207	317.12
284.439	335.12
284.67	316.12
284.901	343.12
285.132	334.12
285.364	316.12
285.595	346.12
285.826	329.12
286.057	353.12
286.288	325.12
286.52	341.12
286.751	350.12
286.982	360.12
287.213	338.12
287.444	346.12
287.675	345.12
287.906	340.12
288.138	335.12
288.369	349.12
288.6	348.12
288.831	355.12
289.062	356.12
289.293	351.12
289.524	354.12
289.755	343.12
289.986	339.12
290.217	353.12
290.448	358.12
290.679	365.12
290.91	343.12
291.141	376.12
291.371	339.12
291.602	358.12
291.833	361.12
292.064	362.12
292.295	348.12
292.526	355.12
292.757	341.12
292.987	344.12
293.218	341.12
293.449	359.12
293.68	363.12
293.91	361.12
294.141	354.12
294.372	377.12
294.603	371.12
294.833	374.12
295.064	357.12
295.295	350.12
295.525	383.12
295.756	380.12
295.987	346.12
296.217	372.12
296.448	365.12
296.679	376.12
296.909	365.12
297.14	387.12
297.37	389.12
297.601	374.12
297.831	361.12
298.062	375.12
298.292	381.12
298.523	376.12
298.753	384.12
298.984	378.12
299.214	383.12
299.445	399.12
299.675	389.12
299.905	396.12
300.136	369.12
300.366	402.12
300.597	397.12
300.827	399.12
301.057	377.12
301.288	399.12
301.518	397.12
301.748	392.12
301.979	416.12
302.209	405.12
302.439	407.12
302.669	421.12
302.9	412.12
303.13	382.12
303.36	414.12
303.59	424.12
303.82	431.12
304.051	406.12
304.281	407.12
304.511	407.12
304.741	409.12
304.971	404.12
305.201	417.12
305.431	418.12
305.661	415.12
305.891	419.12
306.121	416.12
306.352	416.12
306.582	407.12
306.812	405.12
307.042	437.12
307.272	419.12
307.502	419.12
307.731	416.12
307.961	414.12
308.191	418.12
308.421	411.12
308.651	409.12
308.881	430.12
309.111	388.12
309.341	401.12
309.571	416.12
309.8	443.12
310.03	424.12
310.26	429.12
310.49	423.12
310.72	445.12
310.949	428.12
311.179	431.12
311.409	426.12
311.639	415.12
311.868	428.12
312.098	443.12
312.328	457.12
312.557	451.12
312.787	451.12
313.017	444.12
313.246	454.12
313.476	459.12
313.706	440.12
313.935	465.12
314.165	460.12
314.394	435.12
314.624	477.12
314.853	438.12
315.083	453.12
315.312	454.12
315.542	456.12
315.771	451.12
316.001	444.12
316.23	447.12
316.46	471.12
316.689	429.12
316.919	450.12
317.148	477.12
317.377	478.12
317.607	461.12
317.836	447.12
318.065	451.12
318.295	455.12
318.524	481.12
318.753	465.12
318.983	449.12
319.212	455.12
319.441	447.12
319.67	458.12
319.9	452.12
320.129	472.12
320.358	465.12
320.587	465.12
320.816	482.12
321.046	441.12
321.275	458.12
321.504	464.12
321.733	463.12
321.962	478.12
322.191	468.12
322.42	499.12
322.649	476.12
322.878	481.12
323.108	477.12
323.337	477.12
323.566	481.12
323.795	487.12
324.024	474.12
324.253	466.12
324.482	475.12
324.71	497.12
324.939	472.12
325.168	486.12
325.397	478.12
325.626	503.12
325.855	490.12
326.084	497.12
326.313	483.12
326.542	513.12
326.77	506.12
326.999	501.12
327.228	485.12
327.457	514.12
327.686	501.12
327.914	502.12
328.143	516.12
328.372	490.12
328.6	498.12
328.829	513.12
329.058	494.12
329.287	515.12
329.515	493.12
329.744	515.12
329.972	516.12
330.201	499.12
330.43	504.12
330.658	512.12
330.887	521.12
331.115	513.12
331.344	501.12
331.572	525.12
331.801	541.12
332.03	538.12
332.258	547.12
332.486	545.12
332.715	538.12
332.943	546.12
333.172	550.12
333.4	547.12
333.629	574.12
333.857	569.12
334.085	606.12
334.314	601.12
334.542	582.12
334.771	571.12
334.999	572.12
335.227	559.12
335.455	580.12
335.684	577.12
335.912	589.12
336.14	594.12
336.369	567.12
336.597	568.12
336.825	581.12
337.053	589.12
337.281	563.12
337.51	555.12
337.738	541.12
337.966	540.12
338.194	554.12
338.422	555.12
338.65	568.12
338.878	558.12
339.106	552.12
339.334	561.12
339.562	541.12
339.79	555.12
340.018	538.12
340.246	555.12
340.474	573.12
340.702	524.12
340.93	559.12
341.158	555.12
341.386	540.12
341.614	538.12
341.842	538.12
342.07	565.12
342.298	530.12
342.526	526.12
342.754	559.12
342.981	532.12
343.209	525.12
343.437	549.12
343.665	539.12
343.893	573.12
344.12	625.12
344.348	585.12
344.576	559.12
344.804	581.12
345.031	548.12
345.259	558.12
345.487	573.12
345.714	551.12
345.942	532.12
346.17	535.12
346.397	542.12
346.625	550.12
346.853	525.12
347.08	537.12
347.308	530.12
347.535	513.12
347.763	540.12
347.99	524.12
348.218	519.12
348.445	524.12
348.673	503.12
348.9	535.12
349.128	523.12
349.355	520.12
349.583	513.12
349.81	514.12
350.037	526.12
350.265	519.12
350.492	521.12
350.72	525.12
350.947	502.12
351.174	546.12
351.402	524.12
351.629	545.12
351.856	520.12
352.083	524.12
352.311	530.12
352.538	524.12
352.765	529.12
352.992	526.12
353.22	519.12
353.447	506.12
353.674	532.12
353.901	527.12
354.128	527.12
354.355	503.12
354.583	510.12
354.81	529.12
355.037	522.12
355.264	501.12
355.491	507.12
355.718	507.12
355.945	533.12
356.172	520.12
356.399	526.12
356.626	535.12
356.853	526.12
357.08	523.12
357.307	532.12
357.534	521.12
357.761	517.12
357.988	554.12
358.215	515.12
358.441	537.12
358.668	523.12
358.895	509.12
359.122	527.12
359.349	507.12
359.576	498.12
359.802	494.12
360.029	511.12
360.256	535.12
360.483	524.12
360.709	533.12
360.936	502.12
361.163	548.12
361.39	525.12
361.616	501.12
361.843	520.12
362.07	535.12
362.296	540.12
362.523	532.12
362.749	528.12
362.976	521.12
363.203	526.12
363.429	516.12
363.656	533.12
363.882	511.12
364.109	517.12
364.335	536.12
364.562	541.12
364.788	515.12
365.015	519.12
365.241	547.12
365.468	538.12
365.694	522.12
365.92	534.12
366.147	546.12
366.373	539.12
366.599	506.12
366.826	507.12
367.052	532.12
367.278	535.12
367.505	531.12
367.731	549.12
367.957	545.12
368.184	533.12
368.41	549.12
368.636	546.12
368.862	539.12
369.089	538.12
369.315	579.12
369.541	555.12
369.767	557.12
369.993	563.12
370.219	550.12
370.445	552.12
370.672	549.12
370.898	556.12
371.124	558.12
371.35	559.12
371.576	556.12
371.802	599.12
372.028	591.12
372.254	600.12
372.48	583.12
372.706	566.12
372.932	576.12
373.158	575.12
373.384	574.12
373.61	585.12
373.835	592.12
374.061	555.12
374.287	580.12
374.513	584.12
374.739	628.12
374.965	594.12
375.191	590.12
375.416	580.12
375.642	577.12
375.868	594.12
376.094	576.12
376.319	589.12
376.545	583.12
376.771	587.12
376.997	587.12
377.222	581.12
377.448	557.12
377.674	582.12
377.899	544.12
378.125	565.12
378.35	559.12
378.576	580.12
378.802	551.12
379.027	574.12
379.253	552.12
379.478	563.12
379.704	579.12
379.929	572.12
380.155	587.12
380.38	579.12
380.606	566.12
380.831	558.12
381.057	557.12
381.282	551.12
381.507	558.12
381.733	599.12
381.958	553.12
382.184	580.12
382.409	612.12
382.634	562.12
382.86	585.12
383.085	595.12
383.31	612.12
383.535	599.12
383.761	627.12
383.986	611.12
384.211	586.12
384.436	636.12
384.662	604.12
384.887	615.12
385.112	621.12
385.337	630.12
385.562	622.12
385.787	620.12
386.013	636.12
386.238	628.12
386.463	625.12
386.688	636.12
386.913	650.12
387.138	642.12
387.363	651.12
387.588	651.12
387.813	674.12
388.038	653.12
388.263	639.12
388.488	667.12
388.713	645.12
388.938	653.12
389.163	691.12
389.387	640.12
389.612	663.12
389.837	672.12
390.062	648.12
390.287	655.12
390.512	653.12
390.736	667.12
390.961	656.12
391.186	647.12
391.411	683.12
391.636	668.12
391.86	683.12
392.085	696.12
392.31	690.12
392.534	701.12
392.759	689.12
392.984	676.12
393.208	686.12
393.433	691.12
393.658	686.12
393.882	672.12
394.107	694.12
394.331	683.12
394.556	670.12
394.78	674.12
395.005	716.12
395.229	681.12
395.454	715.12
395.678	693.12
395.903	700.12
396.127	716.12
396.352	693.12
396.576	689.12
396.801	713.12
397.025	713.12
397.249	719.12
397.474	711.12
397.698	714.12
397.922	744.12
398.147	738.12
398.371	724.12
398.595	740.12
398.82	735.12
399.044	777.12
399.268	785.12
399.492	840.12
399.717	840.12
399.941	855.12
400.165	836.12
400.389	845.12
400.613	774.12
400.837	773.12
401.062	755.12
401.286	778.12
401.51	790.12
401.734	787.12
401.958	766.12
402.182	784.12
402.406	769.12
402.63	732.12
402.854	771.12
403.078	768.12
403.302	753.12
403.526	788.12
403.75	790.12
403.974	807.12
404.198	797.12
404.422	761.12
404.645	773.12
404.869	796.12
405.093	783.12
405.317	760.12
405.541	782.12
405.765	768.12
405.988	785.12
406.212	799.12
406.436	821.12
406.66	814.12
406.883	828.12
407.107	819.12
407.331	823.12
407.555	859.12
407.778	841.12
408.002	858.12
408.226	850.12
408.449	859.12
408.673	821.12
408.896	835.12
409.12	801.12
409.344	819.12
409.567	855.12
409.791	827.12
410.014	808.12
410.238	835.12
410.461	803.12
410.685	795.12
410.908	797.12
411.132	777.12
411.355	785.12
411.578	779.12
411.802	789.12
412.025	781.12
412.249	806.12
412.472	819.12
412.695	765.12
412.919	781.12
413.142	781.12
413.365	783.12
413.589	770.12
413.812	752.12
414.035	744.12
414.258	749.12
414.482	745.12
414.705	771.12
414.928	777.12
415.151	758.12
415.374	758.12
415.597	745.12
415.821	729.12
416.044	726.12
416.267	733.12
416.49	730.12
416.713	760.12
416.936	748.12
417.159	718.12
417.382	713.12
417.605	716.12
417.828	730.12
418.051	720.12
418.274	735.12
418.497	706.12
418.72	723.12
418.943	741.12
419.166	757.12
419.389	802.12
419.611	771.12
419.834	775.12
420.057	755.12
420.28	731.12
420.503	690.12
420.726	691.12
420.948	705.12
421.171	711.12
421.394	711.12
421.617	725.12
421.839	701.12
422.062	746.12
422.285	714.12
422.507	733.12
422.73	727.12
422.953	728.12
423.175	733.12
423.398	735.12
423.621	717.12
423.843	716.12
424.066	712.12
424.288	738.12
424.511	720.12
424.733	721.12
424.956	706.12
425.178	717.12
425.401	721.12
425.623	718.12
425.846	675.12
426.068	726.12
426.291	714.12
426.513	705.12
426.735	694.12
426.958	716.12
427.18	699.12
427.402	719.12
427.625	706.12
427.847	688.12
428.069	695.12
428.292	685.12
428.514	678.12
428.736	683.12
428.958	707.12
429.181	673.12
429.403	687.12
429.625	709.12
429.847	680.12
430.069	705.12
430.292	700.12
430.514	681.12
430.736	703.12
430.958	691.12
431.18	686.12
431.402	691.12
431.624	699.12
431.846	687.12
432.068	695.12
432.29	693.12
432.512	705.12
432.734	679.12
432.956	709.12
433.178	707.12
433.4	681.12
433.622	685.12
433.844	690.12
434.066	681.12
434.287	690.12
434.509	722.12
434.731	683.12
434.953	731.12
435.175	705.12
435.397	726.12
435.618	678.12
435.84	710.12
436.062	670.12
436.284	673.12
436.505	685.12
436.727	672.12
436.949	650.12
437.17	680.12
437.392	685.12
437.614	674.12
437.835	645.12
438.057	661.12
438.278	663.12
438.5	660.12
438.721	676.12
438.943	681.12
439.165	699.12
439.386	654.12
439.608	671.12
439.829	670.12
440.05	677.12
440.272	663.12
440.493	678.12
440.715	689.12
440.936	699.12
441.158	671.12
441.379	677.12
441.6	707.12
441.822	682.12
442.043	689.12
442.264	687.12
442.486	683.12
442.707	703.12
442.928	691.12
443.149	698.12
443.371	704.12
443.592	714.12
443.813	687.12
444.034	703.12
444.255	697.12
444.476	703.12
444.698	728.12
444.919	709.12
445.14	821.12
445.361	745.12
445.582	687.12
445.803	704.12
446.024	693.12
446.245	676.12
446.466	676.12
446.687	649.12
446.908	667.12
447.129	674.12
447.35	637.12
447.571	634.12
447.792	640.12
448.013	656.12
448.234	643.12
448.455	647.12
448.675	649.12
448.896	647.12
449.117	627.12
449.338	633.12
449.559	627.12
449.779	634.12
450	633.12
450.221	655.12
450.442	632.12
450.662	619.12
450.883	623.12
451.104	650.12
451.324	629.12
451.545	634.12
451.766	628.12
451.986	630.12
452.207	611.12
452.428	644.12
452.648	598.12
452.869	620.12
453.089	613.12
453.31	609.12
453.53	614.12
453.751	617.12
453.971	610.12
454.192	609.12
454.412	609.12
454.633	589.12
454.853	613.12
455.073	620.12
455.294	581.12
455.514	608.12
455.734	620.12
455.955	582.12
456.175	612.12
456.395	609.12
456.616	608.12
456.836	602.12
457.056	605.12
457.276	585.12
457.497	609.12
457.717	587.12
457.937	589.12
458.157	621.12
458.377	612.12
458.598	627.12
458.818	635.12
459.038	660.12
459.258	666.12
459.478	664.12
459.698	664.12
459.918	655.12
460.138	695.12
460.358	715.12
460.578	726.12
460.798	706.12
461.018	718.12
461.238	730.12
461.458	719.12
461.678	738.12
461.898	723.12
462.118	733.12
462.338	742.12
462.558	777.12
462.777	765.12
462.997	773.12
463.217	814.12
463.437	807.12
463.657	782.12
463.876	797.12
464.096	755.12
464.316	766.12
464.536	753.12
464.755	773.12
464.975	747.12
465.195	740.12
465.414	711.12
465.634	686.12
465.854	690.12
466.073	681.12
466.293	682.12
466.512	699.12
466.732	668.12
466.951	675.12
467.171	658.12
467.391	658.12
467.61	691.12
467.829	646.12
468.049	647.12
468.268	622.12
468.488	649.12
468.707	627.12
468.927	653.12
469.146	654.12
469.365	635.12
469.585	663.12
469.804	639.12
470.023	662.12
470.243	673.12
470.462	652.12
470.681	658.12
470.901	663.12
471.12	667.12
471.339	641.12
471.558	669.12
471.777	664.12
471.997	672.12
472.216	651.12
472.435	671.12
472.654	664.12
472.873	650.12
473.092	654.12
473.311	635.12
473.53	647.12
473.749	640.12
473.968	659.12
474.187	659.12
474.406	655.12
474.625	672.12
474.844	641.12
475.063	653.12
475.282	694.12
475.501	679.12
475.72	688.12
475.939	681.12
476.158	681.12
476.377	658.12
476.596	710.12
476.814	711.12
477.033	697.12
477.252	702.12
477.471	726.12
477.69	724.12
477.908	707.12
478.127	732.12
478.346	759.12
478.564	750.12
478.783	744.12
479.002	766.12
479.22	746.12
479.439	803.12
479.658	780.12
479.876	726.12
480.095	789.12
480.313	766.12
480.532	786.12
480.751	806.12
480.969	785.12
481.188	781.12
481.406	787.12
481.624	757.12
481.843	762.12
482.061	787.12
482.28	799.12
482.498	789.12
482.717	769.12
482.935	755.12
483.153	776.12
483.372	764.12
483.59	780.12
483.808	792.12
484.027	783.12
484.245	761.12
484.463	798.12
484.681	788.12
484.9	781.12
485.118	786.12
485.336	793.12
485.554	790.12
485.772	799.12
485.99	779.12
486.209	789.12
486.427	794.12
486.645	798.12
486.863	762.12
487.081	762.12
487.299	788.12
487.517	789.12
487.735	807.12
487.953	803.12
488.171	795.12
488.389	814.12
488.607	822.12
488.825	799.12
489.043	779.12
489.261	793.12
489.479	806.12
489.696	789.12
489.914	805.12
490.132	802.12
490.35	814.12
490.568	791.12
490.786	811.12
491.003	806.12
491.221	818.12
491.439	818.12
491.657	812.12
491.874	833.12
492.092	833.12
492.31	828.12
492.527	841.12
492.745	832.12
492.963	838.12
493.18	837.12
493.398	831.12
493.615	846.12
493.833	812.12
494.05	839.12
494.268	859.12
494.485	869.12
494.703	848.12
494.92	835.12
495.138	859.12
495.355	877.12
495.573	861.12
495.79	855.12
496.008	886.12
496.225	871.12
496.442	893.12
496.66	881.12
496.877	887.12
497.094	894.12
497.312	903.12
497.529	925.12
497.746	935.12
497.963	965.12
498.181	956.12
498.398	972.12
498.615	1003.12
498.832	1000.12
499.049	1061.12
499.267	1126.12
499.484	1150.12
499.701	1182.12
499.918	1205.12
500.135	1259.12
500.352	1313.12
500.569	1325.12
500.786	1337.12
501.003	1333.12
501.22	1272.12
501.437	1212.12
