Data from Fe(NO3)3@0.05M.TitratingCurve.Agarose3%dH2O.NegLispCup.LampEnergy10.LIBS07252019_HRD10591_16-46-00-334.txt Node
Date: Thu Jul 25 16:46:00 EDT 2019
User: cochatt
Spectrometer: HR+D1059
Trigger mode: 1
Integration Time (sec): 1.000000E-1
Scans to average: 1
Electric dark correction enabled: true
Nonlinearity correction enabled: false
Boxcar width: 0
XAxis mode: Wavelengths
Number of Pixels in Spectrum: 2048
>>>>>Begin Spectral Data<<<<<
223.165	-21.56
223.4	-21.56
223.635	-21.56
223.869	-15.56
224.104	-18.56
224.338	-1.56
224.573	-18.56
224.808	-11.56
225.042	-15.56
225.277	2.44
225.511	10.44
225.746	18.44
225.98	-0.56
226.215	8.44
226.449	15.44
226.683	23.44
226.918	12.44
227.152	12.44
227.387	45.44
227.621	44.44
227.856	54.44
228.09	50.44
228.324	60.44
228.559	58.44
228.793	63.44
229.027	106.44
229.262	112.44
229.496	125.44
229.73	115.44
229.964	140.44
230.199	135.44
230.433	122.44
230.667	152.44
230.901	135.44
231.136	138.44
231.37	156.44
231.604	155.44
231.838	155.44
232.072	157.44
232.306	163.44
232.541	158.44
232.775	173.44
233.009	167.44
233.243	173.44
233.477	164.44
233.711	154.44
233.945	157.44
234.179	172.44
234.413	172.44
234.647	173.44
234.881	192.44
235.115	186.44
235.349	173.44
235.583	181.44
235.817	164.44
236.051	164.44
236.285	179.44
236.519	204.44
236.753	190.44
236.987	186.44
237.221	198.44
237.455	192.44
237.689	182.44
237.922	197.44
238.156	204.44
238.39	212.44
238.624	231.44
238.858	212.44
239.091	208.44
239.325	228.44
239.559	205.44
239.793	210.44
240.027	238.44
240.26	226.44
240.494	204.44
240.728	219.44
240.961	244.44
241.195	226.44
241.429	232.44
241.662	234.44
241.896	214.44
242.13	206.44
242.363	209.44
242.597	216.44
242.83	231.44
243.064	234.44
243.298	220.44
243.531	232.44
243.765	254.44
243.998	248.44
244.232	220.44
244.465	224.44
244.699	243.44
244.932	230.44
245.166	240.44
245.399	261.44
245.633	246.44
245.866	244.44
246.099	255.44
246.333	247.44
246.566	266.44
246.8	260.44
247.033	261.44
247.266	268.44
247.5	288.44
247.733	261.44
247.966	268.44
248.2	267.44
248.433	290.44
248.666	297.44
248.899	283.44
249.133	271.44
249.366	303.44
249.599	324.44
249.832	312.44
250.066	318.44
250.299	288.44
250.532	307.44
250.765	301.44
250.998	300.44
251.231	290.44
251.465	310.44
251.698	302.44
251.931	314.44
252.164	301.44
252.397	308.44
252.63	337.44
252.863	356.44
253.096	357.44
253.329	347.44
253.562	356.44
253.795	357.44
254.028	357.44
254.261	375.44
254.494	368.44
254.727	349.44
254.96	345.44
255.193	360.44
255.426	358.44
255.659	344.44
255.892	342.44
256.124	340.44
256.357	335.44
256.59	361.44
256.823	353.44
257.056	331.44
257.289	324.44
257.521	359.44
257.754	351.44
257.987	353.44
258.22	354.44
258.452	357.44
258.685	380.44
258.918	388.44
259.151	382.44
259.383	359.44
259.616	384.44
259.849	394.44
260.081	466.44
260.314	487.44
260.547	414.44
260.779	378.44
261.012	419.44
261.244	404.44
261.477	416.44
261.71	429.44
261.942	412.44
262.175	404.44
262.407	386.44
262.64	412.44
262.872	406.44
263.105	430.44
263.337	457.44
263.57	463.44
263.802	406.44
264.035	378.44
264.267	393.44
264.499	370.44
264.732	362.44
264.964	396.44
265.197	389.44
265.429	385.44
265.661	398.44
265.894	381.44
266.126	410.44
266.358	379.44
266.591	409.44
266.823	409.44
267.055	416.44
267.287	409.44
267.52	404.44
267.752	416.44
267.984	420.44
268.216	417.44
268.448	420.44
268.681	424.44
268.913	426.44
269.145	430.44
269.377	432.44
269.609	441.44
269.841	417.44
270.073	403.44
270.306	420.44
270.538	429.44
270.77	421.44
271.002	447.44
271.234	430.44
271.466	460.44
271.698	468.44
271.93	469.44
272.162	454.44
272.394	453.44
272.626	480.44
272.858	456.44
273.09	474.44
273.322	458.44
273.553	485.44
273.785	506.44
274.017	549.44
274.249	565.44
274.481	584.44
274.713	589.44
274.945	638.44
275.176	661.44
275.408	618.44
275.64	587.44
275.872	608.44
276.104	560.44
276.335	474.44
276.567	494.44
276.799	501.44
277.031	512.44
277.262	514.44
277.494	480.44
277.726	493.44
277.957	505.44
278.189	503.44
278.421	498.44
278.652	501.44
278.884	493.44
279.115	493.44
279.347	515.44
279.579	516.44
279.81	489.44
280.042	488.44
280.273	469.44
280.505	508.44
280.736	483.44
280.968	503.44
281.199	490.44
281.431	501.44
281.662	518.44
281.894	533.44
282.125	516.44
282.356	530.44
282.588	532.44
282.819	540.44
283.051	538.44
283.282	538.44
283.513	518.44
283.745	542.44
283.976	551.44
284.207	535.44
284.439	572.44
284.67	528.44
284.901	545.44
285.132	526.44
285.364	560.44
285.595	554.44
285.826	557.44
286.057	574.44
286.288	545.44
286.52	544.44
286.751	553.44
286.982	546.44
287.213	556.44
287.444	578.44
287.675	573.44
287.906	574.44
288.138	565.44
288.369	572.44
288.6	580.44
288.831	545.44
289.062	586.44
289.293	557.44
289.524	551.44
289.755	567.44
289.986	573.44
290.217	565.44
290.448	573.44
290.679	584.44
290.91	550.44
291.141	568.44
291.371	569.44
291.602	570.44
291.833	566.44
292.064	589.44
292.295	562.44
292.526	584.44
292.757	564.44
292.987	584.44
293.218	570.44
293.449	578.44
293.68	594.44
293.91	597.44
294.141	557.44
294.372	586.44
294.603	594.44
294.833	602.44
295.064	586.44
295.295	571.44
295.525	574.44
295.756	589.44
295.987	596.44
296.217	603.44
296.448	589.44
296.679	620.44
296.909	575.44
297.14	610.44
297.37	619.44
297.601	597.44
297.831	608.44
298.062	614.44
298.292	606.44
298.523	625.44
298.753	630.44
298.984	637.44
299.214	623.44
299.445	618.44
299.675	634.44
299.905	626.44
300.136	624.44
300.366	624.44
300.597	665.44
300.827	645.44
301.057	619.44
301.288	628.44
301.518	644.44
301.748	646.44
301.979	673.44
302.209	674.44
302.439	705.44
302.669	637.44
302.9	662.44
303.13	665.44
303.36	630.44
303.59	650.44
303.82	667.44
304.051	683.44
304.281	680.44
304.511	670.44
304.741	652.44
304.971	673.44
305.201	670.44
305.431	663.44
305.661	668.44
305.891	651.44
306.121	644.44
306.352	659.44
306.582	670.44
306.812	650.44
307.042	668.44
307.272	679.44
307.502	661.44
307.731	666.44
307.961	679.44
308.191	665.44
308.421	693.44
308.651	705.44
308.881	672.44
309.111	670.44
309.341	684.44
309.571	687.44
309.8	654.44
310.03	678.44
310.26	677.44
310.49	654.44
310.72	680.44
310.949	659.44
311.179	717.44
311.409	672.44
311.639	707.44
311.868	691.44
312.098	697.44
312.328	694.44
312.557	702.44
312.787	683.44
313.017	707.44
313.246	706.44
313.476	704.44
313.706	701.44
313.935	695.44
314.165	728.44
314.394	714.44
314.624	718.44
314.853	698.44
315.083	727.44
315.312	708.44
315.542	704.44
315.771	746.44
316.001	715.44
316.23	710.44
316.46	741.44
316.689	694.44
316.919	722.44
317.148	718.44
317.377	736.44
317.607	718.44
317.836	723.44
318.065	712.44
318.295	731.44
318.524	726.44
318.753	716.44
318.983	731.44
319.212	719.44
319.441	737.44
319.67	719.44
319.9	730.44
320.129	773.44
320.358	723.44
320.587	749.44
320.816	747.44
321.046	740.44
321.275	736.44
321.504	721.44
321.733	728.44
321.962	745.44
322.191	756.44
322.42	741.44
322.649	752.44
322.878	780.44
323.108	769.44
323.337	771.44
323.566	725.44
323.795	754.44
324.024	778.44
324.253	787.44
324.482	782.44
324.71	763.44
324.939	780.44
325.168	760.44
325.397	760.44
325.626	774.44
325.855	785.44
326.084	790.44
326.313	769.44
326.542	752.44
326.77	786.44
326.999	810.44
327.228	793.44
327.457	772.44
327.686	822.44
327.914	797.44
328.143	817.44
328.372	795.44
328.6	786.44
328.829	803.44
329.058	820.44
329.287	790.44
329.515	811.44
329.744	806.44
329.972	815.44
330.201	802.44
330.43	782.44
330.658	794.44
330.887	804.44
331.115	803.44
331.344	830.44
331.572	837.44
331.801	834.44
332.03	828.44
332.258	825.44
332.486	861.44
332.715	881.44
332.943	841.44
333.172	854.44
333.4	894.44
333.629	869.44
333.857	883.44
334.085	889.44
334.314	898.44
334.542	912.44
334.771	889.44
334.999	892.44
335.227	915.44
335.455	905.44
335.684	914.44
335.912	916.44
336.14	934.44
336.369	906.44
336.597	908.44
336.825	910.44
337.053	922.44
337.281	895.44
337.51	908.44
337.738	891.44
337.966	917.44
338.194	868.44
338.422	895.44
338.65	907.44
338.878	870.44
339.106	856.44
339.334	857.44
339.562	882.44
339.79	876.44
340.018	874.44
340.246	841.44
340.474	850.44
340.702	845.44
340.93	834.44
341.158	870.44
341.386	886.44
341.614	868.44
341.842	890.44
342.07	852.44
342.298	836.44
342.526	828.44
342.754	842.44
342.981	853.44
343.209	866.44
343.437	880.44
343.665	880.44
343.893	883.44
344.12	924.44
344.348	955.44
344.576	902.44
344.804	894.44
345.031	880.44
345.259	872.44
345.487	862.44
345.714	885.44
345.942	856.44
346.17	845.44
346.397	836.44
346.625	811.44
346.853	840.44
347.08	844.44
347.308	841.44
347.535	845.44
347.763	845.44
347.99	826.44
348.218	826.44
348.445	835.44
348.673	816.44
348.9	807.44
349.128	804.44
349.355	821.44
349.583	822.44
349.81	833.44
350.037	814.44
350.265	829.44
350.492	798.44
350.72	801.44
350.947	797.44
351.174	838.44
351.402	838.44
351.629	820.44
351.856	829.44
352.083	790.44
352.311	824.44
352.538	827.44
352.765	816.44
352.992	802.44
353.22	820.44
353.447	810.44
353.674	814.44
353.901	811.44
354.128	819.44
354.355	833.44
354.583	796.44
354.81	800.44
355.037	833.44
355.264	812.44
355.491	790.44
355.718	802.44
355.945	817.44
356.172	817.44
356.399	788.44
356.626	835.44
356.853	812.44
357.08	829.44
357.307	848.44
357.534	828.44
357.761	844.44
357.988	870.44
358.215	855.44
358.441	887.44
358.668	838.44
358.895	840.44
359.122	828.44
359.349	819.44
359.576	796.44
359.802	848.44
360.029	822.44
360.256	817.44
360.483	814.44
360.709	838.44
360.936	854.44
361.163	833.44
361.39	836.44
361.616	816.44
361.843	839.44
362.07	862.44
362.296	828.44
362.523	825.44
362.749	836.44
362.976	837.44
363.203	842.44
363.429	837.44
363.656	864.44
363.882	836.44
364.109	835.44
364.335	852.44
364.562	855.44
364.788	838.44
365.015	831.44
365.241	845.44
365.468	834.44
365.694	822.44
365.92	846.44
366.147	836.44
366.373	861.44
366.599	844.44
366.826	846.44
367.052	846.44
367.278	846.44
367.505	820.44
367.731	846.44
367.957	862.44
368.184	869.44
368.41	856.44
368.636	876.44
368.862	870.44
369.089	855.44
369.315	873.44
369.541	881.44
369.767	876.44
369.993	852.44
370.219	867.44
370.445	900.44
370.672	890.44
370.898	896.44
371.124	882.44
371.35	889.44
371.576	897.44
371.802	911.44
372.028	923.44
372.254	926.44
372.48	909.44
372.706	936.44
372.932	937.44
373.158	944.44
373.384	968.44
373.61	948.44
373.835	981.44
374.061	946.44
374.287	939.44
374.513	920.44
374.739	931.44
374.965	1016.44
375.191	1004.44
375.416	954.44
375.642	960.44
375.868	942.44
376.094	938.44
376.319	956.44
376.545	903.44
376.771	924.44
376.997	920.44
377.222	912.44
377.448	896.44
377.674	878.44
377.899	911.44
378.125	914.44
378.35	900.44
378.576	895.44
378.802	917.44
379.027	937.44
379.253	909.44
379.478	883.44
379.704	904.44
379.929	935.44
380.155	906.44
380.38	928.44
380.606	920.44
380.831	921.44
381.057	924.44
381.282	957.44
381.507	932.44
381.733	974.44
381.958	956.44
382.184	974.44
382.409	1022.44
382.634	1019.44
382.86	990.44
383.085	980.44
383.31	965.44
383.535	972.44
383.761	958.44
383.986	984.44
384.211	993.44
384.436	995.44
384.662	986.44
384.887	990.44
385.112	999.44
385.337	995.44
385.562	1039.44
385.787	1076.44
386.013	1047.44
386.238	1081.44
386.463	1058.44
386.688	1025.44
386.913	1037.44
387.138	1052.44
387.363	1081.44
387.588	1051.44
387.813	1046.44
388.038	1056.44
388.263	1046.44
388.488	1062.44
388.713	1037.44
388.938	1088.44
389.163	1052.44
389.387	1074.44
389.612	1055.44
389.837	1069.44
390.062	1085.44
390.287	1076.44
390.512	1068.44
390.736	1100.44
390.961	1102.44
391.186	1082.44
391.411	1107.44
391.636	1120.44
391.86	1116.44
392.085	1164.44
392.31	1131.44
392.534	1124.44
392.759	1115.44
392.984	1123.44
393.208	1103.44
393.433	1127.44
393.658	1122.44
393.882	1110.44
394.107	1123.44
394.331	1123.44
394.556	1112.44
394.78	1120.44
395.005	1153.44
395.229	1123.44
395.454	1165.44
395.678	1153.44
395.903	1170.44
396.127	1159.44
396.352	1152.44
396.576	1144.44
396.801	1138.44
397.025	1174.44
397.249	1187.44
397.474	1209.44
397.698	1200.44
397.922	1214.44
398.147	1204.44
398.371	1225.44
398.595	1244.44
398.82	1279.44
399.044	1272.44
399.268	1334.44
399.492	1350.44
399.717	1425.44
399.941	1414.44
400.165	1410.44
400.389	1402.44
400.613	1395.44
400.837	1356.44
401.062	1330.44
401.286	1308.44
401.51	1284.44
401.734	1299.44
401.958	1294.44
402.182	1295.44
402.406	1268.44
402.63	1276.44
402.854	1281.44
403.078	1274.44
403.302	1280.44
403.526	1276.44
403.75	1294.44
403.974	1282.44
404.198	1285.44
404.422	1312.44
404.645	1294.44
404.869	1313.44
405.093	1300.44
405.317	1328.44
405.541	1309.44
405.765	1344.44
405.988	1318.44
406.212	1347.44
406.436	1350.44
406.66	1393.44
406.883	1372.44
407.107	1406.44
407.331	1437.44
407.555	1465.44
407.778	1464.44
408.002	1463.44
408.226	1445.44
408.449	1486.44
408.673	1401.44
408.896	1430.44
409.12	1384.44
409.344	1386.44
409.567	1355.44
409.791	1380.44
410.014	1376.44
410.238	1395.44
410.461	1377.44
410.685	1372.44
410.908	1390.44
411.132	1379.44
411.355	1326.44
411.578	1313.44
411.802	1344.44
412.025	1372.44
412.249	1312.44
412.472	1330.44
412.695	1322.44
412.919	1324.44
413.142	1332.44
413.365	1331.44
413.589	1305.44
413.812	1291.44
414.035	1309.44
414.258	1320.44
414.482	1326.44
414.705	1319.44
414.928	1274.44
415.151	1278.44
415.374	1281.44
415.597	1280.44
415.821	1268.44
416.044	1265.44
416.267	1283.44
416.49	1241.44
416.713	1238.44
416.936	1257.44
417.159	1254.44
417.382	1223.44
417.605	1226.44
417.828	1211.44
418.051	1241.44
418.274	1228.44
418.497	1240.44
418.72	1251.44
418.943	1218.44
419.166	1290.44
419.389	1355.44
419.611	1394.44
419.834	1308.44
420.057	1285.44
420.28	1244.44
420.503	1235.44
420.726	1212.44
420.948	1216.44
421.171	1202.44
421.394	1203.44
421.617	1226.44
421.839	1230.44
422.062	1209.44
422.285	1196.44
422.507	1210.44
422.73	1202.44
422.953	1224.44
423.175	1195.44
423.398	1240.44
423.621	1206.44
423.843	1218.44
424.066	1227.44
424.288	1226.44
424.511	1214.44
424.733	1222.44
424.956	1224.44
425.178	1227.44
425.401	1237.44
425.623	1211.44
425.846	1233.44
426.068	1230.44
426.291	1225.44
426.513	1230.44
426.735	1193.44
426.958	1220.44
427.18	1200.44
427.402	1208.44
427.625	1225.44
427.847	1204.44
428.069	1170.44
428.292	1216.44
428.514	1183.44
428.736	1191.44
428.958	1187.44
429.181	1161.44
429.403	1156.44
429.625	1201.44
429.847	1183.44
430.069	1188.44
430.292	1170.44
430.514	1163.44
430.736	1184.44
430.958	1231.44
431.18	1201.44
431.402	1192.44
431.624	1176.44
431.846	1173.44
432.068	1172.44
432.29	1198.44
432.512	1202.44
432.734	1233.44
432.956	1200.44
433.178	1214.44
433.4	1193.44
433.622	1198.44
433.844	1205.44
434.066	1214.44
434.287	1183.44
434.509	1219.44
434.731	1237.44
434.953	1210.44
435.175	1220.44
435.397	1236.44
435.618	1188.44
435.84	1218.44
436.062	1201.44
436.284	1206.44
436.505	1200.44
436.727	1164.44
436.949	1194.44
437.17	1202.44
437.392	1163.44
437.614	1186.44
437.835	1150.44
438.057	1185.44
438.278	1151.44
438.5	1185.44
438.721	1181.44
438.943	1185.44
439.165	1156.44
439.386	1181.44
439.608	1176.44
439.829	1186.44
440.05	1154.44
440.272	1176.44
440.493	1156.44
440.715	1189.44
440.936	1224.44
441.158	1252.44
441.379	1196.44
441.6	1224.44
441.822	1255.44
442.043	1207.44
442.264	1218.44
442.486	1202.44
442.707	1225.44
442.928	1201.44
443.149	1216.44
443.371	1237.44
443.592	1245.44
443.813	1204.44
444.034	1261.44
444.255	1248.44
444.476	1243.44
444.698	1244.44
444.919	1258.44
445.14	1377.44
445.361	1292.44
445.582	1258.44
445.803	1240.44
446.024	1205.44
446.245	1186.44
446.466	1166.44
446.687	1177.44
446.908	1220.44
447.129	1166.44
447.35	1120.44
447.571	1162.44
447.792	1129.44
448.013	1134.44
448.234	1128.44
448.455	1119.44
448.675	1099.44
448.896	1136.44
449.117	1083.44
449.338	1124.44
449.559	1107.44
449.779	1102.44
450	1069.44
450.221	1092.44
450.442	1122.44
450.662	1088.44
450.883	1074.44
451.104	1088.44
451.324	1079.44
451.545	1109.44
451.766	1086.44
451.986	1065.44
452.207	1060.44
452.428	1097.44
452.648	1090.44
452.869	1057.44
453.089	1038.44
453.31	1034.44
453.53	1081.44
453.751	1076.44
453.971	1060.44
454.192	1053.44
454.412	1022.44
454.633	1044.44
454.853	1038.44
455.073	1051.44
455.294	1065.44
455.514	1001.44
455.734	1045.44
455.955	1023.44
456.175	999.44
456.395	1005.44
456.616	1026.44
456.836	1034.44
457.056	1046.44
457.276	1044.44
457.497	1065.44
457.717	1074.44
457.937	1061.44
458.157	1076.44
458.377	1091.44
458.598	1089.44
458.818	1124.44
459.038	1111.44
459.258	1128.44
459.478	1123.44
459.698	1166.44
459.918	1158.44
460.138	1188.44
460.358	1204.44
460.578	1229.44
460.798	1205.44
461.018	1253.44
461.238	1249.44
461.458	1266.44
461.678	1276.44
461.898	1266.44
462.118	1286.44
462.338	1288.44
462.558	1306.44
462.777	1358.44
462.997	1362.44
463.217	1365.44
463.437	1420.44
463.657	1388.44
463.876	1371.44
464.096	1367.44
464.316	1368.44
464.536	1333.44
464.755	1337.44
464.975	1334.44
465.195	1303.44
465.414	1260.44
465.634	1235.44
465.854	1220.44
466.073	1227.44
466.293	1201.44
466.512	1165.44
466.732	1200.44
466.951	1227.44
467.171	1152.44
467.391	1150.44
467.61	1136.44
467.829	1098.44
468.049	1150.44
468.268	1164.44
468.488	1120.44
468.707	1123.44
468.927	1192.44
469.146	1193.44
469.365	1146.44
469.585	1140.44
469.804	1172.44
470.023	1186.44
470.243	1170.44
470.462	1152.44
470.681	1160.44
470.901	1156.44
471.12	1159.44
471.339	1152.44
471.558	1163.44
471.777	1152.44
471.997	1149.44
472.216	1163.44
472.435	1164.44
472.654	1145.44
472.873	1130.44
473.092	1173.44
473.311	1171.44
473.53	1115.44
473.749	1125.44
473.968	1196.44
474.187	1154.44
474.406	1179.44
474.625	1167.44
474.844	1156.44
475.063	1203.44
475.282	1193.44
475.501	1174.44
475.72	1222.44
475.939	1192.44
476.158	1178.44
476.377	1230.44
476.596	1259.44
476.814	1291.44
477.033	1240.44
477.252	1237.44
477.471	1229.44
477.69	1309.44
477.908	1290.44
478.127	1332.44
478.346	1305.44
478.564	1302.44
478.783	1321.44
479.002	1344.44
479.22	1369.44
479.439	1438.44
479.658	1367.44
479.876	1376.44
480.095	1387.44
480.313	1378.44
480.532	1379.44
480.751	1380.44
480.969	1377.44
481.188	1380.44
481.406	1394.44
481.624	1391.44
481.843	1366.44
482.061	1360.44
482.28	1405.44
482.498	1367.44
482.717	1346.44
482.935	1397.44
483.153	1381.44
483.372	1362.44
483.59	1389.44
483.808	1383.44
484.027	1367.44
484.245	1389.44
484.463	1417.44
484.681	1400.44
484.9	1401.44
485.118	1417.44
485.336	1428.44
485.554	1413.44
485.772	1418.44
485.99	1439.44
486.209	1405.44
486.427	1420.44
486.645	1411.44
486.863	1417.44
487.081	1405.44
487.299	1425.44
487.517	1479.44
487.735	1436.44
487.953	1408.44
488.171	1442.44
488.389	1417.44
488.607	1415.44
488.825	1402.44
489.043	1405.44
489.261	1418.44
489.479	1423.44
489.696	1389.44
489.914	1422.44
490.132	1442.44
490.35	1438.44
490.568	1413.44
490.786	1412.44
491.003	1461.44
491.221	1450.44
491.439	1472.44
491.657	1430.44
491.874	1445.44
492.092	1475.44
492.31	1474.44
492.527	1491.44
492.745	1452.44
492.963	1453.44
493.18	1481.44
493.398	1443.44
493.615	1474.44
493.833	1447.44
494.05	1447.44
494.268	1493.44
494.485	1476.44
494.703	1483.44
