Data from Fe(NO3)3@0.05M.TitratingCurve.Agarose3%dH2O.NegLispCup.LampEnergy10.LIBS07252019_HRD10591_16-47-29-334.txt Node
Date: Thu Jul 25 16:47:29 EDT 2019
User: cochatt
Spectrometer: HR+D1059
Trigger mode: 1
Integration Time (sec): 1.000000E-1
Scans to average: 1
Electric dark correction enabled: true
Nonlinearity correction enabled: false
Boxcar width: 0
XAxis mode: Wavelengths
Number of Pixels in Spectrum: 2048
>>>>>Begin Spectral Data<<<<<
223.165	-29.25
223.4	-29.25
223.635	-29.25
223.869	-18.25
224.104	-20.25
224.338	-15.25
224.573	-18.25
224.808	-1.25
225.042	1.75
225.277	6.75
225.511	0.75
225.746	-0.25
225.98	19.75
226.215	17.75
226.449	10.75
226.683	11.75
226.918	7.75
227.152	25.75
227.387	40.75
227.621	45.75
227.856	45.75
228.09	40.75
228.324	49.75
228.559	43.75
228.793	53.75
229.027	72.75
229.262	75.75
229.496	77.75
229.73	85.75
229.964	93.75
230.199	82.75
230.433	78.75
230.667	80.75
230.901	85.75
231.136	94.75
231.37	92.75
231.604	90.75
231.838	96.75
232.072	88.75
232.306	107.75
232.541	102.75
232.775	109.75
233.009	85.75
233.243	97.75
233.477	91.75
233.711	99.75
233.945	97.75
234.179	95.75
234.413	101.75
234.647	113.75
234.881	91.75
235.115	94.75
235.349	96.75
235.583	101.75
235.817	90.75
236.051	105.75
236.285	104.75
236.519	102.75
236.753	109.75
236.987	102.75
237.221	91.75
237.455	105.75
237.689	95.75
237.922	97.75
238.156	106.75
238.39	102.75
238.624	95.75
238.858	102.75
239.091	98.75
239.325	91.75
239.559	109.75
239.793	95.75
240.027	115.75
240.26	87.75
240.494	92.75
240.728	104.75
240.961	103.75
241.195	100.75
241.429	94.75
241.662	96.75
241.896	105.75
242.13	110.75
242.363	100.75
242.597	110.75
242.83	106.75
243.064	104.75
243.298	111.75
243.531	117.75
243.765	113.75
243.998	113.75
244.232	109.75
244.465	106.75
244.699	95.75
244.932	109.75
245.166	106.75
245.399	109.75
245.633	113.75
245.866	104.75
246.099	111.75
246.333	105.75
246.566	113.75
246.8	109.75
247.033	124.75
247.266	118.75
247.5	121.75
247.733	115.75
247.966	117.75
248.2	118.75
248.433	115.75
248.666	134.75
248.899	118.75
249.133	122.75
249.366	142.75
249.599	131.75
249.832	124.75
250.066	116.75
250.299	107.75
250.532	118.75
250.765	118.75
250.998	110.75
251.231	126.75
251.465	120.75
251.698	117.75
251.931	137.75
252.164	134.75
252.397	135.75
252.63	131.75
252.863	121.75
253.096	125.75
253.329	139.75
253.562	121.75
253.795	143.75
254.028	136.75
254.261	138.75
254.494	121.75
254.727	122.75
254.96	127.75
255.193	138.75
255.426	115.75
255.659	126.75
255.892	132.75
256.124	140.75
256.357	131.75
256.59	146.75
256.823	125.75
257.056	128.75
257.289	121.75
257.521	126.75
257.754	125.75
257.987	133.75
258.22	122.75
258.452	127.75
258.685	145.75
258.918	129.75
259.151	134.75
259.383	145.75
259.616	152.75
259.849	154.75
260.081	150.75
260.314	145.75
260.547	135.75
260.779	148.75
261.012	153.75
261.244	143.75
261.477	149.75
261.71	152.75
261.942	148.75
262.175	151.75
262.407	143.75
262.64	145.75
262.872	137.75
263.105	156.75
263.337	148.75
263.57	157.75
263.802	136.75
264.035	142.75
264.267	153.75
264.499	129.75
264.732	130.75
264.964	137.75
265.197	146.75
265.429	137.75
265.661	140.75
265.894	135.75
266.126	151.75
266.358	138.75
266.591	161.75
266.823	154.75
267.055	165.75
267.287	153.75
267.52	137.75
267.752	154.75
267.984	150.75
268.216	151.75
268.448	170.75
268.681	137.75
268.913	148.75
269.145	170.75
269.377	157.75
269.609	148.75
269.841	159.75
270.073	139.75
270.306	153.75
270.538	147.75
270.77	150.75
271.002	133.75
271.234	153.75
271.466	165.75
271.698	156.75
271.93	146.75
272.162	175.75
272.394	174.75
272.626	170.75
272.858	147.75
273.09	171.75
273.322	161.75
273.553	151.75
273.785	165.75
274.017	179.75
274.249	193.75
274.481	179.75
274.713	199.75
274.945	205.75
275.176	202.75
275.408	179.75
275.64	193.75
275.872	181.75
276.104	185.75
276.335	177.75
276.567	161.75
276.799	162.75
277.031	173.75
277.262	164.75
277.494	149.75
277.726	155.75
277.957	184.75
278.189	159.75
278.421	170.75
278.652	187.75
278.884	169.75
279.115	161.75
279.347	178.75
279.579	162.75
279.81	177.75
280.042	164.75
280.273	173.75
280.505	176.75
280.736	170.75
280.968	176.75
281.199	178.75
281.431	166.75
281.662	158.75
281.894	178.75
282.125	192.75
282.356	166.75
282.588	158.75
282.819	166.75
283.051	187.75
283.282	189.75
283.513	187.75
283.745	198.75
283.976	186.75
284.207	193.75
284.439	171.75
284.67	185.75
284.901	194.75
285.132	186.75
285.364	182.75
285.595	177.75
285.826	189.75
286.057	193.75
286.288	178.75
286.52	204.75
286.751	194.75
286.982	189.75
287.213	205.75
287.444	193.75
287.675	175.75
287.906	192.75
288.138	198.75
288.369	197.75
288.6	186.75
288.831	207.75
289.062	195.75
289.293	186.75
289.524	199.75
289.755	185.75
289.986	184.75
290.217	209.75
290.448	195.75
290.679	201.75
290.91	212.75
291.141	195.75
291.371	213.75
291.602	197.75
291.833	197.75
292.064	203.75
292.295	209.75
292.526	203.75
292.757	198.75
292.987	193.75
293.218	201.75
293.449	169.75
293.68	178.75
293.91	181.75
294.141	198.75
294.372	200.75
294.603	207.75
294.833	201.75
295.064	200.75
295.295	174.75
295.525	195.75
295.756	197.75
295.987	202.75
296.217	198.75
296.448	215.75
296.679	197.75
296.909	205.75
297.14	204.75
297.37	206.75
297.601	198.75
297.831	198.75
298.062	203.75
298.292	197.75
298.523	205.75
298.753	209.75
298.984	187.75
299.214	191.75
299.445	198.75
299.675	210.75
299.905	196.75
300.136	184.75
300.366	216.75
300.597	228.75
300.827	214.75
301.057	210.75
301.288	221.75
301.518	220.75
301.748	231.75
301.979	223.75
302.209	222.75
302.439	194.75
302.669	214.75
302.9	205.75
303.13	220.75
303.36	216.75
303.59	215.75
303.82	221.75
304.051	208.75
304.281	227.75
304.511	231.75
304.741	216.75
304.971	219.75
305.201	212.75
305.431	222.75
305.661	221.75
305.891	199.75
306.121	223.75
306.352	210.75
306.582	212.75
306.812	207.75
307.042	210.75
307.272	226.75
307.502	217.75
307.731	217.75
307.961	208.75
308.191	217.75
308.421	215.75
308.651	207.75
308.881	198.75
309.111	221.75
309.341	185.75
309.571	220.75
309.8	205.75
310.03	209.75
310.26	223.75
310.49	216.75
310.72	211.75
310.949	215.75
311.179	217.75
311.409	219.75
311.639	238.75
311.868	218.75
312.098	199.75
312.328	218.75
312.557	233.75
312.787	219.75
313.017	225.75
313.246	226.75
313.476	228.75
313.706	228.75
313.935	216.75
314.165	194.75
314.394	237.75
314.624	226.75
314.853	214.75
315.083	245.75
315.312	239.75
315.542	242.75
315.771	238.75
316.001	223.75
316.23	217.75
316.46	213.75
316.689	207.75
316.919	221.75
317.148	228.75
317.377	241.75
317.607	224.75
317.836	236.75
318.065	232.75
318.295	236.75
318.524	243.75
318.753	218.75
318.983	235.75
319.212	235.75
319.441	226.75
319.67	217.75
319.9	254.75
320.129	232.75
320.358	206.75
320.587	216.75
320.816	242.75
321.046	243.75
321.275	239.75
321.504	242.75
321.733	223.75
321.962	226.75
322.191	232.75
322.42	227.75
322.649	243.75
322.878	230.75
323.108	235.75
323.337	237.75
323.566	239.75
323.795	228.75
324.024	234.75
324.253	238.75
324.482	213.75
324.71	262.75
324.939	245.75
325.168	233.75
325.397	236.75
325.626	243.75
325.855	250.75
326.084	240.75
326.313	248.75
326.542	239.75
326.77	241.75
326.999	249.75
327.228	247.75
327.457	250.75
327.686	251.75
327.914	245.75
328.143	246.75
328.372	231.75
328.6	238.75
328.829	253.75
329.058	249.75
329.287	251.75
329.515	239.75
329.744	257.75
329.972	254.75
330.201	244.75
330.43	253.75
330.658	281.75
330.887	271.75
331.115	269.75
331.344	251.75
331.572	267.75
331.801	269.75
332.03	246.75
332.258	284.75
332.486	277.75
332.715	272.75
332.943	284.75
333.172	274.75
333.4	296.75
333.629	282.75
333.857	289.75
334.085	305.75
334.314	287.75
334.542	293.75
334.771	294.75
334.999	281.75
335.227	298.75
335.455	309.75
335.684	309.75
335.912	287.75
336.14	291.75
336.369	286.75
336.597	287.75
336.825	277.75
337.053	285.75
337.281	275.75
337.51	285.75
337.738	294.75
337.966	285.75
338.194	281.75
338.422	265.75
338.65	286.75
338.878	258.75
339.106	263.75
339.334	272.75
339.562	263.75
339.79	259.75
340.018	278.75
340.246	261.75
340.474	276.75
340.702	253.75
340.93	255.75
341.158	256.75
341.386	256.75
341.614	254.75
341.842	258.75
342.07	250.75
342.298	267.75
342.526	265.75
342.754	267.75
342.981	254.75
343.209	257.75
343.437	284.75
343.665	289.75
343.893	302.75
344.12	302.75
344.348	284.75
344.576	286.75
344.804	276.75
345.031	278.75
345.259	291.75
345.487	272.75
345.714	260.75
345.942	248.75
346.17	246.75
346.397	265.75
346.625	250.75
346.853	262.75
347.08	263.75
347.308	243.75
347.535	254.75
347.763	253.75
347.99	242.75
348.218	254.75
348.445	259.75
348.673	251.75
348.9	266.75
349.128	260.75
349.355	259.75
349.583	247.75
349.81	245.75
350.037	251.75
350.265	240.75
350.492	261.75
350.72	238.75
350.947	241.75
351.174	229.75
351.402	255.75
351.629	251.75
351.856	275.75
352.083	248.75
352.311	265.75
352.538	255.75
352.765	255.75
352.992	259.75
353.22	249.75
353.447	230.75
353.674	264.75
353.901	247.75
354.128	234.75
354.355	251.75
354.583	252.75
354.81	247.75
355.037	241.75
355.264	253.75
355.491	258.75
355.718	256.75
355.945	256.75
356.172	257.75
356.399	263.75
356.626	251.75
356.853	244.75
357.08	250.75
357.307	266.75
357.534	247.75
357.761	278.75
357.988	273.75
358.215	273.75
358.441	260.75
358.668	256.75
358.895	265.75
359.122	265.75
359.349	257.75
359.576	253.75
359.802	247.75
360.029	246.75
360.256	258.75
360.483	272.75
360.709	253.75
360.936	276.75
361.163	263.75
361.39	264.75
361.616	244.75
361.843	260.75
362.07	249.75
362.296	247.75
362.523	261.75
362.749	264.75
362.976	244.75
363.203	252.75
363.429	264.75
363.656	256.75
363.882	253.75
364.109	258.75
364.335	265.75
364.562	263.75
364.788	261.75
365.015	261.75
365.241	246.75
365.468	281.75
365.694	241.75
365.92	245.75
366.147	272.75
366.373	265.75
366.599	265.75
366.826	270.75
367.052	241.75
367.278	280.75
367.505	266.75
367.731	261.75
367.957	290.75
368.184	280.75
368.41	273.75
368.636	259.75
368.862	277.75
369.089	263.75
369.315	258.75
369.541	280.75
369.767	268.75
369.993	267.75
370.219	267.75
370.445	275.75
370.672	263.75
370.898	271.75
371.124	276.75
371.35	280.75
371.576	285.75
371.802	277.75
372.028	283.75
372.254	311.75
372.48	302.75
372.706	289.75
372.932	301.75
373.158	285.75
373.384	301.75
373.61	314.75
373.835	312.75
374.061	288.75
374.287	318.75
374.513	314.75
374.739	328.75
374.965	307.75
375.191	314.75
375.416	318.75
375.642	304.75
375.868	302.75
376.094	312.75
376.319	319.75
376.545	296.75
376.771	282.75
376.997	294.75
377.222	282.75
377.448	284.75
377.674	297.75
377.899	289.75
378.125	289.75
378.35	270.75
378.576	303.75
378.802	281.75
379.027	285.75
379.253	285.75
379.478	284.75
379.704	301.75
379.929	295.75
380.155	289.75
380.38	294.75
380.606	297.75
380.831	264.75
381.057	283.75
381.282	297.75
381.507	309.75
381.733	303.75
381.958	294.75
382.184	308.75
382.409	313.75
382.634	327.75
382.86	299.75
383.085	322.75
383.31	304.75
383.535	303.75
383.761	324.75
383.986	331.75
384.211	322.75
384.436	316.75
384.662	320.75
384.887	314.75
385.112	327.75
385.337	327.75
385.562	346.75
385.787	344.75
386.013	363.75
386.238	345.75
386.463	349.75
386.688	336.75
386.913	338.75
387.138	347.75
387.363	347.75
387.588	337.75
387.813	348.75
388.038	335.75
388.263	363.75
388.488	360.75
388.713	358.75
388.938	343.75
389.163	342.75
389.387	354.75
389.612	329.75
389.837	351.75
390.062	349.75
390.287	338.75
390.512	345.75
390.736	353.75
390.961	346.75
391.186	361.75
391.411	363.75
391.636	375.75
391.86	365.75
392.085	387.75
392.31	376.75
392.534	365.75
392.759	377.75
392.984	365.75
393.208	375.75
393.433	373.75
393.658	369.75
393.882	365.75
394.107	379.75
394.331	376.75
394.556	350.75
394.78	365.75
395.005	369.75
395.229	360.75
395.454	369.75
395.678	371.75
395.903	379.75
396.127	381.75
396.352	387.75
396.576	357.75
396.801	367.75
397.025	385.75
397.249	377.75
397.474	388.75
397.698	381.75
397.922	411.75
398.147	407.75
398.371	395.75
398.595	439.75
398.82	433.75
399.044	437.75
399.268	464.75
399.492	521.75
399.717	553.75
399.941	548.75
400.165	530.75
400.389	513.75
400.613	478.75
400.837	453.75
401.062	434.75
401.286	450.75
401.51	444.75
401.734	429.75
401.958	426.75
402.182	415.75
402.406	419.75
402.63	437.75
402.854	425.75
403.078	424.75
403.302	443.75
403.526	464.75
403.75	448.75
403.974	478.75
404.198	438.75
404.422	453.75
404.645	463.75
404.869	446.75
405.093	450.75
405.317	465.75
405.541	455.75
405.765	467.75
405.988	440.75
406.212	441.75
406.436	460.75
406.66	473.75
406.883	482.75
407.107	494.75
407.331	503.75
407.555	514.75
407.778	496.75
408.002	498.75
408.226	517.75
408.449	494.75
408.673	465.75
408.896	473.75
409.12	477.75
409.344	484.75
409.567	462.75
409.791	455.75
410.014	451.75
410.238	448.75
410.461	451.75
410.685	460.75
410.908	445.75
411.132	447.75
411.355	443.75
411.578	445.75
411.802	441.75
412.025	437.75
412.249	452.75
412.472	442.75
412.695	435.75
412.919	426.75
413.142	455.75
413.365	434.75
413.589	446.75
413.812	448.75
414.035	420.75
414.258	441.75
414.482	444.75
414.705	446.75
414.928	438.75
415.151	439.75
415.374	425.75
415.597	429.75
415.821	421.75
416.044	427.75
416.267	421.75
416.49	416.75
416.713	429.75
416.936	427.75
417.159	427.75
417.382	422.75
417.605	424.75
417.828	425.75
418.051	438.75
418.274	431.75
418.497	412.75
418.72	439.75
418.943	430.75
419.166	446.75
419.389	458.75
419.611	456.75
419.834	450.75
420.057	442.75
420.28	452.75
420.503	411.75
420.726	410.75
420.948	426.75
421.171	436.75
421.394	413.75
421.617	417.75
421.839	429.75
422.062	426.75
422.285	399.75
422.507	418.75
422.73	424.75
422.953	459.75
423.175	441.75
423.398	434.75
423.621	441.75
423.843	447.75
424.066	425.75
424.288	443.75
424.511	432.75
424.733	430.75
424.956	438.75
425.178	429.75
425.401	431.75
425.623	435.75
425.846	424.75
426.068	429.75
426.291	415.75
426.513	421.75
426.735	398.75
426.958	432.75
427.18	420.75
427.402	412.75
427.625	384.75
427.847	399.75
428.069	401.75
428.292	411.75
428.514	415.75
428.736	407.75
428.958	402.75
429.181	407.75
429.403	396.75
429.625	395.75
429.847	406.75
430.069	399.75
430.292	392.75
430.514	393.75
430.736	404.75
430.958	418.75
431.18	402.75
431.402	389.75
431.624	399.75
431.846	413.75
432.068	389.75
432.29	407.75
432.512	410.75
432.734	403.75
432.956	427.75
433.178	405.75
433.4	412.75
433.622	418.75
433.844	417.75
434.066	418.75
434.287	425.75
434.509	413.75
434.731	424.75
434.953	418.75
435.175	425.75
435.397	440.75
435.618	434.75
435.84	429.75
436.062	411.75
436.284	403.75
436.505	408.75
436.727	417.75
436.949	435.75
437.17	418.75
437.392	404.75
437.614	405.75
437.835	370.75
438.057	408.75
438.278	390.75
438.5	403.75
438.721	395.75
438.943	401.75
439.165	393.75
439.386	415.75
439.608	403.75
439.829	399.75
440.05	433.75
440.272	397.75
440.493	424.75
440.715	429.75
440.936	416.75
441.158	426.75
441.379	440.75
441.6	461.75
441.822	462.75
442.043	440.75
442.264	449.75
442.486	424.75
442.707	440.75
442.928	448.75
443.149	420.75
443.371	444.75
443.592	450.75
443.813	438.75
444.034	446.75
444.255	449.75
444.476	487.75
444.698	480.75
444.919	504.75
445.14	565.75
445.361	494.75
445.582	480.75
445.803	445.75
446.024	457.75
446.245	427.75
446.466	424.75
446.687	430.75
446.908	409.75
447.129	397.75
447.35	417.75
447.571	421.75
447.792	432.75
448.013	395.75
448.234	401.75
448.455	426.75
448.675	396.75
448.896	381.75
449.117	390.75
449.338	372.75
449.559	376.75
449.779	374.75
450	388.75
450.221	368.75
450.442	385.75
450.662	395.75
450.883	398.75
451.104	416.75
451.324	401.75
451.545	384.75
451.766	382.75
451.986	377.75
452.207	359.75
452.428	377.75
452.648	377.75
452.869	371.75
453.089	372.75
453.31	349.75
453.53	378.75
453.751	377.75
453.971	375.75
454.192	344.75
454.412	375.75
454.633	353.75
454.853	365.75
455.073	362.75
455.294	383.75
455.514	348.75
455.734	353.75
455.955	356.75
456.175	368.75
456.395	357.75
456.616	366.75
456.836	359.75
457.056	369.75
457.276	357.75
457.497	362.75
457.717	375.75
457.937	373.75
458.157	361.75
458.377	360.75
458.598	373.75
458.818	388.75
459.038	395.75
459.258	394.75
459.478	413.75
459.698	402.75
459.918	444.75
460.138	420.75
460.358	450.75
460.578	461.75
460.798	456.75
461.018	471.75
461.238	497.75
461.458	483.75
461.678	459.75
461.898	478.75
462.118	480.75
462.338	497.75
462.558	520.75
462.777	513.75
462.997	526.75
463.217	573.75
463.437	569.75
463.657	536.75
463.876	518.75
464.096	522.75
464.316	498.75
464.536	501.75
464.755	496.75
464.975	490.75
465.195	472.75
465.414	462.75
465.634	446.75
465.854	433.75
466.073	409.75
466.293	426.75
466.512	418.75
466.732	411.75
466.951	410.75
467.171	414.75
467.391	403.75
467.61	397.75
467.829	403.75
468.049	407.75
468.268	400.75
468.488	369.75
468.707	382.75
468.927	393.75
469.146	389.75
469.365	396.75
469.585	387.75
469.804	399.75
470.023	408.75
470.243	413.75
470.462	429.75
470.681	428.75
470.901	421.75
471.12	407.75
471.339	423.75
471.558	423.75
471.777	408.75
471.997	394.75
472.216	421.75
472.435	401.75
472.654	388.75
472.873	396.75
473.092	375.75
473.311	387.75
473.53	403.75
473.749	395.75
473.968	390.75
474.187	407.75
474.406	398.75
474.625	395.75
474.844	387.75
475.063	393.75
475.282	396.75
475.501	380.75
475.72	439.75
475.939	415.75
476.158	420.75
476.377	408.75
476.596	446.75
476.814	433.75
477.033	419.75
477.252	408.75
477.471	411.75
477.69	440.75
477.908	438.75
478.127	457.75
478.346	433.75
478.564	452.75
478.783	453.75
479.002	468.75
479.22	466.75
479.439	466.75
479.658	486.75
479.876	443.75
480.095	461.75
480.313	483.75
480.532	493.75
480.751	485.75
480.969	489.75
481.188	451.75
481.406	440.75
481.624	438.75
481.843	456.75
482.061	454.75
482.28	442.75
482.498	458.75
482.717	430.75
482.935	449.75
483.153	465.75
483.372	459.75
483.59	469.75
483.808	457.75
484.027	481.75
484.245	449.75
484.463	454.75
484.681	468.75
484.9	457.75
485.118	442.75
485.336	465.75
485.554	462.75
485.772	448.75
485.99	474.75
486.209	481.75
486.427	498.75
486.645	445.75
486.863	449.75
487.081	479.75
487.299	471.75
487.517	467.75
487.735	442.75
487.953	472.75
488.171	470.75
488.389	481.75
488.607	482.75
488.825	447.75
489.043	453.75
489.261	451.75
489.479	462.75
489.696	475.75
489.914	489.75
490.132	460.75
490.35	456.75
490.568	464.75
490.786	474.75
491.003	476.75
491.221	478.75
491.439	477.75
491.657	478.75
491.874	477.75
492.092	501.75
492.31	502.75
492.527	480.75
492.745	501.75
492.963	489.75
493.18	490.75
493.398	488.75
493.615	508.75
493.833	494.75
494.05	482.75
494.268	480.75
494.485	483.75
494.703	485.75
494.92	513.75
495.138	507.75
495.355	521.75
495.573	513.75
495.79	511.75
496.008	517.75
496.225	515.75
496.442	494.75
496.66	509.75
496.877	537.75
497.094	527.75
497.312	527.75
497.529	550.75
497.746	566.75
497.963	559.75
498.181	592.75
498.398	615.75
498.615	616.75
498.832	662.75
499.049	689.75
499.267	731.75
499.484	773.75
499.701	802.75
499.918	863.75
500.135	938.75
500.352	1035.75
500.569	1021.75
500.786	1041.75
501.003	1008.75
501.22	944.75
501.437	856.75
501.654	800.75
501.871	769.75
502.088	734.75
