Data from Fe(NO3)3@0.0125M.TitratingCurve.Agarose3%dH2O.NegLispCup.LampEnergy10.LIBS07252019_HRD10591_17-01-12-337.txt Node
Date: Thu Jul 25 17:01:12 EDT 2019
User: cochatt
Spectrometer: HR+D1059
Trigger mode: 1
Integration Time (sec): 1.000000E-1
Scans to average: 1
Electric dark correction enabled: true
Nonlinearity correction enabled: false
Boxcar width: 0
XAxis mode: Wavelengths
Number of Pixels in Spectrum: 2048
>>>>>Begin Spectral Data<<<<<
223.165	-24.5
223.4	-24.5
223.635	-24.5
223.869	-9.5
224.104	-25.5
224.338	-11.5
224.573	-22.5
224.808	-7.5
225.042	-1.5
225.277	-4.5
225.511	-19.5
225.746	3.5
225.98	19.5
226.215	26.5
226.449	12.5
226.683	27.5
226.918	5.5
227.152	31.5
227.387	33.5
227.621	36.5
227.856	33.5
228.09	42.5
228.324	28.5
228.559	48.5
228.793	83.5
229.027	90.5
229.262	75.5
229.496	78.5
229.73	102.5
229.964	103.5
230.199	95.5
230.433	94.5
230.667	114.5
230.901	98.5
231.136	108.5
231.37	104.5
231.604	111.5
231.838	114.5
232.072	100.5
232.306	101.5
232.541	108.5
232.775	121.5
233.009	118.5
233.243	115.5
233.477	114.5
233.711	116.5
233.945	114.5
234.179	114.5
234.413	118.5
234.647	115.5
234.881	115.5
235.115	116.5
235.349	118.5
235.583	121.5
235.817	105.5
236.051	121.5
236.285	127.5
236.519	113.5
236.753	110.5
236.987	93.5
237.221	115.5
237.455	115.5
237.689	121.5
237.922	108.5
238.156	131.5
238.39	115.5
238.624	128.5
238.858	121.5
239.091	123.5
239.325	128.5
239.559	119.5
239.793	119.5
240.027	125.5
240.26	124.5
240.494	119.5
240.728	114.5
240.961	122.5
241.195	112.5
241.429	127.5
241.662	120.5
241.896	127.5
242.13	127.5
242.363	129.5
242.597	133.5
242.83	133.5
243.064	139.5
243.298	144.5
243.531	132.5
243.765	148.5
243.998	139.5
244.232	147.5
244.465	140.5
244.699	140.5
244.932	135.5
245.166	142.5
245.399	138.5
245.633	132.5
245.866	157.5
246.099	140.5
246.333	137.5
246.566	138.5
246.8	125.5
247.033	135.5
247.266	131.5
247.5	136.5
247.733	154.5
247.966	140.5
248.2	153.5
248.433	140.5
248.666	152.5
248.899	144.5
249.133	159.5
249.366	166.5
249.599	149.5
249.832	157.5
250.066	167.5
250.299	152.5
250.532	141.5
250.765	153.5
250.998	156.5
251.231	164.5
251.465	172.5
251.698	161.5
251.931	156.5
252.164	161.5
252.397	155.5
252.63	163.5
252.863	177.5
253.096	170.5
253.329	167.5
253.562	181.5
253.795	185.5
254.028	181.5
254.261	175.5
254.494	165.5
254.727	163.5
254.96	180.5
255.193	166.5
255.426	165.5
255.659	167.5
255.892	170.5
256.124	183.5
256.357	183.5
256.59	171.5
256.823	180.5
257.056	165.5
257.289	169.5
257.521	174.5
257.754	149.5
257.987	176.5
258.22	184.5
258.452	178.5
258.685	176.5
258.918	177.5
259.151	193.5
259.383	192.5
259.616	192.5
259.849	189.5
260.081	200.5
260.314	196.5
260.547	193.5
260.779	183.5
261.012	195.5
261.244	200.5
261.477	207.5
261.71	196.5
261.942	198.5
262.175	187.5
262.407	194.5
262.64	201.5
262.872	194.5
263.105	181.5
263.337	181.5
263.57	202.5
263.802	207.5
264.035	188.5
264.267	195.5
264.499	192.5
264.732	209.5
264.964	199.5
265.197	203.5
265.429	194.5
265.661	209.5
265.894	205.5
266.126	216.5
266.358	205.5
266.591	212.5
266.823	242.5
267.055	212.5
267.287	206.5
267.52	199.5
267.752	210.5
267.984	222.5
268.216	212.5
268.448	212.5
268.681	210.5
268.913	210.5
269.145	193.5
269.377	207.5
269.609	196.5
269.841	213.5
270.073	219.5
270.306	218.5
270.538	203.5
270.77	220.5
271.002	215.5
271.234	229.5
271.466	227.5
271.698	215.5
271.93	232.5
272.162	225.5
272.394	231.5
272.626	223.5
272.858	244.5
273.09	232.5
273.322	237.5
273.553	225.5
273.785	236.5
274.017	239.5
274.249	240.5
274.481	252.5
274.713	276.5
274.945	274.5
275.176	273.5
275.408	265.5
275.64	260.5
275.872	236.5
276.104	253.5
276.335	245.5
276.567	260.5
276.799	247.5
277.031	249.5
277.262	250.5
277.494	235.5
277.726	251.5
277.957	244.5
278.189	241.5
278.421	253.5
278.652	259.5
278.884	277.5
279.115	246.5
279.347	260.5
279.579	232.5
279.81	251.5
280.042	247.5
280.273	269.5
280.505	270.5
280.736	252.5
280.968	264.5
281.199	251.5
281.431	255.5
281.662	274.5
281.894	264.5
282.125	255.5
282.356	251.5
282.588	250.5
282.819	259.5
283.051	262.5
283.282	254.5
283.513	265.5
283.745	265.5
283.976	245.5
284.207	294.5
284.439	285.5
284.67	277.5
284.901	275.5
285.132	284.5
285.364	267.5
285.595	274.5
285.826	288.5
286.057	272.5
286.288	273.5
286.52	274.5
286.751	267.5
286.982	301.5
287.213	285.5
287.444	278.5
287.675	287.5
287.906	291.5
288.138	305.5
288.369	299.5
288.6	287.5
288.831	291.5
289.062	310.5
289.293	310.5
289.524	309.5
289.755	296.5
289.986	296.5
290.217	292.5
290.448	288.5
290.679	312.5
290.91	292.5
291.141	296.5
291.371	296.5
291.602	288.5
291.833	302.5
292.064	299.5
292.295	301.5
292.526	282.5
292.757	288.5
292.987	327.5
293.218	294.5
293.449	322.5
293.68	298.5
293.91	269.5
294.141	309.5
294.372	292.5
294.603	312.5
294.833	314.5
295.064	311.5
295.295	311.5
295.525	310.5
295.756	295.5
295.987	312.5
296.217	325.5
296.448	308.5
296.679	305.5
296.909	321.5
297.14	316.5
297.37	315.5
297.601	320.5
297.831	310.5
298.062	317.5
298.292	316.5
298.523	321.5
298.753	333.5
298.984	319.5
299.214	329.5
299.445	336.5
299.675	315.5
299.905	313.5
300.136	350.5
300.366	315.5
300.597	321.5
300.827	341.5
301.057	332.5
301.288	334.5
301.518	344.5
301.748	358.5
301.979	333.5
302.209	329.5
302.439	325.5
302.669	351.5
302.9	345.5
303.13	347.5
303.36	341.5
303.59	333.5
303.82	345.5
304.051	329.5
304.281	352.5
304.511	360.5
304.741	353.5
304.971	348.5
305.201	344.5
305.431	380.5
305.661	345.5
305.891	355.5
306.121	362.5
306.352	363.5
306.582	345.5
306.812	359.5
307.042	364.5
307.272	359.5
307.502	356.5
307.731	347.5
307.961	361.5
308.191	357.5
308.421	331.5
308.651	359.5
308.881	363.5
309.111	373.5
309.341	353.5
309.571	363.5
309.8	370.5
310.03	373.5
310.26	370.5
310.49	365.5
310.72	369.5
310.949	345.5
311.179	351.5
311.409	351.5
311.639	360.5
311.868	367.5
312.098	360.5
312.328	394.5
312.557	382.5
312.787	364.5
313.017	393.5
313.246	393.5
313.476	388.5
313.706	378.5
313.935	395.5
314.165	392.5
314.394	380.5
314.624	398.5
314.853	375.5
315.083	368.5
315.312	379.5
315.542	386.5
315.771	394.5
316.001	405.5
316.23	387.5
316.46	365.5
316.689	391.5
316.919	387.5
317.148	402.5
317.377	403.5
317.607	380.5
317.836	399.5
318.065	411.5
318.295	381.5
318.524	399.5
318.753	395.5
318.983	394.5
319.212	401.5
319.441	410.5
319.67	403.5
319.9	397.5
320.129	404.5
320.358	401.5
320.587	409.5
320.816	401.5
321.046	420.5
321.275	404.5
321.504	395.5
321.733	403.5
321.962	397.5
322.191	399.5
322.42	393.5
322.649	417.5
322.878	396.5
323.108	401.5
323.337	403.5
323.566	386.5
323.795	413.5
324.024	403.5
324.253	417.5
324.482	421.5
324.71	405.5
324.939	420.5
325.168	412.5
325.397	406.5
325.626	444.5
325.855	414.5
326.084	409.5
326.313	412.5
326.542	424.5
326.77	422.5
326.999	436.5
327.228	443.5
327.457	431.5
327.686	425.5
327.914	440.5
328.143	442.5
328.372	429.5
328.6	439.5
328.829	419.5
329.058	410.5
329.287	435.5
329.515	439.5
329.744	450.5
329.972	428.5
330.201	451.5
330.43	448.5
330.658	426.5
330.887	446.5
331.115	453.5
331.344	468.5
331.572	427.5
331.801	464.5
332.03	458.5
332.258	454.5
332.486	457.5
332.715	488.5
332.943	470.5
333.172	471.5
333.4	449.5
333.629	473.5
333.857	482.5
334.085	478.5
334.314	515.5
334.542	512.5
334.771	488.5
334.999	477.5
335.227	499.5
335.455	492.5
335.684	477.5
335.912	500.5
336.14	486.5
336.369	498.5
336.597	507.5
336.825	495.5
337.053	482.5
337.281	487.5
337.51	475.5
337.738	492.5
337.966	489.5
338.194	466.5
338.422	473.5
338.65	484.5
338.878	495.5
339.106	475.5
339.334	460.5
339.562	490.5
339.79	455.5
340.018	485.5
340.246	465.5
340.474	482.5
340.702	489.5
340.93	486.5
341.158	465.5
341.386	467.5
341.614	482.5
341.842	471.5
342.07	470.5
342.298	469.5
342.526	461.5
342.754	472.5
342.981	474.5
343.209	501.5
343.437	470.5
343.665	479.5
343.893	492.5
344.12	489.5
344.348	495.5
344.576	480.5
344.804	499.5
345.031	481.5
345.259	484.5
345.487	473.5
345.714	466.5
345.942	465.5
346.17	485.5
346.397	465.5
346.625	444.5
346.853	455.5
347.08	448.5
347.308	450.5
347.535	449.5
347.763	460.5
347.99	463.5
348.218	455.5
348.445	463.5
348.673	461.5
348.9	475.5
349.128	450.5
349.355	447.5
349.583	458.5
349.81	452.5
350.037	444.5
350.265	452.5
350.492	437.5
350.72	443.5
350.947	443.5
351.174	453.5
351.402	461.5
351.629	448.5
351.856	440.5
352.083	461.5
352.311	453.5
352.538	445.5
352.765	447.5
352.992	453.5
353.22	457.5
353.447	457.5
353.674	464.5
353.901	469.5
354.128	466.5
354.355	468.5
354.583	438.5
354.81	451.5
355.037	459.5
355.264	471.5
355.491	457.5
355.718	460.5
355.945	448.5
356.172	444.5
356.399	460.5
356.626	460.5
356.853	469.5
357.08	457.5
357.307	459.5
357.534	467.5
357.761	449.5
357.988	460.5
358.215	480.5
358.441	464.5
358.668	459.5
358.895	456.5
359.122	442.5
359.349	453.5
359.576	451.5
359.802	452.5
360.029	467.5
360.256	474.5
360.483	445.5
360.709	450.5
360.936	475.5
361.163	457.5
361.39	457.5
361.616	467.5
361.843	461.5
362.07	469.5
362.296	469.5
362.523	469.5
362.749	471.5
362.976	473.5
363.203	484.5
363.429	495.5
363.656	465.5
363.882	458.5
364.109	488.5
364.335	467.5
364.562	463.5
364.788	459.5
365.015	495.5
365.241	467.5
365.468	455.5
365.694	487.5
365.92	458.5
366.147	483.5
366.373	477.5
366.599	475.5
366.826	488.5
367.052	467.5
367.278	470.5
367.505	468.5
367.731	473.5
367.957	496.5
368.184	497.5
368.41	481.5
368.636	465.5
368.862	484.5
369.089	462.5
369.315	475.5
369.541	475.5
369.767	495.5
369.993	479.5
370.219	489.5
370.445	479.5
370.672	488.5
370.898	499.5
371.124	515.5
371.35	527.5
371.576	503.5
371.802	514.5
372.028	523.5
372.254	529.5
372.48	519.5
372.706	497.5
372.932	503.5
373.158	493.5
373.384	509.5
373.61	491.5
373.835	523.5
374.061	505.5
374.287	524.5
374.513	516.5
374.739	524.5
374.965	523.5
375.191	522.5
375.416	543.5
375.642	543.5
375.868	533.5
376.094	508.5
376.319	517.5
376.545	500.5
376.771	515.5
376.997	502.5
377.222	511.5
377.448	501.5
377.674	506.5
377.899	517.5
378.125	477.5
378.35	488.5
378.576	518.5
378.802	508.5
379.027	503.5
379.253	504.5
379.478	517.5
379.704	489.5
379.929	503.5
380.155	503.5
380.38	519.5
380.606	512.5
380.831	518.5
381.057	513.5
381.282	484.5
381.507	523.5
381.733	513.5
381.958	511.5
382.184	517.5
382.409	499.5
382.634	513.5
382.86	527.5
383.085	515.5
383.31	544.5
383.535	521.5
383.761	551.5
383.986	529.5
384.211	525.5
384.436	564.5
384.662	551.5
384.887	537.5
385.112	549.5
385.337	525.5
385.562	555.5
385.787	543.5
386.013	569.5
386.238	585.5
386.463	561.5
386.688	595.5
386.913	561.5
387.138	557.5
387.363	580.5
387.588	573.5
387.813	564.5
388.038	570.5
388.263	587.5
388.488	581.5
388.713	572.5
388.938	580.5
389.163	589.5
389.387	565.5
389.612	556.5
389.837	581.5
390.062	585.5
390.287	554.5
390.512	580.5
390.736	574.5
390.961	575.5
391.186	583.5
391.411	596.5
391.636	571.5
391.86	599.5
392.085	596.5
392.31	604.5
392.534	627.5
392.759	603.5
392.984	598.5
393.208	586.5
393.433	607.5
393.658	580.5
393.882	577.5
394.107	591.5
394.331	586.5
394.556	572.5
394.78	574.5
395.005	601.5
395.229	599.5
395.454	595.5
395.678	603.5
395.903	607.5
396.127	609.5
396.352	593.5
396.576	620.5
396.801	617.5
397.025	615.5
397.249	647.5
397.474	633.5
397.698	639.5
397.922	641.5
398.147	650.5
398.371	665.5
398.595	659.5
398.82	653.5
399.044	665.5
399.268	699.5
399.492	723.5
399.717	726.5
399.941	755.5
400.165	741.5
400.389	706.5
400.613	671.5
400.837	697.5
401.062	668.5
401.286	668.5
401.51	684.5
401.734	660.5
401.958	677.5
402.182	639.5
402.406	664.5
402.63	659.5
402.854	671.5
403.078	658.5
403.302	667.5
403.526	651.5
403.75	660.5
403.974	661.5
404.198	666.5
404.422	667.5
404.645	652.5
404.869	678.5
405.093	670.5
405.317	649.5
405.541	683.5
405.765	668.5
405.988	700.5
406.212	711.5
406.436	699.5
406.66	697.5
406.883	716.5
407.107	706.5
407.331	720.5
407.555	732.5
407.778	738.5
408.002	732.5
408.226	735.5
408.449	747.5
408.673	731.5
408.896	701.5
409.12	729.5
409.344	720.5
409.567	707.5
409.791	695.5
410.014	696.5
410.238	705.5
410.461	715.5
410.685	691.5
410.908	699.5
411.132	713.5
411.355	671.5
411.578	682.5
411.802	676.5
412.025	696.5
412.249	684.5
412.472	689.5
412.695	695.5
412.919	707.5
413.142	646.5
413.365	675.5
413.589	677.5
413.812	673.5
414.035	648.5
414.258	652.5
414.482	666.5
414.705	656.5
414.928	647.5
415.151	681.5
415.374	642.5
415.597	658.5
415.821	637.5
416.044	643.5
416.267	645.5
416.49	644.5
416.713	637.5
416.936	629.5
417.159	627.5
417.382	632.5
417.605	609.5
417.828	639.5
418.051	634.5
418.274	658.5
418.497	643.5
418.72	641.5
418.943	633.5
419.166	650.5
419.389	670.5
419.611	695.5
419.834	660.5
420.057	643.5
420.28	654.5
420.503	645.5
420.726	625.5
420.948	626.5
421.171	620.5
421.394	611.5
421.617	624.5
421.839	623.5
422.062	635.5
422.285	636.5
422.507	638.5
422.73	635.5
422.953	619.5
423.175	620.5
423.398	617.5
423.621	613.5
423.843	625.5
424.066	623.5
424.288	623.5
424.511	604.5
424.733	631.5
424.956	621.5
425.178	631.5
425.401	629.5
425.623	621.5
425.846	604.5
426.068	622.5
426.291	611.5
426.513	609.5
426.735	612.5
426.958	620.5
427.18	630.5
427.402	612.5
427.625	605.5
427.847	605.5
428.069	614.5
428.292	609.5
428.514	633.5
428.736	604.5
428.958	589.5
429.181	608.5
429.403	611.5
429.625	595.5
429.847	607.5
430.069	608.5
430.292	605.5
430.514	603.5
430.736	602.5
430.958	603.5
431.18	594.5
431.402	578.5
431.624	591.5
431.846	619.5
432.068	628.5
432.29	627.5
432.512	595.5
432.734	581.5
432.956	617.5
433.178	606.5
433.4	604.5
433.622	602.5
433.844	632.5
434.066	609.5
434.287	604.5
434.509	614.5
434.731	641.5
434.953	651.5
435.175	630.5
435.397	612.5
435.618	630.5
435.84	625.5
436.062	628.5
436.284	611.5
436.505	632.5
436.727	603.5
436.949	605.5
437.17	575.5
437.392	585.5
437.614	588.5
437.835	569.5
438.057	586.5
438.278	561.5
438.5	588.5
438.721	587.5
438.943	589.5
439.165	552.5
439.386	600.5
439.608	584.5
439.829	609.5
440.05	589.5
440.272	581.5
440.493	614.5
440.715	588.5
440.936	613.5
441.158	599.5
441.379	614.5
441.6	603.5
441.822	603.5
442.043	620.5
442.264	612.5
442.486	605.5
442.707	603.5
442.928	609.5
443.149	604.5
443.371	619.5
443.592	615.5
443.813	606.5
444.034	601.5
444.255	621.5
444.476	609.5
444.698	639.5
444.919	646.5
445.14	738.5
445.361	663.5
445.582	633.5
445.803	580.5
446.024	611.5
446.245	591.5
446.466	581.5
446.687	598.5
446.908	581.5
447.129	567.5
447.35	578.5
447.571	580.5
447.792	569.5
448.013	576.5
448.234	571.5
448.455	550.5
448.675	556.5
448.896	577.5
449.117	555.5
449.338	562.5
449.559	552.5
449.779	540.5
450	554.5
450.221	550.5
450.442	550.5
450.662	536.5
450.883	541.5
451.104	540.5
451.324	538.5
451.545	524.5
451.766	552.5
451.986	539.5
452.207	556.5
452.428	533.5
452.648	534.5
452.869	559.5
453.089	512.5
453.31	564.5
453.53	552.5
453.751	527.5
453.971	534.5
454.192	531.5
454.412	529.5
454.633	527.5
454.853	522.5
455.073	550.5
455.294	528.5
455.514	531.5
455.734	521.5
455.955	496.5
456.175	525.5
456.395	539.5
456.616	529.5
456.836	536.5
457.056	556.5
457.276	522.5
457.497	562.5
457.717	508.5
457.937	543.5
458.157	560.5
458.377	555.5
458.598	551.5
458.818	558.5
459.038	591.5
459.258	567.5
459.478	612.5
459.698	582.5
459.918	599.5
460.138	621.5
460.358	610.5
460.578	631.5
460.798	634.5
461.018	607.5
461.238	637.5
461.458	640.5
461.678	641.5
461.898	632.5
462.118	655.5
462.338	678.5
462.558	691.5
462.777	687.5
462.997	675.5
463.217	739.5
463.437	717.5
463.657	676.5
463.876	702.5
464.096	693.5
464.316	682.5
464.536	687.5
464.755	647.5
464.975	652.5
465.195	635.5
465.414	623.5
465.634	601.5
465.854	601.5
466.073	625.5
466.293	615.5
466.512	597.5
466.732	594.5
466.951	613.5
467.171	566.5
467.391	597.5
467.61	591.5
467.829	588.5
468.049	579.5
468.268	586.5
468.488	564.5
468.707	601.5
468.927	579.5
469.146	580.5
469.365	588.5
469.585	596.5
469.804	587.5
470.023	582.5
470.243	598.5
470.462	597.5
470.681	599.5
470.901	571.5
471.12	567.5
471.339	575.5
471.558	570.5
471.777	589.5
471.997	586.5
472.216	585.5
472.435	580.5
472.654	578.5
472.873	593.5
473.092	604.5
473.311	606.5
473.53	592.5
473.749	568.5
473.968	592.5
474.187	585.5
474.406	593.5
474.625	588.5
474.844	598.5
475.063	601.5
475.282	600.5
475.501	610.5
475.72	614.5
475.939	604.5
476.158	623.5
476.377	613.5
476.596	651.5
476.814	634.5
477.033	641.5
477.252	628.5
477.471	618.5
477.69	659.5
477.908	661.5
478.127	685.5
478.346	683.5
478.564	680.5
478.783	683.5
479.002	714.5
479.22	711.5
479.439	712.5
479.658	697.5
479.876	688.5
480.095	704.5
480.313	693.5
480.532	710.5
480.751	708.5
480.969	711.5
481.188	725.5
481.406	699.5
481.624	699.5
481.843	699.5
482.061	720.5
482.28	729.5
482.498	694.5
482.717	699.5
482.935	696.5
483.153	703.5
483.372	712.5
483.59	728.5
483.808	723.5
484.027	712.5
484.245	732.5
484.463	742.5
484.681	744.5
484.9	735.5
485.118	747.5
485.336	738.5
485.554	727.5
485.772	737.5
485.99	753.5
486.209	749.5
486.427	713.5
486.645	763.5
486.863	732.5
487.081	755.5
487.299	745.5
487.517	749.5
487.735	767.5
487.953	763.5
488.171	760.5
488.389	743.5
488.607	735.5
488.825	724.5
489.043	758.5
489.261	745.5
489.479	727.5
489.696	707.5
489.914	726.5
490.132	738.5
490.35	738.5
490.568	749.5
490.786	758.5
491.003	748.5
491.221	739.5
491.439	761.5
491.657	742.5
491.874	732.5
492.092	719.5
492.31	746.5
492.527	752.5
492.745	736.5
492.963	759.5
493.18	751.5
493.398	744.5
493.615	775.5
493.833	766.5
494.05	762.5
494.268	766.5
494.485	751.5
494.703	758.5
494.92	770.5
495.138	772.5
495.355	781.5
495.573	787.5
495.79	778.5
496.008	767.5
496.225	758.5
496.442	793.5
496.66	844.5
496.877	815.5
497.094	825.5
497.312	829.5
497.529	809.5
497.746	844.5
497.963	835.5
498.181	887.5
498.398	873.5
498.615	918.5
498.832	927.5
499.049	961.5
499.267	1001.5
499.484	1003.5
499.701	1058.5
499.918	1089.5
500.135	1154.5
500.352	1169.5
500.569	1196.5
500.786	1173.5
501.003	1160.5
501.22	1140.5
501.437	1074.5
501.654	1023.5
501.871	1003.5
502.088	989.5
502.305	953.5
502.522	947.5
502.739	921.5
502.956	899.5
503.172	880.5
503.389	844.5
503.606	833.5
503.823	811.5
504.04	821.5
504.256	795.5
504.473	783.5
504.69	776.5
504.907	771.5
505.123	730.5
505.34	732.5
505.557	745.5
505.773	740.5
505.99	713.5
506.207	730.5
506.423	708.5
506.64	681.5
506.856	695.5
507.073	687.5
507.289	685.5
507.506	680.5
507.722	683.5
507.939	665.5
508.155	669.5
508.372	668.5
508.588	661.5
508.805	657.5
509.021	659.5
509.238	659.5
509.454	660.5
509.67	633.5
509.887	648.5
510.103	611.5
510.319	639.5
510.536	600.5
510.752	637.5
510.968	623.5
511.184	611.5
511.401	630.5
511.617	627.5
511.833	605.5
512.049	647.5
512.265	635.5
512.481	640.5
512.698	616.5
512.914	636.5
513.13	617.5
513.346	631.5
513.562	626.5
513.778	628.5
513.994	636.5
514.21	624.5
514.426	619.5
514.642	616.5
514.858	618.5
515.074	656.5
515.29	613.5
515.506	625.5
515.721	643.5
515.937	631.5
516.153	661.5
516.369	630.5
516.585	683.5
516.801	688.5
517.016	656.5
517.232	668.5
517.448	666.5
517.664	694.5
517.879	675.5
518.095	685.5
518.311	669.5
518.527	672.5
518.742	661.5
518.958	683.5
519.173	659.5
519.389	645.5
