Data from Fe(NO3)3@0.05M.TitratingCurve.Agarose3%dH2O.NegLispCup.LampEnergy10.LIBS07252019_HRD10591_16-47-42-334.txt Node
Date: Thu Jul 25 16:47:42 EDT 2019
User: cochatt
Spectrometer: HR+D1059
Trigger mode: 1
Integration Time (sec): 1.000000E-1
Scans to average: 1
Electric dark correction enabled: true
Nonlinearity correction enabled: false
Boxcar width: 0
XAxis mode: Wavelengths
Number of Pixels in Spectrum: 2048
>>>>>Begin Spectral Data<<<<<
223.165	-31.19
223.4	-31.19
223.635	-31.19
223.869	-21.19
224.104	-2.19
224.338	-16.19
224.573	-22.19
224.808	-18.19
225.042	-15.19
225.277	-2.19
225.511	-2.19
225.746	21.81
225.98	5.81
226.215	9.81
226.449	6.81
226.683	24.81
226.918	37.81
227.152	23.81
227.387	42.81
227.621	32.81
227.856	32.81
228.09	36.81
228.324	45.81
228.559	59.81
228.793	67.81
229.027	86.81
229.262	61.81
229.496	75.81
229.73	81.81
229.964	80.81
230.199	86.81
230.433	92.81
230.667	83.81
230.901	97.81
231.136	98.81
231.37	94.81
231.604	94.81
231.838	85.81
232.072	102.81
232.306	103.81
232.541	104.81
232.775	110.81
233.009	86.81
233.243	94.81
233.477	109.81
233.711	100.81
233.945	103.81
234.179	104.81
234.413	94.81
234.647	89.81
234.881	91.81
235.115	99.81
235.349	101.81
235.583	105.81
235.817	89.81
236.051	95.81
236.285	109.81
236.519	92.81
236.753	102.81
236.987	110.81
237.221	95.81
237.455	89.81
237.689	117.81
237.922	104.81
238.156	99.81
238.39	93.81
238.624	105.81
238.858	110.81
239.091	102.81
239.325	99.81
239.559	104.81
239.793	98.81
240.027	115.81
240.26	102.81
240.494	101.81
240.728	102.81
240.961	123.81
241.195	121.81
241.429	113.81
241.662	111.81
241.896	111.81
242.13	95.81
242.363	104.81
242.597	105.81
242.83	121.81
243.064	106.81
243.298	113.81
243.531	123.81
243.765	119.81
243.998	104.81
244.232	105.81
244.465	115.81
244.699	113.81
244.932	117.81
245.166	122.81
245.399	127.81
245.633	123.81
245.866	117.81
246.099	117.81
246.333	117.81
246.566	130.81
246.8	133.81
247.033	115.81
247.266	124.81
247.5	114.81
247.733	133.81
247.966	134.81
248.2	138.81
248.433	128.81
248.666	126.81
248.899	133.81
249.133	130.81
249.366	131.81
249.599	124.81
249.832	122.81
250.066	129.81
250.299	121.81
250.532	128.81
250.765	131.81
250.998	119.81
251.231	114.81
251.465	133.81
251.698	128.81
251.931	121.81
252.164	133.81
252.397	137.81
252.63	157.81
252.863	121.81
253.096	143.81
253.329	137.81
253.562	155.81
253.795	121.81
254.028	139.81
254.261	153.81
254.494	133.81
254.727	135.81
254.96	136.81
255.193	138.81
255.426	129.81
255.659	135.81
255.892	130.81
256.124	131.81
256.357	139.81
256.59	147.81
256.823	147.81
257.056	136.81
257.289	149.81
257.521	145.81
257.754	142.81
257.987	130.81
258.22	154.81
258.452	149.81
258.685	135.81
258.918	133.81
259.151	137.81
259.383	152.81
259.616	148.81
259.849	158.81
260.081	163.81
260.314	171.81
260.547	163.81
260.779	150.81
261.012	155.81
261.244	146.81
261.477	177.81
261.71	141.81
261.942	144.81
262.175	155.81
262.407	161.81
262.64	159.81
262.872	149.81
263.105	166.81
263.337	177.81
263.57	147.81
263.802	154.81
264.035	161.81
264.267	155.81
264.499	146.81
264.732	148.81
264.964	150.81
265.197	147.81
265.429	146.81
265.661	158.81
265.894	163.81
266.126	173.81
266.358	160.81
266.591	151.81
266.823	163.81
267.055	150.81
267.287	165.81
267.52	157.81
267.752	159.81
267.984	168.81
268.216	149.81
268.448	173.81
268.681	165.81
268.913	161.81
269.145	164.81
269.377	165.81
269.609	153.81
269.841	160.81
270.073	172.81
270.306	149.81
270.538	177.81
270.77	157.81
271.002	175.81
271.234	152.81
271.466	178.81
271.698	165.81
271.93	167.81
272.162	180.81
272.394	167.81
272.626	170.81
272.858	171.81
273.09	167.81
273.322	196.81
273.553	177.81
273.785	190.81
274.017	197.81
274.249	200.81
274.481	197.81
274.713	205.81
274.945	198.81
275.176	212.81
275.408	214.81
275.64	202.81
275.872	217.81
276.104	211.81
276.335	192.81
276.567	186.81
276.799	177.81
277.031	182.81
277.262	180.81
277.494	186.81
277.726	181.81
277.957	181.81
278.189	187.81
278.421	185.81
278.652	198.81
278.884	195.81
279.115	181.81
279.347	178.81
279.579	176.81
279.81	184.81
280.042	191.81
280.273	190.81
280.505	185.81
280.736	203.81
280.968	185.81
281.199	192.81
281.431	185.81
281.662	202.81
281.894	186.81
282.125	195.81
282.356	199.81
282.588	199.81
282.819	203.81
283.051	190.81
283.282	197.81
283.513	218.81
283.745	186.81
283.976	208.81
284.207	219.81
284.439	204.81
284.67	213.81
284.901	208.81
285.132	209.81
285.364	197.81
285.595	197.81
285.826	205.81
286.057	227.81
286.288	206.81
286.52	211.81
286.751	212.81
286.982	216.81
287.213	210.81
287.444	217.81
287.675	195.81
287.906	210.81
288.138	192.81
288.369	202.81
288.6	228.81
288.831	201.81
289.062	199.81
289.293	229.81
289.524	208.81
289.755	213.81
289.986	211.81
290.217	204.81
290.448	200.81
290.679	198.81
290.91	201.81
291.141	197.81
291.371	210.81
291.602	211.81
291.833	206.81
292.064	212.81
292.295	226.81
292.526	206.81
292.757	203.81
292.987	197.81
293.218	215.81
293.449	210.81
293.68	229.81
293.91	218.81
294.141	209.81
294.372	227.81
294.603	198.81
294.833	228.81
295.064	223.81
295.295	226.81
295.525	216.81
295.756	223.81
295.987	214.81
296.217	213.81
296.448	214.81
296.679	222.81
296.909	233.81
297.14	220.81
297.37	233.81
297.601	230.81
297.831	226.81
298.062	225.81
298.292	224.81
298.523	225.81
298.753	231.81
298.984	222.81
299.214	227.81
299.445	226.81
299.675	227.81
299.905	211.81
300.136	212.81
300.366	215.81
300.597	227.81
300.827	226.81
301.057	232.81
301.288	221.81
301.518	215.81
301.748	251.81
301.979	246.81
302.209	242.81
302.439	231.81
302.669	228.81
302.9	247.81
303.13	221.81
303.36	234.81
303.59	225.81
303.82	244.81
304.051	218.81
304.281	243.81
304.511	229.81
304.741	235.81
304.971	216.81
305.201	229.81
305.431	244.81
305.661	247.81
305.891	234.81
306.121	230.81
306.352	230.81
306.582	249.81
306.812	229.81
307.042	237.81
307.272	228.81
307.502	228.81
307.731	250.81
307.961	251.81
308.191	243.81
308.421	246.81
308.651	215.81
308.881	230.81
309.111	225.81
309.341	215.81
309.571	224.81
309.8	238.81
310.03	244.81
310.26	232.81
310.49	243.81
310.72	246.81
310.949	232.81
311.179	261.81
311.409	235.81
311.639	230.81
311.868	242.81
312.098	250.81
312.328	225.81
312.557	242.81
312.787	243.81
313.017	250.81
313.246	250.81
313.476	243.81
313.706	247.81
313.935	271.81
314.165	244.81
314.394	235.81
314.624	247.81
314.853	242.81
315.083	253.81
315.312	230.81
315.542	241.81
315.771	262.81
316.001	231.81
316.23	261.81
316.46	257.81
316.689	250.81
316.919	257.81
317.148	259.81
317.377	259.81
317.607	241.81
317.836	232.81
318.065	255.81
318.295	229.81
318.524	258.81
318.753	257.81
318.983	249.81
319.212	273.81
319.441	248.81
319.67	254.81
319.9	257.81
320.129	249.81
320.358	253.81
320.587	242.81
320.816	230.81
321.046	257.81
321.275	235.81
321.504	255.81
321.733	256.81
321.962	253.81
322.191	266.81
322.42	285.81
322.649	253.81
322.878	250.81
323.108	263.81
323.337	244.81
323.566	270.81
323.795	267.81
324.024	276.81
324.253	280.81
324.482	259.81
324.71	261.81
324.939	279.81
325.168	269.81
325.397	257.81
325.626	275.81
325.855	270.81
326.084	258.81
326.313	277.81
326.542	281.81
326.77	273.81
326.999	274.81
327.228	265.81
327.457	273.81
327.686	272.81
327.914	261.81
328.143	281.81
328.372	274.81
328.6	277.81
328.829	291.81
329.058	265.81
329.287	270.81
329.515	273.81
329.744	276.81
329.972	277.81
330.201	284.81
330.43	272.81
330.658	290.81
330.887	277.81
331.115	257.81
331.344	288.81
331.572	287.81
331.801	294.81
332.03	288.81
332.258	295.81
332.486	297.81
332.715	308.81
332.943	299.81
333.172	329.81
333.4	331.81
333.629	322.81
333.857	345.81
334.085	317.81
334.314	317.81
334.542	315.81
334.771	320.81
334.999	315.81
335.227	330.81
335.455	301.81
335.684	301.81
335.912	322.81
336.14	318.81
336.369	307.81
336.597	308.81
336.825	298.81
337.053	291.81
337.281	295.81
337.51	315.81
337.738	318.81
337.966	288.81
338.194	290.81
338.422	298.81
338.65	302.81
338.878	281.81
339.106	306.81
339.334	305.81
339.562	303.81
339.79	302.81
340.018	275.81
340.246	269.81
340.474	284.81
340.702	290.81
340.93	293.81
341.158	281.81
341.386	294.81
341.614	273.81
341.842	270.81
342.07	292.81
342.298	291.81
342.526	283.81
342.754	273.81
342.981	293.81
343.209	303.81
343.437	305.81
343.665	316.81
343.893	338.81
344.12	345.81
344.348	333.81
344.576	311.81
344.804	299.81
345.031	290.81
345.259	285.81
345.487	303.81
345.714	265.81
345.942	289.81
346.17	273.81
346.397	299.81
346.625	281.81
346.853	264.81
347.08	273.81
347.308	254.81
347.535	281.81
347.763	279.81
347.99	290.81
348.218	293.81
348.445	269.81
348.673	273.81
348.9	266.81
349.128	278.81
349.355	289.81
349.583	283.81
349.81	279.81
350.037	289.81
350.265	262.81
350.492	289.81
350.72	283.81
350.947	283.81
351.174	274.81
351.402	256.81
351.629	283.81
351.856	266.81
352.083	283.81
352.311	276.81
352.538	261.81
352.765	275.81
352.992	290.81
353.22	298.81
353.447	280.81
353.674	297.81
353.901	277.81
354.128	263.81
354.355	274.81
354.583	269.81
354.81	279.81
355.037	291.81
355.264	289.81
355.491	281.81
355.718	281.81
355.945	288.81
356.172	291.81
356.399	287.81
356.626	289.81
356.853	297.81
357.08	270.81
357.307	287.81
357.534	294.81
357.761	295.81
357.988	307.81
358.215	279.81
358.441	285.81
358.668	294.81
358.895	293.81
359.122	275.81
359.349	288.81
359.576	276.81
359.802	277.81
360.029	274.81
360.256	283.81
360.483	297.81
360.709	281.81
360.936	299.81
361.163	277.81
361.39	302.81
361.616	285.81
361.843	273.81
362.07	287.81
362.296	279.81
362.523	280.81
362.749	287.81
362.976	281.81
363.203	295.81
363.429	288.81
363.656	287.81
363.882	286.81
364.109	278.81
364.335	312.81
364.562	281.81
364.788	302.81
365.015	288.81
365.241	281.81
365.468	289.81
365.694	285.81
365.92	273.81
366.147	289.81
366.373	290.81
366.599	298.81
366.826	287.81
367.052	276.81
367.278	270.81
367.505	296.81
367.731	301.81
367.957	278.81
368.184	288.81
368.41	287.81
368.636	314.81
368.862	319.81
369.089	309.81
369.315	307.81
369.541	292.81
369.767	301.81
369.993	292.81
370.219	275.81
370.445	290.81
370.672	307.81
370.898	329.81
371.124	303.81
371.35	315.81
371.576	309.81
371.802	309.81
372.028	324.81
372.254	328.81
372.48	318.81
372.706	317.81
372.932	331.81
373.158	326.81
373.384	327.81
373.61	338.81
373.835	326.81
374.061	331.81
374.287	314.81
374.513	323.81
374.739	338.81
374.965	351.81
375.191	349.81
375.416	327.81
375.642	335.81
375.868	343.81
376.094	322.81
376.319	317.81
376.545	326.81
376.771	307.81
376.997	305.81
377.222	326.81
377.448	314.81
377.674	303.81
377.899	295.81
378.125	331.81
378.35	318.81
378.576	337.81
378.802	301.81
379.027	295.81
379.253	324.81
379.478	309.81
379.704	315.81
379.929	317.81
380.155	335.81
380.38	312.81
380.606	333.81
380.831	323.81
381.057	331.81
381.282	326.81
381.507	330.81
381.733	325.81
381.958	335.81
382.184	335.81
382.409	332.81
382.634	338.81
382.86	338.81
383.085	344.81
383.31	335.81
383.535	356.81
383.761	371.81
383.986	356.81
384.211	375.81
384.436	367.81
384.662	375.81
384.887	368.81
385.112	373.81
385.337	393.81
385.562	363.81
385.787	367.81
386.013	367.81
386.238	374.81
386.463	379.81
386.688	382.81
386.913	375.81
387.138	376.81
387.363	391.81
387.588	377.81
387.813	379.81
388.038	387.81
388.263	390.81
388.488	387.81
388.713	376.81
388.938	357.81
389.163	374.81
389.387	378.81
389.612	379.81
389.837	350.81
390.062	367.81
390.287	388.81
390.512	383.81
390.736	384.81
390.961	391.81
391.186	383.81
391.411	392.81
391.636	410.81
391.86	422.81
392.085	415.81
392.31	422.81
392.534	397.81
392.759	415.81
392.984	415.81
393.208	400.81
393.433	402.81
393.658	405.81
393.882	378.81
394.107	414.81
394.331	398.81
394.556	409.81
394.78	409.81
395.005	406.81
395.229	403.81
395.454	410.81
395.678	410.81
395.903	418.81
396.127	415.81
396.352	410.81
396.576	421.81
396.801	395.81
397.025	419.81
397.249	421.81
397.474	427.81
397.698	415.81
397.922	445.81
398.147	429.81
398.371	445.81
398.595	458.81
398.82	466.81
399.044	486.81
399.268	529.81
399.492	587.81
399.717	617.81
399.941	617.81
400.165	583.81
400.389	544.81
400.613	506.81
400.837	483.81
401.062	507.81
401.286	467.81
401.51	484.81
401.734	479.81
401.958	457.81
402.182	459.81
402.406	492.81
402.63	477.81
402.854	447.81
403.078	457.81
403.302	488.81
403.526	507.81
403.75	503.81
403.974	528.81
404.198	513.81
404.422	529.81
404.645	506.81
404.869	520.81
405.093	509.81
405.317	481.81
405.541	512.81
405.765	497.81
405.988	512.81
406.212	522.81
406.436	497.81
406.66	526.81
406.883	522.81
407.107	551.81
407.331	538.81
407.555	581.81
407.778	555.81
408.002	554.81
408.226	522.81
408.449	539.81
408.673	522.81
408.896	549.81
409.12	511.81
409.344	495.81
409.567	497.81
409.791	506.81
410.014	517.81
410.238	502.81
410.461	488.81
410.685	519.81
410.908	499.81
411.132	494.81
411.355	490.81
411.578	493.81
411.802	497.81
412.025	482.81
412.249	482.81
412.472	484.81
412.695	469.81
412.919	489.81
413.142	475.81
413.365	493.81
413.589	469.81
413.812	489.81
414.035	480.81
414.258	484.81
414.482	483.81
414.705	501.81
414.928	500.81
415.151	486.81
415.374	462.81
415.597	474.81
415.821	484.81
416.044	494.81
416.267	493.81
416.49	466.81
416.713	481.81
416.936	468.81
417.159	467.81
417.382	481.81
417.605	475.81
417.828	473.81
418.051	477.81
418.274	483.81
418.497	477.81
418.72	464.81
418.943	478.81
419.166	494.81
419.389	526.81
419.611	519.81
419.834	489.81
420.057	497.81
420.28	491.81
420.503	464.81
420.726	473.81
420.948	460.81
421.171	485.81
421.394	480.81
421.617	463.81
421.839	467.81
422.062	495.81
422.285	466.81
422.507	502.81
422.73	470.81
422.953	493.81
423.175	475.81
423.398	503.81
423.621	490.81
423.843	514.81
424.066	471.81
424.288	480.81
424.511	476.81
424.733	481.81
424.956	487.81
425.178	495.81
425.401	489.81
425.623	491.81
425.846	491.81
426.068	497.81
426.291	477.81
426.513	462.81
426.735	475.81
426.958	480.81
427.18	453.81
427.402	467.81
427.625	445.81
427.847	473.81
428.069	457.81
428.292	443.81
428.514	456.81
428.736	463.81
428.958	445.81
429.181	423.81
429.403	463.81
429.625	453.81
429.847	442.81
430.069	443.81
430.292	462.81
430.514	447.81
430.736	457.81
430.958	421.81
431.18	456.81
431.402	446.81
431.624	433.81
431.846	459.81
432.068	440.81
432.29	455.81
432.512	460.81
432.734	456.81
432.956	438.81
433.178	459.81
433.4	440.81
433.622	454.81
433.844	473.81
434.066	447.81
434.287	475.81
434.509	478.81
434.731	508.81
434.953	495.81
435.175	491.81
435.397	488.81
435.618	466.81
435.84	462.81
436.062	459.81
436.284	442.81
436.505	456.81
436.727	464.81
436.949	440.81
437.17	443.81
437.392	452.81
437.614	437.81
437.835	455.81
438.057	453.81
438.278	442.81
438.5	458.81
438.721	462.81
438.943	437.81
439.165	434.81
439.386	455.81
439.608	452.81
439.829	456.81
440.05	473.81
440.272	453.81
440.493	476.81
440.715	491.81
440.936	471.81
441.158	481.81
441.379	469.81
441.6	519.81
441.822	483.81
442.043	498.81
442.264	467.81
442.486	485.81
442.707	494.81
442.928	514.81
443.149	504.81
443.371	487.81
443.592	485.81
443.813	494.81
444.034	507.81
444.255	530.81
444.476	527.81
444.698	564.81
444.919	569.81
445.14	658.81
445.361	564.81
445.582	508.81
445.803	505.81
446.024	490.81
446.245	486.81
446.466	462.81
446.687	463.81
446.908	482.81
447.129	477.81
447.35	458.81
447.571	456.81
447.792	447.81
448.013	470.81
448.234	441.81
448.455	435.81
448.675	437.81
448.896	440.81
449.117	429.81
449.338	430.81
449.559	413.81
449.779	433.81
450	449.81
450.221	416.81
450.442	435.81
450.662	440.81
450.883	423.81
451.104	435.81
451.324	424.81
451.545	445.81
451.766	439.81
451.986	445.81
452.207	445.81
452.428	431.81
452.648	439.81
452.869	412.81
453.089	428.81
453.31	421.81
453.53	418.81
453.751	422.81
453.971	440.81
454.192	425.81
454.412	401.81
454.633	438.81
454.853	426.81
455.073	430.81
455.294	413.81
455.514	410.81
455.734	403.81
455.955	394.81
456.175	417.81
456.395	397.81
456.616	415.81
456.836	403.81
457.056	413.81
457.276	405.81
457.497	400.81
457.717	416.81
457.937	431.81
458.157	443.81
458.377	409.81
458.598	433.81
458.818	421.81
459.038	418.81
459.258	451.81
459.478	460.81
459.698	480.81
459.918	486.81
460.138	483.81
460.358	520.81
460.578	523.81
460.798	515.81
461.018	539.81
461.238	511.81
461.458	551.81
461.678	525.81
461.898	528.81
462.118	520.81
462.338	527.81
462.558	560.81
462.777	566.81
462.997	625.81
463.217	626.81
463.437	637.81
463.657	613.81
463.876	587.81
464.096	584.81
464.316	562.81
464.536	571.81
464.755	543.81
464.975	543.81
465.195	523.81
465.414	523.81
465.634	496.81
465.854	497.81
466.073	505.81
466.293	455.81
466.512	453.81
466.732	454.81
466.951	480.81
467.171	460.81
467.391	471.81
467.61	459.81
467.829	460.81
468.049	463.81
468.268	450.81
468.488	434.81
468.707	465.81
468.927	459.81
469.146	458.81
469.365	474.81
469.585	461.81
469.804	454.81
470.023	469.81
470.243	474.81
470.462	488.81
470.681	470.81
470.901	450.81
471.12	475.81
471.339	463.81
471.558	441.81
471.777	455.81
471.997	469.81
472.216	450.81
472.435	460.81
472.654	442.81
472.873	460.81
473.092	433.81
473.311	469.81
473.53	459.81
473.749	442.81
473.968	455.81
474.187	447.81
474.406	436.81
474.625	450.81
474.844	457.81
475.063	451.81
475.282	463.81
475.501	454.81
475.72	457.81
475.939	453.81
476.158	481.81
476.377	469.81
476.596	474.81
476.814	469.81
477.033	484.81
477.252	482.81
477.471	476.81
477.69	500.81
477.908	489.81
478.127	506.81
478.346	512.81
478.564	531.81
478.783	546.81
479.002	525.81
479.22	568.81
479.439	548.81
479.658	541.81
479.876	537.81
480.095	538.81
480.313	552.81
480.532	546.81
480.751	551.81
480.969	546.81
481.188	513.81
481.406	538.81
481.624	518.81
481.843	509.81
482.061	502.81
482.28	522.81
482.498	526.81
482.717	499.81
482.935	529.81
483.153	527.81
483.372	525.81
483.59	524.81
483.808	510.81
484.027	514.81
484.245	512.81
484.463	518.81
484.681	539.81
484.9	521.81
485.118	515.81
485.336	522.81
485.554	542.81
485.772	522.81
485.99	523.81
486.209	513.81
486.427	530.81
486.645	525.81
486.863	557.81
487.081	543.81
487.299	544.81
487.517	537.81
487.735	526.81
487.953	519.81
488.171	525.81
488.389	551.81
488.607	531.81
488.825	510.81
489.043	527.81
489.261	535.81
489.479	550.81
489.696	535.81
489.914	542.81
490.132	514.81
490.35	536.81
490.568	550.81
490.786	537.81
491.003	547.81
491.221	547.81
491.439	554.81
491.657	561.81
491.874	565.81
492.092	574.81
492.31	563.81
492.527	569.81
492.745	573.81
492.963	563.81
493.18	561.81
493.398	544.81
493.615	570.81
493.833	570.81
494.05	566.81
494.268	583.81
494.485	563.81
494.703	546.81
494.92	576.81
495.138	567.81
495.355	574.81
495.573	570.81
495.79	571.81
496.008	577.81
496.225	578.81
496.442	581.81
496.66	599.81
496.877	592.81
497.094	592.81
497.312	614.81
497.529	583.81
497.746	613.81
497.963	624.81
498.181	665.81
498.398	673.81
498.615	698.81
498.832	717.81
499.049	799.81
499.267	797.81
499.484	843.81
499.701	913.81
499.918	1000.81
500.135	1072.81
500.352	1180.81
500.569	1224.81
500.786	1207.81
501.003	1163.81
501.22	1066.81
501.437	986.81
501.654	890.81
501.871	819.81
