Data from Fe(NO3)3@0.05M.TitratingCurve.Agarose3%dH2O.NegLispCup.LampEnergy10.LIBS07252019_HRD10591_16-46-50-334.txt Node
Date: Thu Jul 25 16:46:50 EDT 2019
User: cochatt
Spectrometer: HR+D1059
Trigger mode: 1
Integration Time (sec): 1.000000E-1
Scans to average: 1
Electric dark correction enabled: true
Nonlinearity correction enabled: false
Boxcar width: 0
XAxis mode: Wavelengths
Number of Pixels in Spectrum: 2048
>>>>>Begin Spectral Data<<<<<
223.165	-20.12
223.4	-20.12
223.635	-20.12
223.869	-22.12
224.104	-30.12
224.338	-10.12
224.573	-6.12
224.808	-9.12
225.042	-11.12
225.277	-7.12
225.511	-2.12
225.746	0.88
225.98	13.88
226.215	-4.12
226.449	19.88
226.683	23.88
226.918	33.88
227.152	29.88
227.387	36.88
227.621	34.88
227.856	38.88
228.09	45.88
228.324	44.88
228.559	70.88
228.793	89.88
229.027	131.88
229.262	146.88
229.496	143.88
229.73	172.88
229.964	154.88
230.199	180.88
230.433	167.88
230.667	173.88
230.901	177.88
231.136	161.88
231.37	183.88
231.604	181.88
231.838	188.88
232.072	203.88
232.306	197.88
232.541	196.88
232.775	186.88
233.009	195.88
233.243	207.88
233.477	196.88
233.711	207.88
233.945	205.88
234.179	234.88
234.413	224.88
234.647	219.88
234.881	217.88
235.115	214.88
235.349	194.88
235.583	221.88
235.817	210.88
236.051	230.88
236.285	233.88
236.519	226.88
236.753	233.88
236.987	240.88
237.221	233.88
237.455	242.88
237.689	240.88
237.922	253.88
238.156	252.88
238.39	280.88
238.624	298.88
238.858	276.88
239.091	277.88
239.325	257.88
239.559	275.88
239.793	269.88
240.027	291.88
240.26	283.88
240.494	269.88
240.728	296.88
240.961	310.88
241.195	301.88
241.429	296.88
241.662	302.88
241.896	295.88
242.13	291.88
242.363	296.88
242.597	304.88
242.83	289.88
243.064	306.88
243.298	308.88
243.531	299.88
243.765	321.88
243.998	310.88
244.232	326.88
244.465	326.88
244.699	326.88
244.932	353.88
245.166	349.88
245.399	331.88
245.633	316.88
245.866	329.88
246.099	338.88
246.333	354.88
246.566	385.88
246.8	352.88
247.033	344.88
247.266	348.88
247.5	359.88
247.733	346.88
247.966	352.88
248.2	373.88
248.433	376.88
248.666	390.88
248.899	376.88
249.133	399.88
249.366	385.88
249.599	394.88
249.832	418.88
250.066	389.88
250.299	395.88
250.532	398.88
250.765	384.88
250.998	391.88
251.231	390.88
251.465	416.88
251.698	416.88
251.931	413.88
252.164	415.88
252.397	438.88
252.63	440.88
252.863	445.88
253.096	465.88
253.329	460.88
253.562	453.88
253.795	468.88
254.028	471.88
254.261	482.88
254.494	459.88
254.727	436.88
254.96	460.88
255.193	463.88
255.426	476.88
255.659	434.88
255.892	450.88
256.124	485.88
256.357	472.88
256.59	474.88
256.823	467.88
257.056	471.88
257.289	459.88
257.521	473.88
257.754	484.88
257.987	473.88
258.22	490.88
258.452	506.88
258.685	490.88
258.918	515.88
259.151	492.88
259.383	529.88
259.616	510.88
259.849	535.88
260.081	598.88
260.314	636.88
260.547	566.88
260.779	544.88
261.012	568.88
261.244	579.88
261.477	582.88
261.71	580.88
261.942	539.88
262.175	541.88
262.407	521.88
262.64	540.88
262.872	557.88
263.105	591.88
263.337	590.88
263.57	598.88
263.802	539.88
264.035	541.88
264.267	538.88
264.499	549.88
264.732	544.88
264.964	525.88
265.197	547.88
265.429	553.88
265.661	549.88
265.894	547.88
266.126	548.88
266.358	537.88
266.591	586.88
266.823	576.88
267.055	584.88
267.287	577.88
267.52	561.88
267.752	594.88
267.984	572.88
268.216	596.88
268.448	591.88
268.681	612.88
268.913	610.88
269.145	580.88
269.377	600.88
269.609	596.88
269.841	637.88
270.073	594.88
270.306	611.88
270.538	620.88
270.77	593.88
271.002	626.88
271.234	624.88
271.466	648.88
271.698	657.88
271.93	665.88
272.162	655.88
272.394	658.88
272.626	660.88
272.858	648.88
273.09	672.88
273.322	661.88
273.553	688.88
273.785	715.88
274.017	724.88
274.249	776.88
274.481	747.88
274.713	786.88
274.945	818.88
275.176	842.88
275.408	786.88
275.64	788.88
275.872	790.88
276.104	741.88
276.335	693.88
276.567	710.88
276.799	714.88
277.031	721.88
277.262	728.88
277.494	711.88
277.726	728.88
277.957	715.88
278.189	727.88
278.421	711.88
278.652	704.88
278.884	745.88
279.115	712.88
279.347	701.88
279.579	723.88
279.81	723.88
280.042	744.88
280.273	734.88
280.505	737.88
280.736	715.88
280.968	732.88
281.199	717.88
281.431	768.88
281.662	747.88
281.894	752.88
282.125	780.88
282.356	759.88
282.588	768.88
282.819	765.88
283.051	749.88
283.282	766.88
283.513	792.88
283.745	785.88
283.976	762.88
284.207	771.88
284.439	800.88
284.67	800.88
284.901	763.88
285.132	805.88
285.364	812.88
285.595	810.88
285.826	775.88
286.057	797.88
286.288	803.88
286.52	776.88
286.751	818.88
286.982	814.88
287.213	812.88
287.444	812.88
287.675	826.88
287.906	825.88
288.138	805.88
288.369	794.88
288.6	803.88
288.831	838.88
289.062	843.88
289.293	829.88
289.524	825.88
289.755	822.88
289.986	843.88
290.217	835.88
290.448	855.88
290.679	852.88
290.91	808.88
291.141	814.88
291.371	834.88
291.602	842.88
291.833	840.88
292.064	859.88
292.295	836.88
292.526	855.88
292.757	840.88
292.987	828.88
293.218	836.88
293.449	862.88
293.68	830.88
293.91	884.88
294.141	832.88
294.372	866.88
294.603	873.88
294.833	857.88
295.064	872.88
295.295	882.88
295.525	864.88
295.756	880.88
295.987	874.88
296.217	873.88
296.448	904.88
296.679	874.88
296.909	873.88
297.14	894.88
297.37	898.88
297.601	902.88
297.831	903.88
298.062	901.88
298.292	886.88
298.523	947.88
298.753	933.88
298.984	894.88
299.214	901.88
299.445	918.88
299.675	923.88
299.905	945.88
300.136	931.88
300.366	912.88
300.597	906.88
300.827	941.88
301.057	951.88
301.288	952.88
301.518	950.88
301.748	948.88
301.979	1002.88
302.209	983.88
302.439	976.88
302.669	994.88
302.9	969.88
303.13	945.88
303.36	970.88
303.59	944.88
303.82	988.88
304.051	994.88
304.281	995.88
304.511	1014.88
304.741	945.88
304.971	970.88
305.201	944.88
305.431	965.88
305.661	1000.88
305.891	996.88
306.121	992.88
306.352	986.88
306.582	987.88
306.812	967.88
307.042	1006.88
307.272	998.88
307.502	992.88
307.731	979.88
307.961	1020.88
308.191	999.88
308.421	956.88
308.651	984.88
308.881	972.88
309.111	993.88
309.341	988.88
309.571	1015.88
309.8	1001.88
310.03	1005.88
310.26	1011.88
310.49	1011.88
310.72	992.88
310.949	1044.88
311.179	1028.88
311.409	993.88
311.639	1028.88
311.868	1032.88
312.098	994.88
312.328	1037.88
312.557	1025.88
312.787	1034.88
313.017	1044.88
313.246	1031.88
313.476	1029.88
313.706	1038.88
313.935	1039.88
314.165	1074.88
314.394	1032.88
314.624	1075.88
314.853	1084.88
315.083	1080.88
315.312	1088.88
315.542	1080.88
315.771	1065.88
316.001	1115.88
316.23	1051.88
316.46	1068.88
316.689	1085.88
316.919	1100.88
317.148	1087.88
317.377	1076.88
317.607	1120.88
317.836	1095.88
318.065	1070.88
318.295	1089.88
318.524	1102.88
318.753	1089.88
318.983	1076.88
319.212	1086.88
319.441	1102.88
319.67	1096.88
319.9	1087.88
320.129	1152.88
320.358	1114.88
320.587	1142.88
320.816	1086.88
321.046	1121.88
321.275	1110.88
321.504	1124.88
321.733	1122.88
321.962	1119.88
322.191	1106.88
322.42	1107.88
322.649	1146.88
322.878	1117.88
323.108	1120.88
323.337	1132.88
323.566	1163.88
323.795	1148.88
324.024	1127.88
324.253	1120.88
324.482	1122.88
324.71	1150.88
324.939	1165.88
325.168	1167.88
325.397	1146.88
325.626	1149.88
325.855	1174.88
326.084	1162.88
326.313	1157.88
326.542	1159.88
326.77	1200.88
326.999	1172.88
327.228	1161.88
327.457	1154.88
327.686	1181.88
327.914	1195.88
328.143	1194.88
328.372	1186.88
328.6	1197.88
328.829	1175.88
329.058	1198.88
329.287	1188.88
329.515	1195.88
329.744	1160.88
329.972	1219.88
330.201	1232.88
330.43	1214.88
330.658	1228.88
330.887	1225.88
331.115	1243.88
331.344	1218.88
331.572	1230.88
331.801	1272.88
332.03	1270.88
332.258	1251.88
332.486	1266.88
332.715	1253.88
332.943	1284.88
333.172	1315.88
333.4	1316.88
333.629	1370.88
333.857	1364.88
334.085	1339.88
334.314	1379.88
334.542	1404.88
334.771	1405.88
334.999	1389.88
335.227	1384.88
335.455	1394.88
335.684	1400.88
335.912	1406.88
336.14	1378.88
336.369	1373.88
336.597	1424.88
336.825	1401.88
337.053	1365.88
337.281	1362.88
337.51	1357.88
337.738	1351.88
337.966	1347.88
338.194	1352.88
338.422	1295.88
338.65	1354.88
338.878	1344.88
339.106	1330.88
339.334	1325.88
339.562	1332.88
339.79	1272.88
340.018	1284.88
340.246	1280.88
340.474	1224.88
340.702	1323.88
340.93	1291.88
341.158	1287.88
341.386	1290.88
341.614	1286.88
341.842	1291.88
342.07	1294.88
342.298	1280.88
342.526	1298.88
342.754	1285.88
342.981	1294.88
343.209	1259.88
343.437	1320.88
343.665	1328.88
343.893	1400.88
344.12	1404.88
344.348	1396.88
344.576	1365.88
344.804	1366.88
345.031	1304.88
345.259	1324.88
345.487	1269.88
345.714	1287.88
345.942	1241.88
346.17	1282.88
346.397	1242.88
346.625	1243.88
346.853	1243.88
347.08	1218.88
347.308	1253.88
347.535	1243.88
347.763	1235.88
347.99	1221.88
348.218	1242.88
348.445	1205.88
348.673	1200.88
348.9	1229.88
349.128	1243.88
349.355	1222.88
349.583	1230.88
349.81	1207.88
350.037	1223.88
350.265	1202.88
350.492	1206.88
350.72	1211.88
350.947	1234.88
351.174	1212.88
351.402	1232.88
351.629	1210.88
351.856	1212.88
352.083	1194.88
352.311	1212.88
352.538	1180.88
352.765	1196.88
352.992	1187.88
353.22	1181.88
353.447	1185.88
353.674	1193.88
353.901	1195.88
354.128	1216.88
354.355	1182.88
354.583	1237.88
354.81	1214.88
355.037	1202.88
355.264	1178.88
355.491	1195.88
355.718	1200.88
355.945	1218.88
356.172	1215.88
356.399	1220.88
356.626	1225.88
356.853	1266.88
357.08	1242.88
357.307	1273.88
357.534	1215.88
357.761	1225.88
357.988	1233.88
358.215	1254.88
358.441	1254.88
358.668	1247.88
358.895	1240.88
359.122	1210.88
359.349	1202.88
359.576	1225.88
359.802	1197.88
360.029	1236.88
360.256	1229.88
360.483	1201.88
360.709	1229.88
360.936	1227.88
361.163	1239.88
361.39	1219.88
361.616	1197.88
361.843	1206.88
362.07	1208.88
362.296	1255.88
362.523	1230.88
362.749	1238.88
362.976	1236.88
363.203	1282.88
363.429	1228.88
363.656	1245.88
363.882	1236.88
364.109	1267.88
364.335	1210.88
364.562	1232.88
364.788	1248.88
365.015	1268.88
365.241	1266.88
365.468	1241.88
365.694	1237.88
365.92	1246.88
366.147	1213.88
366.373	1253.88
366.599	1252.88
366.826	1251.88
367.052	1249.88
367.278	1239.88
367.505	1258.88
367.731	1248.88
367.957	1250.88
368.184	1228.88
368.41	1271.88
368.636	1270.88
368.862	1303.88
369.089	1271.88
369.315	1294.88
369.541	1320.88
369.767	1273.88
369.993	1250.88
370.219	1323.88
370.445	1316.88
370.672	1338.88
370.898	1312.88
371.124	1349.88
371.35	1316.88
371.576	1336.88
371.802	1352.88
372.028	1352.88
372.254	1391.88
372.48	1358.88
372.706	1344.88
372.932	1393.88
373.158	1410.88
373.384	1404.88
373.61	1447.88
373.835	1424.88
374.061	1356.88
374.287	1390.88
374.513	1402.88
374.739	1416.88
374.965	1437.88
375.191	1431.88
375.416	1440.88
375.642	1417.88
375.868	1394.88
376.094	1399.88
376.319	1377.88
376.545	1402.88
376.771	1367.88
376.997	1375.88
377.222	1345.88
377.448	1349.88
377.674	1311.88
377.899	1347.88
378.125	1325.88
378.35	1341.88
378.576	1364.88
378.802	1352.88
379.027	1375.88
379.253	1355.88
379.478	1334.88
379.704	1356.88
379.929	1362.88
380.155	1374.88
380.38	1378.88
380.606	1388.88
380.831	1364.88
381.057	1388.88
381.282	1353.88
381.507	1385.88
381.733	1408.88
381.958	1412.88
382.184	1436.88
382.409	1453.88
382.634	1440.88
382.86	1458.88
383.085	1434.88
383.31	1425.88
383.535	1480.88
383.761	1432.88
383.986	1458.88
384.211	1470.88
384.436	1502.88
384.662	1504.88
384.887	1523.88
385.112	1524.88
385.337	1556.88
385.562	1521.88
385.787	1574.88
386.013	1589.88
386.238	1606.88
386.463	1578.88
386.688	1563.88
386.913	1592.88
387.138	1605.88
387.363	1610.88
387.588	1614.88
387.813	1602.88
388.038	1600.88
388.263	1601.88
388.488	1615.88
388.713	1632.88
388.938	1613.88
389.163	1581.88
389.387	1617.88
389.612	1606.88
389.837	1623.88
390.062	1609.88
390.287	1636.88
390.512	1664.88
390.736	1612.88
390.961	1619.88
391.186	1629.88
391.411	1672.88
391.636	1705.88
391.86	1697.88
392.085	1724.88
392.31	1725.88
392.534	1722.88
392.759	1745.88
392.984	1679.88
393.208	1685.88
393.433	1702.88
393.658	1666.88
393.882	1664.88
394.107	1639.88
394.331	1661.88
394.556	1668.88
394.78	1666.88
395.005	1705.88
395.229	1718.88
395.454	1744.88
395.678	1753.88
395.903	1702.88
396.127	1739.88
396.352	1736.88
396.576	1748.88
396.801	1768.88
397.025	1790.88
397.249	1753.88
397.474	1772.88
397.698	1807.88
397.922	1852.88
398.147	1855.88
398.371	1882.88
398.595	1871.88
398.82	1922.88
399.044	1964.88
399.268	2023.88
399.492	2190.88
399.717	2213.88
399.941	2274.88
400.165	2288.88
400.389	2230.88
400.613	2152.88
400.837	2094.88
401.062	2048.88
401.286	1977.88
401.51	1938.88
401.734	1979.88
401.958	1960.88
402.182	1950.88
402.406	1940.88
402.63	1929.88
402.854	1934.88
403.078	1916.88
403.302	1957.88
403.526	1919.88
403.75	1970.88
403.974	1960.88
404.198	1909.88
404.422	1982.88
404.645	1995.88
404.869	1959.88
405.093	2025.88
405.317	1983.88
405.541	1999.88
405.765	2022.88
405.988	2020.88
406.212	2047.88
406.436	2060.88
406.66	2128.88
406.883	2131.88
407.107	2150.88
407.331	2196.88
407.555	2228.88
407.778	2246.88
408.002	2204.88
408.226	2204.88
408.449	2198.88
408.673	2186.88
408.896	2109.88
409.12	2099.88
409.344	2114.88
409.567	2073.88
409.791	2087.88
410.014	2058.88
410.238	2023.88
410.461	2005.88
410.685	2009.88
410.908	2005.88
411.132	2040.88
411.355	1988.88
411.578	1995.88
411.802	1965.88
412.025	1988.88
412.249	2029.88
412.472	1969.88
412.695	1984.88
412.919	1972.88
413.142	2015.88
413.365	1970.88
413.589	1970.88
413.812	1991.88
414.035	1917.88
414.258	1935.88
414.482	1950.88
414.705	1933.88
414.928	1916.88
415.151	1933.88
415.374	1955.88
415.597	1934.88
415.821	1864.88
416.044	1860.88
416.267	1875.88
416.49	1852.88
416.713	1871.88
416.936	1876.88
417.159	1833.88
417.382	1845.88
417.605	1825.88
417.828	1838.88
418.051	1860.88
418.274	1800.88
418.497	1845.88
418.72	1854.88
418.943	1806.88
419.166	1907.88
419.389	2067.88
419.611	2039.88
419.834	1987.88
420.057	1924.88
420.28	1876.88
420.503	1802.88
420.726	1836.88
420.948	1807.88
421.171	1820.88
421.394	1798.88
421.617	1810.88
421.839	1812.88
422.062	1847.88
422.285	1801.88
422.507	1879.88
422.73	1832.88
422.953	1820.88
423.175	1817.88
423.398	1822.88
423.621	1845.88
423.843	1841.88
424.066	1881.88
424.288	1849.88
424.511	1812.88
424.733	1816.88
424.956	1797.88
425.178	1824.88
425.401	1808.88
425.623	1806.88
425.846	1808.88
426.068	1796.88
426.291	1832.88
426.513	1796.88
426.735	1780.88
426.958	1816.88
427.18	1766.88
427.402	1779.88
427.625	1792.88
427.847	1776.88
428.069	1762.88
428.292	1803.88
428.514	1760.88
428.736	1737.88
428.958	1763.88
429.181	1716.88
429.403	1730.88
429.625	1734.88
429.847	1729.88
430.069	1743.88
430.292	1749.88
430.514	1729.88
430.736	1720.88
430.958	1781.88
431.18	1769.88
431.402	1760.88
431.624	1691.88
431.846	1734.88
432.068	1782.88
432.29	1761.88
432.512	1794.88
432.734	1788.88
432.956	1780.88
433.178	1784.88
433.4	1752.88
433.622	1748.88
433.844	1768.88
434.066	1751.88
434.287	1783.88
434.509	1819.88
434.731	1831.88
434.953	1833.88
435.175	1832.88
435.397	1836.88
435.618	1837.88
435.84	1821.88
436.062	1765.88
436.284	1786.88
436.505	1741.88
436.727	1735.88
436.949	1708.88
437.17	1737.88
437.392	1766.88
437.614	1754.88
437.835	1662.88
438.057	1682.88
438.278	1684.88
438.5	1712.88
438.721	1744.88
438.943	1678.88
439.165	1674.88
439.386	1675.88
439.608	1715.88
439.829	1676.88
440.05	1718.88
440.272	1737.88
440.493	1767.88
440.715	1791.88
440.936	1776.88
441.158	1770.88
441.379	1773.88
441.6	1795.88
441.822	1778.88
442.043	1828.88
442.264	1829.88
442.486	1765.88
442.707	1785.88
442.928	1796.88
443.149	1810.88
443.371	1771.88
443.592	1789.88
443.813	1800.88
444.034	1837.88
444.255	1874.88
444.476	1874.88
444.698	1890.88
444.919	1890.88
445.14	1958.88
445.361	1902.88
445.582	1840.88
445.803	1795.88
446.024	1795.88
446.245	1779.88
446.466	1742.88
446.687	1737.88
446.908	1716.88
447.129	1732.88
447.35	1689.88
447.571	1663.88
447.792	1620.88
448.013	1660.88
448.234	1607.88
448.455	1632.88
448.675	1636.88
448.896	1627.88
449.117	1589.88
449.338	1581.88
449.559	1584.88
449.779	1590.88
450	1574.88
450.221	1576.88
450.442	1605.88
450.662	1616.88
450.883	1545.88
451.104	1576.88
451.324	1560.88
451.545	1555.88
451.766	1523.88
451.986	1523.88
452.207	1548.88
452.428	1525.88
452.648	1586.88
452.869	1533.88
453.089	1486.88
453.31	1514.88
453.53	1539.88
453.751	1512.88
453.971	1547.88
454.192	1531.88
454.412	1497.88
454.633	1508.88
454.853	1550.88
455.073	1505.88
455.294	1526.88
455.514	1514.88
455.734	1526.88
455.955	1506.88
456.175	1478.88
456.395	1512.88
456.616	1522.88
456.836	1522.88
457.056	1515.88
457.276	1476.88
457.497	1541.88
457.717	1531.88
457.937	1535.88
458.157	1557.88
458.377	1576.88
458.598	1620.88
458.818	1657.88
459.038	1620.88
459.258	1638.88
459.478	1700.88
459.698	1743.88
459.918	1769.88
460.138	1785.88
460.358	1828.88
460.578	1838.88
460.798	1860.88
461.018	1915.88
461.238	1883.88
461.458	1924.88
461.678	1884.88
461.898	1956.88
462.118	1927.88
462.338	1990.88
462.558	1959.88
462.777	1981.88
462.997	2086.88
463.217	2130.88
463.437	2128.88
463.657	2092.88
463.876	2138.88
464.096	2067.88
464.316	2036.88
464.536	2052.88
464.755	2021.88
464.975	1996.88
465.195	1898.88
465.414	1895.88
465.634	1837.88
465.854	1828.88
466.073	1788.88
466.293	1756.88
466.512	1726.88
466.732	1734.88
466.951	1765.88
467.171	1708.88
467.391	1706.88
467.61	1713.88
467.829	1648.88
468.049	1655.88
468.268	1654.88
468.488	1688.88
468.707	1674.88
468.927	1687.88
469.146	1676.88
469.365	1669.88
469.585	1670.88
469.804	1704.88
470.023	1715.88
470.243	1691.88
470.462	1678.88
470.681	1736.88
470.901	1722.88
471.12	1692.88
471.339	1695.88
471.558	1697.88
471.777	1717.88
471.997	1668.88
472.216	1717.88
472.435	1705.88
472.654	1718.88
472.873	1676.88
473.092	1660.88
473.311	1663.88
473.53	1668.88
473.749	1685.88
473.968	1687.88
474.187	1672.88
474.406	1659.88
474.625	1693.88
474.844	1674.88
475.063	1690.88
475.282	1705.88
475.501	1734.88
475.72	1755.88
475.939	1776.88
476.158	1747.88
476.377	1811.88
476.596	1854.88
476.814	1804.88
477.033	1808.88
477.252	1800.88
477.471	1867.88
477.69	1904.88
477.908	1930.88
478.127	1930.88
478.346	1926.88
478.564	1963.88
478.783	1936.88
479.002	1971.88
479.22	2043.88
479.439	2039.88
479.658	2011.88
479.876	2042.88
480.095	2043.88
480.313	2066.88
480.532	2056.88
480.751	2066.88
480.969	2057.88
481.188	2032.88
481.406	2054.88
481.624	2041.88
481.843	2002.88
482.061	1989.88
482.28	1972.88
482.498	2048.88
482.717	2022.88
482.935	2008.88
483.153	1995.88
483.372	2008.88
483.59	1997.88
483.808	2004.88
484.027	1996.88
484.245	2030.88
484.463	1998.88
484.681	2004.88
484.9	1972.88
485.118	2060.88
485.336	2002.88
485.554	2024.88
485.772	2027.88
485.99	2005.88
486.209	2032.88
486.427	2026.88
486.645	2040.88
486.863	2101.88
487.081	2070.88
487.299	2025.88
487.517	2032.88
487.735	2057.88
487.953	2054.88
488.171	2064.88
488.389	2061.88
488.607	2032.88
488.825	2049.88
489.043	2053.88
489.261	2058.88
489.479	2068.88
489.696	2066.88
489.914	1992.88
490.132	2036.88
490.35	2076.88
