Data from Fe(NO3)3@0.025M.TitratingCurve.Agarose3%dH2O.NegLispCup.LampEnergy10.LIBS07252019_HRD10591_16-56-57-336.txt Node
Date: Thu Jul 25 16:56:57 EDT 2019
User: cochatt
Spectrometer: HR+D1059
Trigger mode: 1
Integration Time (sec): 1.000000E-1
Scans to average: 1
Electric dark correction enabled: true
Nonlinearity correction enabled: false
Boxcar width: 0
XAxis mode: Wavelengths
Number of Pixels in Spectrum: 2048
>>>>>Begin Spectral Data<<<<<
223.165	-19.75
223.4	-19.75
223.635	-19.75
223.869	-19.75
224.104	-22.75
224.338	-14.75
224.573	-9.75
224.808	-16.75
225.042	6.25
225.277	4.25
225.511	-6.75
225.746	6.25
225.98	6.25
226.215	14.25
226.449	9.25
226.683	15.25
226.918	24.25
227.152	24.25
227.387	17.25
227.621	28.25
227.856	49.25
228.09	41.25
228.324	45.25
228.559	56.25
228.793	65.25
229.027	66.25
229.262	78.25
229.496	76.25
229.73	81.25
229.964	76.25
230.199	79.25
230.433	92.25
230.667	73.25
230.901	94.25
231.136	78.25
231.37	90.25
231.604	73.25
231.838	87.25
232.072	84.25
232.306	79.25
232.541	80.25
232.775	98.25
233.009	91.25
233.243	88.25
233.477	88.25
233.711	95.25
233.945	95.25
234.179	92.25
234.413	88.25
234.647	91.25
234.881	78.25
235.115	89.25
235.349	86.25
235.583	89.25
235.817	89.25
236.051	95.25
236.285	94.25
236.519	86.25
236.753	94.25
236.987	74.25
237.221	92.25
237.455	85.25
237.689	79.25
237.922	94.25
238.156	99.25
238.39	85.25
238.624	89.25
238.858	79.25
239.091	98.25
239.325	102.25
239.559	87.25
239.793	80.25
240.027	87.25
240.26	97.25
240.494	88.25
240.728	96.25
240.961	96.25
241.195	87.25
241.429	77.25
241.662	89.25
241.896	68.25
242.13	81.25
242.363	75.25
242.597	75.25
242.83	93.25
243.064	78.25
243.298	90.25
243.531	94.25
243.765	98.25
243.998	93.25
244.232	89.25
244.465	100.25
244.699	91.25
244.932	99.25
245.166	95.25
245.399	88.25
245.633	81.25
245.866	110.25
246.099	98.25
246.333	99.25
246.566	106.25
246.8	98.25
247.033	80.25
247.266	98.25
247.5	113.25
247.733	90.25
247.966	93.25
248.2	101.25
248.433	99.25
248.666	106.25
248.899	121.25
249.133	112.25
249.366	99.25
249.599	97.25
249.832	116.25
250.066	95.25
250.299	94.25
250.532	93.25
250.765	84.25
250.998	96.25
251.231	84.25
251.465	102.25
251.698	102.25
251.931	100.25
252.164	117.25
252.397	97.25
252.63	94.25
252.863	104.25
253.096	111.25
253.329	108.25
253.562	108.25
253.795	109.25
254.028	101.25
254.261	103.25
254.494	112.25
254.727	103.25
254.96	108.25
255.193	93.25
255.426	104.25
255.659	88.25
255.892	94.25
256.124	112.25
256.357	100.25
256.59	114.25
256.823	108.25
257.056	119.25
257.289	111.25
257.521	122.25
257.754	105.25
257.987	121.25
258.22	111.25
258.452	110.25
258.685	103.25
258.918	113.25
259.151	117.25
259.383	93.25
259.616	110.25
259.849	113.25
260.081	101.25
260.314	114.25
260.547	119.25
260.779	118.25
261.012	111.25
261.244	120.25
261.477	124.25
261.71	125.25
261.942	122.25
262.175	102.25
262.407	131.25
262.64	96.25
262.872	126.25
263.105	106.25
263.337	117.25
263.57	102.25
263.802	126.25
264.035	112.25
264.267	114.25
264.499	110.25
264.732	114.25
264.964	115.25
265.197	109.25
265.429	120.25
265.661	117.25
265.894	129.25
266.126	113.25
266.358	131.25
266.591	119.25
266.823	123.25
267.055	124.25
267.287	108.25
267.52	111.25
267.752	117.25
267.984	116.25
268.216	122.25
268.448	122.25
268.681	134.25
268.913	127.25
269.145	126.25
269.377	122.25
269.609	130.25
269.841	120.25
270.073	122.25
270.306	126.25
270.538	120.25
270.77	118.25
271.002	119.25
271.234	119.25
271.466	129.25
271.698	128.25
271.93	118.25
272.162	134.25
272.394	136.25
272.626	128.25
272.858	121.25
273.09	133.25
273.322	134.25
273.553	120.25
273.785	136.25
274.017	117.25
274.249	132.25
274.481	145.25
274.713	134.25
274.945	132.25
275.176	128.25
275.408	131.25
275.64	135.25
275.872	120.25
276.104	124.25
276.335	131.25
276.567	121.25
276.799	122.25
277.031	133.25
277.262	134.25
277.494	126.25
277.726	139.25
277.957	148.25
278.189	121.25
278.421	118.25
278.652	132.25
278.884	135.25
279.115	120.25
279.347	143.25
279.579	137.25
279.81	145.25
280.042	136.25
280.273	126.25
280.505	142.25
280.736	138.25
280.968	143.25
281.199	146.25
281.431	144.25
281.662	140.25
281.894	146.25
282.125	144.25
282.356	137.25
282.588	133.25
282.819	153.25
283.051	143.25
283.282	149.25
283.513	158.25
283.745	161.25
283.976	143.25
284.207	147.25
284.439	154.25
284.67	136.25
284.901	136.25
285.132	128.25
285.364	148.25
285.595	138.25
285.826	159.25
286.057	148.25
286.288	126.25
286.52	146.25
286.751	156.25
286.982	157.25
287.213	146.25
287.444	130.25
287.675	147.25
287.906	148.25
288.138	154.25
288.369	150.25
288.6	144.25
288.831	129.25
289.062	146.25
289.293	162.25
289.524	152.25
289.755	148.25
289.986	151.25
290.217	164.25
290.448	154.25
290.679	161.25
290.91	148.25
291.141	149.25
291.371	143.25
291.602	146.25
291.833	169.25
292.064	157.25
292.295	166.25
292.526	148.25
292.757	154.25
292.987	147.25
293.218	141.25
293.449	139.25
293.68	156.25
293.91	160.25
294.141	153.25
294.372	151.25
294.603	145.25
294.833	157.25
295.064	156.25
295.295	159.25
295.525	162.25
295.756	160.25
295.987	156.25
296.217	167.25
296.448	152.25
296.679	152.25
296.909	161.25
297.14	167.25
297.37	169.25
297.601	167.25
297.831	165.25
298.062	179.25
298.292	163.25
298.523	161.25
298.753	161.25
298.984	167.25
299.214	148.25
299.445	160.25
299.675	160.25
299.905	176.25
300.136	161.25
300.366	164.25
300.597	159.25
300.827	160.25
301.057	185.25
301.288	168.25
301.518	176.25
301.748	169.25
301.979	174.25
302.209	181.25
302.439	166.25
302.669	173.25
302.9	169.25
303.13	164.25
303.36	160.25
303.59	173.25
303.82	163.25
304.051	176.25
304.281	169.25
304.511	166.25
304.741	171.25
304.971	162.25
305.201	156.25
305.431	169.25
305.661	164.25
305.891	169.25
306.121	157.25
306.352	188.25
306.582	176.25
306.812	163.25
307.042	178.25
307.272	169.25
307.502	170.25
307.731	160.25
307.961	176.25
308.191	170.25
308.421	176.25
308.651	172.25
308.881	167.25
309.111	161.25
309.341	154.25
309.571	168.25
309.8	172.25
310.03	188.25
310.26	171.25
310.49	162.25
310.72	169.25
310.949	176.25
311.179	144.25
311.409	153.25
311.639	188.25
311.868	176.25
312.098	176.25
312.328	181.25
312.557	181.25
312.787	180.25
313.017	186.25
313.246	170.25
313.476	160.25
313.706	179.25
313.935	172.25
314.165	195.25
314.394	174.25
314.624	168.25
314.853	172.25
315.083	162.25
315.312	179.25
315.542	166.25
315.771	173.25
316.001	183.25
316.23	172.25
316.46	200.25
316.689	167.25
316.919	170.25
317.148	178.25
317.377	198.25
317.607	183.25
317.836	183.25
318.065	177.25
318.295	185.25
318.524	169.25
318.753	181.25
318.983	176.25
319.212	199.25
319.441	184.25
319.67	182.25
319.9	197.25
320.129	168.25
320.358	190.25
320.587	196.25
320.816	190.25
321.046	194.25
321.275	189.25
321.504	179.25
321.733	197.25
321.962	190.25
322.191	165.25
322.42	189.25
322.649	180.25
322.878	188.25
323.108	175.25
323.337	199.25
323.566	202.25
323.795	173.25
324.024	187.25
324.253	174.25
324.482	172.25
324.71	186.25
324.939	192.25
325.168	200.25
325.397	196.25
325.626	188.25
325.855	191.25
326.084	197.25
326.313	195.25
326.542	197.25
326.77	185.25
326.999	196.25
327.228	176.25
327.457	199.25
327.686	210.25
327.914	201.25
328.143	193.25
328.372	208.25
328.6	182.25
328.829	210.25
329.058	183.25
329.287	207.25
329.515	197.25
329.744	188.25
329.972	181.25
330.201	211.25
330.43	203.25
330.658	202.25
330.887	201.25
331.115	218.25
331.344	204.25
331.572	208.25
331.801	203.25
332.03	192.25
332.258	217.25
332.486	206.25
332.715	209.25
332.943	231.25
333.172	219.25
333.4	216.25
333.629	222.25
333.857	214.25
334.085	233.25
334.314	221.25
334.542	208.25
334.771	231.25
334.999	230.25
335.227	226.25
335.455	225.25
335.684	218.25
335.912	224.25
336.14	238.25
336.369	221.25
336.597	234.25
336.825	208.25
337.053	227.25
337.281	224.25
337.51	214.25
337.738	214.25
337.966	207.25
338.194	202.25
338.422	209.25
338.65	217.25
338.878	221.25
339.106	217.25
339.334	227.25
339.562	217.25
339.79	201.25
340.018	208.25
340.246	214.25
340.474	214.25
340.702	207.25
340.93	202.25
341.158	225.25
341.386	184.25
341.614	208.25
341.842	202.25
342.07	193.25
342.298	221.25
342.526	212.25
342.754	204.25
342.981	206.25
343.209	208.25
343.437	212.25
343.665	223.25
343.893	227.25
344.12	222.25
344.348	229.25
344.576	215.25
344.804	208.25
345.031	213.25
345.259	207.25
345.487	195.25
345.714	225.25
345.942	206.25
346.17	221.25
346.397	211.25
346.625	204.25
346.853	211.25
347.08	208.25
347.308	214.25
347.535	215.25
347.763	184.25
347.99	217.25
348.218	204.25
348.445	208.25
348.673	209.25
348.9	205.25
349.128	230.25
349.355	195.25
349.583	203.25
349.81	173.25
350.037	212.25
350.265	200.25
350.492	197.25
350.72	201.25
350.947	200.25
351.174	196.25
351.402	183.25
351.629	196.25
351.856	194.25
352.083	199.25
352.311	183.25
352.538	197.25
352.765	178.25
352.992	186.25
353.22	186.25
353.447	198.25
353.674	202.25
353.901	191.25
354.128	215.25
354.355	196.25
354.583	192.25
354.81	202.25
355.037	212.25
355.264	207.25
355.491	201.25
355.718	210.25
355.945	196.25
356.172	199.25
356.399	202.25
356.626	196.25
356.853	206.25
357.08	198.25
357.307	208.25
357.534	191.25
357.761	198.25
357.988	201.25
358.215	205.25
358.441	197.25
358.668	188.25
358.895	202.25
359.122	207.25
359.349	203.25
359.576	201.25
359.802	215.25
360.029	191.25
360.256	201.25
360.483	208.25
360.709	204.25
360.936	204.25
361.163	204.25
361.39	205.25
361.616	202.25
361.843	213.25
362.07	196.25
362.296	212.25
362.523	209.25
362.749	209.25
362.976	191.25
363.203	208.25
363.429	209.25
363.656	192.25
363.882	201.25
364.109	197.25
364.335	222.25
364.562	197.25
364.788	197.25
365.015	198.25
365.241	193.25
365.468	202.25
365.694	202.25
365.92	200.25
366.147	204.25
366.373	218.25
366.599	213.25
366.826	220.25
367.052	214.25
367.278	201.25
367.505	203.25
367.731	193.25
367.957	218.25
368.184	197.25
368.41	209.25
368.636	197.25
368.862	217.25
369.089	207.25
369.315	204.25
369.541	223.25
369.767	202.25
369.993	206.25
370.219	210.25
370.445	200.25
370.672	215.25
370.898	226.25
371.124	209.25
371.35	218.25
371.576	229.25
371.802	221.25
372.028	211.25
372.254	222.25
372.48	236.25
372.706	220.25
372.932	219.25
373.158	201.25
373.384	214.25
373.61	208.25
373.835	233.25
374.061	214.25
374.287	231.25
374.513	224.25
374.739	225.25
374.965	245.25
375.191	221.25
375.416	215.25
375.642	223.25
375.868	222.25
376.094	218.25
376.319	216.25
376.545	215.25
376.771	205.25
376.997	217.25
377.222	215.25
377.448	212.25
377.674	210.25
377.899	205.25
378.125	206.25
378.35	222.25
378.576	214.25
378.802	209.25
379.027	196.25
379.253	225.25
379.478	222.25
379.704	208.25
379.929	230.25
380.155	212.25
380.38	212.25
380.606	223.25
380.831	213.25
381.057	216.25
381.282	230.25
381.507	219.25
381.733	216.25
381.958	214.25
382.184	214.25
382.409	219.25
382.634	208.25
382.86	216.25
383.085	220.25
383.31	217.25
383.535	228.25
383.761	236.25
383.986	231.25
384.211	215.25
384.436	229.25
384.662	239.25
384.887	237.25
385.112	251.25
385.337	233.25
385.562	213.25
385.787	234.25
386.013	231.25
386.238	243.25
386.463	238.25
386.688	243.25
386.913	238.25
387.138	223.25
387.363	240.25
387.588	249.25
387.813	228.25
388.038	243.25
388.263	252.25
388.488	247.25
388.713	260.25
388.938	232.25
389.163	268.25
389.387	244.25
389.612	226.25
389.837	245.25
390.062	245.25
390.287	240.25
390.512	244.25
390.736	251.25
390.961	245.25
391.186	274.25
391.411	260.25
391.636	252.25
391.86	271.25
392.085	257.25
392.31	265.25
392.534	245.25
392.759	242.25
392.984	252.25
393.208	249.25
393.433	248.25
393.658	256.25
393.882	252.25
394.107	259.25
394.331	253.25
394.556	271.25
394.78	259.25
395.005	251.25
395.229	265.25
395.454	258.25
395.678	244.25
395.903	258.25
396.127	248.25
396.352	252.25
396.576	256.25
396.801	258.25
397.025	253.25
397.249	271.25
397.474	266.25
397.698	284.25
397.922	264.25
398.147	274.25
398.371	266.25
398.595	254.25
398.82	293.25
399.044	298.25
399.268	302.25
399.492	339.25
399.717	337.25
399.941	324.25
400.165	318.25
400.389	297.25
400.613	294.25
400.837	297.25
401.062	300.25
401.286	288.25
401.51	279.25
401.734	272.25
401.958	281.25
402.182	282.25
402.406	284.25
402.63	298.25
402.854	297.25
403.078	301.25
403.302	288.25
403.526	280.25
403.75	302.25
403.974	302.25
404.198	281.25
404.422	294.25
404.645	293.25
404.869	301.25
405.093	289.25
405.317	298.25
405.541	295.25
405.765	296.25
405.988	287.25
406.212	318.25
406.436	300.25
406.66	295.25
406.883	300.25
407.107	318.25
407.331	304.25
407.555	320.25
407.778	321.25
408.002	328.25
408.226	308.25
408.449	332.25
408.673	314.25
408.896	306.25
409.12	315.25
409.344	304.25
409.567	297.25
409.791	307.25
410.014	288.25
410.238	291.25
410.461	268.25
410.685	293.25
410.908	282.25
411.132	286.25
411.355	279.25
411.578	282.25
411.802	281.25
412.025	281.25
412.249	297.25
412.472	293.25
412.695	286.25
412.919	296.25
413.142	290.25
413.365	294.25
413.589	298.25
413.812	280.25
414.035	281.25
414.258	280.25
414.482	295.25
414.705	290.25
414.928	277.25
415.151	280.25
415.374	277.25
415.597	280.25
415.821	256.25
416.044	284.25
416.267	277.25
416.49	284.25
416.713	280.25
416.936	284.25
417.159	261.25
417.382	276.25
417.605	271.25
417.828	289.25
418.051	276.25
418.274	280.25
418.497	290.25
418.72	276.25
418.943	266.25
419.166	300.25
419.389	296.25
419.611	276.25
419.834	265.25
420.057	263.25
420.28	266.25
420.503	290.25
420.726	253.25
420.948	267.25
421.171	277.25
421.394	277.25
421.617	261.25
421.839	274.25
422.062	274.25
422.285	260.25
422.507	262.25
422.73	272.25
422.953	242.25
423.175	276.25
423.398	272.25
423.621	280.25
423.843	273.25
424.066	284.25
424.288	270.25
424.511	260.25
424.733	280.25
424.956	285.25
425.178	274.25
425.401	260.25
425.623	266.25
425.846	274.25
426.068	266.25
426.291	257.25
426.513	268.25
426.735	262.25
426.958	254.25
427.18	262.25
427.402	266.25
427.625	253.25
427.847	251.25
428.069	266.25
428.292	245.25
428.514	241.25
428.736	259.25
428.958	252.25
429.181	240.25
429.403	238.25
429.625	256.25
429.847	247.25
430.069	258.25
430.292	245.25
430.514	244.25
430.736	260.25
430.958	254.25
431.18	268.25
431.402	246.25
431.624	248.25
431.846	258.25
432.068	231.25
432.29	242.25
432.512	236.25
432.734	252.25
432.956	239.25
433.178	257.25
433.4	246.25
433.622	260.25
433.844	248.25
434.066	265.25
434.287	260.25
434.509	260.25
434.731	269.25
434.953	268.25
435.175	268.25
435.397	268.25
435.618	277.25
435.84	265.25
436.062	248.25
436.284	250.25
436.505	253.25
436.727	267.25
436.949	248.25
437.17	236.25
437.392	238.25
437.614	256.25
437.835	265.25
438.057	262.25
438.278	262.25
438.5	244.25
438.721	246.25
438.943	256.25
439.165	242.25
439.386	257.25
439.608	249.25
439.829	247.25
440.05	274.25
440.272	248.25
440.493	260.25
440.715	249.25
440.936	258.25
441.158	258.25
441.379	265.25
441.6	245.25
441.822	270.25
442.043	262.25
442.264	261.25
442.486	269.25
442.707	248.25
442.928	253.25
443.149	257.25
443.371	276.25
443.592	270.25
443.813	256.25
444.034	268.25
444.255	262.25
444.476	272.25
444.698	284.25
444.919	285.25
445.14	374.25
445.361	316.25
445.582	270.25
445.803	260.25
446.024	271.25
446.245	267.25
446.466	257.25
446.687	257.25
446.908	278.25
447.129	242.25
447.35	246.25
447.571	253.25
447.792	227.25
448.013	246.25
448.234	248.25
448.455	241.25
448.675	236.25
448.896	229.25
449.117	217.25
449.338	255.25
449.559	237.25
449.779	218.25
450	232.25
450.221	241.25
450.442	229.25
450.662	239.25
450.883	224.25
451.104	251.25
451.324	236.25
451.545	233.25
451.766	255.25
451.986	220.25
452.207	219.25
452.428	232.25
452.648	230.25
452.869	246.25
453.089	241.25
453.31	238.25
453.53	215.25
453.751	223.25
453.971	239.25
454.192	223.25
454.412	222.25
454.633	213.25
454.853	219.25
455.073	211.25
455.294	223.25
455.514	238.25
455.734	224.25
455.955	225.25
456.175	224.25
456.395	225.25
456.616	219.25
456.836	230.25
457.056	224.25
457.276	227.25
457.497	223.25
457.717	218.25
457.937	218.25
458.157	233.25
458.377	217.25
458.598	222.25
458.818	236.25
459.038	233.25
459.258	236.25
459.478	233.25
459.698	259.25
459.918	246.25
460.138	263.25
460.358	269.25
460.578	262.25
460.798	277.25
461.018	276.25
461.238	267.25
461.458	278.25
461.678	302.25
461.898	281.25
462.118	274.25
462.338	312.25
462.558	297.25
462.777	284.25
462.997	308.25
463.217	318.25
463.437	327.25
463.657	318.25
463.876	295.25
464.096	289.25
464.316	268.25
464.536	284.25
464.755	300.25
464.975	265.25
465.195	280.25
465.414	272.25
465.634	251.25
465.854	260.25
466.073	259.25
466.293	248.25
466.512	247.25
466.732	251.25
466.951	245.25
467.171	238.25
467.391	225.25
467.61	240.25
467.829	228.25
468.049	247.25
468.268	229.25
468.488	243.25
468.707	225.25
468.927	213.25
469.146	239.25
469.365	256.25
469.585	234.25
469.804	245.25
470.023	246.25
470.243	261.25
470.462	247.25
470.681	269.25
470.901	250.25
471.12	240.25
471.339	244.25
471.558	244.25
471.777	223.25
471.997	254.25
472.216	238.25
472.435	240.25
472.654	233.25
472.873	245.25
473.092	238.25
473.311	247.25
473.53	252.25
473.749	252.25
473.968	253.25
474.187	242.25
474.406	231.25
474.625	252.25
474.844	248.25
475.063	242.25
475.282	239.25
475.501	244.25
475.72	232.25
475.939	246.25
476.158	245.25
476.377	248.25
476.596	256.25
476.814	256.25
477.033	271.25
477.252	244.25
477.471	258.25
477.69	274.25
477.908	278.25
478.127	264.25
478.346	271.25
478.564	265.25
478.783	265.25
479.002	259.25
479.22	285.25
479.439	290.25
479.658	265.25
479.876	282.25
480.095	287.25
480.313	287.25
480.532	287.25
480.751	309.25
480.969	296.25
481.188	284.25
481.406	290.25
481.624	259.25
481.843	290.25
482.061	289.25
482.28	293.25
482.498	297.25
482.717	260.25
482.935	287.25
483.153	284.25
483.372	279.25
483.59	258.25
483.808	278.25
484.027	285.25
484.245	266.25
484.463	272.25
484.681	294.25
484.9	280.25
485.118	285.25
485.336	292.25
485.554	311.25
485.772	277.25
485.99	286.25
486.209	291.25
486.427	290.25
486.645	294.25
486.863	282.25
487.081	283.25
487.299	272.25
487.517	283.25
487.735	281.25
487.953	271.25
488.171	287.25
488.389	289.25
488.607	304.25
488.825	281.25
489.043	282.25
489.261	293.25
489.479	282.25
489.696	281.25
489.914	279.25
490.132	284.25
490.35	283.25
490.568	300.25
490.786	288.25
491.003	279.25
491.221	273.25
491.439	285.25
491.657	290.25
491.874	281.25
492.092	293.25
492.31	292.25
492.527	309.25
492.745	300.25
492.963	297.25
493.18	276.25
493.398	280.25
493.615	278.25
493.833	306.25
494.05	289.25
494.268	292.25
494.485	293.25
494.703	301.25
494.92	276.25
495.138	293.25
495.355	274.25
495.573	294.25
495.79	286.25
496.008	310.25
496.225	288.25
496.442	302.25
496.66	305.25
496.877	304.25
497.094	314.25
497.312	325.25
497.529	339.25
497.746	336.25
497.963	337.25
498.181	329.25
498.398	360.25
498.615	366.25
498.832	376.25
499.049	413.25
499.267	430.25
499.484	454.25
499.701	472.25
499.918	485.25
500.135	529.25
500.352	553.25
500.569	583.25
500.786	524.25
501.003	528.25
501.22	490.25
501.437	472.25
501.654	451.25
501.871	425.25
502.088	400.25
502.305	377.25
502.522	378.25
502.739	357.25
502.956	355.25
