Data from Fe(NO3)3@0.1M.TitratingCurve.Agarose3%dH2O.NegLispCup.LampEnergy10.LIBS07252019_HRD10591_16-37-46-332.txt Node
Date: Thu Jul 25 16:37:46 EDT 2019
User: cochatt
Spectrometer: HR+D1059
Trigger mode: 1
Integration Time (sec): 1.000000E-1
Scans to average: 1
Electric dark correction enabled: true
Nonlinearity correction enabled: false
Boxcar width: 0
XAxis mode: Wavelengths
Number of Pixels in Spectrum: 2048
>>>>>Begin Spectral Data<<<<<
223.165	-10.94
223.4	-10.94
223.635	-10.94
223.869	-23.94
224.104	-27.94
224.338	-2.94
224.573	-8.94
224.808	-3.94
225.042	-1.94
225.277	-15.94
225.511	-7.94
225.746	13.06
225.98	15.06
226.215	14.06
226.449	12.06
226.683	2.06
226.918	23.06
227.152	25.06
227.387	32.06
227.621	35.06
227.856	39.06
228.09	38.06
228.324	49.06
228.559	58.06
228.793	64.06
229.027	70.06
229.262	63.06
229.496	75.06
229.73	64.06
229.964	73.06
230.199	74.06
230.433	75.06
230.667	85.06
230.901	71.06
231.136	76.06
231.37	87.06
231.604	85.06
231.838	84.06
232.072	83.06
232.306	83.06
232.541	81.06
232.775	90.06
233.009	88.06
233.243	92.06
233.477	79.06
233.711	92.06
233.945	86.06
234.179	93.06
234.413	74.06
234.647	77.06
234.881	90.06
235.115	78.06
235.349	89.06
235.583	93.06
235.817	83.06
236.051	94.06
236.285	85.06
236.519	88.06
236.753	89.06
236.987	95.06
237.221	79.06
237.455	85.06
237.689	81.06
237.922	102.06
238.156	81.06
238.39	76.06
238.624	79.06
238.858	96.06
239.091	93.06
239.325	94.06
239.559	88.06
239.793	86.06
240.027	74.06
240.26	76.06
240.494	111.06
240.728	89.06
240.961	87.06
241.195	81.06
241.429	93.06
241.662	84.06
241.896	91.06
242.13	81.06
242.363	95.06
242.597	83.06
242.83	88.06
243.064	91.06
243.298	91.06
243.531	89.06
243.765	110.06
243.998	97.06
244.232	85.06
244.465	80.06
244.699	88.06
244.932	85.06
245.166	95.06
245.399	107.06
245.633	79.06
245.866	98.06
246.099	110.06
246.333	101.06
246.566	93.06
246.8	102.06
247.033	89.06
247.266	93.06
247.5	81.06
247.733	98.06
247.966	96.06
248.2	104.06
248.433	109.06
248.666	95.06
248.899	88.06
249.133	95.06
249.366	104.06
249.599	100.06
249.832	97.06
250.066	97.06
250.299	82.06
250.532	111.06
250.765	95.06
250.998	103.06
251.231	99.06
251.465	113.06
251.698	97.06
251.931	88.06
252.164	127.06
252.397	94.06
252.63	102.06
252.863	93.06
253.096	105.06
253.329	108.06
253.562	105.06
253.795	98.06
254.028	99.06
254.261	107.06
254.494	100.06
254.727	107.06
254.96	93.06
255.193	119.06
255.426	107.06
255.659	101.06
255.892	115.06
256.124	104.06
256.357	102.06
256.59	118.06
256.823	102.06
257.056	93.06
257.289	111.06
257.521	114.06
257.754	103.06
257.987	111.06
258.22	128.06
258.452	105.06
258.685	117.06
258.918	101.06
259.151	96.06
259.383	106.06
259.616	108.06
259.849	107.06
260.081	117.06
260.314	101.06
260.547	111.06
260.779	113.06
261.012	122.06
261.244	126.06
261.477	116.06
261.71	107.06
261.942	109.06
262.175	103.06
262.407	117.06
262.64	114.06
262.872	117.06
263.105	117.06
263.337	116.06
263.57	109.06
263.802	112.06
264.035	103.06
264.267	127.06
264.499	109.06
264.732	115.06
264.964	120.06
265.197	110.06
265.429	111.06
265.661	115.06
265.894	128.06
266.126	116.06
266.358	115.06
266.591	116.06
266.823	120.06
267.055	100.06
267.287	123.06
267.52	115.06
267.752	109.06
267.984	126.06
268.216	115.06
268.448	125.06
268.681	135.06
268.913	112.06
269.145	126.06
269.377	123.06
269.609	130.06
269.841	122.06
270.073	101.06
270.306	136.06
270.538	109.06
270.77	123.06
271.002	119.06
271.234	115.06
271.466	129.06
271.698	114.06
271.93	123.06
272.162	128.06
272.394	117.06
272.626	132.06
272.858	114.06
273.09	111.06
273.322	131.06
273.553	127.06
273.785	124.06
274.017	126.06
274.249	127.06
274.481	134.06
274.713	139.06
274.945	126.06
275.176	138.06
275.408	123.06
275.64	131.06
275.872	118.06
276.104	127.06
276.335	137.06
276.567	120.06
276.799	128.06
277.031	134.06
277.262	134.06
277.494	126.06
277.726	131.06
277.957	114.06
278.189	115.06
278.421	130.06
278.652	128.06
278.884	119.06
279.115	141.06
279.347	143.06
279.579	148.06
279.81	123.06
280.042	139.06
280.273	127.06
280.505	132.06
280.736	156.06
280.968	123.06
281.199	129.06
281.431	129.06
281.662	145.06
281.894	134.06
282.125	143.06
282.356	137.06
282.588	138.06
282.819	131.06
283.051	143.06
283.282	139.06
283.513	131.06
283.745	132.06
283.976	132.06
284.207	138.06
284.439	125.06
284.67	140.06
284.901	146.06
285.132	139.06
285.364	124.06
285.595	130.06
285.826	140.06
286.057	127.06
286.288	131.06
286.52	135.06
286.751	128.06
286.982	137.06
287.213	122.06
287.444	143.06
287.675	146.06
287.906	149.06
288.138	134.06
288.369	129.06
288.6	155.06
288.831	147.06
289.062	141.06
289.293	149.06
289.524	131.06
289.755	135.06
289.986	154.06
290.217	137.06
290.448	140.06
290.679	153.06
290.91	136.06
291.141	138.06
291.371	137.06
291.602	155.06
291.833	143.06
292.064	158.06
292.295	147.06
292.526	148.06
292.757	148.06
292.987	138.06
293.218	129.06
293.449	151.06
293.68	138.06
293.91	136.06
294.141	147.06
294.372	141.06
294.603	149.06
294.833	135.06
295.064	147.06
295.295	147.06
295.525	148.06
295.756	153.06
295.987	137.06
296.217	136.06
296.448	147.06
296.679	145.06
296.909	154.06
297.14	144.06
297.37	150.06
297.601	147.06
297.831	146.06
298.062	159.06
298.292	153.06
298.523	130.06
298.753	157.06
298.984	148.06
299.214	141.06
299.445	166.06
299.675	164.06
299.905	155.06
300.136	144.06
300.366	145.06
300.597	136.06
300.827	157.06
301.057	159.06
301.288	160.06
301.518	146.06
301.748	149.06
301.979	151.06
302.209	160.06
302.439	154.06
302.669	166.06
302.9	146.06
303.13	172.06
303.36	168.06
303.59	159.06
303.82	174.06
304.051	134.06
304.281	147.06
304.511	149.06
304.741	134.06
304.971	159.06
305.201	160.06
305.431	156.06
305.661	152.06
305.891	142.06
306.121	136.06
306.352	139.06
306.582	159.06
306.812	147.06
307.042	168.06
307.272	147.06
307.502	150.06
307.731	139.06
307.961	150.06
308.191	164.06
308.421	165.06
308.651	151.06
308.881	165.06
309.111	153.06
309.341	146.06
309.571	150.06
309.8	174.06
310.03	157.06
310.26	164.06
310.49	152.06
310.72	152.06
310.949	152.06
311.179	156.06
311.409	151.06
311.639	142.06
311.868	155.06
312.098	171.06
312.328	171.06
312.557	174.06
312.787	162.06
313.017	162.06
313.246	159.06
313.476	172.06
313.706	163.06
313.935	150.06
314.165	164.06
314.394	157.06
314.624	162.06
314.853	161.06
315.083	146.06
315.312	156.06
315.542	165.06
315.771	183.06
316.001	160.06
316.23	159.06
316.46	164.06
316.689	158.06
316.919	151.06
317.148	161.06
317.377	152.06
317.607	163.06
317.836	159.06
318.065	162.06
318.295	168.06
318.524	145.06
318.753	161.06
318.983	158.06
319.212	147.06
319.441	169.06
319.67	146.06
319.9	149.06
320.129	169.06
320.358	156.06
320.587	139.06
320.816	164.06
321.046	162.06
321.275	164.06
321.504	148.06
321.733	158.06
321.962	166.06
322.191	177.06
322.42	160.06
322.649	171.06
322.878	167.06
323.108	161.06
323.337	178.06
323.566	171.06
323.795	173.06
324.024	160.06
324.253	169.06
324.482	160.06
324.71	173.06
324.939	165.06
325.168	171.06
325.397	178.06
325.626	166.06
325.855	172.06
326.084	165.06
326.313	172.06
326.542	164.06
326.77	176.06
326.999	167.06
327.228	166.06
327.457	173.06
327.686	160.06
327.914	175.06
328.143	181.06
328.372	167.06
328.6	167.06
328.829	173.06
329.058	179.06
329.287	175.06
329.515	174.06
329.744	175.06
329.972	188.06
330.201	173.06
330.43	166.06
330.658	169.06
330.887	182.06
331.115	180.06
331.344	186.06
331.572	189.06
331.801	168.06
332.03	180.06
332.258	195.06
332.486	198.06
332.715	193.06
332.943	203.06
333.172	191.06
333.4	208.06
333.629	202.06
333.857	202.06
334.085	222.06
334.314	220.06
334.542	212.06
334.771	197.06
334.999	203.06
335.227	182.06
335.455	191.06
335.684	177.06
335.912	203.06
336.14	205.06
336.369	187.06
336.597	199.06
336.825	204.06
337.053	185.06
337.281	189.06
337.51	197.06
337.738	181.06
337.966	173.06
338.194	184.06
338.422	185.06
338.65	197.06
338.878	164.06
339.106	184.06
339.334	174.06
339.562	193.06
339.79	188.06
340.018	175.06
340.246	181.06
340.474	192.06
340.702	187.06
340.93	164.06
341.158	166.06
341.386	176.06
341.614	180.06
341.842	166.06
342.07	184.06
342.298	181.06
342.526	168.06
342.754	183.06
342.981	187.06
343.209	175.06
343.437	184.06
343.665	176.06
343.893	211.06
344.12	201.06
344.348	208.06
344.576	192.06
344.804	173.06
345.031	157.06
345.259	184.06
345.487	171.06
345.714	160.06
345.942	176.06
346.17	173.06
346.397	169.06
346.625	168.06
346.853	164.06
347.08	163.06
347.308	155.06
347.535	169.06
347.763	185.06
347.99	175.06
348.218	181.06
348.445	174.06
348.673	168.06
348.9	162.06
349.128	151.06
349.355	177.06
349.583	174.06
349.81	162.06
350.037	163.06
350.265	185.06
350.492	167.06
350.72	176.06
350.947	159.06
351.174	171.06
351.402	169.06
351.629	165.06
351.856	165.06
352.083	168.06
352.311	160.06
352.538	161.06
352.765	171.06
352.992	165.06
353.22	161.06
353.447	167.06
353.674	183.06
353.901	177.06
354.128	176.06
354.355	169.06
354.583	160.06
354.81	176.06
355.037	176.06
355.264	172.06
355.491	165.06
355.718	188.06
355.945	173.06
356.172	156.06
356.399	180.06
356.626	177.06
356.853	176.06
357.08	168.06
357.307	180.06
357.534	171.06
357.761	171.06
357.988	167.06
358.215	167.06
358.441	165.06
358.668	191.06
358.895	172.06
359.122	177.06
359.349	172.06
359.576	177.06
359.802	185.06
360.029	180.06
360.256	173.06
360.483	159.06
360.709	160.06
360.936	176.06
361.163	190.06
361.39	179.06
361.616	175.06
361.843	178.06
362.07	169.06
362.296	165.06
362.523	187.06
362.749	167.06
362.976	177.06
363.203	173.06
363.429	179.06
363.656	169.06
363.882	166.06
364.109	172.06
364.335	164.06
364.562	160.06
364.788	196.06
365.015	185.06
365.241	196.06
365.468	176.06
365.694	183.06
365.92	181.06
366.147	197.06
366.373	187.06
366.599	184.06
366.826	187.06
367.052	155.06
367.278	165.06
367.505	184.06
367.731	185.06
367.957	197.06
368.184	197.06
368.41	172.06
368.636	195.06
368.862	181.06
369.089	181.06
369.315	195.06
369.541	180.06
369.767	199.06
369.993	180.06
370.219	197.06
370.445	181.06
370.672	197.06
370.898	184.06
371.124	190.06
371.35	196.06
371.576	197.06
371.802	203.06
372.028	196.06
372.254	203.06
372.48	201.06
372.706	195.06
372.932	209.06
373.158	199.06
373.384	205.06
373.61	229.06
373.835	193.06
374.061	203.06
374.287	207.06
374.513	217.06
374.739	225.06
374.965	222.06
375.191	194.06
375.416	230.06
375.642	212.06
375.868	214.06
376.094	228.06
376.319	216.06
376.545	216.06
376.771	215.06
376.997	188.06
377.222	191.06
377.448	198.06
377.674	212.06
377.899	206.06
378.125	200.06
378.35	207.06
378.576	212.06
378.802	214.06
379.027	206.06
379.253	214.06
379.478	202.06
379.704	193.06
379.929	216.06
380.155	204.06
380.38	216.06
380.606	187.06
380.831	204.06
381.057	207.06
381.282	227.06
381.507	192.06
381.733	197.06
381.958	214.06
382.184	219.06
382.409	221.06
382.634	212.06
382.86	225.06
383.085	254.06
383.31	229.06
383.535	232.06
383.761	230.06
383.986	254.06
384.211	239.06
384.436	248.06
384.662	223.06
384.887	244.06
385.112	245.06
385.337	269.06
385.562	244.06
385.787	251.06
386.013	263.06
386.238	249.06
386.463	260.06
386.688	272.06
386.913	240.06
387.138	255.06
387.363	273.06
387.588	242.06
387.813	256.06
388.038	275.06
388.263	255.06
388.488	274.06
388.713	259.06
388.938	249.06
389.163	262.06
389.387	254.06
389.612	255.06
389.837	271.06
390.062	262.06
390.287	253.06
390.512	269.06
390.736	258.06
390.961	277.06
391.186	280.06
391.411	280.06
391.636	289.06
391.86	290.06
392.085	286.06
392.31	296.06
392.534	288.06
392.759	299.06
392.984	271.06
393.208	253.06
393.433	271.06
393.658	262.06
393.882	274.06
394.107	268.06
394.331	273.06
394.556	286.06
394.78	279.06
395.005	272.06
395.229	277.06
395.454	299.06
395.678	293.06
395.903	306.06
396.127	299.06
396.352	280.06
396.576	289.06
396.801	288.06
397.025	289.06
397.249	297.06
397.474	299.06
397.698	315.06
397.922	308.06
398.147	303.06
398.371	300.06
398.595	307.06
398.82	323.06
399.044	330.06
399.268	375.06
399.492	400.06
399.717	465.06
399.941	449.06
400.165	412.06
400.389	381.06
400.613	366.06
400.837	361.06
401.062	332.06
401.286	331.06
401.51	343.06
401.734	335.06
401.958	337.06
402.182	324.06
402.406	355.06
402.63	328.06
402.854	351.06
403.078	357.06
403.302	360.06
403.526	365.06
403.75	379.06
403.974	361.06
404.198	383.06
404.422	377.06
404.645	370.06
404.869	359.06
405.093	351.06
405.317	353.06
405.541	351.06
405.765	366.06
405.988	343.06
406.212	393.06
406.436	359.06
406.66	361.06
406.883	387.06
407.107	385.06
407.331	394.06
407.555	413.06
407.778	403.06
408.002	391.06
408.226	391.06
408.449	377.06
408.673	367.06
408.896	381.06
409.12	378.06
409.344	383.06
409.567	378.06
409.791	348.06
410.014	377.06
410.238	367.06
410.461	365.06
410.685	367.06
410.908	352.06
411.132	369.06
411.355	368.06
411.578	341.06
411.802	344.06
412.025	339.06
412.249	358.06
412.472	364.06
412.695	344.06
412.919	336.06
413.142	352.06
413.365	356.06
413.589	334.06
413.812	340.06
414.035	302.06
414.258	334.06
414.482	349.06
414.705	341.06
414.928	359.06
415.151	333.06
415.374	331.06
415.597	352.06
415.821	352.06
416.044	350.06
416.267	329.06
416.49	330.06
416.713	330.06
416.936	350.06
417.159	339.06
417.382	328.06
417.605	355.06
417.828	348.06
418.051	338.06
418.274	321.06
418.497	353.06
418.72	332.06
418.943	345.06
419.166	369.06
419.389	377.06
419.611	373.06
419.834	371.06
420.057	346.06
420.28	352.06
420.503	339.06
420.726	325.06
420.948	342.06
421.171	352.06
421.394	348.06
421.617	343.06
421.839	342.06
422.062	335.06
422.285	315.06
422.507	336.06
422.73	324.06
422.953	343.06
423.175	340.06
423.398	365.06
423.621	358.06
423.843	329.06
424.066	350.06
424.288	367.06
424.511	344.06
424.733	336.06
424.956	349.06
425.178	340.06
425.401	339.06
425.623	335.06
425.846	336.06
426.068	325.06
426.291	323.06
426.513	338.06
426.735	321.06
426.958	309.06
427.18	305.06
427.402	309.06
427.625	327.06
427.847	310.06
428.069	325.06
428.292	315.06
428.514	302.06
428.736	312.06
428.958	329.06
429.181	291.06
429.403	288.06
429.625	316.06
429.847	304.06
430.069	307.06
430.292	288.06
430.514	312.06
430.736	312.06
430.958	310.06
431.18	303.06
431.402	311.06
431.624	279.06
431.846	308.06
432.068	295.06
432.29	289.06
432.512	312.06
432.734	309.06
432.956	320.06
433.178	310.06
433.4	309.06
433.622	304.06
433.844	307.06
434.066	309.06
434.287	320.06
434.509	319.06
434.731	328.06
434.953	328.06
435.175	331.06
435.397	342.06
435.618	325.06
435.84	325.06
436.062	309.06
436.284	304.06
436.505	308.06
436.727	320.06
436.949	326.06
437.17	303.06
437.392	316.06
437.614	303.06
437.835	288.06
438.057	317.06
438.278	279.06
438.5	292.06
438.721	289.06
438.943	286.06
439.165	312.06
439.386	293.06
439.608	302.06
439.829	287.06
440.05	308.06
440.272	299.06
440.493	317.06
440.715	309.06
440.936	338.06
441.158	331.06
441.379	329.06
441.6	336.06
441.822	359.06
442.043	334.06
442.264	349.06
442.486	314.06
442.707	331.06
442.928	331.06
443.149	329.06
443.371	316.06
443.592	344.06
443.813	344.06
444.034	344.06
444.255	349.06
444.476	357.06
444.698	388.06
444.919	415.06
445.14	502.06
445.361	402.06
445.582	344.06
445.803	343.06
446.024	327.06
446.245	333.06
446.466	327.06
446.687	321.06
446.908	331.06
447.129	321.06
447.35	302.06
447.571	309.06
447.792	294.06
448.013	299.06
448.234	290.06
448.455	298.06
448.675	280.06
448.896	297.06
449.117	291.06
449.338	275.06
449.559	289.06
449.779	281.06
450	287.06
450.221	289.06
450.442	312.06
450.662	280.06
450.883	285.06
451.104	297.06
451.324	310.06
451.545	292.06
451.766	286.06
451.986	283.06
452.207	290.06
452.428	287.06
452.648	299.06
452.869	287.06
453.089	279.06
453.31	290.06
453.53	274.06
453.751	283.06
453.971	283.06
454.192	285.06
454.412	264.06
454.633	268.06
454.853	299.06
455.073	279.06
455.294	277.06
455.514	253.06
455.734	269.06
455.955	275.06
456.175	262.06
456.395	275.06
456.616	272.06
456.836	281.06
457.056	265.06
457.276	261.06
457.497	257.06
457.717	278.06
457.937	273.06
458.157	271.06
458.377	291.06
458.598	295.06
458.818	300.06
459.038	287.06
459.258	293.06
459.478	330.06
459.698	326.06
459.918	327.06
460.138	334.06
460.358	352.06
460.578	353.06
460.798	368.06
461.018	367.06
461.238	359.06
461.458	357.06
461.678	369.06
461.898	356.06
462.118	356.06
462.338	355.06
462.558	392.06
462.777	393.06
462.997	433.06
463.217	451.06
463.437	436.06
463.657	409.06
463.876	399.06
464.096	392.06
464.316	395.06
464.536	397.06
464.755	375.06
464.975	393.06
465.195	395.06
465.414	370.06
465.634	329.06
465.854	312.06
466.073	328.06
466.293	323.06
466.512	300.06
466.732	322.06
466.951	307.06
467.171	276.06
467.391	304.06
467.61	317.06
467.829	304.06
468.049	294.06
468.268	287.06
468.488	286.06
468.707	293.06
468.927	297.06
469.146	288.06
469.365	299.06
469.585	298.06
469.804	308.06
470.023	309.06
470.243	303.06
470.462	308.06
470.681	323.06
470.901	309.06
471.12	315.06
471.339	301.06
471.558	297.06
471.777	296.06
471.997	302.06
472.216	288.06
472.435	289.06
472.654	285.06
472.873	281.06
473.092	276.06
473.311	305.06
473.53	273.06
473.749	302.06
473.968	289.06
474.187	309.06
474.406	281.06
474.625	279.06
474.844	283.06
475.063	291.06
475.282	294.06
475.501	275.06
475.72	284.06
475.939	297.06
476.158	293.06
476.377	293.06
476.596	309.06
476.814	305.06
477.033	291.06
477.252	311.06
477.471	303.06
477.69	318.06
477.908	324.06
478.127	344.06
478.346	336.06
478.564	361.06
478.783	335.06
479.002	343.06
479.22	353.06
479.439	356.06
479.658	344.06
479.876	356.06
480.095	332.06
480.313	347.06
480.532	352.06
480.751	365.06
480.969	341.06
481.188	354.06
481.406	349.06
481.624	319.06
481.843	319.06
482.061	329.06
482.28	310.06
482.498	316.06
482.717	332.06
482.935	295.06
483.153	334.06
483.372	315.06
483.59	321.06
483.808	328.06
484.027	326.06
484.245	325.06
484.463	317.06
484.681	327.06
484.9	334.06
485.118	326.06
485.336	300.06
485.554	331.06
485.772	325.06
485.99	349.06
486.209	329.06
486.427	324.06
486.645	331.06
486.863	361.06
487.081	333.06
487.299	336.06
487.517	354.06
487.735	352.06
487.953	350.06
488.171	343.06
488.389	351.06
488.607	332.06
488.825	334.06
489.043	324.06
489.261	343.06
489.479	343.06
489.696	329.06
489.914	335.06
490.132	335.06
490.35	337.06
490.568	331.06
490.786	348.06
491.003	338.06
491.221	364.06
491.439	344.06
491.657	343.06
491.874	350.06
492.092	366.06
492.31	370.06
492.527	353.06
492.745	347.06
492.963	351.06
493.18	368.06
493.398	359.06
493.615	345.06
493.833	354.06
494.05	350.06
494.268	353.06
494.485	374.06
494.703	367.06
494.92	359.06
495.138	369.06
495.355	364.06
495.573	372.06
495.79	354.06
496.008	352.06
496.225	363.06
496.442	370.06
496.66	385.06
496.877	381.06
497.094	388.06
497.312	363.06
497.529	380.06
497.746	407.06
497.963	409.06
498.181	421.06
498.398	442.06
498.615	454.06
498.832	495.06
499.049	506.06
499.267	559.06
499.484	578.06
499.701	635.06
499.918	691.06
500.135	764.06
500.352	871.06
500.569	903.06
500.786	912.06
501.003	839.06
501.22	776.06
501.437	655.06
501.654	624.06
501.871	578.06
502.088	539.06
502.305	494.06
502.522	457.06
502.739	461.06
