Data from Fe(NO3)3@0.025M.TitratingCurve.Agarose3%dH2O.NegLispCup.LampEnergy10.LIBS07252019_HRD10591_16-55-01-336.txt Node
Date: Thu Jul 25 16:55:01 EDT 2019
User: cochatt
Spectrometer: HR+D1059
Trigger mode: 1
Integration Time (sec): 1.000000E-1
Scans to average: 1
Electric dark correction enabled: true
Nonlinearity correction enabled: false
Boxcar width: 0
XAxis mode: Wavelengths
Number of Pixels in Spectrum: 2048
>>>>>Begin Spectral Data<<<<<
223.165	-26.94
223.4	-26.94
223.635	-26.94
223.869	-15.94
224.104	-20.94
224.338	-6.94
224.573	-8.94
224.808	-12.94
225.042	-10.94
225.277	-0.94
225.511	2.06
225.746	-1.94
225.98	1.06
226.215	8.06
226.449	3.06
226.683	29.06
226.918	23.06
227.152	40.06
227.387	43.06
227.621	36.06
227.856	30.06
228.09	57.06
228.324	41.06
228.559	48.06
228.793	51.06
229.027	71.06
229.262	66.06
229.496	72.06
229.73	77.06
229.964	81.06
230.199	75.06
230.433	74.06
230.667	91.06
230.901	81.06
231.136	88.06
231.37	93.06
231.604	98.06
231.838	99.06
232.072	95.06
232.306	94.06
232.541	91.06
232.775	101.06
233.009	90.06
233.243	94.06
233.477	80.06
233.711	95.06
233.945	100.06
234.179	97.06
234.413	89.06
234.647	110.06
234.881	101.06
235.115	94.06
235.349	88.06
235.583	101.06
235.817	95.06
236.051	89.06
236.285	102.06
236.519	86.06
236.753	84.06
236.987	94.06
237.221	95.06
237.455	96.06
237.689	101.06
237.922	97.06
238.156	102.06
238.39	92.06
238.624	100.06
238.858	86.06
239.091	102.06
239.325	87.06
239.559	91.06
239.793	100.06
240.027	96.06
240.26	106.06
240.494	93.06
240.728	93.06
240.961	106.06
241.195	92.06
241.429	101.06
241.662	110.06
241.896	99.06
242.13	92.06
242.363	103.06
242.597	96.06
242.83	100.06
243.064	94.06
243.298	92.06
243.531	90.06
243.765	108.06
243.998	103.06
244.232	111.06
244.465	96.06
244.699	100.06
244.932	89.06
245.166	99.06
245.399	107.06
245.633	112.06
245.866	97.06
246.099	108.06
246.333	100.06
246.566	96.06
246.8	112.06
247.033	103.06
247.266	103.06
247.5	114.06
247.733	101.06
247.966	116.06
248.2	106.06
248.433	111.06
248.666	93.06
248.899	99.06
249.133	105.06
249.366	94.06
249.599	105.06
249.832	117.06
250.066	106.06
250.299	117.06
250.532	111.06
250.765	114.06
250.998	122.06
251.231	114.06
251.465	98.06
251.698	120.06
251.931	106.06
252.164	113.06
252.397	112.06
252.63	123.06
252.863	106.06
253.096	113.06
253.329	109.06
253.562	119.06
253.795	116.06
254.028	119.06
254.261	122.06
254.494	123.06
254.727	129.06
254.96	118.06
255.193	103.06
255.426	109.06
255.659	102.06
255.892	122.06
256.124	109.06
256.357	114.06
256.59	121.06
256.823	117.06
257.056	119.06
257.289	129.06
257.521	117.06
257.754	123.06
257.987	111.06
258.22	120.06
258.452	119.06
258.685	137.06
258.918	126.06
259.151	115.06
259.383	137.06
259.616	136.06
259.849	131.06
260.081	133.06
260.314	115.06
260.547	123.06
260.779	129.06
261.012	133.06
261.244	129.06
261.477	127.06
261.71	101.06
261.942	124.06
262.175	111.06
262.407	135.06
262.64	122.06
262.872	129.06
263.105	126.06
263.337	117.06
263.57	121.06
263.802	127.06
264.035	132.06
264.267	145.06
264.499	131.06
264.732	131.06
264.964	124.06
265.197	131.06
265.429	129.06
265.661	138.06
265.894	140.06
266.126	145.06
266.358	135.06
266.591	137.06
266.823	133.06
267.055	127.06
267.287	136.06
267.52	133.06
267.752	116.06
267.984	135.06
268.216	137.06
268.448	149.06
268.681	132.06
268.913	116.06
269.145	134.06
269.377	140.06
269.609	145.06
269.841	145.06
270.073	147.06
270.306	135.06
270.538	122.06
270.77	153.06
271.002	129.06
271.234	138.06
271.466	132.06
271.698	129.06
271.93	162.06
272.162	133.06
272.394	141.06
272.626	138.06
272.858	141.06
273.09	146.06
273.322	145.06
273.553	151.06
273.785	133.06
274.017	140.06
274.249	130.06
274.481	147.06
274.713	155.06
274.945	161.06
275.176	160.06
275.408	152.06
275.64	151.06
275.872	144.06
276.104	146.06
276.335	155.06
276.567	134.06
276.799	155.06
277.031	161.06
277.262	160.06
277.494	159.06
277.726	157.06
277.957	159.06
278.189	146.06
278.421	164.06
278.652	155.06
278.884	157.06
279.115	150.06
279.347	145.06
279.579	163.06
279.81	145.06
280.042	154.06
280.273	152.06
280.505	146.06
280.736	163.06
280.968	166.06
281.199	150.06
281.431	169.06
281.662	162.06
281.894	173.06
282.125	143.06
282.356	165.06
282.588	173.06
282.819	169.06
283.051	170.06
283.282	177.06
283.513	175.06
283.745	184.06
283.976	166.06
284.207	162.06
284.439	166.06
284.67	160.06
284.901	180.06
285.132	163.06
285.364	167.06
285.595	170.06
285.826	170.06
286.057	176.06
286.288	159.06
286.52	173.06
286.751	170.06
286.982	167.06
287.213	176.06
287.444	173.06
287.675	175.06
287.906	182.06
288.138	187.06
288.369	181.06
288.6	170.06
288.831	166.06
289.062	190.06
289.293	180.06
289.524	176.06
289.755	174.06
289.986	188.06
290.217	190.06
290.448	174.06
290.679	188.06
290.91	170.06
291.141	176.06
291.371	164.06
291.602	189.06
291.833	173.06
292.064	178.06
292.295	173.06
292.526	176.06
292.757	181.06
292.987	178.06
293.218	173.06
293.449	187.06
293.68	189.06
293.91	175.06
294.141	176.06
294.372	165.06
294.603	203.06
294.833	192.06
295.064	186.06
295.295	189.06
295.525	183.06
295.756	190.06
295.987	184.06
296.217	189.06
296.448	187.06
296.679	195.06
296.909	193.06
297.14	199.06
297.37	200.06
297.601	202.06
297.831	191.06
298.062	195.06
298.292	175.06
298.523	173.06
298.753	192.06
298.984	185.06
299.214	196.06
299.445	194.06
299.675	192.06
299.905	191.06
300.136	202.06
300.366	195.06
300.597	193.06
300.827	199.06
301.057	210.06
301.288	197.06
301.518	197.06
301.748	214.06
301.979	200.06
302.209	223.06
302.439	203.06
302.669	193.06
302.9	219.06
303.13	207.06
303.36	200.06
303.59	204.06
303.82	209.06
304.051	206.06
304.281	198.06
304.511	186.06
304.741	204.06
304.971	196.06
305.201	194.06
305.431	199.06
305.661	202.06
305.891	214.06
306.121	201.06
306.352	211.06
306.582	195.06
306.812	214.06
307.042	202.06
307.272	206.06
307.502	200.06
307.731	198.06
307.961	210.06
308.191	205.06
308.421	197.06
308.651	210.06
308.881	189.06
309.111	194.06
309.341	202.06
309.571	199.06
309.8	211.06
310.03	215.06
310.26	212.06
310.49	218.06
310.72	215.06
310.949	220.06
311.179	206.06
311.409	208.06
311.639	218.06
311.868	222.06
312.098	217.06
312.328	188.06
312.557	201.06
312.787	205.06
313.017	199.06
313.246	219.06
313.476	207.06
313.706	207.06
313.935	218.06
314.165	218.06
314.394	217.06
314.624	207.06
314.853	212.06
315.083	203.06
315.312	214.06
315.542	211.06
315.771	221.06
316.001	213.06
316.23	198.06
316.46	224.06
316.689	223.06
316.919	222.06
317.148	206.06
317.377	232.06
317.607	207.06
317.836	196.06
318.065	211.06
318.295	202.06
318.524	222.06
318.753	212.06
318.983	221.06
319.212	193.06
319.441	208.06
319.67	228.06
319.9	208.06
320.129	216.06
320.358	209.06
320.587	198.06
320.816	211.06
321.046	224.06
321.275	239.06
321.504	217.06
321.733	214.06
321.962	214.06
322.191	227.06
322.42	210.06
322.649	231.06
322.878	212.06
323.108	223.06
323.337	215.06
323.566	218.06
323.795	241.06
324.024	226.06
324.253	232.06
324.482	220.06
324.71	214.06
324.939	219.06
325.168	213.06
325.397	224.06
325.626	248.06
325.855	227.06
326.084	232.06
326.313	242.06
326.542	222.06
326.77	226.06
326.999	228.06
327.228	247.06
327.457	234.06
327.686	246.06
327.914	232.06
328.143	250.06
328.372	246.06
328.6	239.06
328.829	218.06
329.058	235.06
329.287	225.06
329.515	239.06
329.744	233.06
329.972	244.06
330.201	237.06
330.43	258.06
330.658	242.06
330.887	239.06
331.115	268.06
331.344	259.06
331.572	248.06
331.801	258.06
332.03	256.06
332.258	248.06
332.486	258.06
332.715	276.06
332.943	257.06
333.172	282.06
333.4	296.06
333.629	291.06
333.857	292.06
334.085	296.06
334.314	271.06
334.542	275.06
334.771	286.06
334.999	269.06
335.227	271.06
335.455	281.06
335.684	279.06
335.912	277.06
336.14	274.06
336.369	246.06
336.597	253.06
336.825	260.06
337.053	267.06
337.281	259.06
337.51	263.06
337.738	258.06
337.966	256.06
338.194	277.06
338.422	263.06
338.65	266.06
338.878	283.06
339.106	251.06
339.334	245.06
339.562	259.06
339.79	255.06
340.018	245.06
340.246	222.06
340.474	241.06
340.702	251.06
340.93	258.06
341.158	242.06
341.386	267.06
341.614	248.06
341.842	253.06
342.07	249.06
342.298	257.06
342.526	238.06
342.754	253.06
342.981	236.06
343.209	245.06
343.437	258.06
343.665	267.06
343.893	269.06
344.12	288.06
344.348	266.06
344.576	266.06
344.804	268.06
345.031	257.06
345.259	234.06
345.487	245.06
345.714	251.06
345.942	242.06
346.17	230.06
346.397	218.06
346.625	232.06
346.853	232.06
347.08	246.06
347.308	241.06
347.535	253.06
347.763	257.06
347.99	231.06
348.218	231.06
348.445	253.06
348.673	250.06
348.9	235.06
349.128	256.06
349.355	242.06
349.583	239.06
349.81	249.06
350.037	264.06
350.265	246.06
350.492	230.06
350.72	226.06
350.947	221.06
351.174	228.06
351.402	232.06
351.629	237.06
351.856	255.06
352.083	242.06
352.311	241.06
352.538	229.06
352.765	232.06
352.992	226.06
353.22	215.06
353.447	230.06
353.674	231.06
353.901	245.06
354.128	234.06
354.355	245.06
354.583	231.06
354.81	222.06
355.037	249.06
355.264	228.06
355.491	237.06
355.718	226.06
355.945	221.06
356.172	240.06
356.399	227.06
356.626	238.06
356.853	230.06
357.08	241.06
357.307	241.06
357.534	258.06
357.761	239.06
357.988	224.06
358.215	221.06
358.441	244.06
358.668	238.06
358.895	259.06
359.122	241.06
359.349	232.06
359.576	237.06
359.802	261.06
360.029	255.06
360.256	242.06
360.483	242.06
360.709	240.06
360.936	243.06
361.163	234.06
361.39	240.06
361.616	254.06
361.843	224.06
362.07	227.06
362.296	241.06
362.523	249.06
362.749	234.06
362.976	261.06
363.203	242.06
363.429	250.06
363.656	246.06
363.882	239.06
364.109	230.06
364.335	223.06
364.562	229.06
364.788	231.06
365.015	246.06
365.241	221.06
365.468	237.06
365.694	224.06
365.92	242.06
366.147	236.06
366.373	255.06
366.599	229.06
366.826	239.06
367.052	239.06
367.278	244.06
367.505	242.06
367.731	247.06
367.957	245.06
368.184	258.06
368.41	256.06
368.636	257.06
368.862	264.06
369.089	248.06
369.315	262.06
369.541	241.06
369.767	238.06
369.993	228.06
370.219	237.06
370.445	237.06
370.672	261.06
370.898	237.06
371.124	242.06
371.35	263.06
371.576	278.06
371.802	233.06
372.028	253.06
372.254	269.06
372.48	266.06
372.706	267.06
372.932	277.06
373.158	272.06
373.384	265.06
373.61	249.06
373.835	263.06
374.061	271.06
374.287	270.06
374.513	260.06
374.739	281.06
374.965	277.06
375.191	259.06
375.416	267.06
375.642	270.06
375.868	270.06
376.094	261.06
376.319	259.06
376.545	262.06
376.771	254.06
376.997	267.06
377.222	234.06
377.448	244.06
377.674	251.06
377.899	237.06
378.125	259.06
378.35	267.06
378.576	259.06
378.802	251.06
379.027	255.06
379.253	271.06
379.478	254.06
379.704	269.06
379.929	258.06
380.155	249.06
380.38	253.06
380.606	277.06
380.831	257.06
381.057	266.06
381.282	249.06
381.507	243.06
381.733	251.06
381.958	254.06
382.184	276.06
382.409	263.06
382.634	266.06
382.86	274.06
383.085	272.06
383.31	278.06
383.535	277.06
383.761	254.06
383.986	285.06
384.211	267.06
384.436	289.06
384.662	298.06
384.887	305.06
385.112	292.06
385.337	291.06
385.562	295.06
385.787	314.06
386.013	315.06
386.238	312.06
386.463	286.06
386.688	307.06
386.913	292.06
387.138	301.06
387.363	285.06
387.588	314.06
387.813	302.06
388.038	301.06
388.263	295.06
388.488	303.06
388.713	297.06
388.938	297.06
389.163	298.06
389.387	303.06
389.612	284.06
389.837	309.06
390.062	295.06
390.287	307.06
390.512	314.06
390.736	310.06
390.961	311.06
391.186	307.06
391.411	294.06
391.636	310.06
391.86	327.06
392.085	328.06
392.31	349.06
392.534	317.06
392.759	318.06
392.984	324.06
393.208	297.06
393.433	300.06
393.658	315.06
393.882	307.06
394.107	303.06
394.331	319.06
394.556	311.06
394.78	322.06
395.005	334.06
395.229	329.06
395.454	330.06
395.678	343.06
395.903	337.06
396.127	324.06
396.352	335.06
396.576	320.06
396.801	328.06
397.025	330.06
397.249	335.06
397.474	336.06
397.698	326.06
397.922	342.06
398.147	338.06
398.371	367.06
398.595	358.06
398.82	357.06
399.044	384.06
399.268	401.06
399.492	453.06
399.717	473.06
399.941	473.06
400.165	442.06
400.389	410.06
400.613	386.06
400.837	361.06
401.062	377.06
401.286	368.06
401.51	359.06
401.734	367.06
401.958	372.06
402.182	378.06
402.406	372.06
402.63	376.06
402.854	360.06
403.078	371.06
403.302	390.06
403.526	380.06
403.75	403.06
403.974	393.06
404.198	391.06
404.422	384.06
404.645	384.06
404.869	397.06
405.093	385.06
405.317	381.06
405.541	392.06
405.765	394.06
405.988	379.06
406.212	389.06
406.436	401.06
406.66	390.06
406.883	399.06
407.107	402.06
407.331	424.06
407.555	443.06
407.778	410.06
408.002	404.06
408.226	427.06
408.449	399.06
408.673	387.06
408.896	383.06
409.12	389.06
409.344	395.06
409.567	401.06
409.791	365.06
410.014	386.06
410.238	383.06
410.461	393.06
410.685	385.06
410.908	359.06
411.132	380.06
411.355	361.06
411.578	355.06
411.802	377.06
412.025	366.06
412.249	369.06
412.472	371.06
412.695	370.06
412.919	349.06
413.142	356.06
413.365	365.06
413.589	359.06
413.812	365.06
414.035	359.06
414.258	360.06
414.482	341.06
414.705	356.06
414.928	369.06
415.151	331.06
415.374	375.06
415.597	346.06
415.821	360.06
416.044	341.06
416.267	341.06
416.49	365.06
416.713	351.06
416.936	369.06
417.159	337.06
417.382	343.06
417.605	352.06
417.828	337.06
418.051	342.06
418.274	350.06
418.497	344.06
418.72	347.06
418.943	383.06
419.166	356.06
419.389	409.06
419.611	377.06
419.834	382.06
420.057	367.06
420.28	352.06
420.503	342.06
420.726	353.06
420.948	347.06
421.171	336.06
421.394	348.06
421.617	341.06
421.839	343.06
422.062	338.06
422.285	347.06
422.507	340.06
422.73	352.06
422.953	361.06
423.175	344.06
423.398	358.06
423.621	331.06
423.843	341.06
424.066	365.06
424.288	343.06
424.511	365.06
424.733	343.06
424.956	349.06
425.178	349.06
425.401	350.06
425.623	335.06
425.846	343.06
426.068	341.06
426.291	337.06
426.513	357.06
426.735	331.06
426.958	323.06
427.18	327.06
427.402	320.06
427.625	324.06
427.847	312.06
428.069	315.06
428.292	337.06
428.514	296.06
428.736	309.06
428.958	314.06
429.181	301.06
429.403	301.06
429.625	330.06
429.847	293.06
430.069	311.06
430.292	317.06
430.514	316.06
430.736	296.06
430.958	319.06
431.18	315.06
431.402	306.06
431.624	312.06
431.846	321.06
432.068	335.06
432.29	307.06
432.512	320.06
432.734	303.06
432.956	304.06
433.178	330.06
433.4	326.06
433.622	336.06
433.844	317.06
434.066	311.06
434.287	313.06
434.509	324.06
434.731	337.06
434.953	341.06
435.175	337.06
435.397	337.06
435.618	348.06
435.84	330.06
436.062	309.06
436.284	315.06
436.505	305.06
436.727	317.06
436.949	322.06
437.17	311.06
437.392	311.06
437.614	321.06
437.835	305.06
438.057	301.06
438.278	299.06
438.5	310.06
438.721	305.06
438.943	309.06
439.165	290.06
439.386	300.06
439.608	319.06
439.829	319.06
440.05	306.06
440.272	315.06
440.493	314.06
440.715	317.06
440.936	291.06
441.158	329.06
441.379	341.06
441.6	343.06
441.822	343.06
442.043	343.06
442.264	336.06
442.486	339.06
442.707	338.06
442.928	336.06
443.149	339.06
443.371	336.06
443.592	334.06
443.813	371.06
444.034	340.06
444.255	362.06
444.476	365.06
444.698	351.06
444.919	393.06
445.14	457.06
445.361	383.06
445.582	360.06
445.803	343.06
446.024	330.06
446.245	317.06
446.466	333.06
446.687	335.06
446.908	311.06
447.129	316.06
447.35	316.06
447.571	301.06
447.792	311.06
448.013	286.06
448.234	308.06
448.455	288.06
448.675	304.06
448.896	299.06
449.117	291.06
449.338	271.06
449.559	304.06
449.779	289.06
450	277.06
450.221	289.06
450.442	293.06
450.662	288.06
450.883	302.06
451.104	307.06
451.324	299.06
451.545	295.06
451.766	284.06
451.986	283.06
452.207	286.06
452.428	293.06
452.648	271.06
452.869	289.06
453.089	281.06
453.31	288.06
453.53	281.06
453.751	276.06
453.971	282.06
454.192	277.06
454.412	267.06
454.633	282.06
454.853	283.06
455.073	303.06
455.294	296.06
455.514	293.06
455.734	281.06
455.955	261.06
456.175	283.06
456.395	277.06
456.616	281.06
456.836	268.06
457.056	281.06
457.276	279.06
457.497	288.06
457.717	279.06
457.937	294.06
458.157	295.06
458.377	288.06
458.598	288.06
458.818	299.06
459.038	338.06
459.258	303.06
459.478	313.06
459.698	323.06
459.918	337.06
460.138	329.06
460.358	355.06
460.578	346.06
460.798	356.06
461.018	360.06
461.238	376.06
461.458	349.06
461.678	359.06
461.898	374.06
462.118	362.06
462.338	405.06
462.558	385.06
462.777	400.06
462.997	431.06
463.217	437.06
463.437	431.06
463.657	407.06
463.876	378.06
464.096	396.06
464.316	409.06
464.536	409.06
464.755	382.06
464.975	380.06
465.195	354.06
465.414	361.06
465.634	353.06
465.854	334.06
466.073	326.06
466.293	311.06
466.512	310.06
466.732	314.06
466.951	308.06
467.171	311.06
467.391	302.06
467.61	303.06
467.829	307.06
468.049	296.06
468.268	309.06
468.488	304.06
468.707	294.06
468.927	303.06
469.146	281.06
469.365	307.06
469.585	306.06
469.804	308.06
470.023	317.06
470.243	307.06
470.462	331.06
470.681	314.06
470.901	334.06
471.12	312.06
471.339	316.06
471.558	299.06
471.777	311.06
471.997	305.06
472.216	312.06
472.435	290.06
472.654	294.06
472.873	296.06
473.092	310.06
473.311	314.06
473.53	293.06
473.749	282.06
473.968	326.06
474.187	303.06
474.406	298.06
474.625	306.06
474.844	303.06
475.063	307.06
475.282	283.06
475.501	298.06
475.72	302.06
475.939	312.06
476.158	294.06
476.377	314.06
476.596	307.06
476.814	330.06
477.033	314.06
477.252	324.06
477.471	336.06
477.69	331.06
477.908	330.06
478.127	342.06
478.346	361.06
478.564	324.06
478.783	349.06
479.002	338.06
479.22	362.06
479.439	347.06
479.658	347.06
479.876	352.06
480.095	331.06
480.313	369.06
480.532	381.06
480.751	368.06
480.969	363.06
481.188	352.06
481.406	339.06
481.624	318.06
481.843	327.06
482.061	339.06
482.28	335.06
482.498	325.06
482.717	332.06
482.935	335.06
483.153	329.06
483.372	329.06
483.59	311.06
483.808	340.06
484.027	350.06
484.245	343.06
484.463	332.06
484.681	332.06
484.9	331.06
485.118	325.06
485.336	349.06
485.554	345.06
485.772	343.06
485.99	350.06
486.209	359.06
486.427	341.06
486.645	340.06
486.863	347.06
487.081	359.06
487.299	352.06
487.517	335.06
487.735	350.06
487.953	357.06
488.171	346.06
488.389	330.06
488.607	311.06
488.825	335.06
489.043	343.06
489.261	340.06
489.479	351.06
489.696	327.06
489.914	345.06
490.132	328.06
490.35	351.06
490.568	339.06
490.786	346.06
491.003	350.06
491.221	342.06
491.439	344.06
491.657	353.06
491.874	345.06
492.092	361.06
492.31	357.06
492.527	356.06
492.745	349.06
492.963	352.06
493.18	349.06
493.398	353.06
493.615	362.06
493.833	362.06
494.05	350.06
494.268	353.06
494.485	356.06
494.703	381.06
494.92	367.06
495.138	367.06
495.355	374.06
495.573	366.06
495.79	349.06
496.008	365.06
496.225	367.06
496.442	364.06
496.66	379.06
496.877	399.06
497.094	385.06
497.312	407.06
497.529	411.06
497.746	414.06
497.963	441.06
498.181	441.06
498.398	453.06
498.615	486.06
498.832	511.06
499.049	541.06
499.267	567.06
499.484	585.06
499.701	642.06
499.918	713.06
500.135	783.06
500.352	823.06
500.569	861.06
500.786	857.06
501.003	811.06
501.22	758.06
501.437	662.06
501.654	607.06
501.871	561.06
502.088	523.06
502.305	496.06
