Data from Fe(NO3)3@0.025M.TitratingCurve.Agarose3%dH2O.NegLispCup.LampEnergy10.LIBS07252019_HRD10591_16-56-28-336.txt Node
Date: Thu Jul 25 16:56:28 EDT 2019
User: cochatt
Spectrometer: HR+D1059
Trigger mode: 1
Integration Time (sec): 1.000000E-1
Scans to average: 1
Electric dark correction enabled: true
Nonlinearity correction enabled: false
Boxcar width: 0
XAxis mode: Wavelengths
Number of Pixels in Spectrum: 2048
>>>>>Begin Spectral Data<<<<<
223.165	1.31
223.4	1.31
223.635	1.31
223.869	-8.69
224.104	-15.69
224.338	-36.69
224.573	-7.69
224.808	-13.69
225.042	-11.69
225.277	-5.69
225.511	-1.69
225.746	-3.69
225.98	7.31
226.215	11.31
226.449	13.31
226.683	22.31
226.918	21.31
227.152	28.31
227.387	37.31
227.621	39.31
227.856	37.31
228.09	33.31
228.324	37.31
228.559	60.31
228.793	44.31
229.027	78.31
229.262	89.31
229.496	75.31
229.73	77.31
229.964	84.31
230.199	81.31
230.433	92.31
230.667	93.31
230.901	91.31
231.136	96.31
231.37	106.31
231.604	89.31
231.838	90.31
232.072	97.31
232.306	99.31
232.541	97.31
232.775	96.31
233.009	89.31
233.243	97.31
233.477	112.31
233.711	102.31
233.945	102.31
234.179	105.31
234.413	93.31
234.647	100.31
234.881	92.31
235.115	96.31
235.349	99.31
235.583	103.31
235.817	98.31
236.051	102.31
236.285	92.31
236.519	109.31
236.753	107.31
236.987	102.31
237.221	119.31
237.455	88.31
237.689	104.31
237.922	92.31
238.156	87.31
238.39	111.31
238.624	115.31
238.858	97.31
239.091	99.31
239.325	100.31
239.559	96.31
239.793	93.31
240.027	101.31
240.26	106.31
240.494	113.31
240.728	101.31
240.961	95.31
241.195	103.31
241.429	116.31
241.662	119.31
241.896	108.31
242.13	95.31
242.363	108.31
242.597	113.31
242.83	117.31
243.064	117.31
243.298	103.31
243.531	135.31
243.765	115.31
243.998	127.31
244.232	105.31
244.465	101.31
244.699	110.31
244.932	111.31
245.166	122.31
245.399	115.31
245.633	108.31
245.866	115.31
246.099	133.31
246.333	114.31
246.566	129.31
246.8	125.31
247.033	111.31
247.266	136.31
247.5	106.31
247.733	113.31
247.966	124.31
248.2	120.31
248.433	122.31
248.666	117.31
248.899	126.31
249.133	135.31
249.366	131.31
249.599	124.31
249.832	115.31
250.066	124.31
250.299	119.31
250.532	124.31
250.765	132.31
250.998	121.31
251.231	124.31
251.465	122.31
251.698	120.31
251.931	124.31
252.164	125.31
252.397	129.31
252.63	119.31
252.863	125.31
253.096	134.31
253.329	122.31
253.562	127.31
253.795	127.31
254.028	130.31
254.261	124.31
254.494	143.31
254.727	129.31
254.96	131.31
255.193	136.31
255.426	141.31
255.659	132.31
255.892	126.31
256.124	133.31
256.357	123.31
256.59	143.31
256.823	141.31
257.056	139.31
257.289	145.31
257.521	139.31
257.754	150.31
257.987	131.31
258.22	141.31
258.452	155.31
258.685	125.31
258.918	136.31
259.151	138.31
259.383	138.31
259.616	124.31
259.849	133.31
260.081	137.31
260.314	149.31
260.547	135.31
260.779	153.31
261.012	143.31
261.244	134.31
261.477	156.31
261.71	155.31
261.942	152.31
262.175	155.31
262.407	154.31
262.64	149.31
262.872	148.31
263.105	144.31
263.337	140.31
263.57	156.31
263.802	163.31
264.035	161.31
264.267	163.31
264.499	151.31
264.732	149.31
264.964	151.31
265.197	159.31
265.429	147.31
265.661	143.31
265.894	167.31
266.126	144.31
266.358	161.31
266.591	160.31
266.823	158.31
267.055	169.31
267.287	147.31
267.52	139.31
267.752	153.31
267.984	168.31
268.216	165.31
268.448	169.31
268.681	148.31
268.913	152.31
269.145	159.31
269.377	175.31
269.609	154.31
269.841	156.31
270.073	175.31
270.306	162.31
270.538	163.31
270.77	177.31
271.002	175.31
271.234	167.31
271.466	163.31
271.698	173.31
271.93	160.31
272.162	178.31
272.394	173.31
272.626	170.31
272.858	174.31
273.09	167.31
273.322	166.31
273.553	165.31
273.785	173.31
274.017	173.31
274.249	159.31
274.481	180.31
274.713	187.31
274.945	181.31
275.176	169.31
275.408	186.31
275.64	171.31
275.872	180.31
276.104	181.31
276.335	195.31
276.567	175.31
276.799	188.31
277.031	197.31
277.262	189.31
277.494	187.31
277.726	188.31
277.957	169.31
278.189	189.31
278.421	183.31
278.652	198.31
278.884	188.31
279.115	183.31
279.347	186.31
279.579	195.31
279.81	196.31
280.042	195.31
280.273	191.31
280.505	170.31
280.736	188.31
280.968	193.31
281.199	180.31
281.431	184.31
281.662	187.31
281.894	213.31
282.125	185.31
282.356	189.31
282.588	196.31
282.819	198.31
283.051	193.31
283.282	195.31
283.513	212.31
283.745	188.31
283.976	189.31
284.207	189.31
284.439	187.31
284.67	196.31
284.901	209.31
285.132	212.31
285.364	201.31
285.595	212.31
285.826	209.31
286.057	231.31
286.288	200.31
286.52	193.31
286.751	192.31
286.982	195.31
287.213	207.31
287.444	218.31
287.675	216.31
287.906	216.31
288.138	220.31
288.369	209.31
288.6	228.31
288.831	223.31
289.062	206.31
289.293	233.31
289.524	216.31
289.755	204.31
289.986	200.31
290.217	224.31
290.448	221.31
290.679	213.31
290.91	230.31
291.141	231.31
291.371	229.31
291.602	223.31
291.833	213.31
292.064	215.31
292.295	212.31
292.526	202.31
292.757	216.31
292.987	209.31
293.218	243.31
293.449	238.31
293.68	214.31
293.91	224.31
294.141	217.31
294.372	216.31
294.603	227.31
294.833	232.31
295.064	221.31
295.295	227.31
295.525	226.31
295.756	226.31
295.987	229.31
296.217	232.31
296.448	232.31
296.679	219.31
296.909	220.31
297.14	229.31
297.37	259.31
297.601	227.31
297.831	236.31
298.062	234.31
298.292	239.31
298.523	236.31
298.753	241.31
298.984	229.31
299.214	228.31
299.445	233.31
299.675	245.31
299.905	232.31
300.136	229.31
300.366	231.31
300.597	243.31
300.827	259.31
301.057	232.31
301.288	249.31
301.518	237.31
301.748	235.31
301.979	249.31
302.209	236.31
302.439	255.31
302.669	243.31
302.9	220.31
303.13	246.31
303.36	248.31
303.59	252.31
303.82	234.31
304.051	258.31
304.281	233.31
304.511	238.31
304.741	232.31
304.971	253.31
305.201	250.31
305.431	259.31
305.661	257.31
305.891	275.31
306.121	241.31
306.352	233.31
306.582	242.31
306.812	255.31
307.042	263.31
307.272	256.31
307.502	262.31
307.731	245.31
307.961	245.31
308.191	255.31
308.421	241.31
308.651	248.31
308.881	261.31
309.111	243.31
309.341	259.31
309.571	249.31
309.8	266.31
310.03	239.31
310.26	237.31
310.49	267.31
310.72	240.31
310.949	245.31
311.179	269.31
311.409	272.31
311.639	249.31
311.868	262.31
312.098	246.31
312.328	264.31
312.557	262.31
312.787	252.31
313.017	257.31
313.246	256.31
313.476	251.31
313.706	273.31
313.935	271.31
314.165	268.31
314.394	274.31
314.624	280.31
314.853	276.31
315.083	254.31
315.312	259.31
315.542	275.31
315.771	269.31
316.001	270.31
316.23	275.31
316.46	269.31
316.689	275.31
316.919	269.31
317.148	278.31
317.377	258.31
317.607	265.31
317.836	269.31
318.065	264.31
318.295	270.31
318.524	259.31
318.753	251.31
318.983	265.31
319.212	267.31
319.441	265.31
319.67	272.31
319.9	284.31
320.129	282.31
320.358	277.31
320.587	274.31
320.816	274.31
321.046	277.31
321.275	290.31
321.504	295.31
321.733	272.31
321.962	265.31
322.191	283.31
322.42	301.31
322.649	285.31
322.878	272.31
323.108	281.31
323.337	279.31
323.566	280.31
323.795	314.31
324.024	299.31
324.253	286.31
324.482	286.31
324.71	292.31
324.939	284.31
325.168	292.31
325.397	293.31
325.626	277.31
325.855	299.31
326.084	290.31
326.313	307.31
326.542	292.31
326.77	303.31
326.999	292.31
327.228	312.31
327.457	288.31
327.686	307.31
327.914	294.31
328.143	308.31
328.372	288.31
328.6	300.31
328.829	297.31
329.058	315.31
329.287	298.31
329.515	310.31
329.744	303.31
329.972	312.31
330.201	309.31
330.43	296.31
330.658	315.31
330.887	313.31
331.115	302.31
331.344	324.31
331.572	313.31
331.801	300.31
332.03	332.31
332.258	333.31
332.486	340.31
332.715	329.31
332.943	332.31
333.172	340.31
333.4	346.31
333.629	368.31
333.857	362.31
334.085	378.31
334.314	356.31
334.542	371.31
334.771	347.31
334.999	345.31
335.227	349.31
335.455	353.31
335.684	339.31
335.912	348.31
336.14	338.31
336.369	349.31
336.597	331.31
336.825	343.31
337.053	335.31
337.281	336.31
337.51	346.31
337.738	323.31
337.966	342.31
338.194	332.31
338.422	333.31
338.65	332.31
338.878	329.31
339.106	343.31
339.334	331.31
339.562	319.31
339.79	313.31
340.018	310.31
340.246	295.31
340.474	339.31
340.702	337.31
340.93	313.31
341.158	331.31
341.386	305.31
341.614	315.31
341.842	317.31
342.07	324.31
342.298	312.31
342.526	325.31
342.754	316.31
342.981	326.31
343.209	324.31
343.437	337.31
343.665	330.31
343.893	360.31
344.12	347.31
344.348	355.31
344.576	339.31
344.804	340.31
345.031	319.31
345.259	329.31
345.487	317.31
345.714	308.31
345.942	333.31
346.17	339.31
346.397	320.31
346.625	317.31
346.853	303.31
347.08	315.31
347.308	309.31
347.535	329.31
347.763	305.31
347.99	328.31
348.218	325.31
348.445	296.31
348.673	303.31
348.9	292.31
349.128	316.31
349.355	327.31
349.583	305.31
349.81	295.31
350.037	308.31
350.265	312.31
350.492	311.31
350.72	295.31
350.947	311.31
351.174	297.31
351.402	296.31
351.629	305.31
351.856	307.31
352.083	311.31
352.311	305.31
352.538	299.31
352.765	295.31
352.992	315.31
353.22	324.31
353.447	324.31
353.674	317.31
353.901	294.31
354.128	296.31
354.355	295.31
354.583	297.31
354.81	306.31
355.037	305.31
355.264	330.31
355.491	331.31
355.718	308.31
355.945	319.31
356.172	320.31
356.399	334.31
356.626	327.31
356.853	316.31
357.08	323.31
357.307	319.31
357.534	300.31
357.761	327.31
357.988	306.31
358.215	315.31
358.441	320.31
358.668	312.31
358.895	315.31
359.122	318.31
359.349	311.31
359.576	309.31
359.802	314.31
360.029	301.31
360.256	307.31
360.483	321.31
360.709	319.31
360.936	322.31
361.163	319.31
361.39	299.31
361.616	321.31
361.843	325.31
362.07	307.31
362.296	316.31
362.523	301.31
362.749	322.31
362.976	303.31
363.203	314.31
363.429	318.31
363.656	331.31
363.882	307.31
364.109	309.31
364.335	325.31
364.562	310.31
364.788	318.31
365.015	319.31
365.241	318.31
365.468	323.31
365.694	308.31
365.92	327.31
366.147	319.31
366.373	311.31
366.599	309.31
366.826	310.31
367.052	330.31
367.278	339.31
367.505	333.31
367.731	327.31
367.957	332.31
368.184	312.31
368.41	315.31
368.636	329.31
368.862	316.31
369.089	339.31
369.315	309.31
369.541	330.31
369.767	345.31
369.993	327.31
370.219	330.31
370.445	316.31
370.672	338.31
370.898	323.31
371.124	322.31
371.35	327.31
371.576	349.31
371.802	346.31
372.028	325.31
372.254	315.31
372.48	337.31
372.706	346.31
372.932	337.31
373.158	347.31
373.384	361.31
373.61	364.31
373.835	330.31
374.061	342.31
374.287	320.31
374.513	341.31
374.739	338.31
374.965	337.31
375.191	357.31
375.416	364.31
375.642	358.31
375.868	353.31
376.094	330.31
376.319	317.31
376.545	336.31
376.771	340.31
376.997	358.31
377.222	334.31
377.448	341.31
377.674	346.31
377.899	326.31
378.125	326.31
378.35	341.31
378.576	327.31
378.802	331.31
379.027	349.31
379.253	337.31
379.478	321.31
379.704	326.31
379.929	321.31
380.155	342.31
380.38	346.31
380.606	345.31
380.831	337.31
381.057	345.31
381.282	327.31
381.507	336.31
381.733	354.31
381.958	347.31
382.184	338.31
382.409	353.31
382.634	348.31
382.86	362.31
383.085	343.31
383.31	343.31
383.535	368.31
383.761	338.31
383.986	357.31
384.211	357.31
384.436	360.31
384.662	364.31
384.887	388.31
385.112	370.31
385.337	376.31
385.562	397.31
385.787	411.31
386.013	389.31
386.238	371.31
386.463	352.31
386.688	398.31
386.913	395.31
387.138	391.31
387.363	377.31
387.588	375.31
387.813	378.31
388.038	385.31
388.263	389.31
388.488	392.31
388.713	381.31
388.938	405.31
389.163	381.31
389.387	397.31
389.612	384.31
389.837	382.31
390.062	382.31
390.287	405.31
390.512	371.31
390.736	395.31
390.961	395.31
391.186	397.31
391.411	397.31
391.636	405.31
391.86	403.31
392.085	420.31
392.31	411.31
392.534	414.31
392.759	395.31
392.984	413.31
393.208	400.31
393.433	403.31
393.658	394.31
393.882	393.31
394.107	393.31
394.331	376.31
394.556	393.31
394.78	422.31
395.005	416.31
395.229	437.31
395.454	413.31
395.678	431.31
395.903	427.31
396.127	433.31
396.352	424.31
396.576	415.31
396.801	432.31
397.025	433.31
397.249	433.31
397.474	455.31
397.698	435.31
397.922	423.31
398.147	432.31
398.371	441.31
398.595	459.31
398.82	454.31
399.044	482.31
399.268	499.31
399.492	532.31
399.717	556.31
399.941	559.31
400.165	542.31
400.389	521.31
400.613	485.31
400.837	477.31
401.062	480.31
401.286	461.31
401.51	463.31
401.734	457.31
401.958	472.31
402.182	489.31
402.406	468.31
402.63	451.31
402.854	475.31
403.078	458.31
403.302	448.31
403.526	475.31
403.75	482.31
403.974	476.31
404.198	473.31
404.422	488.31
404.645	472.31
404.869	465.31
405.093	482.31
405.317	486.31
405.541	468.31
405.765	456.31
405.988	468.31
406.212	487.31
406.436	478.31
406.66	508.31
406.883	487.31
407.107	509.31
407.331	519.31
407.555	519.31
407.778	513.31
408.002	512.31
408.226	524.31
408.449	536.31
408.673	492.31
408.896	481.31
409.12	469.31
409.344	488.31
409.567	479.31
409.791	479.31
410.014	474.31
410.238	497.31
410.461	488.31
410.685	474.31
410.908	490.31
411.132	472.31
411.355	464.31
411.578	466.31
411.802	454.31
412.025	437.31
412.249	455.31
412.472	459.31
412.695	450.31
412.919	453.31
413.142	466.31
413.365	444.31
413.589	462.31
413.812	451.31
414.035	452.31
414.258	455.31
414.482	454.31
414.705	455.31
414.928	458.31
415.151	457.31
415.374	450.31
415.597	443.31
415.821	437.31
416.044	456.31
416.267	435.31
416.49	482.31
416.713	460.31
416.936	430.31
417.159	411.31
417.382	419.31
417.605	440.31
417.828	423.31
418.051	440.31
418.274	466.31
418.497	425.31
418.72	455.31
418.943	439.31
419.166	448.31
419.389	480.31
419.611	473.31
419.834	469.31
420.057	433.31
420.28	442.31
420.503	438.31
420.726	420.31
420.948	444.31
421.171	437.31
421.394	430.31
421.617	425.31
421.839	437.31
422.062	442.31
422.285	417.31
422.507	439.31
422.73	441.31
422.953	419.31
423.175	444.31
423.398	450.31
423.621	421.31
423.843	432.31
424.066	417.31
424.288	451.31
424.511	429.31
424.733	434.31
424.956	434.31
425.178	432.31
425.401	428.31
425.623	431.31
425.846	411.31
426.068	445.31
426.291	400.31
426.513	408.31
426.735	424.31
426.958	420.31
427.18	408.31
427.402	419.31
427.625	426.31
427.847	416.31
428.069	410.31
428.292	425.31
428.514	394.31
428.736	394.31
428.958	397.31
429.181	393.31
429.403	396.31
429.625	397.31
429.847	395.31
430.069	387.31
430.292	408.31
430.514	389.31
430.736	408.31
430.958	389.31
431.18	403.31
431.402	404.31
431.624	411.31
431.846	407.31
432.068	423.31
432.29	405.31
432.512	383.31
432.734	404.31
432.956	412.31
433.178	402.31
433.4	394.31
433.622	437.31
433.844	420.31
434.066	407.31
434.287	412.31
434.509	433.31
434.731	428.31
434.953	421.31
435.175	425.31
435.397	433.31
435.618	435.31
435.84	412.31
436.062	386.31
436.284	418.31
436.505	414.31
436.727	402.31
436.949	399.31
437.17	395.31
437.392	399.31
437.614	408.31
437.835	391.31
438.057	377.31
438.278	387.31
438.5	400.31
438.721	390.31
438.943	390.31
439.165	401.31
439.386	401.31
439.608	400.31
439.829	419.31
440.05	404.31
440.272	396.31
440.493	387.31
440.715	413.31
440.936	409.31
441.158	418.31
441.379	395.31
441.6	427.31
441.822	414.31
442.043	414.31
442.264	435.31
442.486	423.31
442.707	398.31
442.928	412.31
443.149	424.31
443.371	421.31
443.592	415.31
443.813	413.31
444.034	435.31
444.255	426.31
444.476	438.31
444.698	450.31
444.919	433.31
445.14	509.31
445.361	475.31
445.582	437.31
445.803	431.31
446.024	412.31
446.245	415.31
446.466	402.31
446.687	400.31
446.908	395.31
447.129	387.31
447.35	404.31
447.571	388.31
447.792	400.31
448.013	375.31
448.234	381.31
448.455	363.31
448.675	387.31
448.896	380.31
449.117	364.31
449.338	360.31
449.559	351.31
449.779	359.31
450	368.31
450.221	348.31
450.442	359.31
450.662	353.31
450.883	378.31
451.104	369.31
451.324	382.31
451.545	381.31
451.766	379.31
451.986	360.31
452.207	371.31
452.428	348.31
452.648	376.31
452.869	357.31
453.089	332.31
453.31	345.31
453.53	351.31
453.751	349.31
453.971	355.31
454.192	371.31
454.412	340.31
454.633	373.31
454.853	373.31
455.073	345.31
455.294	360.31
455.514	351.31
455.734	353.31
455.955	358.31
456.175	360.31
456.395	344.31
456.616	353.31
456.836	341.31
457.056	359.31
457.276	353.31
457.497	359.31
457.717	351.31
457.937	375.31
458.157	362.31
458.377	369.31
458.598	371.31
458.818	384.31
459.038	376.31
459.258	389.31
459.478	390.31
459.698	381.31
459.918	417.31
460.138	437.31
460.358	439.31
460.578	434.31
460.798	419.31
461.018	445.31
461.238	440.31
461.458	451.31
461.678	453.31
461.898	465.31
462.118	472.31
462.338	456.31
462.558	498.31
462.777	479.31
462.997	473.31
463.217	515.31
463.437	515.31
463.657	500.31
463.876	485.31
464.096	473.31
464.316	482.31
464.536	488.31
464.755	457.31
464.975	468.31
465.195	486.31
465.414	415.31
465.634	431.31
465.854	425.31
466.073	409.31
466.293	381.31
466.512	392.31
466.732	387.31
466.951	387.31
467.171	391.31
467.391	369.31
467.61	374.31
467.829	380.31
468.049	386.31
468.268	374.31
468.488	378.31
468.707	363.31
468.927	386.31
469.146	389.31
469.365	393.31
469.585	380.31
469.804	388.31
470.023	379.31
470.243	403.31
470.462	414.31
470.681	403.31
470.901	427.31
471.12	372.31
471.339	401.31
471.558	369.31
471.777	377.31
471.997	364.31
472.216	386.31
472.435	385.31
472.654	373.31
472.873	376.31
473.092	377.31
473.311	369.31
473.53	384.31
473.749	387.31
473.968	407.31
474.187	384.31
474.406	377.31
474.625	388.31
474.844	379.31
475.063	361.31
475.282	393.31
475.501	389.31
475.72	386.31
475.939	383.31
476.158	399.31
476.377	408.31
476.596	391.31
476.814	398.31
477.033	403.31
477.252	424.31
477.471	420.31
477.69	432.31
477.908	408.31
478.127	446.31
478.346	438.31
478.564	444.31
478.783	427.31
479.002	449.31
479.22	449.31
479.439	442.31
479.658	471.31
479.876	452.31
480.095	463.31
480.313	461.31
480.532	469.31
480.751	456.31
480.969	463.31
481.188	459.31
481.406	446.31
481.624	465.31
481.843	455.31
482.061	457.31
482.28	445.31
482.498	455.31
482.717	438.31
482.935	429.31
483.153	459.31
483.372	436.31
483.59	461.31
483.808	444.31
484.027	438.31
484.245	439.31
484.463	452.31
484.681	466.31
484.9	444.31
485.118	437.31
485.336	464.31
485.554	454.31
485.772	455.31
485.99	457.31
486.209	457.31
486.427	460.31
486.645	450.31
486.863	437.31
487.081	437.31
487.299	456.31
487.517	465.31
487.735	461.31
487.953	456.31
488.171	477.31
488.389	462.31
488.607	463.31
488.825	455.31
489.043	461.31
489.261	452.31
489.479	459.31
489.696	474.31
489.914	452.31
490.132	483.31
490.35	479.31
490.568	443.31
490.786	449.31
491.003	468.31
491.221	469.31
491.439	471.31
491.657	459.31
491.874	455.31
492.092	461.31
492.31	444.31
492.527	471.31
492.745	456.31
492.963	451.31
493.18	450.31
493.398	476.31
493.615	449.31
493.833	463.31
494.05	457.31
494.268	450.31
494.485	469.31
494.703	471.31
494.92	479.31
495.138	481.31
495.355	485.31
495.573	505.31
495.79	488.31
496.008	500.31
496.225	476.31
496.442	502.31
496.66	482.31
496.877	506.31
497.094	502.31
497.312	521.31
497.529	531.31
497.746	545.31
497.963	565.31
498.181	571.31
498.398	604.31
498.615	607.31
498.832	607.31
499.049	656.31
499.267	685.31
499.484	711.31
499.701	789.31
499.918	825.31
500.135	876.31
500.352	911.31
500.569	929.31
500.786	916.31
501.003	902.31
501.22	836.31
501.437	781.31
501.654	757.31
501.871	687.31
502.088	651.31
