Data from Fe(NO3)3@0.0125M.TitratingCurve.Agarose3%dH2O.NegLispCup.LampEnergy10.LIBS07252019_HRD10591_17-00-26-337.txt Node
Date: Thu Jul 25 17:00:26 EDT 2019
User: cochatt
Spectrometer: HR+D1059
Trigger mode: 1
Integration Time (sec): 1.000000E-1
Scans to average: 1
Electric dark correction enabled: true
Nonlinearity correction enabled: false
Boxcar width: 0
XAxis mode: Wavelengths
Number of Pixels in Spectrum: 2048
>>>>>Begin Spectral Data<<<<<
223.165	-26.38
223.4	-26.38
223.635	-26.38
223.869	-16.38
224.104	-18.38
224.338	-9.38
224.573	-5.38
224.808	-18.38
225.042	-2.38
225.277	-4.38
225.511	-17.38
225.746	2.62
225.98	7.62
226.215	14.62
226.449	8.62
226.683	21.62
226.918	25.62
227.152	37.62
227.387	25.62
227.621	39.62
227.856	41.62
228.09	38.62
228.324	47.62
228.559	49.62
228.793	62.62
229.027	70.62
229.262	75.62
229.496	59.62
229.73	49.62
229.964	86.62
230.199	76.62
230.433	94.62
230.667	83.62
230.901	83.62
231.136	96.62
231.37	76.62
231.604	85.62
231.838	91.62
232.072	99.62
232.306	88.62
232.541	101.62
232.775	93.62
233.009	101.62
233.243	99.62
233.477	90.62
233.711	91.62
233.945	99.62
234.179	105.62
234.413	105.62
234.647	93.62
234.881	98.62
235.115	94.62
235.349	113.62
235.583	86.62
235.817	98.62
236.051	95.62
236.285	103.62
236.519	103.62
236.753	109.62
236.987	113.62
237.221	87.62
237.455	106.62
237.689	93.62
237.922	109.62
238.156	87.62
238.39	87.62
238.624	95.62
238.858	101.62
239.091	106.62
239.325	102.62
239.559	91.62
239.793	109.62
240.027	121.62
240.26	99.62
240.494	97.62
240.728	97.62
240.961	115.62
241.195	103.62
241.429	111.62
241.662	107.62
241.896	110.62
242.13	109.62
242.363	104.62
242.597	100.62
242.83	100.62
243.064	113.62
243.298	111.62
243.531	122.62
243.765	115.62
243.998	124.62
244.232	111.62
244.465	112.62
244.699	110.62
244.932	115.62
245.166	111.62
245.399	125.62
245.633	106.62
245.866	119.62
246.099	119.62
246.333	120.62
246.566	121.62
246.8	120.62
247.033	126.62
247.266	126.62
247.5	121.62
247.733	113.62
247.966	114.62
248.2	123.62
248.433	123.62
248.666	139.62
248.899	130.62
249.133	132.62
249.366	125.62
249.599	126.62
249.832	131.62
250.066	125.62
250.299	126.62
250.532	125.62
250.765	119.62
250.998	124.62
251.231	122.62
251.465	146.62
251.698	113.62
251.931	120.62
252.164	140.62
252.397	139.62
252.63	135.62
252.863	131.62
253.096	135.62
253.329	125.62
253.562	140.62
253.795	152.62
254.028	144.62
254.261	154.62
254.494	137.62
254.727	129.62
254.96	149.62
255.193	139.62
255.426	123.62
255.659	138.62
255.892	154.62
256.124	138.62
256.357	144.62
256.59	141.62
256.823	133.62
257.056	139.62
257.289	140.62
257.521	145.62
257.754	137.62
257.987	138.62
258.22	150.62
258.452	157.62
258.685	154.62
258.918	143.62
259.151	144.62
259.383	154.62
259.616	142.62
259.849	148.62
260.081	158.62
260.314	180.62
260.547	163.62
260.779	148.62
261.012	145.62
261.244	140.62
261.477	176.62
261.71	149.62
261.942	154.62
262.175	152.62
262.407	143.62
262.64	167.62
262.872	157.62
263.105	168.62
263.337	160.62
263.57	165.62
263.802	151.62
264.035	148.62
264.267	161.62
264.499	169.62
264.732	155.62
264.964	150.62
265.197	145.62
265.429	165.62
265.661	168.62
265.894	168.62
266.126	152.62
266.358	155.62
266.591	160.62
266.823	167.62
267.055	157.62
267.287	164.62
267.52	177.62
267.752	168.62
267.984	162.62
268.216	147.62
268.448	171.62
268.681	160.62
268.913	166.62
269.145	184.62
269.377	177.62
269.609	158.62
269.841	156.62
270.073	169.62
270.306	158.62
270.538	170.62
270.77	176.62
271.002	175.62
271.234	169.62
271.466	164.62
271.698	178.62
271.93	166.62
272.162	160.62
272.394	187.62
272.626	183.62
272.858	186.62
273.09	198.62
273.322	177.62
273.553	163.62
273.785	191.62
274.017	199.62
274.249	194.62
274.481	179.62
274.713	194.62
274.945	216.62
275.176	207.62
275.408	208.62
275.64	210.62
275.872	209.62
276.104	194.62
276.335	177.62
276.567	180.62
276.799	183.62
277.031	208.62
277.262	184.62
277.494	188.62
277.726	184.62
277.957	191.62
278.189	199.62
278.421	193.62
278.652	197.62
278.884	190.62
279.115	191.62
279.347	191.62
279.579	200.62
279.81	193.62
280.042	184.62
280.273	193.62
280.505	185.62
280.736	210.62
280.968	219.62
281.199	200.62
281.431	187.62
281.662	210.62
281.894	199.62
282.125	205.62
282.356	203.62
282.588	209.62
282.819	199.62
283.051	205.62
283.282	204.62
283.513	209.62
283.745	194.62
283.976	207.62
284.207	207.62
284.439	209.62
284.67	215.62
284.901	206.62
285.132	214.62
285.364	223.62
285.595	208.62
285.826	211.62
286.057	198.62
286.288	214.62
286.52	212.62
286.751	215.62
286.982	214.62
287.213	220.62
287.444	196.62
287.675	228.62
287.906	219.62
288.138	216.62
288.369	226.62
288.6	216.62
288.831	221.62
289.062	234.62
289.293	233.62
289.524	218.62
289.755	216.62
289.986	205.62
290.217	215.62
290.448	213.62
290.679	209.62
290.91	215.62
291.141	234.62
291.371	242.62
291.602	228.62
291.833	229.62
292.064	237.62
292.295	242.62
292.526	231.62
292.757	216.62
292.987	217.62
293.218	227.62
293.449	232.62
293.68	253.62
293.91	238.62
294.141	232.62
294.372	221.62
294.603	215.62
294.833	211.62
295.064	238.62
295.295	251.62
295.525	249.62
295.756	226.62
295.987	234.62
296.217	238.62
296.448	242.62
296.679	242.62
296.909	241.62
297.14	238.62
297.37	242.62
297.601	232.62
297.831	237.62
298.062	245.62
298.292	240.62
298.523	247.62
298.753	243.62
298.984	259.62
299.214	266.62
299.445	240.62
299.675	245.62
299.905	242.62
300.136	242.62
300.366	224.62
300.597	246.62
300.827	254.62
301.057	262.62
301.288	257.62
301.518	248.62
301.748	252.62
301.979	252.62
302.209	269.62
302.439	267.62
302.669	268.62
302.9	243.62
303.13	274.62
303.36	287.62
303.59	261.62
303.82	249.62
304.051	253.62
304.281	256.62
304.511	261.62
304.741	257.62
304.971	273.62
305.201	267.62
305.431	266.62
305.661	252.62
305.891	255.62
306.121	261.62
306.352	264.62
306.582	274.62
306.812	262.62
307.042	259.62
307.272	265.62
307.502	262.62
307.731	254.62
307.961	258.62
308.191	270.62
308.421	266.62
308.651	264.62
308.881	266.62
309.111	276.62
309.341	280.62
309.571	256.62
309.8	270.62
310.03	265.62
310.26	271.62
310.49	275.62
310.72	264.62
310.949	274.62
311.179	291.62
311.409	280.62
311.639	269.62
311.868	282.62
312.098	289.62
312.328	268.62
312.557	307.62
312.787	281.62
313.017	287.62
313.246	288.62
313.476	291.62
313.706	292.62
313.935	290.62
314.165	293.62
314.394	293.62
314.624	288.62
314.853	287.62
315.083	275.62
315.312	278.62
315.542	284.62
315.771	295.62
316.001	271.62
316.23	307.62
316.46	289.62
316.689	278.62
316.919	308.62
317.148	284.62
317.377	296.62
317.607	297.62
317.836	294.62
318.065	280.62
318.295	296.62
318.524	304.62
318.753	287.62
318.983	299.62
319.212	301.62
319.441	313.62
319.67	294.62
319.9	299.62
320.129	292.62
320.358	296.62
320.587	303.62
320.816	295.62
321.046	300.62
321.275	290.62
321.504	301.62
321.733	305.62
321.962	311.62
322.191	297.62
322.42	304.62
322.649	305.62
322.878	302.62
323.108	296.62
323.337	308.62
323.566	313.62
323.795	311.62
324.024	330.62
324.253	312.62
324.482	310.62
324.71	310.62
324.939	313.62
325.168	305.62
325.397	305.62
325.626	305.62
325.855	315.62
326.084	323.62
326.313	327.62
326.542	312.62
326.77	318.62
326.999	325.62
327.228	315.62
327.457	322.62
327.686	319.62
327.914	322.62
328.143	324.62
328.372	311.62
328.6	324.62
328.829	317.62
329.058	306.62
329.287	330.62
329.515	331.62
329.744	324.62
329.972	329.62
330.201	343.62
330.43	311.62
330.658	338.62
330.887	331.62
331.115	332.62
331.344	342.62
331.572	350.62
331.801	329.62
332.03	302.62
332.258	326.62
332.486	337.62
332.715	332.62
332.943	352.62
333.172	350.62
333.4	340.62
333.629	353.62
333.857	361.62
334.085	371.62
334.314	362.62
334.542	370.62
334.771	337.62
334.999	362.62
335.227	352.62
335.455	358.62
335.684	350.62
335.912	358.62
336.14	354.62
336.369	341.62
336.597	354.62
336.825	368.62
337.053	369.62
337.281	362.62
337.51	352.62
337.738	350.62
337.966	339.62
338.194	341.62
338.422	340.62
338.65	376.62
338.878	343.62
339.106	347.62
339.334	357.62
339.562	345.62
339.79	339.62
340.018	355.62
340.246	353.62
340.474	339.62
340.702	355.62
340.93	330.62
341.158	336.62
341.386	367.62
341.614	347.62
341.842	353.62
342.07	344.62
342.298	345.62
342.526	333.62
342.754	363.62
342.981	348.62
343.209	350.62
343.437	366.62
343.665	359.62
343.893	345.62
344.12	387.62
344.348	387.62
344.576	360.62
344.804	350.62
345.031	348.62
345.259	352.62
345.487	346.62
345.714	331.62
345.942	341.62
346.17	348.62
346.397	362.62
346.625	355.62
346.853	351.62
347.08	347.62
347.308	360.62
347.535	356.62
347.763	345.62
347.99	342.62
348.218	333.62
348.445	342.62
348.673	327.62
348.9	318.62
349.128	355.62
349.355	346.62
349.583	333.62
349.81	343.62
350.037	339.62
350.265	347.62
350.492	338.62
350.72	345.62
350.947	339.62
351.174	339.62
351.402	337.62
351.629	354.62
351.856	341.62
352.083	354.62
352.311	337.62
352.538	350.62
352.765	335.62
352.992	323.62
353.22	327.62
353.447	352.62
353.674	334.62
353.901	340.62
354.128	314.62
354.355	322.62
354.583	338.62
354.81	342.62
355.037	373.62
355.264	347.62
355.491	331.62
355.718	358.62
355.945	342.62
356.172	346.62
356.399	358.62
356.626	349.62
356.853	347.62
357.08	342.62
357.307	347.62
357.534	351.62
357.761	359.62
357.988	351.62
358.215	362.62
358.441	363.62
358.668	349.62
358.895	339.62
359.122	337.62
359.349	334.62
359.576	337.62
359.802	331.62
360.029	337.62
360.256	356.62
360.483	351.62
360.709	340.62
360.936	354.62
361.163	341.62
361.39	346.62
361.616	344.62
361.843	358.62
362.07	357.62
362.296	354.62
362.523	356.62
362.749	357.62
362.976	353.62
363.203	357.62
363.429	355.62
363.656	360.62
363.882	354.62
364.109	341.62
364.335	365.62
364.562	352.62
364.788	354.62
365.015	351.62
365.241	362.62
365.468	353.62
365.694	337.62
365.92	366.62
366.147	363.62
366.373	335.62
366.599	343.62
366.826	357.62
367.052	354.62
367.278	357.62
367.505	369.62
367.731	370.62
367.957	376.62
368.184	347.62
368.41	361.62
368.636	387.62
368.862	375.62
369.089	368.62
369.315	371.62
369.541	382.62
369.767	377.62
369.993	358.62
370.219	368.62
370.445	362.62
370.672	389.62
370.898	367.62
371.124	355.62
371.35	373.62
371.576	378.62
371.802	371.62
372.028	393.62
372.254	385.62
372.48	394.62
372.706	389.62
372.932	379.62
373.158	390.62
373.384	393.62
373.61	395.62
373.835	409.62
374.061	381.62
374.287	382.62
374.513	377.62
374.739	379.62
374.965	418.62
375.191	399.62
375.416	362.62
375.642	375.62
375.868	392.62
376.094	394.62
376.319	387.62
376.545	375.62
376.771	385.62
376.997	381.62
377.222	377.62
377.448	392.62
377.674	376.62
377.899	374.62
378.125	376.62
378.35	395.62
378.576	366.62
378.802	391.62
379.027	389.62
379.253	379.62
379.478	370.62
379.704	363.62
379.929	375.62
380.155	376.62
380.38	379.62
380.606	383.62
380.831	386.62
381.057	399.62
381.282	390.62
381.507	380.62
381.733	391.62
381.958	394.62
382.184	398.62
382.409	403.62
382.634	415.62
382.86	400.62
383.085	376.62
383.31	393.62
383.535	388.62
383.761	395.62
383.986	415.62
384.211	414.62
384.436	413.62
384.662	404.62
384.887	419.62
385.112	389.62
385.337	408.62
385.562	421.62
385.787	397.62
386.013	406.62
386.238	434.62
386.463	427.62
386.688	425.62
386.913	405.62
387.138	404.62
387.363	434.62
387.588	416.62
387.813	422.62
388.038	415.62
388.263	429.62
388.488	415.62
388.713	410.62
388.938	421.62
389.163	382.62
389.387	419.62
389.612	434.62
389.837	405.62
390.062	426.62
390.287	439.62
390.512	430.62
390.736	424.62
390.961	441.62
391.186	449.62
391.411	441.62
391.636	433.62
391.86	436.62
392.085	437.62
392.31	438.62
392.534	447.62
392.759	456.62
392.984	455.62
393.208	468.62
393.433	481.62
393.658	474.62
393.882	443.62
394.107	453.62
394.331	441.62
394.556	449.62
394.78	432.62
395.005	458.62
395.229	433.62
395.454	475.62
395.678	427.62
395.903	447.62
396.127	474.62
396.352	430.62
396.576	441.62
396.801	462.62
397.025	500.62
397.249	469.62
397.474	483.62
397.698	465.62
397.922	490.62
398.147	441.62
398.371	462.62
398.595	493.62
398.82	497.62
399.044	505.62
399.268	516.62
399.492	520.62
399.717	542.62
399.941	550.62
400.165	549.62
400.389	525.62
400.613	508.62
400.837	513.62
401.062	499.62
401.286	495.62
401.51	494.62
401.734	471.62
401.958	494.62
402.182	495.62
402.406	505.62
402.63	500.62
402.854	488.62
403.078	483.62
403.302	494.62
403.526	506.62
403.75	489.62
403.974	501.62
404.198	501.62
404.422	515.62
404.645	507.62
404.869	525.62
405.093	486.62
405.317	501.62
405.541	511.62
405.765	519.62
405.988	507.62
406.212	532.62
406.436	540.62
406.66	516.62
406.883	522.62
407.107	514.62
407.331	550.62
407.555	547.62
407.778	543.62
408.002	535.62
408.226	541.62
408.449	569.62
408.673	535.62
408.896	506.62
409.12	529.62
409.344	518.62
409.567	534.62
409.791	520.62
410.014	533.62
410.238	507.62
410.461	510.62
410.685	505.62
410.908	501.62
411.132	523.62
411.355	488.62
411.578	527.62
411.802	511.62
412.025	519.62
412.249	506.62
412.472	501.62
412.695	510.62
412.919	501.62
413.142	504.62
413.365	507.62
413.589	507.62
413.812	473.62
414.035	479.62
414.258	486.62
414.482	490.62
414.705	490.62
414.928	510.62
415.151	495.62
415.374	488.62
415.597	490.62
415.821	489.62
416.044	479.62
416.267	468.62
416.49	493.62
416.713	489.62
416.936	501.62
417.159	490.62
417.382	485.62
417.605	482.62
417.828	486.62
418.051	480.62
418.274	502.62
418.497	471.62
418.72	478.62
418.943	466.62
419.166	502.62
419.389	517.62
419.611	490.62
419.834	496.62
420.057	481.62
420.28	485.62
420.503	466.62
420.726	494.62
420.948	474.62
421.171	479.62
421.394	463.62
421.617	479.62
421.839	482.62
422.062	478.62
422.285	476.62
422.507	487.62
422.73	467.62
422.953	489.62
423.175	483.62
423.398	465.62
423.621	459.62
423.843	457.62
424.066	475.62
424.288	471.62
424.511	469.62
424.733	482.62
424.956	472.62
425.178	465.62
425.401	480.62
425.623	475.62
425.846	465.62
426.068	468.62
426.291	466.62
426.513	482.62
426.735	470.62
426.958	474.62
427.18	471.62
427.402	471.62
427.625	474.62
427.847	489.62
428.069	462.62
428.292	458.62
428.514	472.62
428.736	458.62
428.958	482.62
429.181	469.62
429.403	477.62
429.625	472.62
429.847	459.62
430.069	462.62
430.292	476.62
430.514	465.62
430.736	469.62
430.958	480.62
431.18	472.62
431.402	465.62
431.624	452.62
431.846	470.62
432.068	436.62
432.29	459.62
432.512	449.62
432.734	457.62
432.956	459.62
433.178	456.62
433.4	470.62
433.622	473.62
433.844	470.62
434.066	465.62
434.287	454.62
434.509	458.62
434.731	471.62
434.953	467.62
435.175	467.62
435.397	495.62
435.618	475.62
435.84	481.62
436.062	465.62
436.284	477.62
436.505	465.62
436.727	462.62
436.949	470.62
437.17	461.62
437.392	469.62
437.614	465.62
437.835	463.62
438.057	463.62
438.278	477.62
438.5	470.62
438.721	465.62
438.943	448.62
439.165	457.62
439.386	469.62
439.608	442.62
439.829	459.62
440.05	467.62
440.272	485.62
440.493	481.62
440.715	468.62
440.936	479.62
441.158	489.62
441.379	495.62
441.6	477.62
441.822	478.62
442.043	480.62
442.264	477.62
442.486	476.62
442.707	472.62
442.928	477.62
443.149	474.62
443.371	480.62
443.592	456.62
443.813	468.62
444.034	469.62
444.255	482.62
444.476	475.62
444.698	481.62
444.919	476.62
445.14	565.62
445.361	540.62
445.582	491.62
445.803	484.62
446.024	486.62
446.245	459.62
446.466	461.62
446.687	454.62
446.908	466.62
447.129	464.62
447.35	450.62
447.571	453.62
447.792	421.62
448.013	436.62
448.234	446.62
448.455	456.62
448.675	442.62
448.896	444.62
449.117	426.62
449.338	477.62
449.559	435.62
449.779	437.62
450	456.62
450.221	419.62
450.442	443.62
450.662	453.62
450.883	427.62
451.104	441.62
451.324	441.62
451.545	429.62
451.766	445.62
451.986	438.62
452.207	431.62
452.428	447.62
452.648	442.62
452.869	422.62
453.089	429.62
453.31	441.62
453.53	442.62
453.751	453.62
453.971	423.62
454.192	424.62
454.412	427.62
454.633	427.62
454.853	438.62
455.073	421.62
455.294	441.62
455.514	423.62
455.734	400.62
455.955	439.62
456.175	423.62
456.395	436.62
456.616	426.62
456.836	429.62
457.056	423.62
457.276	427.62
457.497	439.62
457.717	439.62
457.937	415.62
458.157	429.62
458.377	431.62
458.598	461.62
458.818	470.62
459.038	427.62
459.258	459.62
459.478	473.62
459.698	458.62
459.918	470.62
460.138	479.62
460.358	491.62
460.578	494.62
460.798	491.62
461.018	503.62
461.238	512.62
461.458	509.62
461.678	477.62
461.898	503.62
462.118	524.62
462.338	518.62
462.558	518.62
462.777	518.62
462.997	511.62
463.217	544.62
463.437	555.62
463.657	551.62
463.876	550.62
464.096	537.62
464.316	517.62
464.536	526.62
464.755	494.62
464.975	534.62
465.195	488.62
465.414	494.62
465.634	511.62
465.854	496.62
466.073	486.62
466.293	478.62
466.512	479.62
466.732	482.62
466.951	462.62
467.171	461.62
467.391	456.62
467.61	472.62
467.829	477.62
468.049	479.62
468.268	471.62
468.488	461.62
468.707	457.62
468.927	445.62
469.146	473.62
469.365	468.62
469.585	474.62
469.804	471.62
470.023	475.62
470.243	474.62
470.462	478.62
470.681	467.62
470.901	474.62
471.12	474.62
471.339	480.62
471.558	481.62
471.777	469.62
471.997	468.62
472.216	494.62
472.435	464.62
472.654	480.62
472.873	469.62
473.092	495.62
473.311	473.62
473.53	487.62
473.749	494.62
473.968	474.62
474.187	474.62
474.406	497.62
474.625	496.62
474.844	490.62
475.063	493.62
475.282	466.62
475.501	485.62
475.72	489.62
475.939	492.62
476.158	500.62
476.377	512.62
476.596	502.62
476.814	515.62
477.033	529.62
477.252	512.62
477.471	521.62
477.69	536.62
477.908	509.62
478.127	551.62
478.346	532.62
478.564	546.62
478.783	534.62
479.002	570.62
479.22	548.62
479.439	563.62
479.658	561.62
479.876	597.62
480.095	575.62
480.313	564.62
480.532	575.62
480.751	526.62
480.969	570.62
481.188	563.62
481.406	543.62
481.624	594.62
481.843	565.62
482.061	557.62
482.28	551.62
482.498	553.62
482.717	574.62
482.935	583.62
483.153	575.62
483.372	583.62
483.59	577.62
483.808	573.62
484.027	582.62
484.245	576.62
484.463	589.62
484.681	583.62
484.9	599.62
485.118	574.62
485.336	578.62
485.554	569.62
485.772	576.62
485.99	604.62
486.209	588.62
486.427	583.62
486.645	587.62
486.863	586.62
487.081	604.62
487.299	608.62
487.517	587.62
487.735	566.62
487.953	579.62
488.171	597.62
488.389	593.62
488.607	618.62
488.825	603.62
489.043	587.62
489.261	577.62
489.479	602.62
489.696	592.62
489.914	586.62
490.132	590.62
490.35	582.62
490.568	581.62
490.786	598.62
491.003	603.62
491.221	610.62
491.439	595.62
491.657	607.62
491.874	610.62
492.092	631.62
492.31	627.62
492.527	597.62
492.745	631.62
492.963	611.62
493.18	617.62
493.398	618.62
493.615	633.62
493.833	620.62
494.05	614.62
494.268	617.62
494.485	610.62
494.703	623.62
494.92	618.62
495.138	643.62
495.355	629.62
495.573	634.62
495.79	627.62
496.008	629.62
496.225	643.62
496.442	660.62
496.66	655.62
496.877	657.62
497.094	683.62
497.312	661.62
497.529	657.62
497.746	673.62
497.963	680.62
498.181	725.62
498.398	705.62
498.615	736.62
498.832	766.62
499.049	747.62
499.267	775.62
499.484	790.62
499.701	817.62
499.918	837.62
500.135	843.62
500.352	869.62
500.569	899.62
500.786	891.62
501.003	881.62
501.22	874.62
501.437	850.62
501.654	820.62
501.871	797.62
502.088	776.62
