Data from Fe(NO3)3@0.025M.TitratingCurve.Agarose3%dH2O.NegLispCup.LampEnergy10.LIBS07252019_HRD10591_16-56-37-337.txt Node
Date: Thu Jul 25 16:56:37 EDT 2019
User: cochatt
Spectrometer: HR+D1059
Trigger mode: 1
Integration Time (sec): 1.000000E-1
Scans to average: 1
Electric dark correction enabled: true
Nonlinearity correction enabled: false
Boxcar width: 0
XAxis mode: Wavelengths
Number of Pixels in Spectrum: 2048
>>>>>Begin Spectral Data<<<<<
223.165	-20.5
223.4	-20.5
223.635	-20.5
223.869	-13.5
224.104	-9.5
224.338	-15.5
224.573	-14.5
224.808	-19.5
225.042	-12.5
225.277	-11.5
225.511	9.5
225.746	-1.5
225.98	6.5
226.215	10.5
226.449	12.5
226.683	15.5
226.918	25.5
227.152	38.5
227.387	35.5
227.621	32.5
227.856	43.5
228.09	53.5
228.324	59.5
228.559	41.5
228.793	69.5
229.027	65.5
229.262	82.5
229.496	78.5
229.73	79.5
229.964	75.5
230.199	74.5
230.433	92.5
230.667	82.5
230.901	102.5
231.136	93.5
231.37	94.5
231.604	102.5
231.838	100.5
232.072	86.5
232.306	100.5
232.541	107.5
232.775	101.5
233.009	86.5
233.243	92.5
233.477	97.5
233.711	95.5
233.945	101.5
234.179	94.5
234.413	82.5
234.647	101.5
234.881	92.5
235.115	98.5
235.349	100.5
235.583	98.5
235.817	93.5
236.051	86.5
236.285	100.5
236.519	92.5
236.753	97.5
236.987	93.5
237.221	96.5
237.455	98.5
237.689	81.5
237.922	90.5
238.156	93.5
238.39	97.5
238.624	86.5
238.858	102.5
239.091	90.5
239.325	104.5
239.559	91.5
239.793	88.5
240.027	88.5
240.26	85.5
240.494	85.5
240.728	103.5
240.961	91.5
241.195	89.5
241.429	109.5
241.662	101.5
241.896	103.5
242.13	104.5
242.363	114.5
242.597	107.5
242.83	104.5
243.064	101.5
243.298	92.5
243.531	89.5
243.765	93.5
243.998	109.5
244.232	103.5
244.465	105.5
244.699	110.5
244.932	91.5
245.166	98.5
245.399	96.5
245.633	110.5
245.866	110.5
246.099	103.5
246.333	102.5
246.566	97.5
246.8	113.5
247.033	114.5
247.266	97.5
247.5	112.5
247.733	90.5
247.966	103.5
248.2	105.5
248.433	122.5
248.666	101.5
248.899	99.5
249.133	95.5
249.366	121.5
249.599	120.5
249.832	116.5
250.066	108.5
250.299	114.5
250.532	114.5
250.765	117.5
250.998	109.5
251.231	115.5
251.465	118.5
251.698	117.5
251.931	105.5
252.164	107.5
252.397	118.5
252.63	115.5
252.863	112.5
253.096	124.5
253.329	109.5
253.562	125.5
253.795	134.5
254.028	124.5
254.261	109.5
254.494	123.5
254.727	117.5
254.96	122.5
255.193	134.5
255.426	126.5
255.659	106.5
255.892	122.5
256.124	129.5
256.357	114.5
256.59	124.5
256.823	116.5
257.056	121.5
257.289	130.5
257.521	128.5
257.754	112.5
257.987	113.5
258.22	136.5
258.452	129.5
258.685	119.5
258.918	123.5
259.151	130.5
259.383	101.5
259.616	142.5
259.849	128.5
260.081	134.5
260.314	134.5
260.547	127.5
260.779	122.5
261.012	126.5
261.244	121.5
261.477	129.5
261.71	130.5
261.942	142.5
262.175	143.5
262.407	134.5
262.64	146.5
262.872	129.5
263.105	127.5
263.337	133.5
263.57	122.5
263.802	125.5
264.035	130.5
264.267	134.5
264.499	134.5
264.732	129.5
264.964	135.5
265.197	129.5
265.429	138.5
265.661	137.5
265.894	139.5
266.126	149.5
266.358	137.5
266.591	138.5
266.823	160.5
267.055	144.5
267.287	139.5
267.52	136.5
267.752	151.5
267.984	142.5
268.216	149.5
268.448	144.5
268.681	147.5
268.913	155.5
269.145	145.5
269.377	158.5
269.609	138.5
269.841	142.5
270.073	141.5
270.306	157.5
270.538	154.5
270.77	150.5
271.002	149.5
271.234	145.5
271.466	137.5
271.698	154.5
271.93	146.5
272.162	155.5
272.394	136.5
272.626	145.5
272.858	156.5
273.09	146.5
273.322	154.5
273.553	147.5
273.785	150.5
274.017	158.5
274.249	167.5
274.481	136.5
274.713	154.5
274.945	148.5
275.176	156.5
275.408	148.5
275.64	125.5
275.872	154.5
276.104	162.5
276.335	165.5
276.567	142.5
276.799	172.5
277.031	161.5
277.262	168.5
277.494	165.5
277.726	164.5
277.957	173.5
278.189	160.5
278.421	165.5
278.652	154.5
278.884	163.5
279.115	164.5
279.347	166.5
279.579	166.5
279.81	151.5
280.042	157.5
280.273	158.5
280.505	182.5
280.736	164.5
280.968	180.5
281.199	157.5
281.431	157.5
281.662	180.5
281.894	169.5
282.125	167.5
282.356	178.5
282.588	168.5
282.819	160.5
283.051	155.5
283.282	172.5
283.513	176.5
283.745	170.5
283.976	178.5
284.207	176.5
284.439	178.5
284.67	177.5
284.901	181.5
285.132	169.5
285.364	178.5
285.595	180.5
285.826	184.5
286.057	167.5
286.288	193.5
286.52	170.5
286.751	187.5
286.982	179.5
287.213	176.5
287.444	206.5
287.675	189.5
287.906	189.5
288.138	184.5
288.369	160.5
288.6	175.5
288.831	193.5
289.062	176.5
289.293	199.5
289.524	189.5
289.755	185.5
289.986	186.5
290.217	173.5
290.448	185.5
290.679	200.5
290.91	185.5
291.141	194.5
291.371	177.5
291.602	174.5
291.833	184.5
292.064	207.5
292.295	184.5
292.526	186.5
292.757	179.5
292.987	195.5
293.218	187.5
293.449	173.5
293.68	178.5
293.91	188.5
294.141	196.5
294.372	176.5
294.603	191.5
294.833	169.5
295.064	201.5
295.295	192.5
295.525	186.5
295.756	185.5
295.987	209.5
296.217	195.5
296.448	193.5
296.679	196.5
296.909	195.5
297.14	194.5
297.37	208.5
297.601	203.5
297.831	194.5
298.062	204.5
298.292	206.5
298.523	196.5
298.753	190.5
298.984	204.5
299.214	197.5
299.445	196.5
299.675	199.5
299.905	200.5
300.136	205.5
300.366	193.5
300.597	198.5
300.827	213.5
301.057	204.5
301.288	193.5
301.518	200.5
301.748	227.5
301.979	206.5
302.209	221.5
302.439	212.5
302.669	200.5
302.9	197.5
303.13	205.5
303.36	200.5
303.59	206.5
303.82	214.5
304.051	215.5
304.281	215.5
304.511	219.5
304.741	201.5
304.971	204.5
305.201	198.5
305.431	235.5
305.661	205.5
305.891	209.5
306.121	200.5
306.352	218.5
306.582	203.5
306.812	197.5
307.042	214.5
307.272	216.5
307.502	216.5
307.731	201.5
307.961	218.5
308.191	200.5
308.421	209.5
308.651	215.5
308.881	204.5
309.111	196.5
309.341	201.5
309.571	216.5
309.8	208.5
310.03	221.5
310.26	222.5
310.49	220.5
310.72	225.5
310.949	218.5
311.179	232.5
311.409	217.5
311.639	213.5
311.868	224.5
312.098	214.5
312.328	213.5
312.557	237.5
312.787	217.5
313.017	215.5
313.246	217.5
313.476	233.5
313.706	217.5
313.935	217.5
314.165	228.5
314.394	243.5
314.624	225.5
314.853	234.5
315.083	211.5
315.312	249.5
315.542	235.5
315.771	239.5
316.001	232.5
316.23	244.5
316.46	224.5
316.689	225.5
316.919	235.5
317.148	224.5
317.377	224.5
317.607	237.5
317.836	229.5
318.065	235.5
318.295	249.5
318.524	234.5
318.753	196.5
318.983	242.5
319.212	219.5
319.441	219.5
319.67	223.5
319.9	221.5
320.129	229.5
320.358	232.5
320.587	229.5
320.816	222.5
321.046	241.5
321.275	240.5
321.504	245.5
321.733	230.5
321.962	246.5
322.191	249.5
322.42	230.5
322.649	225.5
322.878	237.5
323.108	249.5
323.337	241.5
323.566	244.5
323.795	253.5
324.024	237.5
324.253	246.5
324.482	242.5
324.71	234.5
324.939	239.5
325.168	258.5
325.397	234.5
325.626	216.5
325.855	253.5
326.084	238.5
326.313	249.5
326.542	242.5
326.77	269.5
326.999	242.5
327.228	244.5
327.457	243.5
327.686	253.5
327.914	248.5
328.143	254.5
328.372	261.5
328.6	235.5
328.829	246.5
329.058	248.5
329.287	241.5
329.515	236.5
329.744	249.5
329.972	261.5
330.201	247.5
330.43	242.5
330.658	274.5
330.887	257.5
331.115	254.5
331.344	261.5
331.572	275.5
331.801	269.5
332.03	261.5
332.258	282.5
332.486	267.5
332.715	268.5
332.943	277.5
333.172	298.5
333.4	270.5
333.629	275.5
333.857	299.5
334.085	280.5
334.314	292.5
334.542	298.5
334.771	296.5
334.999	278.5
335.227	307.5
335.455	287.5
335.684	296.5
335.912	291.5
336.14	281.5
336.369	301.5
336.597	280.5
336.825	285.5
337.053	273.5
337.281	287.5
337.51	266.5
337.738	278.5
337.966	269.5
338.194	285.5
338.422	288.5
338.65	294.5
338.878	266.5
339.106	275.5
339.334	278.5
339.562	282.5
339.79	251.5
340.018	258.5
340.246	268.5
340.474	280.5
340.702	264.5
340.93	266.5
341.158	246.5
341.386	260.5
341.614	291.5
341.842	261.5
342.07	248.5
342.298	270.5
342.526	271.5
342.754	260.5
342.981	280.5
343.209	267.5
343.437	296.5
343.665	298.5
343.893	290.5
344.12	308.5
344.348	306.5
344.576	267.5
344.804	264.5
345.031	280.5
345.259	279.5
345.487	260.5
345.714	284.5
345.942	255.5
346.17	276.5
346.397	266.5
346.625	249.5
346.853	254.5
347.08	238.5
347.308	256.5
347.535	264.5
347.763	249.5
347.99	251.5
348.218	249.5
348.445	264.5
348.673	286.5
348.9	262.5
349.128	264.5
349.355	260.5
349.583	264.5
349.81	265.5
350.037	255.5
350.265	261.5
350.492	260.5
350.72	241.5
350.947	256.5
351.174	242.5
351.402	247.5
351.629	270.5
351.856	250.5
352.083	261.5
352.311	255.5
352.538	256.5
352.765	259.5
352.992	261.5
353.22	235.5
353.447	248.5
353.674	262.5
353.901	270.5
354.128	260.5
354.355	267.5
354.583	261.5
354.81	252.5
355.037	258.5
355.264	248.5
355.491	269.5
355.718	242.5
355.945	255.5
356.172	265.5
356.399	259.5
356.626	252.5
356.853	275.5
357.08	254.5
357.307	251.5
357.534	257.5
357.761	245.5
357.988	251.5
358.215	276.5
358.441	273.5
358.668	264.5
358.895	258.5
359.122	263.5
359.349	270.5
359.576	248.5
359.802	260.5
360.029	260.5
360.256	270.5
360.483	248.5
360.709	263.5
360.936	295.5
361.163	273.5
361.39	264.5
361.616	269.5
361.843	270.5
362.07	283.5
362.296	261.5
362.523	265.5
362.749	265.5
362.976	266.5
363.203	271.5
363.429	276.5
363.656	251.5
363.882	259.5
364.109	261.5
364.335	281.5
364.562	269.5
364.788	272.5
365.015	252.5
365.241	244.5
365.468	261.5
365.694	260.5
365.92	266.5
366.147	263.5
366.373	268.5
366.599	263.5
366.826	268.5
367.052	256.5
367.278	263.5
367.505	260.5
367.731	288.5
367.957	283.5
368.184	292.5
368.41	260.5
368.636	271.5
368.862	273.5
369.089	278.5
369.315	265.5
369.541	285.5
369.767	271.5
369.993	277.5
370.219	272.5
370.445	275.5
370.672	274.5
370.898	271.5
371.124	268.5
371.35	262.5
371.576	280.5
371.802	272.5
372.028	285.5
372.254	278.5
372.48	271.5
372.706	285.5
372.932	289.5
373.158	279.5
373.384	285.5
373.61	294.5
373.835	296.5
374.061	310.5
374.287	295.5
374.513	294.5
374.739	275.5
374.965	278.5
375.191	307.5
375.416	274.5
375.642	282.5
375.868	300.5
376.094	287.5
376.319	277.5
376.545	288.5
376.771	283.5
376.997	269.5
377.222	277.5
377.448	281.5
377.674	274.5
377.899	294.5
378.125	260.5
378.35	280.5
378.576	278.5
378.802	286.5
379.027	276.5
379.253	282.5
379.478	265.5
379.704	274.5
379.929	272.5
380.155	275.5
380.38	300.5
380.606	294.5
380.831	276.5
381.057	281.5
381.282	292.5
381.507	285.5
381.733	297.5
381.958	308.5
382.184	268.5
382.409	293.5
382.634	288.5
382.86	289.5
383.085	273.5
383.31	283.5
383.535	289.5
383.761	300.5
383.986	314.5
384.211	310.5
384.436	303.5
384.662	304.5
384.887	306.5
385.112	307.5
385.337	321.5
385.562	312.5
385.787	308.5
386.013	332.5
386.238	308.5
386.463	309.5
386.688	312.5
386.913	306.5
387.138	305.5
387.363	319.5
387.588	314.5
387.813	317.5
388.038	314.5
388.263	322.5
388.488	325.5
388.713	339.5
388.938	318.5
389.163	318.5
389.387	317.5
389.612	311.5
389.837	320.5
390.062	318.5
390.287	304.5
390.512	326.5
390.736	322.5
390.961	323.5
391.186	317.5
391.411	328.5
391.636	324.5
391.86	335.5
392.085	340.5
392.31	334.5
392.534	319.5
392.759	328.5
392.984	316.5
393.208	336.5
393.433	313.5
393.658	320.5
393.882	315.5
394.107	335.5
394.331	337.5
394.556	341.5
394.78	336.5
395.005	338.5
395.229	329.5
395.454	355.5
395.678	349.5
395.903	345.5
396.127	334.5
396.352	322.5
396.576	343.5
396.801	327.5
397.025	345.5
397.249	359.5
397.474	356.5
397.698	356.5
397.922	339.5
398.147	363.5
398.371	358.5
398.595	386.5
398.82	384.5
399.044	399.5
399.268	412.5
399.492	435.5
399.717	454.5
399.941	454.5
400.165	447.5
400.389	413.5
400.613	399.5
400.837	397.5
401.062	370.5
401.286	388.5
401.51	361.5
401.734	384.5
401.958	378.5
402.182	368.5
402.406	373.5
402.63	387.5
402.854	394.5
403.078	395.5
403.302	375.5
403.526	388.5
403.75	388.5
403.974	388.5
404.198	381.5
404.422	393.5
404.645	378.5
404.869	396.5
405.093	383.5
405.317	390.5
405.541	397.5
405.765	392.5
405.988	404.5
406.212	411.5
406.436	395.5
406.66	378.5
406.883	390.5
407.107	426.5
407.331	433.5
407.555	444.5
407.778	436.5
408.002	398.5
408.226	424.5
408.449	398.5
408.673	422.5
408.896	406.5
409.12	391.5
409.344	384.5
409.567	398.5
409.791	426.5
410.014	394.5
410.238	390.5
410.461	388.5
410.685	387.5
410.908	378.5
411.132	408.5
411.355	380.5
411.578	380.5
411.802	393.5
412.025	381.5
412.249	386.5
412.472	378.5
412.695	396.5
412.919	382.5
413.142	372.5
413.365	384.5
413.589	387.5
413.812	393.5
414.035	373.5
414.258	377.5
414.482	372.5
414.705	391.5
414.928	376.5
415.151	380.5
415.374	370.5
415.597	361.5
415.821	380.5
416.044	352.5
416.267	349.5
416.49	371.5
416.713	343.5
416.936	349.5
417.159	377.5
417.382	362.5
417.605	341.5
417.828	376.5
418.051	376.5
418.274	351.5
418.497	353.5
418.72	378.5
418.943	365.5
419.166	378.5
419.389	397.5
419.611	395.5
419.834	367.5
420.057	371.5
420.28	362.5
420.503	358.5
420.726	365.5
420.948	378.5
421.171	365.5
421.394	365.5
421.617	343.5
421.839	374.5
422.062	350.5
422.285	357.5
422.507	358.5
422.73	356.5
422.953	350.5
423.175	373.5
423.398	365.5
423.621	347.5
423.843	360.5
424.066	360.5
424.288	354.5
424.511	348.5
424.733	347.5
424.956	354.5
425.178	352.5
425.401	365.5
425.623	339.5
425.846	346.5
426.068	344.5
426.291	349.5
426.513	338.5
426.735	370.5
426.958	332.5
427.18	364.5
427.402	349.5
427.625	356.5
427.847	326.5
428.069	334.5
428.292	346.5
428.514	352.5
428.736	325.5
428.958	350.5
429.181	344.5
429.403	338.5
429.625	327.5
429.847	327.5
430.069	331.5
430.292	329.5
430.514	334.5
430.736	349.5
430.958	339.5
431.18	339.5
431.402	341.5
431.624	319.5
431.846	325.5
432.068	325.5
432.29	345.5
432.512	342.5
432.734	344.5
432.956	343.5
433.178	344.5
433.4	336.5
433.622	321.5
433.844	329.5
434.066	357.5
434.287	344.5
434.509	342.5
434.731	361.5
434.953	366.5
435.175	341.5
435.397	360.5
435.618	356.5
435.84	343.5
436.062	329.5
436.284	334.5
436.505	320.5
436.727	324.5
436.949	316.5
437.17	332.5
437.392	323.5
437.614	327.5
437.835	318.5
438.057	314.5
438.278	317.5
438.5	321.5
438.721	340.5
438.943	331.5
439.165	329.5
439.386	348.5
439.608	333.5
439.829	335.5
440.05	341.5
440.272	336.5
440.493	328.5
440.715	344.5
440.936	348.5
441.158	342.5
441.379	369.5
441.6	352.5
441.822	349.5
442.043	362.5
442.264	336.5
442.486	331.5
442.707	361.5
442.928	336.5
443.149	340.5
443.371	354.5
443.592	349.5
443.813	345.5
444.034	357.5
444.255	365.5
444.476	361.5
444.698	380.5
444.919	362.5
445.14	429.5
445.361	403.5
445.582	340.5
445.803	345.5
446.024	337.5
446.245	348.5
446.466	344.5
446.687	317.5
446.908	354.5
447.129	324.5
447.35	313.5
447.571	326.5
447.792	340.5
448.013	326.5
448.234	324.5
448.455	305.5
448.675	322.5
448.896	308.5
449.117	300.5
449.338	297.5
449.559	302.5
449.779	308.5
450	295.5
450.221	313.5
450.442	306.5
450.662	296.5
450.883	302.5
451.104	324.5
451.324	316.5
451.545	281.5
451.766	304.5
451.986	306.5
452.207	300.5
452.428	317.5
452.648	299.5
452.869	318.5
453.089	301.5
453.31	304.5
453.53	308.5
453.751	307.5
453.971	299.5
454.192	316.5
454.412	301.5
454.633	280.5
454.853	287.5
455.073	286.5
455.294	306.5
455.514	300.5
455.734	287.5
455.955	292.5
456.175	293.5
456.395	298.5
456.616	312.5
456.836	319.5
457.056	301.5
457.276	293.5
457.497	278.5
457.717	291.5
457.937	300.5
458.157	315.5
458.377	292.5
458.598	307.5
458.818	313.5
459.038	322.5
459.258	321.5
459.478	332.5
459.698	326.5
459.918	328.5
460.138	361.5
460.358	328.5
460.578	356.5
460.798	369.5
461.018	353.5
461.238	361.5
461.458	366.5
461.678	376.5
461.898	361.5
462.118	370.5
462.338	365.5
462.558	388.5
462.777	384.5
462.997	412.5
463.217	411.5
463.437	416.5
463.657	404.5
463.876	423.5
464.096	399.5
464.316	396.5
464.536	378.5
464.755	386.5
464.975	356.5
465.195	380.5
465.414	349.5
465.634	333.5
465.854	324.5
466.073	344.5
466.293	335.5
466.512	347.5
466.732	327.5
466.951	322.5
467.171	327.5
467.391	317.5
467.61	320.5
467.829	324.5
468.049	327.5
468.268	309.5
468.488	318.5
468.707	320.5
468.927	318.5
469.146	307.5
469.365	300.5
469.585	324.5
469.804	324.5
470.023	321.5
470.243	338.5
470.462	341.5
470.681	309.5
470.901	325.5
471.12	334.5
471.339	324.5
471.558	327.5
471.777	323.5
471.997	326.5
472.216	318.5
472.435	334.5
472.654	308.5
472.873	315.5
473.092	318.5
473.311	325.5
473.53	329.5
473.749	331.5
473.968	335.5
474.187	326.5
474.406	314.5
474.625	319.5
474.844	331.5
475.063	299.5
475.282	318.5
475.501	324.5
475.72	326.5
475.939	324.5
476.158	344.5
476.377	322.5
476.596	334.5
476.814	329.5
477.033	324.5
477.252	319.5
477.471	343.5
477.69	346.5
477.908	352.5
478.127	368.5
478.346	352.5
478.564	343.5
478.783	363.5
479.002	360.5
479.22	373.5
479.439	368.5
479.658	368.5
479.876	372.5
480.095	385.5
480.313	377.5
480.532	380.5
480.751	374.5
480.969	362.5
481.188	368.5
481.406	380.5
481.624	380.5
481.843	369.5
482.061	355.5
482.28	362.5
482.498	378.5
482.717	382.5
482.935	372.5
483.153	401.5
483.372	372.5
483.59	378.5
483.808	390.5
484.027	386.5
484.245	385.5
484.463	379.5
484.681	380.5
484.9	382.5
485.118	388.5
485.336	385.5
485.554	399.5
485.772	371.5
485.99	377.5
486.209	391.5
486.427	389.5
486.645	379.5
486.863	377.5
487.081	376.5
487.299	377.5
487.517	395.5
487.735	378.5
487.953	387.5
488.171	394.5
488.389	384.5
488.607	371.5
488.825	384.5
489.043	377.5
489.261	399.5
489.479	375.5
489.696	376.5
489.914	377.5
490.132	398.5
490.35	386.5
490.568	373.5
490.786	383.5
491.003	378.5
491.221	372.5
491.439	379.5
491.657	386.5
491.874	393.5
492.092	371.5
492.31	405.5
492.527	378.5
492.745	369.5
492.963	382.5
493.18	363.5
493.398	402.5
493.615	376.5
493.833	394.5
494.05	403.5
494.268	388.5
494.485	408.5
494.703	413.5
494.92	376.5
495.138	395.5
495.355	419.5
495.573	394.5
495.79	405.5
496.008	404.5
496.225	405.5
496.442	398.5
496.66	428.5
496.877	410.5
497.094	414.5
497.312	437.5
497.529	444.5
497.746	436.5
497.963	470.5
498.181	459.5
498.398	492.5
498.615	523.5
498.832	533.5
499.049	545.5
499.267	546.5
499.484	598.5
499.701	626.5
499.918	661.5
500.135	713.5
500.352	741.5
500.569	772.5
500.786	737.5
501.003	712.5
501.22	678.5
501.437	624.5
501.654	586.5
501.871	572.5
502.088	543.5
502.305	528.5
502.522	497.5
502.739	489.5
502.956	464.5
503.172	471.5
503.389	460.5
503.606	447.5
503.823	434.5
504.04	424.5
504.256	427.5
504.473	418.5
504.69	444.5
504.907	415.5
505.123	399.5
505.34	388.5
505.557	384.5
505.773	393.5
505.99	371.5
506.207	368.5
506.423	370.5
506.64	343.5
506.856	350.5
507.073	375.5
507.289	348.5
507.506	353.5
507.722	348.5
507.939	369.5
508.155	362.5
508.372	348.5
508.588	348.5
508.805	355.5
509.021	336.5
509.238	357.5
509.454	338.5
509.67	316.5
509.887	318.5
510.103	332.5
510.319	338.5
510.536	340.5
510.752	328.5
510.968	343.5
511.184	324.5
511.401	333.5
511.617	325.5
511.833	316.5
512.049	328.5
512.265	343.5
512.481	315.5
512.698	340.5
512.914	331.5
513.13	345.5
513.346	325.5
513.562	337.5
513.778	329.5
513.994	326.5
514.21	313.5
514.426	341.5
514.642	352.5
514.858	329.5
515.074	346.5
515.29	314.5
515.506	334.5
515.721	361.5
515.937	349.5
516.153	360.5
516.369	335.5
516.585	356.5
516.801	353.5
517.016	379.5
517.232	378.5
517.448	378.5
517.664	398.5
517.879	394.5
518.095	380.5
518.311	380.5
518.527	378.5
518.742	364.5
518.958	367.5
519.173	366.5
519.389	359.5
519.605	376.5
519.82	338.5
520.036	342.5
520.251	350.5
