Data from Fe(NO3)3@0.05M.TitratingCurve.Agarose3%dH2O.NegLispCup.LampEnergy10.LIBS07252019_HRD10591_16-47-57-334.txt Node
Date: Thu Jul 25 16:47:57 EDT 2019
User: cochatt
Spectrometer: HR+D1059
Trigger mode: 1
Integration Time (sec): 1.000000E-1
Scans to average: 1
Electric dark correction enabled: true
Nonlinearity correction enabled: false
Boxcar width: 0
XAxis mode: Wavelengths
Number of Pixels in Spectrum: 2048
>>>>>Begin Spectral Data<<<<<
223.165	-12.62
223.4	-12.62
223.635	-12.62
223.869	-16.62
224.104	-11.62
224.338	-20.62
224.573	-17.62
224.808	-14.62
225.042	-16.62
225.277	-16.62
225.511	0.38
225.746	-3.62
225.98	8.38
226.215	19.38
226.449	18.38
226.683	29.38
226.918	27.38
227.152	27.38
227.387	25.38
227.621	32.38
227.856	28.38
228.09	37.38
228.324	55.38
228.559	65.38
228.793	62.38
229.027	71.38
229.262	63.38
229.496	76.38
229.73	103.38
229.964	87.38
230.199	78.38
230.433	88.38
230.667	81.38
230.901	86.38
231.136	99.38
231.37	101.38
231.604	91.38
231.838	107.38
232.072	91.38
232.306	94.38
232.541	113.38
232.775	111.38
233.009	99.38
233.243	108.38
233.477	108.38
233.711	103.38
233.945	106.38
234.179	104.38
234.413	97.38
234.647	100.38
234.881	88.38
235.115	89.38
235.349	109.38
235.583	107.38
235.817	98.38
236.051	89.38
236.285	104.38
236.519	108.38
236.753	97.38
236.987	102.38
237.221	105.38
237.455	88.38
237.689	98.38
237.922	103.38
238.156	109.38
238.39	109.38
238.624	108.38
238.858	100.38
239.091	104.38
239.325	108.38
239.559	96.38
239.793	104.38
240.027	117.38
240.26	109.38
240.494	107.38
240.728	91.38
240.961	98.38
241.195	98.38
241.429	111.38
241.662	104.38
241.896	114.38
242.13	127.38
242.363	117.38
242.597	101.38
242.83	123.38
243.064	109.38
243.298	112.38
243.531	108.38
243.765	115.38
243.998	119.38
244.232	104.38
244.465	119.38
244.699	121.38
244.932	121.38
245.166	117.38
245.399	120.38
245.633	111.38
245.866	113.38
246.099	122.38
246.333	111.38
246.566	122.38
246.8	110.38
247.033	124.38
247.266	121.38
247.5	123.38
247.733	124.38
247.966	133.38
248.2	126.38
248.433	131.38
248.666	122.38
248.899	113.38
249.133	120.38
249.366	137.38
249.599	127.38
249.832	125.38
250.066	135.38
250.299	122.38
250.532	134.38
250.765	134.38
250.998	123.38
251.231	122.38
251.465	126.38
251.698	118.38
251.931	133.38
252.164	115.38
252.397	134.38
252.63	121.38
252.863	121.38
253.096	138.38
253.329	127.38
253.562	132.38
253.795	125.38
254.028	118.38
254.261	129.38
254.494	147.38
254.727	152.38
254.96	136.38
255.193	136.38
255.426	140.38
255.659	148.38
255.892	142.38
256.124	136.38
256.357	138.38
256.59	142.38
256.823	142.38
257.056	146.38
257.289	130.38
257.521	148.38
257.754	140.38
257.987	142.38
258.22	139.38
258.452	153.38
258.685	143.38
258.918	138.38
259.151	146.38
259.383	146.38
259.616	139.38
259.849	140.38
260.081	159.38
260.314	145.38
260.547	147.38
260.779	142.38
261.012	147.38
261.244	124.38
261.477	162.38
261.71	136.38
261.942	145.38
262.175	152.38
262.407	147.38
262.64	156.38
262.872	143.38
263.105	137.38
263.337	162.38
263.57	169.38
263.802	160.38
264.035	151.38
264.267	162.38
264.499	158.38
264.732	165.38
264.964	155.38
265.197	168.38
265.429	163.38
265.661	161.38
265.894	151.38
266.126	157.38
266.358	152.38
266.591	157.38
266.823	153.38
267.055	162.38
267.287	159.38
267.52	165.38
267.752	169.38
267.984	155.38
268.216	158.38
268.448	170.38
268.681	164.38
268.913	159.38
269.145	153.38
269.377	176.38
269.609	165.38
269.841	157.38
270.073	180.38
270.306	172.38
270.538	169.38
270.77	164.38
271.002	177.38
271.234	175.38
271.466	172.38
271.698	167.38
271.93	175.38
272.162	162.38
272.394	171.38
272.626	177.38
272.858	171.38
273.09	187.38
273.322	177.38
273.553	164.38
273.785	165.38
274.017	180.38
274.249	168.38
274.481	178.38
274.713	180.38
274.945	175.38
275.176	188.38
275.408	178.38
275.64	194.38
275.872	176.38
276.104	192.38
276.335	183.38
276.567	173.38
276.799	170.38
277.031	176.38
277.262	177.38
277.494	180.38
277.726	168.38
277.957	178.38
278.189	173.38
278.421	200.38
278.652	164.38
278.884	177.38
279.115	173.38
279.347	176.38
279.579	207.38
279.81	185.38
280.042	170.38
280.273	175.38
280.505	183.38
280.736	184.38
280.968	199.38
281.199	185.38
281.431	193.38
281.662	188.38
281.894	187.38
282.125	201.38
282.356	209.38
282.588	191.38
282.819	188.38
283.051	198.38
283.282	204.38
283.513	192.38
283.745	200.38
283.976	201.38
284.207	212.38
284.439	207.38
284.67	183.38
284.901	198.38
285.132	192.38
285.364	218.38
285.595	199.38
285.826	196.38
286.057	206.38
286.288	210.38
286.52	207.38
286.751	205.38
286.982	201.38
287.213	200.38
287.444	203.38
287.675	189.38
287.906	208.38
288.138	212.38
288.369	205.38
288.6	210.38
288.831	195.38
289.062	196.38
289.293	209.38
289.524	214.38
289.755	204.38
289.986	203.38
290.217	219.38
290.448	205.38
290.679	217.38
290.91	208.38
291.141	199.38
291.371	203.38
291.602	197.38
291.833	213.38
292.064	224.38
292.295	211.38
292.526	220.38
292.757	215.38
292.987	207.38
293.218	204.38
293.449	216.38
293.68	222.38
293.91	219.38
294.141	194.38
294.372	202.38
294.603	212.38
294.833	203.38
295.064	222.38
295.295	200.38
295.525	219.38
295.756	242.38
295.987	212.38
296.217	229.38
296.448	219.38
296.679	234.38
296.909	225.38
297.14	216.38
297.37	210.38
297.601	225.38
297.831	219.38
298.062	231.38
298.292	214.38
298.523	211.38
298.753	240.38
298.984	211.38
299.214	213.38
299.445	204.38
299.675	248.38
299.905	227.38
300.136	247.38
300.366	219.38
300.597	241.38
300.827	245.38
301.057	208.38
301.288	228.38
301.518	227.38
301.748	232.38
301.979	253.38
302.209	240.38
302.439	226.38
302.669	234.38
302.9	233.38
303.13	228.38
303.36	230.38
303.59	211.38
303.82	219.38
304.051	223.38
304.281	247.38
304.511	253.38
304.741	230.38
304.971	238.38
305.201	239.38
305.431	227.38
305.661	230.38
305.891	225.38
306.121	237.38
306.352	233.38
306.582	246.38
306.812	229.38
307.042	244.38
307.272	228.38
307.502	236.38
307.731	224.38
307.961	239.38
308.191	235.38
308.421	233.38
308.651	219.38
308.881	225.38
309.111	234.38
309.341	235.38
309.571	254.38
309.8	227.38
310.03	234.38
310.26	224.38
310.49	228.38
310.72	234.38
310.949	226.38
311.179	239.38
311.409	229.38
311.639	231.38
311.868	247.38
312.098	238.38
312.328	248.38
312.557	242.38
312.787	249.38
313.017	245.38
313.246	231.38
313.476	226.38
313.706	239.38
313.935	251.38
314.165	263.38
314.394	240.38
314.624	223.38
314.853	236.38
315.083	232.38
315.312	258.38
315.542	245.38
315.771	237.38
316.001	246.38
316.23	232.38
316.46	255.38
316.689	235.38
316.919	236.38
317.148	235.38
317.377	255.38
317.607	244.38
317.836	245.38
318.065	243.38
318.295	262.38
318.524	245.38
318.753	243.38
318.983	258.38
319.212	241.38
319.441	229.38
319.67	251.38
319.9	237.38
320.129	242.38
320.358	244.38
320.587	250.38
320.816	228.38
321.046	255.38
321.275	257.38
321.504	258.38
321.733	240.38
321.962	256.38
322.191	250.38
322.42	261.38
322.649	279.38
322.878	246.38
323.108	261.38
323.337	246.38
323.566	259.38
323.795	257.38
324.024	260.38
324.253	270.38
324.482	243.38
324.71	261.38
324.939	259.38
325.168	236.38
325.397	248.38
325.626	253.38
325.855	272.38
326.084	263.38
326.313	271.38
326.542	289.38
326.77	269.38
326.999	282.38
327.228	249.38
327.457	273.38
327.686	279.38
327.914	264.38
328.143	274.38
328.372	277.38
328.6	233.38
328.829	246.38
329.058	264.38
329.287	274.38
329.515	273.38
329.744	262.38
329.972	273.38
330.201	264.38
330.43	275.38
330.658	260.38
330.887	277.38
331.115	267.38
331.344	276.38
331.572	281.38
331.801	284.38
332.03	291.38
332.258	287.38
332.486	276.38
332.715	288.38
332.943	325.38
333.172	319.38
333.4	328.38
333.629	328.38
333.857	338.38
334.085	348.38
334.314	328.38
334.542	312.38
334.771	330.38
334.999	311.38
335.227	312.38
335.455	307.38
335.684	307.38
335.912	301.38
336.14	290.38
336.369	313.38
336.597	327.38
336.825	311.38
337.053	316.38
337.281	295.38
337.51	284.38
337.738	291.38
337.966	297.38
338.194	288.38
338.422	291.38
338.65	298.38
338.878	279.38
339.106	287.38
339.334	301.38
339.562	288.38
339.79	283.38
340.018	281.38
340.246	282.38
340.474	274.38
340.702	276.38
340.93	295.38
341.158	282.38
341.386	284.38
341.614	275.38
341.842	268.38
342.07	281.38
342.298	287.38
342.526	263.38
342.754	281.38
342.981	281.38
343.209	294.38
343.437	286.38
343.665	309.38
343.893	309.38
344.12	338.38
344.348	316.38
344.576	332.38
344.804	308.38
345.031	292.38
345.259	288.38
345.487	305.38
345.714	266.38
345.942	272.38
346.17	280.38
346.397	276.38
346.625	260.38
346.853	259.38
347.08	278.38
347.308	280.38
347.535	271.38
347.763	269.38
347.99	273.38
348.218	266.38
348.445	250.38
348.673	273.38
348.9	275.38
349.128	283.38
349.355	276.38
349.583	268.38
349.81	266.38
350.037	280.38
350.265	271.38
350.492	261.38
350.72	271.38
350.947	262.38
351.174	273.38
351.402	280.38
351.629	267.38
351.856	282.38
352.083	257.38
352.311	270.38
352.538	271.38
352.765	278.38
352.992	273.38
353.22	255.38
353.447	276.38
353.674	279.38
353.901	260.38
354.128	282.38
354.355	275.38
354.583	256.38
354.81	270.38
355.037	281.38
355.264	257.38
355.491	274.38
355.718	270.38
355.945	288.38
356.172	280.38
356.399	269.38
356.626	285.38
356.853	275.38
357.08	267.38
357.307	276.38
357.534	270.38
357.761	275.38
357.988	278.38
358.215	281.38
358.441	274.38
358.668	268.38
358.895	265.38
359.122	272.38
359.349	261.38
359.576	283.38
359.802	286.38
360.029	262.38
360.256	284.38
360.483	275.38
360.709	262.38
360.936	275.38
361.163	275.38
361.39	263.38
361.616	284.38
361.843	290.38
362.07	269.38
362.296	264.38
362.523	283.38
362.749	300.38
362.976	275.38
363.203	279.38
363.429	286.38
363.656	279.38
363.882	289.38
364.109	260.38
364.335	274.38
364.562	280.38
364.788	288.38
365.015	273.38
365.241	280.38
365.468	268.38
365.694	262.38
365.92	268.38
366.147	268.38
366.373	274.38
366.599	264.38
366.826	282.38
367.052	276.38
367.278	267.38
367.505	265.38
367.731	299.38
367.957	281.38
368.184	284.38
368.41	289.38
368.636	285.38
368.862	303.38
369.089	269.38
369.315	271.38
369.541	292.38
369.767	284.38
369.993	298.38
370.219	274.38
370.445	308.38
370.672	293.38
370.898	295.38
371.124	301.38
371.35	298.38
371.576	291.38
371.802	294.38
372.028	299.38
372.254	300.38
372.48	305.38
372.706	301.38
372.932	313.38
373.158	330.38
373.384	313.38
373.61	326.38
373.835	308.38
374.061	301.38
374.287	321.38
374.513	314.38
374.739	321.38
374.965	321.38
375.191	326.38
375.416	307.38
375.642	299.38
375.868	311.38
376.094	323.38
376.319	315.38
376.545	288.38
376.771	303.38
376.997	310.38
377.222	313.38
377.448	294.38
377.674	306.38
377.899	307.38
378.125	279.38
378.35	296.38
378.576	293.38
378.802	307.38
379.027	314.38
379.253	307.38
379.478	310.38
379.704	279.38
379.929	311.38
380.155	296.38
380.38	307.38
380.606	321.38
380.831	298.38
381.057	318.38
381.282	307.38
381.507	304.38
381.733	301.38
381.958	309.38
382.184	319.38
382.409	310.38
382.634	327.38
382.86	328.38
383.085	339.38
383.31	325.38
383.535	332.38
383.761	345.38
383.986	346.38
384.211	344.38
384.436	346.38
384.662	337.38
384.887	339.38
385.112	361.38
385.337	369.38
385.562	351.38
385.787	356.38
386.013	384.38
386.238	365.38
386.463	356.38
386.688	370.38
386.913	371.38
387.138	349.38
387.363	377.38
387.588	375.38
387.813	345.38
388.038	357.38
388.263	347.38
388.488	367.38
388.713	345.38
388.938	343.38
389.163	356.38
389.387	379.38
389.612	347.38
389.837	333.38
390.062	346.38
390.287	358.38
390.512	357.38
390.736	363.38
390.961	348.38
391.186	378.38
391.411	383.38
391.636	369.38
391.86	387.38
392.085	401.38
392.31	395.38
392.534	390.38
392.759	386.38
392.984	378.38
393.208	359.38
393.433	382.38
393.658	358.38
393.882	376.38
394.107	374.38
394.331	382.38
394.556	379.38
394.78	354.38
395.005	383.38
395.229	388.38
395.454	393.38
395.678	388.38
395.903	391.38
396.127	399.38
396.352	394.38
396.576	403.38
396.801	375.38
397.025	396.38
397.249	395.38
397.474	406.38
397.698	388.38
397.922	397.38
398.147	411.38
398.371	398.38
398.595	422.38
398.82	433.38
399.044	462.38
399.268	513.38
399.492	569.38
399.717	588.38
399.941	589.38
400.165	546.38
400.389	521.38
400.613	492.38
400.837	449.38
401.062	442.38
401.286	453.38
401.51	445.38
401.734	444.38
401.958	459.38
402.182	437.38
402.406	456.38
402.63	445.38
402.854	478.38
403.078	448.38
403.302	460.38
403.526	467.38
403.75	474.38
403.974	477.38
404.198	476.38
404.422	489.38
404.645	507.38
404.869	479.38
405.093	469.38
405.317	476.38
405.541	469.38
405.765	475.38
405.988	471.38
406.212	475.38
406.436	474.38
406.66	491.38
406.883	469.38
407.107	497.38
407.331	508.38
407.555	508.38
407.778	510.38
408.002	504.38
408.226	509.38
408.449	517.38
408.673	474.38
408.896	470.38
409.12	469.38
409.344	492.38
409.567	464.38
409.791	486.38
410.014	490.38
410.238	476.38
410.461	462.38
410.685	481.38
410.908	483.38
411.132	461.38
411.355	474.38
411.578	461.38
411.802	445.38
412.025	447.38
412.249	472.38
412.472	469.38
412.695	476.38
412.919	445.38
413.142	453.38
413.365	448.38
413.589	447.38
413.812	448.38
414.035	449.38
414.258	456.38
414.482	433.38
414.705	446.38
414.928	449.38
415.151	425.38
415.374	444.38
415.597	453.38
415.821	424.38
416.044	431.38
416.267	435.38
416.49	440.38
416.713	430.38
416.936	451.38
417.159	448.38
417.382	440.38
417.605	446.38
417.828	429.38
418.051	450.38
418.274	461.38
418.497	443.38
418.72	443.38
418.943	475.38
419.166	473.38
419.389	503.38
419.611	474.38
419.834	457.38
420.057	457.38
420.28	435.38
420.503	443.38
420.726	434.38
420.948	441.38
421.171	454.38
421.394	444.38
421.617	422.38
421.839	441.38
422.062	441.38
422.285	438.38
422.507	443.38
422.73	439.38
422.953	445.38
423.175	453.38
423.398	445.38
423.621	469.38
423.843	466.38
424.066	486.38
424.288	469.38
424.511	444.38
424.733	481.38
424.956	453.38
425.178	466.38
425.401	448.38
425.623	421.38
425.846	431.38
426.068	419.38
426.291	437.38
426.513	417.38
426.735	420.38
426.958	424.38
427.18	415.38
427.402	403.38
427.625	418.38
427.847	392.38
428.069	422.38
428.292	427.38
428.514	425.38
428.736	411.38
428.958	437.38
429.181	409.38
429.403	391.38
429.625	397.38
429.847	398.38
430.069	391.38
430.292	414.38
430.514	418.38
430.736	406.38
430.958	377.38
431.18	397.38
431.402	408.38
431.624	414.38
431.846	397.38
432.068	397.38
432.29	409.38
432.512	416.38
432.734	427.38
432.956	422.38
433.178	427.38
433.4	432.38
433.622	405.38
433.844	429.38
434.066	433.38
434.287	421.38
434.509	412.38
434.731	443.38
434.953	438.38
435.175	449.38
435.397	458.38
435.618	425.38
435.84	415.38
436.062	424.38
436.284	420.38
436.505	433.38
436.727	414.38
436.949	437.38
437.17	435.38
437.392	402.38
437.614	412.38
437.835	391.38
438.057	415.38
438.278	396.38
438.5	401.38
438.721	420.38
438.943	407.38
439.165	419.38
439.386	422.38
439.608	428.38
439.829	436.38
440.05	416.38
440.272	434.38
440.493	423.38
440.715	439.38
440.936	444.38
441.158	424.38
441.379	448.38
441.6	474.38
441.822	455.38
442.043	462.38
442.264	464.38
442.486	455.38
442.707	451.38
442.928	455.38
443.149	437.38
443.371	454.38
443.592	453.38
443.813	466.38
444.034	468.38
444.255	474.38
444.476	490.38
444.698	508.38
444.919	517.38
445.14	631.38
445.361	544.38
445.582	484.38
445.803	449.38
446.024	441.38
446.245	464.38
446.466	452.38
446.687	421.38
446.908	438.38
447.129	429.38
447.35	412.38
447.571	423.38
447.792	396.38
448.013	405.38
448.234	421.38
448.455	409.38
448.675	391.38
448.896	400.38
449.117	403.38
449.338	413.38
449.559	400.38
449.779	397.38
450	393.38
450.221	409.38
450.442	405.38
450.662	385.38
450.883	397.38
451.104	403.38
451.324	387.38
451.545	386.38
451.766	411.38
451.986	391.38
452.207	398.38
452.428	401.38
452.648	392.38
452.869	379.38
453.089	378.38
453.31	382.38
453.53	350.38
453.751	374.38
453.971	355.38
454.192	371.38
454.412	376.38
454.633	379.38
454.853	381.38
455.073	352.38
455.294	383.38
455.514	396.38
455.734	373.38
455.955	375.38
456.175	392.38
456.395	350.38
456.616	363.38
456.836	379.38
457.056	379.38
457.276	386.38
457.497	379.38
457.717	359.38
457.937	375.38
458.157	367.38
458.377	380.38
458.598	389.38
458.818	388.38
459.038	389.38
459.258	407.38
459.478	419.38
459.698	427.38
459.918	422.38
460.138	463.38
460.358	456.38
460.578	457.38
460.798	492.38
461.018	502.38
461.238	484.38
461.458	471.38
461.678	467.38
461.898	475.38
462.118	471.38
462.338	525.38
462.558	538.38
462.777	532.38
462.997	573.38
463.217	595.38
463.437	566.38
463.657	554.38
463.876	543.38
464.096	527.38
464.316	487.38
464.536	542.38
464.755	533.38
464.975	501.38
465.195	467.38
465.414	443.38
465.634	441.38
465.854	436.38
466.073	421.38
466.293	419.38
466.512	419.38
466.732	431.38
466.951	433.38
467.171	444.38
467.391	434.38
467.61	418.38
467.829	427.38
468.049	416.38
468.268	400.38
468.488	408.38
468.707	392.38
468.927	391.38
469.146	384.38
469.365	410.38
469.585	400.38
469.804	427.38
470.023	421.38
470.243	418.38
470.462	423.38
470.681	406.38
470.901	411.38
471.12	416.38
471.339	428.38
471.558	417.38
471.777	409.38
471.997	405.38
472.216	390.38
472.435	391.38
472.654	410.38
472.873	391.38
473.092	403.38
473.311	411.38
473.53	397.38
473.749	401.38
473.968	411.38
474.187	395.38
474.406	369.38
474.625	403.38
474.844	379.38
475.063	422.38
475.282	391.38
475.501	417.38
475.72	416.38
475.939	417.38
476.158	416.38
476.377	437.38
476.596	411.38
476.814	409.38
477.033	423.38
477.252	428.38
477.471	420.38
477.69	436.38
477.908	447.38
478.127	454.38
478.346	462.38
478.564	452.38
478.783	460.38
479.002	464.38
479.22	484.38
479.439	470.38
479.658	472.38
479.876	462.38
480.095	449.38
480.313	472.38
480.532	475.38
480.751	483.38
480.969	477.38
481.188	473.38
481.406	445.38
481.624	461.38
481.843	432.38
482.061	421.38
482.28	448.38
482.498	453.38
482.717	450.38
482.935	456.38
483.153	442.38
483.372	457.38
483.59	461.38
483.808	447.38
484.027	435.38
484.245	451.38
484.463	442.38
484.681	462.38
484.9	456.38
485.118	471.38
485.336	459.38
485.554	431.38
485.772	456.38
485.99	462.38
486.209	457.38
486.427	451.38
486.645	464.38
486.863	443.38
487.081	473.38
487.299	453.38
487.517	481.38
487.735	436.38
487.953	447.38
488.171	452.38
488.389	484.38
488.607	473.38
488.825	457.38
489.043	455.38
489.261	469.38
489.479	455.38
489.696	460.38
489.914	457.38
490.132	475.38
490.35	465.38
490.568	448.38
490.786	486.38
491.003	469.38
491.221	485.38
491.439	475.38
491.657	479.38
491.874	471.38
492.092	471.38
492.31	485.38
492.527	485.38
492.745	480.38
492.963	480.38
493.18	501.38
493.398	478.38
493.615	478.38
493.833	492.38
494.05	497.38
494.268	483.38
494.485	487.38
494.703	489.38
494.92	500.38
495.138	509.38
495.355	483.38
495.573	498.38
495.79	492.38
496.008	524.38
496.225	495.38
496.442	529.38
496.66	523.38
496.877	517.38
497.094	508.38
497.312	530.38
497.529	535.38
497.746	551.38
497.963	548.38
498.181	588.38
498.398	593.38
498.615	610.38
498.832	644.38
499.049	678.38
499.267	708.38
499.484	750.38
499.701	833.38
499.918	887.38
500.135	981.38
500.352	1076.38
500.569	1109.38
500.786	1123.38
501.003	1025.38
501.22	954.38
501.437	889.38
501.654	820.38
501.871	739.38
