Data from Fe(NO3)3@0.0125M.TitratingCurve.Agarose3%dH2O.NegLispCup.LampEnergy10.LIBS07252019_HRD10591_17-01-43-337.txt Node
Date: Thu Jul 25 17:01:43 EDT 2019
User: cochatt
Spectrometer: HR+D1059
Trigger mode: 1
Integration Time (sec): 1.000000E-1
Scans to average: 1
Electric dark correction enabled: true
Nonlinearity correction enabled: false
Boxcar width: 0
XAxis mode: Wavelengths
Number of Pixels in Spectrum: 2048
>>>>>Begin Spectral Data<<<<<
223.165	-12.06
223.4	-12.06
223.635	-12.06
223.869	-23.06
224.104	-19.06
224.338	-2.06
224.573	-10.06
224.808	-17.06
225.042	-5.06
225.277	-10.06
225.511	-1.06
225.746	5.94
225.98	10.94
226.215	4.94
226.449	6.94
226.683	14.94
226.918	27.94
227.152	27.94
227.387	36.94
227.621	40.94
227.856	30.94
228.09	39.94
228.324	63.94
228.559	53.94
228.793	70.94
229.027	66.94
229.262	84.94
229.496	78.94
229.73	70.94
229.964	86.94
230.199	90.94
230.433	81.94
230.667	98.94
230.901	90.94
231.136	94.94
231.37	105.94
231.604	95.94
231.838	88.94
232.072	89.94
232.306	77.94
232.541	96.94
232.775	95.94
233.009	99.94
233.243	105.94
233.477	106.94
233.711	97.94
233.945	111.94
234.179	113.94
234.413	105.94
234.647	105.94
234.881	104.94
235.115	105.94
235.349	103.94
235.583	91.94
235.817	103.94
236.051	99.94
236.285	111.94
236.519	89.94
236.753	102.94
236.987	107.94
237.221	104.94
237.455	98.94
237.689	104.94
237.922	112.94
238.156	106.94
238.39	107.94
238.624	111.94
238.858	103.94
239.091	109.94
239.325	111.94
239.559	108.94
239.793	107.94
240.027	113.94
240.26	109.94
240.494	105.94
240.728	114.94
240.961	114.94
241.195	109.94
241.429	113.94
241.662	103.94
241.896	125.94
242.13	119.94
242.363	118.94
242.597	114.94
242.83	118.94
243.064	100.94
243.298	119.94
243.531	127.94
243.765	117.94
243.998	112.94
244.232	115.94
244.465	99.94
244.699	106.94
244.932	99.94
245.166	119.94
245.399	121.94
245.633	122.94
245.866	104.94
246.099	119.94
246.333	101.94
246.566	111.94
246.8	114.94
247.033	116.94
247.266	138.94
247.5	119.94
247.733	111.94
247.966	123.94
248.2	115.94
248.433	119.94
248.666	125.94
248.899	131.94
249.133	123.94
249.366	124.94
249.599	119.94
249.832	125.94
250.066	123.94
250.299	132.94
250.532	139.94
250.765	131.94
250.998	131.94
251.231	127.94
251.465	133.94
251.698	111.94
251.931	124.94
252.164	135.94
252.397	125.94
252.63	136.94
252.863	122.94
253.096	132.94
253.329	130.94
253.562	129.94
253.795	140.94
254.028	138.94
254.261	138.94
254.494	132.94
254.727	147.94
254.96	133.94
255.193	147.94
255.426	139.94
255.659	144.94
255.892	153.94
256.124	139.94
256.357	139.94
256.59	147.94
256.823	150.94
257.056	154.94
257.289	137.94
257.521	143.94
257.754	136.94
257.987	140.94
258.22	149.94
258.452	145.94
258.685	134.94
258.918	144.94
259.151	157.94
259.383	139.94
259.616	141.94
259.849	154.94
260.081	160.94
260.314	172.94
260.547	163.94
260.779	148.94
261.012	159.94
261.244	168.94
261.477	151.94
261.71	160.94
261.942	161.94
262.175	144.94
262.407	154.94
262.64	145.94
262.872	137.94
263.105	145.94
263.337	166.94
263.57	141.94
263.802	156.94
264.035	147.94
264.267	145.94
264.499	167.94
264.732	165.94
264.964	154.94
265.197	154.94
265.429	168.94
265.661	146.94
265.894	157.94
266.126	176.94
266.358	155.94
266.591	159.94
266.823	176.94
267.055	164.94
267.287	164.94
267.52	149.94
267.752	177.94
267.984	152.94
268.216	172.94
268.448	145.94
268.681	156.94
268.913	174.94
269.145	155.94
269.377	172.94
269.609	169.94
269.841	171.94
270.073	175.94
270.306	173.94
270.538	173.94
270.77	168.94
271.002	174.94
271.234	181.94
271.466	168.94
271.698	166.94
271.93	175.94
272.162	188.94
272.394	182.94
272.626	189.94
272.858	175.94
273.09	175.94
273.322	179.94
273.553	194.94
273.785	181.94
274.017	188.94
274.249	208.94
274.481	181.94
274.713	193.94
274.945	212.94
275.176	186.94
275.408	188.94
275.64	196.94
275.872	196.94
276.104	200.94
276.335	191.94
276.567	195.94
276.799	187.94
277.031	184.94
277.262	180.94
277.494	197.94
277.726	181.94
277.957	188.94
278.189	199.94
278.421	193.94
278.652	186.94
278.884	188.94
279.115	172.94
279.347	201.94
279.579	207.94
279.81	187.94
280.042	212.94
280.273	204.94
280.505	207.94
280.736	199.94
280.968	209.94
281.199	202.94
281.431	196.94
281.662	194.94
281.894	209.94
282.125	213.94
282.356	201.94
282.588	215.94
282.819	204.94
283.051	199.94
283.282	195.94
283.513	208.94
283.745	209.94
283.976	200.94
284.207	230.94
284.439	208.94
284.67	204.94
284.901	220.94
285.132	207.94
285.364	208.94
285.595	198.94
285.826	223.94
286.057	219.94
286.288	214.94
286.52	203.94
286.751	234.94
286.982	217.94
287.213	225.94
287.444	221.94
287.675	224.94
287.906	226.94
288.138	222.94
288.369	223.94
288.6	227.94
288.831	218.94
289.062	227.94
289.293	219.94
289.524	226.94
289.755	212.94
289.986	209.94
290.217	219.94
290.448	233.94
290.679	240.94
290.91	212.94
291.141	208.94
291.371	233.94
291.602	249.94
291.833	226.94
292.064	220.94
292.295	213.94
292.526	228.94
292.757	228.94
292.987	221.94
293.218	222.94
293.449	230.94
293.68	228.94
293.91	230.94
294.141	218.94
294.372	235.94
294.603	229.94
294.833	232.94
295.064	243.94
295.295	235.94
295.525	228.94
295.756	237.94
295.987	246.94
296.217	231.94
296.448	242.94
296.679	240.94
296.909	245.94
297.14	235.94
297.37	250.94
297.601	249.94
297.831	242.94
298.062	251.94
298.292	241.94
298.523	248.94
298.753	259.94
298.984	265.94
299.214	232.94
299.445	237.94
299.675	242.94
299.905	253.94
300.136	258.94
300.366	248.94
300.597	249.94
300.827	262.94
301.057	251.94
301.288	250.94
301.518	240.94
301.748	266.94
301.979	263.94
302.209	263.94
302.439	256.94
302.669	271.94
302.9	250.94
303.13	278.94
303.36	255.94
303.59	275.94
303.82	263.94
304.051	259.94
304.281	273.94
304.511	259.94
304.741	259.94
304.971	263.94
305.201	260.94
305.431	257.94
305.661	251.94
305.891	252.94
306.121	265.94
306.352	272.94
306.582	242.94
306.812	265.94
307.042	288.94
307.272	289.94
307.502	274.94
307.731	272.94
307.961	264.94
308.191	267.94
308.421	269.94
308.651	252.94
308.881	263.94
309.111	268.94
309.341	260.94
309.571	276.94
309.8	278.94
310.03	253.94
310.26	261.94
310.49	276.94
310.72	283.94
310.949	267.94
311.179	269.94
311.409	272.94
311.639	264.94
311.868	283.94
312.098	280.94
312.328	283.94
312.557	270.94
312.787	272.94
313.017	279.94
313.246	270.94
313.476	297.94
313.706	283.94
313.935	282.94
314.165	300.94
314.394	288.94
314.624	290.94
314.853	267.94
315.083	305.94
315.312	288.94
315.542	290.94
315.771	289.94
316.001	283.94
316.23	294.94
316.46	277.94
316.689	294.94
316.919	284.94
317.148	309.94
317.377	275.94
317.607	289.94
317.836	288.94
318.065	291.94
318.295	301.94
318.524	308.94
318.753	301.94
318.983	300.94
319.212	279.94
319.441	291.94
319.67	296.94
319.9	309.94
320.129	283.94
320.358	317.94
320.587	299.94
320.816	292.94
321.046	285.94
321.275	300.94
321.504	308.94
321.733	303.94
321.962	291.94
322.191	309.94
322.42	316.94
322.649	314.94
322.878	289.94
323.108	315.94
323.337	326.94
323.566	310.94
323.795	306.94
324.024	308.94
324.253	307.94
324.482	304.94
324.71	297.94
324.939	295.94
325.168	308.94
325.397	305.94
325.626	293.94
325.855	297.94
326.084	337.94
326.313	337.94
326.542	297.94
326.77	317.94
326.999	334.94
327.228	330.94
327.457	320.94
327.686	321.94
327.914	318.94
328.143	310.94
328.372	335.94
328.6	323.94
328.829	321.94
329.058	332.94
329.287	304.94
329.515	324.94
329.744	330.94
329.972	332.94
330.201	332.94
330.43	321.94
330.658	328.94
330.887	337.94
331.115	335.94
331.344	328.94
331.572	315.94
331.801	361.94
332.03	353.94
332.258	368.94
332.486	367.94
332.715	337.94
332.943	350.94
333.172	377.94
333.4	365.94
333.629	358.94
333.857	370.94
334.085	389.94
334.314	392.94
334.542	364.94
334.771	382.94
334.999	377.94
335.227	365.94
335.455	361.94
335.684	375.94
335.912	368.94
336.14	362.94
336.369	398.94
336.597	380.94
336.825	367.94
337.053	381.94
337.281	380.94
337.51	344.94
337.738	360.94
337.966	364.94
338.194	349.94
338.422	360.94
338.65	363.94
338.878	356.94
339.106	369.94
339.334	360.94
339.562	322.94
339.79	341.94
340.018	346.94
340.246	351.94
340.474	333.94
340.702	363.94
340.93	349.94
341.158	347.94
341.386	338.94
341.614	359.94
341.842	333.94
342.07	332.94
342.298	349.94
342.526	336.94
342.754	349.94
342.981	342.94
343.209	341.94
343.437	364.94
343.665	360.94
343.893	390.94
344.12	403.94
344.348	371.94
344.576	375.94
344.804	374.94
345.031	351.94
345.259	350.94
345.487	349.94
345.714	363.94
345.942	361.94
346.17	361.94
346.397	348.94
346.625	343.94
346.853	338.94
347.08	345.94
347.308	347.94
347.535	371.94
347.763	333.94
347.99	329.94
348.218	328.94
348.445	337.94
348.673	347.94
348.9	359.94
349.128	352.94
349.355	346.94
349.583	338.94
349.81	344.94
350.037	328.94
350.265	348.94
350.492	342.94
350.72	349.94
350.947	340.94
351.174	351.94
351.402	321.94
351.629	337.94
351.856	329.94
352.083	319.94
352.311	331.94
352.538	345.94
352.765	315.94
352.992	360.94
353.22	323.94
353.447	328.94
353.674	337.94
353.901	346.94
354.128	323.94
354.355	319.94
354.583	329.94
354.81	347.94
355.037	343.94
355.264	336.94
355.491	341.94
355.718	343.94
355.945	332.94
356.172	335.94
356.399	340.94
356.626	340.94
356.853	339.94
357.08	347.94
357.307	339.94
357.534	344.94
357.761	358.94
357.988	333.94
358.215	347.94
358.441	354.94
358.668	329.94
358.895	340.94
359.122	350.94
359.349	331.94
359.576	353.94
359.802	354.94
360.029	324.94
360.256	345.94
360.483	351.94
360.709	341.94
360.936	350.94
361.163	341.94
361.39	334.94
361.616	341.94
361.843	337.94
362.07	352.94
362.296	340.94
362.523	346.94
362.749	354.94
362.976	358.94
363.203	372.94
363.429	364.94
363.656	360.94
363.882	362.94
364.109	340.94
364.335	331.94
364.562	351.94
364.788	340.94
365.015	348.94
365.241	334.94
365.468	348.94
365.694	347.94
365.92	346.94
366.147	340.94
366.373	360.94
366.599	344.94
366.826	358.94
367.052	370.94
367.278	348.94
367.505	354.94
367.731	347.94
367.957	348.94
368.184	346.94
368.41	361.94
368.636	359.94
368.862	363.94
369.089	355.94
369.315	364.94
369.541	373.94
369.767	357.94
369.993	376.94
370.219	371.94
370.445	360.94
370.672	348.94
370.898	374.94
371.124	370.94
371.35	368.94
371.576	372.94
371.802	376.94
372.028	394.94
372.254	398.94
372.48	373.94
372.706	377.94
372.932	379.94
373.158	377.94
373.384	359.94
373.61	383.94
373.835	380.94
374.061	379.94
374.287	388.94
374.513	385.94
374.739	378.94
374.965	384.94
375.191	395.94
375.416	396.94
375.642	398.94
375.868	385.94
376.094	381.94
376.319	378.94
376.545	387.94
376.771	379.94
376.997	379.94
377.222	365.94
377.448	373.94
377.674	354.94
377.899	373.94
378.125	381.94
378.35	362.94
378.576	364.94
378.802	381.94
379.027	385.94
379.253	379.94
379.478	371.94
379.704	373.94
379.929	378.94
380.155	352.94
380.38	355.94
380.606	365.94
380.831	377.94
381.057	379.94
381.282	381.94
381.507	385.94
381.733	392.94
381.958	369.94
382.184	384.94
382.409	384.94
382.634	389.94
382.86	397.94
383.085	392.94
383.31	384.94
383.535	419.94
383.761	376.94
383.986	391.94
384.211	405.94
384.436	396.94
384.662	417.94
384.887	417.94
385.112	423.94
385.337	417.94
385.562	404.94
385.787	420.94
386.013	415.94
386.238	427.94
386.463	425.94
386.688	445.94
386.913	424.94
387.138	398.94
387.363	427.94
387.588	427.94
387.813	418.94
388.038	428.94
388.263	433.94
388.488	416.94
388.713	440.94
388.938	446.94
389.163	420.94
389.387	418.94
389.612	425.94
389.837	398.94
390.062	423.94
390.287	444.94
390.512	427.94
390.736	425.94
390.961	425.94
391.186	443.94
391.411	456.94
391.636	457.94
391.86	464.94
392.085	457.94
392.31	434.94
392.534	460.94
392.759	462.94
392.984	440.94
393.208	451.94
393.433	477.94
393.658	460.94
393.882	447.94
394.107	455.94
394.331	450.94
394.556	443.94
394.78	442.94
395.005	464.94
395.229	447.94
395.454	471.94
395.678	464.94
395.903	460.94
396.127	458.94
396.352	457.94
396.576	460.94
396.801	454.94
397.025	461.94
397.249	457.94
397.474	475.94
397.698	461.94
397.922	506.94
398.147	481.94
398.371	468.94
398.595	505.94
398.82	510.94
399.044	546.94
399.268	567.94
399.492	571.94
399.717	590.94
399.941	586.94
400.165	567.94
400.389	580.94
400.613	539.94
400.837	552.94
401.062	514.94
401.286	544.94
401.51	517.94
401.734	509.94
401.958	502.94
402.182	516.94
402.406	504.94
402.63	514.94
402.854	512.94
403.078	520.94
403.302	513.94
403.526	517.94
403.75	515.94
403.974	539.94
404.198	537.94
404.422	542.94
404.645	538.94
404.869	548.94
405.093	511.94
405.317	539.94
405.541	529.94
405.765	536.94
405.988	523.94
406.212	529.94
406.436	551.94
406.66	563.94
406.883	550.94
407.107	574.94
407.331	584.94
407.555	596.94
407.778	576.94
408.002	589.94
408.226	581.94
408.449	577.94
408.673	555.94
408.896	563.94
409.12	544.94
409.344	554.94
409.567	547.94
409.791	554.94
410.014	551.94
410.238	562.94
410.461	538.94
410.685	558.94
410.908	532.94
411.132	530.94
411.355	524.94
411.578	511.94
411.802	519.94
412.025	486.94
412.249	522.94
412.472	541.94
412.695	501.94
412.919	515.94
413.142	527.94
413.365	525.94
413.589	525.94
413.812	512.94
414.035	508.94
414.258	502.94
414.482	508.94
414.705	513.94
414.928	513.94
415.151	502.94
415.374	503.94
415.597	500.94
415.821	503.94
416.044	495.94
416.267	478.94
416.49	500.94
416.713	487.94
416.936	498.94
417.159	511.94
417.382	485.94
417.605	482.94
417.828	500.94
418.051	492.94
418.274	508.94
418.497	485.94
418.72	509.94
418.943	497.94
419.166	503.94
419.389	563.94
419.611	522.94
419.834	512.94
420.057	495.94
420.28	510.94
420.503	482.94
420.726	488.94
420.948	485.94
421.171	487.94
421.394	501.94
421.617	473.94
421.839	490.94
422.062	500.94
422.285	487.94
422.507	499.94
422.73	495.94
422.953	508.94
423.175	491.94
423.398	517.94
423.621	484.94
423.843	491.94
424.066	486.94
424.288	497.94
424.511	473.94
424.733	487.94
424.956	498.94
425.178	478.94
425.401	465.94
425.623	486.94
425.846	487.94
426.068	471.94
426.291	471.94
426.513	483.94
426.735	472.94
426.958	471.94
427.18	467.94
427.402	483.94
427.625	457.94
427.847	447.94
428.069	442.94
428.292	455.94
428.514	461.94
428.736	467.94
428.958	455.94
429.181	456.94
429.403	473.94
429.625	459.94
429.847	464.94
430.069	462.94
430.292	473.94
430.514	470.94
430.736	471.94
430.958	437.94
431.18	472.94
431.402	460.94
431.624	469.94
431.846	474.94
432.068	468.94
432.29	472.94
432.512	464.94
432.734	481.94
432.956	465.94
433.178	439.94
433.4	457.94
433.622	460.94
433.844	483.94
434.066	461.94
434.287	475.94
434.509	492.94
434.731	510.94
434.953	519.94
435.175	516.94
435.397	469.94
435.618	477.94
435.84	468.94
436.062	464.94
436.284	479.94
436.505	461.94
436.727	461.94
436.949	470.94
437.17	471.94
437.392	466.94
437.614	433.94
437.835	454.94
438.057	447.94
438.278	471.94
438.5	469.94
438.721	422.94
438.943	451.94
439.165	469.94
439.386	445.94
439.608	479.94
439.829	455.94
440.05	456.94
440.272	464.94
440.493	460.94
440.715	459.94
440.936	453.94
441.158	471.94
441.379	472.94
441.6	474.94
441.822	488.94
442.043	485.94
442.264	460.94
442.486	468.94
442.707	498.94
442.928	466.94
443.149	487.94
443.371	475.94
443.592	492.94
443.813	474.94
444.034	497.94
444.255	496.94
444.476	490.94
444.698	527.94
444.919	517.94
445.14	611.94
445.361	549.94
445.582	504.94
445.803	480.94
446.024	465.94
446.245	488.94
446.466	465.94
446.687	480.94
446.908	459.94
447.129	442.94
447.35	454.94
447.571	443.94
447.792	463.94
448.013	446.94
448.234	431.94
448.455	417.94
448.675	429.94
448.896	436.94
449.117	424.94
449.338	439.94
449.559	442.94
449.779	432.94
450	439.94
450.221	431.94
450.442	431.94
450.662	429.94
450.883	431.94
451.104	426.94
451.324	417.94
451.545	438.94
451.766	423.94
451.986	424.94
452.207	428.94
452.428	428.94
452.648	440.94
452.869	412.94
453.089	417.94
453.31	415.94
453.53	419.94
453.751	421.94
453.971	406.94
454.192	415.94
454.412	410.94
454.633	420.94
454.853	418.94
455.073	406.94
455.294	407.94
455.514	404.94
455.734	436.94
455.955	391.94
456.175	425.94
456.395	417.94
456.616	405.94
456.836	416.94
457.056	433.94
457.276	408.94
457.497	419.94
457.717	402.94
457.937	432.94
458.157	420.94
458.377	433.94
458.598	431.94
458.818	429.94
459.038	441.94
459.258	450.94
459.478	467.94
459.698	477.94
459.918	462.94
460.138	474.94
460.358	488.94
460.578	499.94
460.798	507.94
461.018	505.94
461.238	519.94
461.458	508.94
461.678	499.94
461.898	507.94
462.118	523.94
462.338	525.94
462.558	536.94
462.777	546.94
462.997	562.94
463.217	567.94
463.437	587.94
463.657	547.94
463.876	549.94
464.096	557.94
464.316	540.94
464.536	540.94
464.755	544.94
464.975	541.94
465.195	523.94
465.414	513.94
465.634	484.94
465.854	479.94
466.073	466.94
466.293	467.94
466.512	463.94
466.732	459.94
466.951	469.94
467.171	460.94
467.391	445.94
467.61	443.94
467.829	420.94
468.049	460.94
468.268	453.94
468.488	446.94
468.707	447.94
468.927	439.94
469.146	444.94
469.365	490.94
469.585	445.94
469.804	461.94
470.023	457.94
470.243	469.94
470.462	469.94
470.681	468.94
470.901	456.94
471.12	465.94
471.339	459.94
471.558	456.94
471.777	467.94
471.997	456.94
472.216	456.94
472.435	445.94
472.654	458.94
472.873	453.94
473.092	441.94
473.311	466.94
473.53	445.94
473.749	448.94
473.968	462.94
474.187	453.94
474.406	445.94
474.625	460.94
474.844	441.94
475.063	452.94
475.282	465.94
475.501	450.94
475.72	461.94
475.939	495.94
476.158	481.94
476.377	466.94
476.596	483.94
476.814	478.94
477.033	486.94
477.252	490.94
477.471	498.94
477.69	495.94
477.908	504.94
478.127	520.94
478.346	515.94
478.564	531.94
478.783	508.94
479.002	521.94
479.22	541.94
479.439	525.94
479.658	546.94
479.876	545.94
480.095	544.94
480.313	529.94
480.532	549.94
480.751	542.94
480.969	535.94
481.188	541.94
481.406	521.94
481.624	550.94
481.843	535.94
482.061	521.94
482.28	532.94
482.498	534.94
482.717	538.94
482.935	531.94
483.153	522.94
483.372	530.94
483.59	540.94
483.808	550.94
484.027	538.94
484.245	532.94
484.463	552.94
484.681	551.94
484.9	563.94
485.118	557.94
485.336	552.94
485.554	570.94
485.772	554.94
485.99	528.94
486.209	545.94
486.427	551.94
486.645	551.94
486.863	553.94
487.081	550.94
487.299	573.94
487.517	544.94
487.735	539.94
487.953	548.94
488.171	537.94
488.389	551.94
488.607	552.94
488.825	551.94
489.043	536.94
489.261	547.94
489.479	543.94
489.696	560.94
489.914	539.94
490.132	565.94
490.35	552.94
490.568	563.94
490.786	545.94
491.003	550.94
491.221	566.94
491.439	562.94
491.657	556.94
491.874	565.94
492.092	543.94
492.31	567.94
492.527	549.94
492.745	573.94
492.963	567.94
493.18	583.94
493.398	568.94
493.615	566.94
493.833	575.94
494.05	583.94
494.268	574.94
494.485	568.94
494.703	566.94
494.92	602.94
495.138	566.94
495.355	584.94
495.573	589.94
495.79	590.94
496.008	585.94
496.225	620.94
496.442	606.94
496.66	634.94
496.877	616.94
497.094	616.94
497.312	612.94
497.529	634.94
497.746	646.94
497.963	664.94
498.181	692.94
498.398	697.94
498.615	716.94
498.832	736.94
499.049	756.94
499.267	794.94
499.484	851.94
499.701	881.94
499.918	913.94
500.135	964.94
500.352	1009.94
500.569	1017.94
500.786	1037.94
501.003	989.94
501.22	953.94
501.437	920.94
501.654	855.94
501.871	833.94
