Data from Fe(NO3)3@0.025M.TitratingCurve.Agarose3%dH2O.NegLispCup.LampEnergy10.LIBS07252019_HRD10591_16-53-52-334.txt Node
Date: Thu Jul 25 16:53:52 EDT 2019
User: cochatt
Spectrometer: HR+D1059
Trigger mode: 1
Integration Time (sec): 1.000000E-1
Scans to average: 1
Electric dark correction enabled: true
Nonlinearity correction enabled: false
Boxcar width: 0
XAxis mode: Wavelengths
Number of Pixels in Spectrum: 2048
>>>>>Begin Spectral Data<<<<<
223.165	-15.12
223.4	-15.12
223.635	-15.12
223.869	-22.12
224.104	-11.12
224.338	-13.12
224.573	-25.12
224.808	-6.12
225.042	-2.12
225.277	-2.12
225.511	-3.12
225.746	11.88
225.98	-1.12
226.215	17.88
226.449	5.88
226.683	12.88
226.918	22.88
227.152	29.88
227.387	52.88
227.621	26.88
227.856	51.88
228.09	53.88
228.324	22.88
228.559	40.88
228.793	67.88
229.027	71.88
229.262	68.88
229.496	79.88
229.73	80.88
229.964	93.88
230.199	93.88
230.433	92.88
230.667	103.88
230.901	89.88
231.136	101.88
231.37	96.88
231.604	99.88
231.838	92.88
232.072	90.88
232.306	114.88
232.541	99.88
232.775	91.88
233.009	109.88
233.243	95.88
233.477	103.88
233.711	106.88
233.945	108.88
234.179	98.88
234.413	89.88
234.647	84.88
234.881	100.88
235.115	96.88
235.349	106.88
235.583	86.88
235.817	97.88
236.051	111.88
236.285	95.88
236.519	107.88
236.753	101.88
236.987	94.88
237.221	113.88
237.455	116.88
237.689	105.88
237.922	99.88
238.156	101.88
238.39	120.88
238.624	97.88
238.858	109.88
239.091	93.88
239.325	98.88
239.559	106.88
239.793	117.88
240.027	116.88
240.26	107.88
240.494	108.88
240.728	105.88
240.961	115.88
241.195	98.88
241.429	118.88
241.662	107.88
241.896	102.88
242.13	129.88
242.363	93.88
242.597	106.88
242.83	111.88
243.064	119.88
243.298	98.88
243.531	117.88
243.765	102.88
243.998	104.88
244.232	98.88
244.465	116.88
244.699	124.88
244.932	110.88
245.166	115.88
245.399	116.88
245.633	117.88
245.866	115.88
246.099	120.88
246.333	117.88
246.566	123.88
246.8	135.88
247.033	109.88
247.266	117.88
247.5	115.88
247.733	121.88
247.966	115.88
248.2	125.88
248.433	126.88
248.666	146.88
248.899	134.88
249.133	113.88
249.366	125.88
249.599	127.88
249.832	126.88
250.066	143.88
250.299	137.88
250.532	123.88
250.765	129.88
250.998	111.88
251.231	127.88
251.465	138.88
251.698	140.88
251.931	140.88
252.164	129.88
252.397	141.88
252.63	139.88
252.863	126.88
253.096	137.88
253.329	139.88
253.562	135.88
253.795	137.88
254.028	125.88
254.261	144.88
254.494	148.88
254.727	137.88
254.96	130.88
255.193	129.88
255.426	139.88
255.659	140.88
255.892	151.88
256.124	162.88
256.357	148.88
256.59	166.88
256.823	154.88
257.056	155.88
257.289	149.88
257.521	150.88
257.754	149.88
257.987	144.88
258.22	144.88
258.452	144.88
258.685	154.88
258.918	154.88
259.151	167.88
259.383	161.88
259.616	146.88
259.849	145.88
260.081	173.88
260.314	180.88
260.547	170.88
260.779	153.88
261.012	160.88
261.244	167.88
261.477	182.88
261.71	172.88
261.942	179.88
262.175	170.88
262.407	141.88
262.64	146.88
262.872	154.88
263.105	169.88
263.337	173.88
263.57	168.88
263.802	162.88
264.035	168.88
264.267	150.88
264.499	160.88
264.732	173.88
264.964	177.88
265.197	180.88
265.429	174.88
265.661	173.88
265.894	166.88
266.126	170.88
266.358	163.88
266.591	166.88
266.823	162.88
267.055	166.88
267.287	177.88
267.52	169.88
267.752	186.88
267.984	189.88
268.216	168.88
268.448	185.88
268.681	189.88
268.913	185.88
269.145	190.88
269.377	192.88
269.609	180.88
269.841	181.88
270.073	177.88
270.306	182.88
270.538	189.88
270.77	190.88
271.002	191.88
271.234	191.88
271.466	188.88
271.698	190.88
271.93	183.88
272.162	192.88
272.394	198.88
272.626	207.88
272.858	187.88
273.09	185.88
273.322	195.88
273.553	210.88
273.785	203.88
274.017	220.88
274.249	203.88
274.481	203.88
274.713	227.88
274.945	215.88
275.176	198.88
275.408	209.88
275.64	212.88
275.872	220.88
276.104	201.88
276.335	213.88
276.567	201.88
276.799	227.88
277.031	219.88
277.262	211.88
277.494	222.88
277.726	205.88
277.957	213.88
278.189	202.88
278.421	210.88
278.652	229.88
278.884	215.88
279.115	216.88
279.347	243.88
279.579	236.88
279.81	209.88
280.042	208.88
280.273	225.88
280.505	233.88
280.736	215.88
280.968	208.88
281.199	226.88
281.431	227.88
281.662	240.88
281.894	227.88
282.125	226.88
282.356	244.88
282.588	246.88
282.819	238.88
283.051	243.88
283.282	229.88
283.513	233.88
283.745	241.88
283.976	207.88
284.207	209.88
284.439	232.88
284.67	238.88
284.901	233.88
285.132	239.88
285.364	246.88
285.595	254.88
285.826	227.88
286.057	233.88
286.288	244.88
286.52	251.88
286.751	243.88
286.982	258.88
287.213	257.88
287.444	237.88
287.675	238.88
287.906	250.88
288.138	275.88
288.369	255.88
288.6	237.88
288.831	254.88
289.062	265.88
289.293	282.88
289.524	259.88
289.755	254.88
289.986	258.88
290.217	246.88
290.448	255.88
290.679	260.88
290.91	258.88
291.141	267.88
291.371	267.88
291.602	261.88
291.833	280.88
292.064	272.88
292.295	255.88
292.526	261.88
292.757	271.88
292.987	268.88
293.218	262.88
293.449	255.88
293.68	267.88
293.91	280.88
294.141	260.88
294.372	261.88
294.603	270.88
294.833	265.88
295.064	281.88
295.295	274.88
295.525	269.88
295.756	285.88
295.987	266.88
296.217	275.88
296.448	271.88
296.679	296.88
296.909	282.88
297.14	276.88
297.37	275.88
297.601	277.88
297.831	296.88
298.062	279.88
298.292	272.88
298.523	277.88
298.753	298.88
298.984	274.88
299.214	294.88
299.445	278.88
299.675	308.88
299.905	295.88
300.136	303.88
300.366	279.88
300.597	298.88
300.827	273.88
301.057	300.88
301.288	291.88
301.518	299.88
301.748	293.88
301.979	309.88
302.209	314.88
302.439	304.88
302.669	306.88
302.9	302.88
303.13	311.88
303.36	350.88
303.59	333.88
303.82	333.88
304.051	313.88
304.281	318.88
304.511	310.88
304.741	304.88
304.971	313.88
305.201	319.88
305.431	320.88
305.661	304.88
305.891	305.88
306.121	329.88
306.352	319.88
306.582	317.88
306.812	317.88
307.042	319.88
307.272	306.88
307.502	326.88
307.731	325.88
307.961	329.88
308.191	321.88
308.421	321.88
308.651	321.88
308.881	313.88
309.111	326.88
309.341	323.88
309.571	305.88
309.8	312.88
310.03	335.88
310.26	343.88
310.49	332.88
310.72	326.88
310.949	330.88
311.179	317.88
311.409	337.88
311.639	336.88
311.868	323.88
312.098	344.88
312.328	339.88
312.557	352.88
312.787	336.88
313.017	350.88
313.246	329.88
313.476	346.88
313.706	339.88
313.935	348.88
314.165	341.88
314.394	337.88
314.624	346.88
314.853	360.88
315.083	352.88
315.312	371.88
315.542	350.88
315.771	338.88
316.001	346.88
316.23	363.88
316.46	354.88
316.689	364.88
316.919	350.88
317.148	356.88
317.377	352.88
317.607	374.88
317.836	361.88
318.065	367.88
318.295	362.88
318.524	370.88
318.753	362.88
318.983	367.88
319.212	370.88
319.441	366.88
319.67	372.88
319.9	351.88
320.129	381.88
320.358	375.88
320.587	382.88
320.816	357.88
321.046	372.88
321.275	368.88
321.504	379.88
321.733	377.88
321.962	384.88
322.191	378.88
322.42	366.88
322.649	385.88
322.878	372.88
323.108	391.88
323.337	384.88
323.566	369.88
323.795	393.88
324.024	371.88
324.253	394.88
324.482	388.88
324.71	386.88
324.939	375.88
325.168	361.88
325.397	375.88
325.626	401.88
325.855	392.88
326.084	387.88
326.313	408.88
326.542	402.88
326.77	400.88
326.999	391.88
327.228	387.88
327.457	390.88
327.686	400.88
327.914	397.88
328.143	403.88
328.372	392.88
328.6	394.88
328.829	384.88
329.058	375.88
329.287	399.88
329.515	384.88
329.744	411.88
329.972	399.88
330.201	400.88
330.43	383.88
330.658	399.88
330.887	391.88
331.115	375.88
331.344	381.88
331.572	416.88
331.801	407.88
332.03	403.88
332.258	409.88
332.486	410.88
332.715	395.88
332.943	412.88
333.172	407.88
333.4	417.88
333.629	429.88
333.857	429.88
334.085	432.88
334.314	415.88
334.542	429.88
334.771	426.88
334.999	439.88
335.227	424.88
335.455	424.88
335.684	438.88
335.912	447.88
336.14	439.88
336.369	437.88
336.597	436.88
336.825	433.88
337.053	430.88
337.281	441.88
337.51	458.88
337.738	435.88
337.966	426.88
338.194	429.88
338.422	424.88
338.65	430.88
338.878	436.88
339.106	433.88
339.334	422.88
339.562	414.88
339.79	403.88
340.018	422.88
340.246	435.88
340.474	429.88
340.702	425.88
340.93	419.88
341.158	423.88
341.386	420.88
341.614	415.88
341.842	447.88
342.07	407.88
342.298	435.88
342.526	441.88
342.754	430.88
342.981	423.88
343.209	421.88
343.437	445.88
343.665	437.88
343.893	435.88
344.12	456.88
344.348	449.88
344.576	446.88
344.804	435.88
345.031	439.88
345.259	420.88
345.487	427.88
345.714	431.88
345.942	432.88
346.17	415.88
346.397	418.88
346.625	418.88
346.853	429.88
347.08	426.88
347.308	397.88
347.535	414.88
347.763	429.88
347.99	405.88
348.218	442.88
348.445	430.88
348.673	414.88
348.9	410.88
349.128	405.88
349.355	426.88
349.583	433.88
349.81	439.88
350.037	411.88
350.265	405.88
350.492	422.88
350.72	392.88
350.947	423.88
351.174	434.88
351.402	412.88
351.629	419.88
351.856	414.88
352.083	425.88
352.311	414.88
352.538	414.88
352.765	430.88
352.992	424.88
353.22	410.88
353.447	421.88
353.674	427.88
353.901	421.88
354.128	382.88
354.355	433.88
354.583	426.88
354.81	411.88
355.037	414.88
355.264	420.88
355.491	419.88
355.718	419.88
355.945	402.88
356.172	410.88
356.399	414.88
356.626	418.88
356.853	424.88
357.08	442.88
357.307	424.88
357.534	423.88
357.761	431.88
357.988	421.88
358.215	436.88
358.441	416.88
358.668	424.88
358.895	437.88
359.122	408.88
359.349	423.88
359.576	435.88
359.802	431.88
360.029	421.88
360.256	433.88
360.483	441.88
360.709	430.88
360.936	428.88
361.163	422.88
361.39	425.88
361.616	431.88
361.843	408.88
362.07	421.88
362.296	442.88
362.523	427.88
362.749	415.88
362.976	417.88
363.203	424.88
363.429	442.88
363.656	447.88
363.882	436.88
364.109	427.88
364.335	443.88
364.562	447.88
364.788	433.88
365.015	446.88
365.241	437.88
365.468	435.88
365.694	421.88
365.92	435.88
366.147	437.88
366.373	453.88
366.599	430.88
366.826	449.88
367.052	451.88
367.278	448.88
367.505	433.88
367.731	441.88
367.957	440.88
368.184	447.88
368.41	469.88
368.636	449.88
368.862	466.88
369.089	447.88
369.315	459.88
369.541	452.88
369.767	442.88
369.993	432.88
370.219	441.88
370.445	441.88
370.672	442.88
370.898	451.88
371.124	462.88
371.35	458.88
371.576	458.88
371.802	436.88
372.028	446.88
372.254	473.88
372.48	445.88
372.706	472.88
372.932	469.88
373.158	452.88
373.384	469.88
373.61	474.88
373.835	467.88
374.061	458.88
374.287	496.88
374.513	485.88
374.739	462.88
374.965	467.88
375.191	484.88
375.416	471.88
375.642	477.88
375.868	452.88
376.094	446.88
376.319	454.88
376.545	450.88
376.771	448.88
376.997	445.88
377.222	442.88
377.448	456.88
377.674	467.88
377.899	472.88
378.125	481.88
378.35	457.88
378.576	463.88
378.802	455.88
379.027	462.88
379.253	486.88
379.478	458.88
379.704	473.88
379.929	467.88
380.155	441.88
380.38	450.88
380.606	463.88
380.831	455.88
381.057	445.88
381.282	455.88
381.507	463.88
381.733	479.88
381.958	498.88
382.184	486.88
382.409	465.88
382.634	467.88
382.86	483.88
383.085	462.88
383.31	466.88
383.535	498.88
383.761	497.88
383.986	483.88
384.211	503.88
384.436	498.88
384.662	486.88
384.887	490.88
385.112	484.88
385.337	492.88
385.562	496.88
385.787	507.88
386.013	510.88
386.238	506.88
386.463	515.88
386.688	492.88
386.913	487.88
387.138	510.88
387.363	495.88
387.588	504.88
387.813	503.88
388.038	486.88
388.263	509.88
388.488	517.88
388.713	518.88
388.938	499.88
389.163	520.88
389.387	517.88
389.612	495.88
389.837	507.88
390.062	523.88
390.287	507.88
390.512	516.88
390.736	518.88
390.961	506.88
391.186	528.88
391.411	527.88
391.636	555.88
391.86	530.88
392.085	534.88
392.31	546.88
392.534	525.88
392.759	538.88
392.984	502.88
393.208	551.88
393.433	545.88
393.658	523.88
393.882	549.88
394.107	540.88
394.331	559.88
394.556	532.88
394.78	535.88
395.005	553.88
395.229	547.88
395.454	529.88
395.678	548.88
395.903	564.88
396.127	535.88
396.352	559.88
396.576	540.88
396.801	543.88
397.025	544.88
397.249	558.88
397.474	565.88
397.698	564.88
397.922	561.88
398.147	555.88
398.371	569.88
398.595	590.88
398.82	583.88
399.044	609.88
399.268	584.88
399.492	584.88
399.717	581.88
399.941	595.88
400.165	629.88
400.389	620.88
400.613	633.88
400.837	593.88
401.062	599.88
401.286	586.88
401.51	581.88
401.734	593.88
401.958	583.88
402.182	554.88
402.406	586.88
402.63	584.88
402.854	571.88
403.078	583.88
403.302	582.88
403.526	592.88
403.75	573.88
403.974	571.88
404.198	589.88
404.422	573.88
404.645	563.88
404.869	568.88
405.093	569.88
405.317	598.88
405.541	579.88
405.765	599.88
405.988	606.88
406.212	619.88
406.436	598.88
406.66	603.88
406.883	614.88
407.107	605.88
407.331	618.88
407.555	628.88
407.778	609.88
408.002	614.88
408.226	627.88
408.449	617.88
408.673	607.88
408.896	626.88
409.12	596.88
409.344	620.88
409.567	608.88
409.791	628.88
410.014	600.88
410.238	602.88
410.461	601.88
410.685	630.88
410.908	600.88
411.132	593.88
411.355	603.88
411.578	597.88
411.802	570.88
412.025	610.88
412.249	579.88
412.472	629.88
412.695	605.88
412.919	564.88
413.142	589.88
413.365	602.88
413.589	601.88
413.812	588.88
414.035	589.88
414.258	587.88
414.482	562.88
414.705	585.88
414.928	573.88
415.151	586.88
415.374	583.88
415.597	579.88
415.821	531.88
416.044	568.88
416.267	550.88
416.49	558.88
416.713	559.88
416.936	578.88
417.159	571.88
417.382	539.88
417.605	569.88
417.828	564.88
418.051	547.88
418.274	567.88
418.497	529.88
418.72	541.88
418.943	562.88
419.166	563.88
419.389	589.88
419.611	602.88
419.834	570.88
420.057	557.88
420.28	550.88
420.503	530.88
420.726	569.88
420.948	538.88
421.171	546.88
421.394	543.88
421.617	540.88
421.839	539.88
422.062	525.88
422.285	539.88
422.507	534.88
422.73	551.88
422.953	536.88
423.175	546.88
423.398	557.88
423.621	549.88
423.843	554.88
424.066	544.88
424.288	560.88
424.511	550.88
424.733	516.88
424.956	543.88
425.178	545.88
425.401	546.88
425.623	539.88
425.846	534.88
426.068	538.88
426.291	539.88
426.513	542.88
426.735	541.88
426.958	548.88
427.18	533.88
427.402	535.88
427.625	519.88
427.847	546.88
428.069	541.88
428.292	557.88
428.514	548.88
428.736	545.88
428.958	555.88
429.181	541.88
429.403	529.88
429.625	534.88
429.847	533.88
430.069	551.88
430.292	570.88
430.514	531.88
430.736	534.88
430.958	560.88
431.18	523.88
431.402	554.88
431.624	552.88
431.846	526.88
432.068	537.88
432.29	535.88
432.512	517.88
432.734	559.88
432.956	539.88
433.178	551.88
433.4	534.88
433.622	544.88
433.844	559.88
434.066	534.88
434.287	561.88
434.509	543.88
434.731	535.88
434.953	543.88
435.175	536.88
435.397	567.88
435.618	555.88
435.84	557.88
436.062	536.88
436.284	536.88
436.505	528.88
436.727	548.88
436.949	542.88
437.17	527.88
437.392	548.88
437.614	539.88
437.835	546.88
438.057	537.88
438.278	535.88
438.5	524.88
438.721	533.88
438.943	535.88
439.165	519.88
439.386	502.88
439.608	547.88
439.829	533.88
440.05	505.88
440.272	514.88
440.493	497.88
440.715	513.88
440.936	542.88
441.158	527.88
441.379	527.88
441.6	530.88
441.822	542.88
442.043	540.88
442.264	521.88
442.486	550.88
442.707	521.88
442.928	536.88
443.149	544.88
443.371	534.88
443.592	527.88
443.813	554.88
444.034	531.88
444.255	533.88
444.476	516.88
444.698	545.88
444.919	533.88
445.14	647.88
445.361	590.88
445.582	533.88
445.803	513.88
446.024	518.88
446.245	528.88
446.466	509.88
446.687	518.88
446.908	518.88
447.129	521.88
447.35	506.88
447.571	509.88
447.792	496.88
448.013	508.88
448.234	487.88
448.455	515.88
448.675	494.88
448.896	509.88
449.117	474.88
449.338	523.88
449.559	482.88
449.779	506.88
450	498.88
450.221	513.88
450.442	510.88
450.662	485.88
450.883	497.88
451.104	487.88
451.324	500.88
451.545	486.88
451.766	488.88
451.986	458.88
452.207	481.88
452.428	502.88
452.648	493.88
452.869	477.88
453.089	481.88
453.31	513.88
453.53	486.88
453.751	469.88
453.971	473.88
454.192	502.88
454.412	473.88
454.633	460.88
454.853	480.88
455.073	486.88
455.294	489.88
455.514	487.88
455.734	483.88
455.955	466.88
456.175	488.88
456.395	473.88
456.616	474.88
456.836	494.88
457.056	502.88
457.276	478.88
457.497	502.88
457.717	482.88
457.937	489.88
458.157	513.88
458.377	496.88
458.598	527.88
458.818	488.88
459.038	485.88
459.258	509.88
459.478	517.88
459.698	510.88
459.918	524.88
460.138	521.88
460.358	536.88
460.578	557.88
460.798	527.88
461.018	521.88
461.238	567.88
461.458	546.88
461.678	550.88
461.898	530.88
462.118	524.88
462.338	559.88
462.558	571.88
462.777	585.88
462.997	561.88
463.217	573.88
463.437	599.88
463.657	559.88
463.876	582.88
464.096	577.88
464.316	568.88
464.536	573.88
464.755	582.88
464.975	559.88
465.195	547.88
465.414	519.88
465.634	551.88
465.854	567.88
466.073	524.88
466.293	538.88
466.512	526.88
466.732	528.88
466.951	529.88
467.171	524.88
467.391	534.88
467.61	526.88
467.829	545.88
468.049	525.88
468.268	530.88
468.488	512.88
468.707	523.88
468.927	499.88
469.146	519.88
469.365	510.88
469.585	523.88
469.804	535.88
470.023	528.88
470.243	537.88
470.462	545.88
470.681	523.88
470.901	518.88
471.12	534.88
471.339	515.88
471.558	509.88
471.777	525.88
471.997	504.88
472.216	529.88
472.435	530.88
472.654	529.88
472.873	536.88
473.092	526.88
473.311	536.88
473.53	529.88
473.749	537.88
473.968	569.88
474.187	540.88
474.406	539.88
474.625	538.88
474.844	540.88
475.063	545.88
475.282	548.88
475.501	563.88
475.72	563.88
475.939	544.88
476.158	551.88
476.377	564.88
476.596	565.88
476.814	574.88
477.033	564.88
477.252	573.88
477.471	582.88
477.69	591.88
477.908	589.88
478.127	582.88
478.346	606.88
478.564	618.88
478.783	586.88
479.002	619.88
479.22	607.88
479.439	622.88
479.658	625.88
479.876	600.88
480.095	603.88
480.313	616.88
480.532	625.88
480.751	605.88
480.969	649.88
481.188	617.88
481.406	630.88
481.624	616.88
481.843	611.88
482.061	625.88
482.28	642.88
482.498	614.88
482.717	609.88
482.935	637.88
483.153	632.88
483.372	623.88
483.59	627.88
483.808	652.88
484.027	634.88
484.245	650.88
484.463	638.88
484.681	643.88
484.9	644.88
485.118	629.88
485.336	609.88
485.554	626.88
485.772	643.88
485.99	641.88
486.209	625.88
486.427	653.88
486.645	640.88
486.863	652.88
487.081	678.88
487.299	659.88
487.517	628.88
487.735	672.88
487.953	635.88
488.171	652.88
488.389	643.88
488.607	637.88
488.825	628.88
489.043	646.88
489.261	684.88
489.479	666.88
489.696	680.88
489.914	666.88
490.132	649.88
490.35	671.88
490.568	676.88
490.786	666.88
491.003	643.88
491.221	663.88
491.439	683.88
491.657	644.88
491.874	659.88
492.092	657.88
492.31	686.88
492.527	661.88
492.745	656.88
492.963	687.88
493.18	689.88
493.398	671.88
493.615	677.88
493.833	675.88
494.05	702.88
494.268	698.88
494.485	689.88
494.703	692.88
494.92	693.88
495.138	689.88
495.355	696.88
495.573	714.88
495.79	707.88
496.008	700.88
496.225	697.88
496.442	708.88
496.66	706.88
496.877	709.88
497.094	727.88
497.312	740.88
497.529	720.88
497.746	721.88
497.963	744.88
498.181	767.88
498.398	770.88
498.615	781.88
498.832	790.88
499.049	783.88
499.267	803.88
499.484	816.88
499.701	848.88
499.918	843.88
500.135	872.88
500.352	859.88
500.569	875.88
500.786	883.88
501.003	855.88
501.22	847.88
501.437	838.88
501.654	830.88
501.871	813.88
