Data from Fe(NO3)3@0.025M.TitratingCurve.Agarose3%dH2O.NegLispCup.LampEnergy10.LIBS07252019_HRD10591_16-54-54-335.txt Node
Date: Thu Jul 25 16:54:54 EDT 2019
User: cochatt
Spectrometer: HR+D1059
Trigger mode: 1
Integration Time (sec): 1.000000E-1
Scans to average: 1
Electric dark correction enabled: true
Nonlinearity correction enabled: false
Boxcar width: 0
XAxis mode: Wavelengths
Number of Pixels in Spectrum: 2048
>>>>>Begin Spectral Data<<<<<
223.165	-13.88
223.4	-13.88
223.635	-13.88
223.869	-18.88
224.104	-22.88
224.338	-17.88
224.573	-7.88
224.808	-11.88
225.042	-17.88
225.277	-3.88
225.511	-3.88
225.746	9.12
225.98	13.12
226.215	8.12
226.449	18.12
226.683	26.12
226.918	18.12
227.152	26.12
227.387	41.12
227.621	45.12
227.856	37.12
228.09	44.12
228.324	41.12
228.559	59.12
228.793	61.12
229.027	69.12
229.262	98.12
229.496	94.12
229.73	90.12
229.964	76.12
230.199	92.12
230.433	90.12
230.667	88.12
230.901	83.12
231.136	96.12
231.37	97.12
231.604	109.12
231.838	118.12
232.072	105.12
232.306	103.12
232.541	101.12
232.775	99.12
233.009	101.12
233.243	109.12
233.477	113.12
233.711	106.12
233.945	100.12
234.179	100.12
234.413	98.12
234.647	100.12
234.881	98.12
235.115	91.12
235.349	101.12
235.583	107.12
235.817	102.12
236.051	109.12
236.285	98.12
236.519	91.12
236.753	101.12
236.987	111.12
237.221	102.12
237.455	114.12
237.689	106.12
237.922	102.12
238.156	86.12
238.39	90.12
238.624	102.12
238.858	110.12
239.091	114.12
239.325	93.12
239.559	98.12
239.793	103.12
240.027	112.12
240.26	102.12
240.494	112.12
240.728	106.12
240.961	118.12
241.195	118.12
241.429	104.12
241.662	109.12
241.896	102.12
242.13	112.12
242.363	106.12
242.597	97.12
242.83	116.12
243.064	112.12
243.298	108.12
243.531	118.12
243.765	105.12
243.998	108.12
244.232	108.12
244.465	112.12
244.699	104.12
244.932	116.12
245.166	107.12
245.399	125.12
245.633	128.12
245.866	103.12
246.099	102.12
246.333	117.12
246.566	101.12
246.8	119.12
247.033	126.12
247.266	112.12
247.5	127.12
247.733	121.12
247.966	133.12
248.2	121.12
248.433	122.12
248.666	115.12
248.899	106.12
249.133	128.12
249.366	138.12
249.599	122.12
249.832	138.12
250.066	121.12
250.299	117.12
250.532	134.12
250.765	123.12
250.998	109.12
251.231	120.12
251.465	126.12
251.698	128.12
251.931	140.12
252.164	130.12
252.397	125.12
252.63	132.12
252.863	133.12
253.096	135.12
253.329	121.12
253.562	137.12
253.795	127.12
254.028	131.12
254.261	137.12
254.494	129.12
254.727	144.12
254.96	146.12
255.193	142.12
255.426	140.12
255.659	126.12
255.892	134.12
256.124	146.12
256.357	146.12
256.59	136.12
256.823	143.12
257.056	142.12
257.289	122.12
257.521	140.12
257.754	134.12
257.987	141.12
258.22	137.12
258.452	138.12
258.685	137.12
258.918	156.12
259.151	116.12
259.383	125.12
259.616	161.12
259.849	164.12
260.081	136.12
260.314	164.12
260.547	157.12
260.779	154.12
261.012	134.12
261.244	146.12
261.477	143.12
261.71	149.12
261.942	138.12
262.175	142.12
262.407	148.12
262.64	143.12
262.872	155.12
263.105	150.12
263.337	156.12
263.57	148.12
263.802	156.12
264.035	148.12
264.267	156.12
264.499	154.12
264.732	146.12
264.964	153.12
265.197	143.12
265.429	158.12
265.661	154.12
265.894	154.12
266.126	160.12
266.358	160.12
266.591	148.12
266.823	154.12
267.055	158.12
267.287	163.12
267.52	159.12
267.752	161.12
267.984	160.12
268.216	154.12
268.448	160.12
268.681	158.12
268.913	169.12
269.145	181.12
269.377	164.12
269.609	163.12
269.841	165.12
270.073	162.12
270.306	178.12
270.538	162.12
270.77	160.12
271.002	174.12
271.234	166.12
271.466	173.12
271.698	179.12
271.93	166.12
272.162	173.12
272.394	182.12
272.626	177.12
272.858	178.12
273.09	172.12
273.322	170.12
273.553	169.12
273.785	186.12
274.017	180.12
274.249	170.12
274.481	189.12
274.713	164.12
274.945	185.12
275.176	187.12
275.408	186.12
275.64	181.12
275.872	168.12
276.104	160.12
276.335	168.12
276.567	167.12
276.799	178.12
277.031	176.12
277.262	168.12
277.494	182.12
277.726	173.12
277.957	185.12
278.189	190.12
278.421	173.12
278.652	180.12
278.884	185.12
279.115	169.12
279.347	187.12
279.579	199.12
279.81	190.12
280.042	195.12
280.273	200.12
280.505	167.12
280.736	189.12
280.968	192.12
281.199	197.12
281.431	195.12
281.662	191.12
281.894	189.12
282.125	198.12
282.356	188.12
282.588	197.12
282.819	195.12
283.051	209.12
283.282	195.12
283.513	201.12
283.745	195.12
283.976	185.12
284.207	196.12
284.439	206.12
284.67	202.12
284.901	198.12
285.132	205.12
285.364	194.12
285.595	210.12
285.826	212.12
286.057	197.12
286.288	206.12
286.52	214.12
286.751	202.12
286.982	200.12
287.213	212.12
287.444	218.12
287.675	214.12
287.906	216.12
288.138	218.12
288.369	199.12
288.6	210.12
288.831	210.12
289.062	205.12
289.293	203.12
289.524	212.12
289.755	195.12
289.986	189.12
290.217	218.12
290.448	210.12
290.679	227.12
290.91	224.12
291.141	216.12
291.371	213.12
291.602	214.12
291.833	216.12
292.064	221.12
292.295	234.12
292.526	235.12
292.757	219.12
292.987	225.12
293.218	214.12
293.449	230.12
293.68	221.12
293.91	211.12
294.141	233.12
294.372	234.12
294.603	234.12
294.833	243.12
295.064	219.12
295.295	230.12
295.525	218.12
295.756	222.12
295.987	225.12
296.217	245.12
296.448	230.12
296.679	220.12
296.909	202.12
297.14	219.12
297.37	219.12
297.601	242.12
297.831	214.12
298.062	232.12
298.292	248.12
298.523	247.12
298.753	231.12
298.984	227.12
299.214	252.12
299.445	240.12
299.675	248.12
299.905	235.12
300.136	216.12
300.366	211.12
300.597	257.12
300.827	258.12
301.057	236.12
301.288	227.12
301.518	258.12
301.748	231.12
301.979	246.12
302.209	241.12
302.439	257.12
302.669	232.12
302.9	262.12
303.13	249.12
303.36	259.12
303.59	235.12
303.82	240.12
304.051	234.12
304.281	248.12
304.511	246.12
304.741	249.12
304.971	245.12
305.201	231.12
305.431	252.12
305.661	254.12
305.891	269.12
306.121	252.12
306.352	236.12
306.582	240.12
306.812	260.12
307.042	256.12
307.272	267.12
307.502	267.12
307.731	249.12
307.961	249.12
308.191	251.12
308.421	256.12
308.651	245.12
308.881	252.12
309.111	240.12
309.341	240.12
309.571	256.12
309.8	262.12
310.03	258.12
310.26	261.12
310.49	262.12
310.72	250.12
310.949	263.12
311.179	249.12
311.409	275.12
311.639	264.12
311.868	248.12
312.098	249.12
312.328	260.12
312.557	262.12
312.787	243.12
313.017	276.12
313.246	267.12
313.476	249.12
313.706	268.12
313.935	271.12
314.165	274.12
314.394	267.12
314.624	272.12
314.853	263.12
315.083	276.12
315.312	280.12
315.542	251.12
315.771	287.12
316.001	270.12
316.23	278.12
316.46	276.12
316.689	275.12
316.919	262.12
317.148	274.12
317.377	277.12
317.607	261.12
317.836	257.12
318.065	274.12
318.295	272.12
318.524	269.12
318.753	282.12
318.983	284.12
319.212	282.12
319.441	258.12
319.67	267.12
319.9	281.12
320.129	268.12
320.358	266.12
320.587	288.12
320.816	267.12
321.046	258.12
321.275	269.12
321.504	284.12
321.733	265.12
321.962	272.12
322.191	282.12
322.42	269.12
322.649	261.12
322.878	267.12
323.108	284.12
323.337	274.12
323.566	278.12
323.795	265.12
324.024	281.12
324.253	269.12
324.482	281.12
324.71	289.12
324.939	297.12
325.168	287.12
325.397	301.12
325.626	285.12
325.855	290.12
326.084	296.12
326.313	306.12
326.542	289.12
326.77	297.12
326.999	306.12
327.228	308.12
327.457	272.12
327.686	299.12
327.914	302.12
328.143	299.12
328.372	288.12
328.6	279.12
328.829	296.12
329.058	299.12
329.287	300.12
329.515	302.12
329.744	314.12
329.972	316.12
330.201	309.12
330.43	292.12
330.658	288.12
330.887	306.12
331.115	306.12
331.344	316.12
331.572	302.12
331.801	309.12
332.03	326.12
332.258	330.12
332.486	331.12
332.715	334.12
332.943	333.12
333.172	335.12
333.4	363.12
333.629	350.12
333.857	372.12
334.085	378.12
334.314	352.12
334.542	361.12
334.771	349.12
334.999	370.12
335.227	367.12
335.455	339.12
335.684	350.12
335.912	340.12
336.14	361.12
336.369	350.12
336.597	355.12
336.825	343.12
337.053	357.12
337.281	357.12
337.51	350.12
337.738	317.12
337.966	343.12
338.194	325.12
338.422	317.12
338.65	314.12
338.878	316.12
339.106	323.12
339.334	332.12
339.562	332.12
339.79	331.12
340.018	330.12
340.246	309.12
340.474	304.12
340.702	302.12
340.93	313.12
341.158	320.12
341.386	314.12
341.614	309.12
341.842	298.12
342.07	313.12
342.298	307.12
342.526	329.12
342.754	326.12
342.981	321.12
343.209	320.12
343.437	343.12
343.665	341.12
343.893	355.12
344.12	348.12
344.348	335.12
344.576	334.12
344.804	321.12
345.031	337.12
345.259	330.12
345.487	330.12
345.714	309.12
345.942	320.12
346.17	310.12
346.397	309.12
346.625	298.12
346.853	313.12
347.08	307.12
347.308	307.12
347.535	308.12
347.763	327.12
347.99	321.12
348.218	306.12
348.445	304.12
348.673	317.12
348.9	318.12
349.128	308.12
349.355	292.12
349.583	319.12
349.81	302.12
350.037	291.12
350.265	301.12
350.492	298.12
350.72	293.12
350.947	305.12
351.174	300.12
351.402	293.12
351.629	312.12
351.856	316.12
352.083	310.12
352.311	297.12
352.538	295.12
352.765	302.12
352.992	315.12
353.22	308.12
353.447	281.12
353.674	277.12
353.901	295.12
354.128	296.12
354.355	312.12
354.583	281.12
354.81	292.12
355.037	307.12
355.264	308.12
355.491	317.12
355.718	289.12
355.945	316.12
356.172	318.12
356.399	286.12
356.626	305.12
356.853	312.12
357.08	302.12
357.307	314.12
357.534	290.12
357.761	313.12
357.988	315.12
358.215	307.12
358.441	304.12
358.668	321.12
358.895	300.12
359.122	314.12
359.349	321.12
359.576	313.12
359.802	310.12
360.029	306.12
360.256	302.12
360.483	311.12
360.709	306.12
360.936	323.12
361.163	310.12
361.39	290.12
361.616	296.12
361.843	296.12
362.07	326.12
362.296	312.12
362.523	311.12
362.749	324.12
362.976	299.12
363.203	320.12
363.429	312.12
363.656	315.12
363.882	291.12
364.109	304.12
364.335	297.12
364.562	294.12
364.788	301.12
365.015	314.12
365.241	317.12
365.468	302.12
365.694	314.12
365.92	313.12
366.147	294.12
366.373	314.12
366.599	291.12
366.826	294.12
367.052	319.12
367.278	310.12
367.505	319.12
367.731	308.12
367.957	314.12
368.184	306.12
368.41	305.12
368.636	313.12
368.862	324.12
369.089	325.12
369.315	328.12
369.541	342.12
369.767	311.12
369.993	328.12
370.219	315.12
370.445	332.12
370.672	329.12
370.898	342.12
371.124	324.12
371.35	341.12
371.576	331.12
371.802	346.12
372.028	350.12
372.254	333.12
372.48	354.12
372.706	346.12
372.932	340.12
373.158	348.12
373.384	345.12
373.61	328.12
373.835	343.12
374.061	360.12
374.287	339.12
374.513	355.12
374.739	360.12
374.965	371.12
375.191	368.12
375.416	341.12
375.642	348.12
375.868	340.12
376.094	337.12
376.319	338.12
376.545	339.12
376.771	343.12
376.997	349.12
377.222	330.12
377.448	328.12
377.674	328.12
377.899	330.12
378.125	337.12
378.35	356.12
378.576	329.12
378.802	331.12
379.027	329.12
379.253	323.12
379.478	316.12
379.704	347.12
379.929	334.12
380.155	321.12
380.38	327.12
380.606	328.12
380.831	323.12
381.057	330.12
381.282	356.12
381.507	337.12
381.733	325.12
381.958	347.12
382.184	347.12
382.409	349.12
382.634	347.12
382.86	353.12
383.085	364.12
383.31	359.12
383.535	372.12
383.761	349.12
383.986	360.12
384.211	373.12
384.436	376.12
384.662	364.12
384.887	370.12
385.112	403.12
385.337	379.12
385.562	380.12
385.787	372.12
386.013	395.12
386.238	373.12
386.463	386.12
386.688	410.12
386.913	377.12
387.138	390.12
387.363	380.12
387.588	387.12
387.813	387.12
388.038	389.12
388.263	383.12
388.488	377.12
388.713	379.12
388.938	399.12
389.163	366.12
389.387	398.12
389.612	380.12
389.837	382.12
390.062	387.12
390.287	391.12
390.512	401.12
390.736	393.12
390.961	389.12
391.186	390.12
391.411	410.12
391.636	418.12
391.86	421.12
392.085	437.12
392.31	426.12
392.534	408.12
392.759	412.12
392.984	408.12
393.208	430.12
393.433	409.12
393.658	378.12
393.882	416.12
394.107	410.12
394.331	407.12
394.556	407.12
394.78	412.12
395.005	410.12
395.229	414.12
395.454	435.12
395.678	428.12
395.903	423.12
396.127	428.12
396.352	426.12
396.576	404.12
396.801	412.12
397.025	404.12
397.249	437.12
397.474	438.12
397.698	451.12
397.922	434.12
398.147	440.12
398.371	442.12
398.595	468.12
398.82	501.12
399.044	499.12
399.268	527.12
399.492	572.12
399.717	597.12
399.941	578.12
400.165	570.12
400.389	519.12
400.613	502.12
400.837	488.12
401.062	486.12
401.286	478.12
401.51	468.12
401.734	462.12
401.958	475.12
402.182	454.12
402.406	476.12
402.63	496.12
402.854	469.12
403.078	485.12
403.302	461.12
403.526	497.12
403.75	496.12
403.974	505.12
404.198	485.12
404.422	520.12
404.645	483.12
404.869	466.12
405.093	489.12
405.317	496.12
405.541	487.12
405.765	501.12
405.988	473.12
406.212	500.12
406.436	491.12
406.66	509.12
406.883	530.12
407.107	554.12
407.331	535.12
407.555	545.12
407.778	555.12
408.002	547.12
408.226	531.12
408.449	539.12
408.673	526.12
408.896	512.12
409.12	493.12
409.344	520.12
409.567	509.12
409.791	494.12
410.014	501.12
410.238	517.12
410.461	518.12
410.685	484.12
410.908	488.12
411.132	480.12
411.355	485.12
411.578	485.12
411.802	471.12
412.025	460.12
412.249	500.12
412.472	492.12
412.695	475.12
412.919	462.12
413.142	477.12
413.365	487.12
413.589	484.12
413.812	465.12
414.035	466.12
414.258	453.12
414.482	447.12
414.705	466.12
414.928	468.12
415.151	464.12
415.374	471.12
415.597	479.12
415.821	482.12
416.044	456.12
416.267	443.12
416.49	452.12
416.713	448.12
416.936	448.12
417.159	458.12
417.382	437.12
417.605	439.12
417.828	455.12
418.051	454.12
418.274	468.12
418.497	466.12
418.72	456.12
418.943	445.12
419.166	485.12
419.389	513.12
419.611	475.12
419.834	480.12
420.057	478.12
420.28	459.12
420.503	455.12
420.726	451.12
420.948	453.12
421.171	474.12
421.394	471.12
421.617	444.12
421.839	444.12
422.062	431.12
422.285	412.12
422.507	444.12
422.73	446.12
422.953	454.12
423.175	452.12
423.398	478.12
423.621	458.12
423.843	466.12
424.066	462.12
424.288	439.12
424.511	451.12
424.733	460.12
424.956	448.12
425.178	479.12
425.401	460.12
425.623	471.12
425.846	427.12
426.068	456.12
426.291	445.12
426.513	439.12
426.735	438.12
426.958	439.12
427.18	428.12
427.402	430.12
427.625	413.12
427.847	443.12
428.069	417.12
428.292	425.12
428.514	437.12
428.736	421.12
428.958	402.12
429.181	387.12
429.403	413.12
429.625	408.12
429.847	412.12
430.069	428.12
430.292	413.12
430.514	408.12
430.736	420.12
430.958	406.12
431.18	411.12
431.402	413.12
431.624	413.12
431.846	419.12
432.068	423.12
432.29	444.12
432.512	410.12
432.734	428.12
432.956	432.12
433.178	429.12
433.4	422.12
433.622	432.12
433.844	420.12
434.066	436.12
434.287	416.12
434.509	421.12
434.731	436.12
434.953	445.12
435.175	427.12
435.397	434.12
435.618	416.12
435.84	416.12
436.062	435.12
436.284	400.12
436.505	422.12
436.727	407.12
436.949	416.12
437.17	399.12
437.392	404.12
437.614	408.12
437.835	417.12
438.057	398.12
438.278	409.12
438.5	398.12
438.721	428.12
438.943	399.12
439.165	416.12
439.386	439.12
439.608	406.12
439.829	405.12
440.05	401.12
440.272	417.12
440.493	425.12
440.715	422.12
440.936	432.12
441.158	444.12
441.379	438.12
441.6	428.12
441.822	432.12
442.043	434.12
442.264	442.12
442.486	421.12
442.707	452.12
442.928	436.12
443.149	425.12
443.371	454.12
443.592	468.12
443.813	441.12
444.034	428.12
444.255	449.12
444.476	489.12
444.698	486.12
444.919	487.12
445.14	572.12
445.361	525.12
445.582	465.12
445.803	469.12
446.024	451.12
446.245	432.12
446.466	411.12
446.687	426.12
446.908	403.12
447.129	420.12
447.35	422.12
447.571	394.12
447.792	384.12
448.013	380.12
448.234	401.12
448.455	390.12
448.675	394.12
448.896	381.12
449.117	372.12
449.338	358.12
449.559	374.12
449.779	383.12
450	390.12
450.221	405.12
450.442	382.12
450.662	374.12
450.883	394.12
451.104	381.12
451.324	388.12
451.545	375.12
451.766	385.12
451.986	388.12
452.207	399.12
452.428	396.12
452.648	388.12
452.869	392.12
453.089	359.12
453.31	352.12
453.53	376.12
453.751	372.12
453.971	376.12
454.192	377.12
454.412	373.12
454.633	374.12
454.853	345.12
455.073	361.12
455.294	369.12
455.514	358.12
455.734	371.12
455.955	357.12
456.175	378.12
456.395	356.12
456.616	358.12
456.836	366.12
457.056	360.12
457.276	364.12
457.497	358.12
457.717	375.12
457.937	375.12
458.157	386.12
458.377	387.12
458.598	365.12
458.818	386.12
459.038	408.12
459.258	404.12
459.478	425.12
459.698	433.12
459.918	436.12
460.138	444.12
460.358	451.12
460.578	439.12
460.798	442.12
461.018	472.12
461.238	460.12
461.458	466.12
461.678	470.12
461.898	487.12
462.118	465.12
462.338	492.12
462.558	532.12
462.777	511.12
462.997	534.12
463.217	560.12
463.437	557.12
463.657	520.12
463.876	531.12
464.096	518.12
464.316	524.12
464.536	513.12
464.755	475.12
464.975	483.12
465.195	454.12
465.414	438.12
465.634	455.12
465.854	403.12
466.073	426.12
466.293	412.12
466.512	430.12
466.732	393.12
466.951	408.12
467.171	408.12
467.391	400.12
467.61	421.12
467.829	400.12
468.049	381.12
468.268	403.12
468.488	413.12
468.707	409.12
468.927	395.12
469.146	394.12
469.365	396.12
469.585	406.12
469.804	407.12
470.023	409.12
470.243	401.12
470.462	397.12
470.681	404.12
470.901	405.12
471.12	408.12
471.339	403.12
471.558	424.12
471.777	402.12
471.997	395.12
472.216	407.12
472.435	385.12
472.654	397.12
472.873	388.12
473.092	396.12
473.311	391.12
473.53	397.12
473.749	374.12
473.968	400.12
474.187	394.12
474.406	389.12
474.625	399.12
474.844	406.12
475.063	387.12
475.282	398.12
475.501	392.12
475.72	408.12
475.939	394.12
476.158	395.12
476.377	405.12
476.596	412.12
476.814	411.12
477.033	407.12
477.252	440.12
477.471	416.12
477.69	444.12
477.908	439.12
478.127	434.12
478.346	427.12
478.564	417.12
478.783	468.12
479.002	479.12
479.22	461.12
479.439	475.12
479.658	463.12
479.876	442.12
480.095	457.12
480.313	477.12
480.532	494.12
480.751	486.12
480.969	491.12
481.188	464.12
481.406	478.12
481.624	465.12
481.843	430.12
482.061	454.12
482.28	449.12
482.498	446.12
482.717	452.12
482.935	429.12
483.153	429.12
483.372	442.12
483.59	442.12
483.808	442.12
484.027	479.12
484.245	450.12
484.463	427.12
484.681	469.12
484.9	445.12
485.118	440.12
485.336	459.12
485.554	468.12
485.772	469.12
485.99	437.12
486.209	449.12
486.427	445.12
486.645	460.12
486.863	462.12
487.081	450.12
487.299	465.12
487.517	468.12
487.735	443.12
487.953	464.12
488.171	453.12
488.389	468.12
488.607	471.12
488.825	440.12
489.043	468.12
489.261	465.12
489.479	491.12
489.696	437.12
489.914	437.12
490.132	460.12
490.35	470.12
490.568	468.12
490.786	463.12
491.003	453.12
491.221	481.12
491.439	473.12
491.657	472.12
491.874	456.12
492.092	472.12
492.31	473.12
492.527	501.12
492.745	462.12
492.963	480.12
493.18	462.12
493.398	473.12
493.615	497.12
493.833	500.12
494.05	482.12
494.268	473.12
494.485	484.12
494.703	485.12
494.92	491.12
495.138	493.12
495.355	496.12
495.573	483.12
495.79	501.12
496.008	513.12
496.225	521.12
496.442	519.12
496.66	520.12
496.877	508.12
497.094	535.12
497.312	561.12
497.529	546.12
497.746	564.12
497.963	573.12
498.181	581.12
498.398	614.12
498.615	630.12
498.832	678.12
499.049	682.12
499.267	731.12
499.484	801.12
499.701	856.12
499.918	911.12
500.135	939.12
500.352	1008.12
500.569	1062.12
500.786	1019.12
501.003	950.12
501.22	906.12
501.437	852.12
501.654	794.12
501.871	746.12
