Data from Fe(NO3)3@0.1M.TitratingCurve.Agarose3%dH2O.NegLispCup.LampEnergy10.LIBS07252019_HRD10591_16-38-30-331.txt Node
Date: Thu Jul 25 16:38:30 EDT 2019
User: cochatt
Spectrometer: HR+D1059
Trigger mode: 1
Integration Time (sec): 1.000000E-1
Scans to average: 1
Electric dark correction enabled: true
Nonlinearity correction enabled: false
Boxcar width: 0
XAxis mode: Wavelengths
Number of Pixels in Spectrum: 2048
>>>>>Begin Spectral Data<<<<<
223.165	-15.38
223.4	-15.38
223.635	-15.38
223.869	-13.38
224.104	-25.38
224.338	-15.38
224.573	-10.38
224.808	-22.38
225.042	-17.38
225.277	4.62
225.511	17.62
225.746	10.62
225.98	11.62
226.215	12.62
226.449	3.62
226.683	18.62
226.918	21.62
227.152	18.62
227.387	27.62
227.621	46.62
227.856	35.62
228.09	42.62
228.324	33.62
228.559	43.62
228.793	64.62
229.027	77.62
229.262	68.62
229.496	72.62
229.73	65.62
229.964	78.62
230.199	84.62
230.433	86.62
230.667	81.62
230.901	90.62
231.136	86.62
231.37	74.62
231.604	91.62
231.838	79.62
232.072	79.62
232.306	97.62
232.541	95.62
232.775	89.62
233.009	89.62
233.243	87.62
233.477	88.62
233.711	77.62
233.945	83.62
234.179	88.62
234.413	89.62
234.647	90.62
234.881	84.62
235.115	86.62
235.349	104.62
235.583	91.62
235.817	85.62
236.051	90.62
236.285	99.62
236.519	86.62
236.753	80.62
236.987	82.62
237.221	91.62
237.455	94.62
237.689	104.62
237.922	99.62
238.156	87.62
238.39	80.62
238.624	83.62
238.858	92.62
239.091	94.62
239.325	89.62
239.559	90.62
239.793	80.62
240.027	97.62
240.26	88.62
240.494	92.62
240.728	101.62
240.961	92.62
241.195	102.62
241.429	88.62
241.662	94.62
241.896	100.62
242.13	91.62
242.363	104.62
242.597	83.62
242.83	91.62
243.064	88.62
243.298	98.62
243.531	107.62
243.765	87.62
243.998	93.62
244.232	94.62
244.465	96.62
244.699	114.62
244.932	92.62
245.166	92.62
245.399	97.62
245.633	104.62
245.866	102.62
246.099	86.62
246.333	117.62
246.566	103.62
246.8	96.62
247.033	86.62
247.266	110.62
247.5	98.62
247.733	107.62
247.966	102.62
248.2	96.62
248.433	96.62
248.666	91.62
248.899	115.62
249.133	110.62
249.366	115.62
249.599	117.62
249.832	98.62
250.066	110.62
250.299	105.62
250.532	108.62
250.765	104.62
250.998	102.62
251.231	93.62
251.465	95.62
251.698	98.62
251.931	112.62
252.164	99.62
252.397	105.62
252.63	114.62
252.863	110.62
253.096	105.62
253.329	100.62
253.562	114.62
253.795	110.62
254.028	107.62
254.261	112.62
254.494	111.62
254.727	118.62
254.96	109.62
255.193	105.62
255.426	116.62
255.659	112.62
255.892	110.62
256.124	112.62
256.357	103.62
256.59	103.62
256.823	114.62
257.056	120.62
257.289	120.62
257.521	99.62
257.754	116.62
257.987	110.62
258.22	108.62
258.452	111.62
258.685	115.62
258.918	116.62
259.151	129.62
259.383	126.62
259.616	108.62
259.849	99.62
260.081	114.62
260.314	126.62
260.547	112.62
260.779	112.62
261.012	115.62
261.244	111.62
261.477	121.62
261.71	104.62
261.942	129.62
262.175	116.62
262.407	126.62
262.64	123.62
262.872	110.62
263.105	114.62
263.337	131.62
263.57	115.62
263.802	136.62
264.035	130.62
264.267	122.62
264.499	115.62
264.732	129.62
264.964	131.62
265.197	113.62
265.429	128.62
265.661	117.62
265.894	131.62
266.126	133.62
266.358	106.62
266.591	114.62
266.823	118.62
267.055	134.62
267.287	114.62
267.52	116.62
267.752	119.62
267.984	122.62
268.216	120.62
268.448	137.62
268.681	146.62
268.913	137.62
269.145	140.62
269.377	125.62
269.609	115.62
269.841	130.62
270.073	144.62
270.306	123.62
270.538	136.62
270.77	124.62
271.002	132.62
271.234	130.62
271.466	131.62
271.698	139.62
271.93	131.62
272.162	138.62
272.394	135.62
272.626	145.62
272.858	136.62
273.09	145.62
273.322	140.62
273.553	139.62
273.785	132.62
274.017	131.62
274.249	153.62
274.481	138.62
274.713	133.62
274.945	144.62
275.176	124.62
275.408	126.62
275.64	125.62
275.872	147.62
276.104	134.62
276.335	128.62
276.567	136.62
276.799	120.62
277.031	154.62
277.262	147.62
277.494	132.62
277.726	138.62
277.957	139.62
278.189	141.62
278.421	150.62
278.652	133.62
278.884	143.62
279.115	141.62
279.347	136.62
279.579	122.62
279.81	121.62
280.042	128.62
280.273	151.62
280.505	138.62
280.736	144.62
280.968	136.62
281.199	132.62
281.431	124.62
281.662	156.62
281.894	153.62
282.125	136.62
282.356	155.62
282.588	135.62
282.819	138.62
283.051	150.62
283.282	143.62
283.513	147.62
283.745	150.62
283.976	146.62
284.207	139.62
284.439	134.62
284.67	152.62
284.901	141.62
285.132	133.62
285.364	146.62
285.595	144.62
285.826	141.62
286.057	147.62
286.288	138.62
286.52	160.62
286.751	140.62
286.982	156.62
287.213	147.62
287.444	146.62
287.675	159.62
287.906	151.62
288.138	150.62
288.369	154.62
288.6	147.62
288.831	149.62
289.062	153.62
289.293	161.62
289.524	131.62
289.755	146.62
289.986	153.62
290.217	146.62
290.448	142.62
290.679	152.62
290.91	155.62
291.141	137.62
291.371	154.62
291.602	156.62
291.833	151.62
292.064	148.62
292.295	156.62
292.526	150.62
292.757	156.62
292.987	160.62
293.218	155.62
293.449	154.62
293.68	148.62
293.91	153.62
294.141	144.62
294.372	155.62
294.603	150.62
294.833	155.62
295.064	157.62
295.295	164.62
295.525	159.62
295.756	157.62
295.987	147.62
296.217	163.62
296.448	157.62
296.679	164.62
296.909	177.62
297.14	161.62
297.37	174.62
297.601	158.62
297.831	155.62
298.062	146.62
298.292	166.62
298.523	163.62
298.753	156.62
298.984	159.62
299.214	172.62
299.445	164.62
299.675	150.62
299.905	159.62
300.136	174.62
300.366	146.62
300.597	166.62
300.827	165.62
301.057	156.62
301.288	175.62
301.518	162.62
301.748	166.62
301.979	159.62
302.209	171.62
302.439	157.62
302.669	152.62
302.9	156.62
303.13	150.62
303.36	143.62
303.59	174.62
303.82	170.62
304.051	172.62
304.281	174.62
304.511	157.62
304.741	174.62
304.971	166.62
305.201	162.62
305.431	173.62
305.661	152.62
305.891	155.62
306.121	174.62
306.352	166.62
306.582	168.62
306.812	158.62
307.042	159.62
307.272	169.62
307.502	165.62
307.731	172.62
307.961	163.62
308.191	158.62
308.421	169.62
308.651	157.62
308.881	163.62
309.111	169.62
309.341	151.62
309.571	176.62
309.8	159.62
310.03	183.62
310.26	161.62
310.49	154.62
310.72	158.62
310.949	150.62
311.179	176.62
311.409	167.62
311.639	177.62
311.868	176.62
312.098	179.62
312.328	156.62
312.557	165.62
312.787	166.62
313.017	180.62
313.246	168.62
313.476	176.62
313.706	176.62
313.935	179.62
314.165	169.62
314.394	164.62
314.624	175.62
314.853	158.62
315.083	177.62
315.312	159.62
315.542	157.62
315.771	183.62
316.001	184.62
316.23	166.62
316.46	162.62
316.689	184.62
316.919	151.62
317.148	166.62
317.377	169.62
317.607	170.62
317.836	177.62
318.065	168.62
318.295	165.62
318.524	174.62
318.753	181.62
318.983	176.62
319.212	174.62
319.441	164.62
319.67	174.62
319.9	170.62
320.129	167.62
320.358	169.62
320.587	169.62
320.816	179.62
321.046	170.62
321.275	166.62
321.504	180.62
321.733	174.62
321.962	194.62
322.191	170.62
322.42	155.62
322.649	178.62
322.878	188.62
323.108	189.62
323.337	195.62
323.566	184.62
323.795	185.62
324.024	158.62
324.253	181.62
324.482	182.62
324.71	180.62
324.939	162.62
325.168	180.62
325.397	180.62
325.626	173.62
325.855	188.62
326.084	198.62
326.313	184.62
326.542	171.62
326.77	162.62
326.999	196.62
327.228	170.62
327.457	185.62
327.686	170.62
327.914	197.62
328.143	187.62
328.372	181.62
328.6	182.62
328.829	187.62
329.058	180.62
329.287	180.62
329.515	169.62
329.744	184.62
329.972	195.62
330.201	190.62
330.43	203.62
330.658	192.62
330.887	184.62
331.115	193.62
331.344	201.62
331.572	187.62
331.801	195.62
332.03	196.62
332.258	202.62
332.486	203.62
332.715	205.62
332.943	214.62
333.172	227.62
333.4	214.62
333.629	214.62
333.857	222.62
334.085	230.62
334.314	209.62
334.542	217.62
334.771	212.62
334.999	233.62
335.227	220.62
335.455	227.62
335.684	215.62
335.912	218.62
336.14	196.62
336.369	202.62
336.597	198.62
336.825	203.62
337.053	230.62
337.281	198.62
337.51	198.62
337.738	214.62
337.966	195.62
338.194	192.62
338.422	205.62
338.65	198.62
338.878	209.62
339.106	177.62
339.334	217.62
339.562	209.62
339.79	206.62
340.018	180.62
340.246	199.62
340.474	194.62
340.702	184.62
340.93	183.62
341.158	191.62
341.386	192.62
341.614	199.62
341.842	179.62
342.07	195.62
342.298	197.62
342.526	187.62
342.754	186.62
342.981	177.62
343.209	202.62
343.437	210.62
343.665	199.62
343.893	194.62
344.12	242.62
344.348	212.62
344.576	198.62
344.804	195.62
345.031	189.62
345.259	199.62
345.487	184.62
345.714	188.62
345.942	180.62
346.17	187.62
346.397	178.62
346.625	168.62
346.853	175.62
347.08	192.62
347.308	201.62
347.535	169.62
347.763	182.62
347.99	180.62
348.218	196.62
348.445	172.62
348.673	191.62
348.9	184.62
349.128	175.62
349.355	184.62
349.583	182.62
349.81	203.62
350.037	182.62
350.265	195.62
350.492	169.62
350.72	191.62
350.947	180.62
351.174	187.62
351.402	174.62
351.629	168.62
351.856	171.62
352.083	176.62
352.311	189.62
352.538	178.62
352.765	178.62
352.992	179.62
353.22	163.62
353.447	170.62
353.674	187.62
353.901	192.62
354.128	178.62
354.355	189.62
354.583	186.62
354.81	192.62
355.037	184.62
355.264	175.62
355.491	183.62
355.718	186.62
355.945	171.62
356.172	183.62
356.399	187.62
356.626	179.62
356.853	184.62
357.08	183.62
357.307	194.62
357.534	185.62
357.761	185.62
357.988	186.62
358.215	198.62
358.441	183.62
358.668	175.62
358.895	169.62
359.122	172.62
359.349	174.62
359.576	193.62
359.802	175.62
360.029	186.62
360.256	185.62
360.483	182.62
360.709	166.62
360.936	178.62
361.163	176.62
361.39	188.62
361.616	164.62
361.843	193.62
362.07	195.62
362.296	174.62
362.523	165.62
362.749	179.62
362.976	170.62
363.203	181.62
363.429	190.62
363.656	178.62
363.882	181.62
364.109	168.62
364.335	187.62
364.562	171.62
364.788	192.62
365.015	177.62
365.241	196.62
365.468	184.62
365.694	170.62
365.92	190.62
366.147	171.62
366.373	190.62
366.599	178.62
366.826	169.62
367.052	176.62
367.278	181.62
367.505	191.62
367.731	174.62
367.957	192.62
368.184	188.62
368.41	202.62
368.636	185.62
368.862	199.62
369.089	176.62
369.315	176.62
369.541	193.62
369.767	191.62
369.993	177.62
370.219	192.62
370.445	180.62
370.672	189.62
370.898	187.62
371.124	189.62
371.35	185.62
371.576	192.62
371.802	198.62
372.028	214.62
372.254	196.62
372.48	192.62
372.706	188.62
372.932	210.62
373.158	197.62
373.384	206.62
373.61	192.62
373.835	210.62
374.061	213.62
374.287	208.62
374.513	208.62
374.739	198.62
374.965	201.62
375.191	210.62
375.416	221.62
375.642	203.62
375.868	219.62
376.094	210.62
376.319	217.62
376.545	188.62
376.771	220.62
376.997	204.62
377.222	208.62
377.448	182.62
377.674	185.62
377.899	216.62
378.125	197.62
378.35	185.62
378.576	200.62
378.802	192.62
379.027	211.62
379.253	210.62
379.478	192.62
379.704	205.62
379.929	194.62
380.155	217.62
380.38	198.62
380.606	191.62
380.831	198.62
381.057	207.62
381.282	200.62
381.507	201.62
381.733	198.62
381.958	207.62
382.184	219.62
382.409	201.62
382.634	222.62
382.86	229.62
383.085	208.62
383.31	198.62
383.535	201.62
383.761	226.62
383.986	226.62
384.211	224.62
384.436	211.62
384.662	215.62
384.887	220.62
385.112	230.62
385.337	226.62
385.562	227.62
385.787	238.62
386.013	228.62
386.238	243.62
386.463	244.62
386.688	234.62
386.913	229.62
387.138	232.62
387.363	233.62
387.588	240.62
387.813	241.62
388.038	242.62
388.263	240.62
388.488	239.62
388.713	238.62
388.938	251.62
389.163	246.62
389.387	235.62
389.612	233.62
389.837	241.62
390.062	250.62
390.287	231.62
390.512	239.62
390.736	249.62
390.961	242.62
391.186	243.62
391.411	242.62
391.636	253.62
391.86	264.62
392.085	257.62
392.31	261.62
392.534	259.62
392.759	247.62
392.984	239.62
393.208	254.62
393.433	239.62
393.658	252.62
393.882	247.62
394.107	257.62
394.331	258.62
394.556	255.62
394.78	271.62
395.005	251.62
395.229	245.62
395.454	266.62
395.678	276.62
395.903	260.62
396.127	264.62
396.352	269.62
396.576	248.62
396.801	248.62
397.025	255.62
397.249	263.62
397.474	261.62
397.698	280.62
397.922	261.62
398.147	272.62
398.371	262.62
398.595	274.62
398.82	281.62
399.044	314.62
399.268	346.62
399.492	359.62
399.717	422.62
399.941	420.62
400.165	338.62
400.389	321.62
400.613	332.62
400.837	293.62
401.062	309.62
401.286	302.62
401.51	293.62
401.734	287.62
401.958	284.62
402.182	286.62
402.406	305.62
402.63	314.62
402.854	306.62
403.078	305.62
403.302	330.62
403.526	330.62
403.75	325.62
403.974	324.62
404.198	314.62
404.422	330.62
404.645	339.62
404.869	337.62
405.093	334.62
405.317	329.62
405.541	319.62
405.765	335.62
405.988	334.62
406.212	327.62
406.436	321.62
406.66	334.62
406.883	319.62
407.107	331.62
407.331	342.62
407.555	367.62
407.778	370.62
408.002	363.62
408.226	374.62
408.449	357.62
408.673	350.62
408.896	345.62
409.12	323.62
409.344	336.62
409.567	338.62
409.791	324.62
410.014	324.62
410.238	342.62
410.461	347.62
410.685	339.62
410.908	345.62
411.132	313.62
411.355	320.62
411.578	313.62
411.802	302.62
412.025	324.62
412.249	308.62
412.472	338.62
412.695	306.62
412.919	310.62
413.142	313.62
413.365	324.62
413.589	302.62
413.812	290.62
414.035	313.62
414.258	314.62
414.482	309.62
414.705	313.62
414.928	328.62
415.151	313.62
415.374	308.62
415.597	316.62
415.821	298.62
416.044	295.62
416.267	310.62
416.49	308.62
416.713	294.62
416.936	284.62
417.159	313.62
417.382	310.62
417.605	311.62
417.828	310.62
418.051	306.62
418.274	295.62
418.497	316.62
418.72	321.62
418.943	305.62
419.166	344.62
419.389	339.62
419.611	351.62
419.834	329.62
420.057	308.62
420.28	312.62
420.503	305.62
420.726	308.62
420.948	299.62
421.171	313.62
421.394	308.62
421.617	297.62
421.839	289.62
422.062	318.62
422.285	300.62
422.507	306.62
422.73	318.62
422.953	328.62
423.175	306.62
423.398	319.62
423.621	309.62
423.843	321.62
424.066	326.62
424.288	322.62
424.511	323.62
424.733	336.62
424.956	303.62
425.178	302.62
425.401	297.62
425.623	306.62
425.846	292.62
426.068	286.62
426.291	306.62
426.513	311.62
426.735	302.62
426.958	311.62
427.18	293.62
427.402	321.62
427.625	294.62
427.847	288.62
428.069	277.62
428.292	301.62
428.514	292.62
428.736	266.62
428.958	278.62
429.181	272.62
429.403	275.62
429.625	269.62
429.847	278.62
430.069	289.62
430.292	273.62
430.514	272.62
430.736	277.62
430.958	280.62
431.18	278.62
431.402	274.62
431.624	268.62
431.846	284.62
432.068	282.62
432.29	294.62
432.512	289.62
432.734	263.62
432.956	282.62
433.178	304.62
433.4	276.62
433.622	276.62
433.844	277.62
434.066	303.62
434.287	301.62
434.509	295.62
434.731	311.62
434.953	311.62
435.175	297.62
435.397	312.62
435.618	290.62
435.84	307.62
436.062	280.62
436.284	286.62
436.505	284.62
436.727	292.62
436.949	283.62
437.17	302.62
437.392	271.62
437.614	286.62
437.835	280.62
438.057	283.62
438.278	283.62
438.5	274.62
438.721	265.62
438.943	268.62
439.165	279.62
439.386	293.62
439.608	290.62
439.829	287.62
440.05	278.62
440.272	303.62
440.493	287.62
440.715	296.62
440.936	306.62
441.158	306.62
441.379	298.62
441.6	307.62
441.822	302.62
442.043	308.62
442.264	313.62
442.486	309.62
442.707	305.62
442.928	297.62
443.149	287.62
443.371	292.62
443.592	316.62
443.813	320.62
444.034	314.62
444.255	317.62
444.476	342.62
444.698	341.62
444.919	354.62
445.14	468.62
445.361	382.62
445.582	329.62
445.803	322.62
446.024	312.62
446.245	295.62
446.466	306.62
446.687	280.62
446.908	284.62
447.129	293.62
447.35	282.62
447.571	280.62
447.792	287.62
448.013	280.62
448.234	275.62
448.455	282.62
448.675	286.62
448.896	262.62
449.117	271.62
449.338	254.62
449.559	280.62
449.779	274.62
450	260.62
450.221	266.62
450.442	267.62
450.662	274.62
450.883	267.62
451.104	271.62
451.324	279.62
451.545	275.62
451.766	274.62
451.986	266.62
452.207	252.62
452.428	268.62
452.648	267.62
452.869	254.62
453.089	267.62
453.31	263.62
453.53	254.62
453.751	268.62
453.971	255.62
454.192	283.62
454.412	265.62
454.633	264.62
454.853	244.62
455.073	260.62
455.294	271.62
455.514	249.62
455.734	256.62
455.955	265.62
456.175	244.62
456.395	255.62
456.616	255.62
456.836	264.62
457.056	265.62
457.276	261.62
457.497	261.62
457.717	251.62
457.937	260.62
458.157	265.62
458.377	257.62
458.598	263.62
458.818	249.62
459.038	275.62
459.258	274.62
459.478	289.62
459.698	308.62
459.918	295.62
460.138	318.62
460.358	307.62
460.578	329.62
460.798	344.62
461.018	343.62
461.238	338.62
461.458	336.62
461.678	329.62
461.898	337.62
462.118	330.62
462.338	347.62
462.558	336.62
462.777	362.62
462.997	384.62
463.217	390.62
463.437	380.62
463.657	383.62
463.876	372.62
464.096	380.62
464.316	364.62
464.536	376.62
464.755	326.62
464.975	333.62
465.195	357.62
465.414	322.62
465.634	304.62
465.854	302.62
466.073	299.62
466.293	289.62
466.512	289.62
466.732	277.62
466.951	269.62
467.171	288.62
467.391	292.62
467.61	287.62
467.829	289.62
468.049	278.62
468.268	257.62
468.488	274.62
468.707	278.62
468.927	278.62
469.146	261.62
469.365	260.62
469.585	281.62
469.804	285.62
470.023	278.62
470.243	289.62
470.462	283.62
470.681	278.62
470.901	290.62
471.12	279.62
471.339	265.62
471.558	278.62
471.777	281.62
471.997	278.62
472.216	278.62
472.435	284.62
472.654	270.62
472.873	267.62
473.092	247.62
473.311	259.62
473.53	272.62
473.749	269.62
473.968	280.62
474.187	266.62
474.406	276.62
474.625	266.62
474.844	262.62
475.063	260.62
475.282	266.62
475.501	268.62
475.72	274.62
475.939	270.62
476.158	266.62
476.377	284.62
476.596	272.62
476.814	285.62
477.033	268.62
477.252	289.62
477.471	298.62
477.69	282.62
477.908	304.62
478.127	309.62
478.346	305.62
478.564	319.62
478.783	330.62
479.002	346.62
479.22	317.62
479.439	320.62
479.658	320.62
479.876	323.62
480.095	322.62
480.313	321.62
480.532	335.62
480.751	335.62
480.969	336.62
481.188	315.62
481.406	315.62
481.624	306.62
481.843	291.62
482.061	286.62
482.28	297.62
482.498	313.62
482.717	282.62
482.935	290.62
483.153	276.62
483.372	323.62
483.59	296.62
483.808	295.62
484.027	293.62
484.245	306.62
484.463	310.62
484.681	306.62
484.9	316.62
485.118	310.62
485.336	325.62
485.554	296.62
485.772	308.62
485.99	320.62
486.209	306.62
486.427	310.62
486.645	307.62
486.863	319.62
487.081	312.62
487.299	311.62
487.517	318.62
487.735	308.62
487.953	325.62
488.171	320.62
488.389	325.62
488.607	302.62
488.825	310.62
489.043	303.62
489.261	316.62
489.479	295.62
489.696	299.62
489.914	308.62
490.132	314.62
490.35	313.62
490.568	305.62
490.786	322.62
491.003	322.62
491.221	319.62
491.439	308.62
491.657	320.62
491.874	328.62
492.092	323.62
492.31	319.62
492.527	326.62
492.745	331.62
492.963	326.62
493.18	331.62
493.398	332.62
493.615	324.62
493.833	322.62
494.05	329.62
494.268	318.62
494.485	321.62
494.703	310.62
494.92	336.62
495.138	337.62
495.355	331.62
495.573	322.62
495.79	326.62
496.008	343.62
496.225	341.62
496.442	355.62
496.66	336.62
496.877	350.62
497.094	341.62
497.312	367.62
497.529	358.62
497.746	348.62
497.963	372.62
498.181	372.62
498.398	407.62
498.615	404.62
498.832	430.62
499.049	471.62
499.267	459.62
499.484	511.62
499.701	572.62
499.918	624.62
500.135	696.62
500.352	753.62
500.569	786.62
500.786	762.62
501.003	745.62
501.22	669.62
501.437	623.62
501.654	553.62
501.871	532.62
502.088	479.62
502.305	457.62
502.522	442.62
