Data from Fe(NO3)3@0.025M.TitratingCurve.Agarose3%dH2O.NegLispCup.LampEnergy10.LIBS07252019_HRD10591_16-54-37-336.txt Node
Date: Thu Jul 25 16:54:37 EDT 2019
User: cochatt
Spectrometer: HR+D1059
Trigger mode: 1
Integration Time (sec): 1.000000E-1
Scans to average: 1
Electric dark correction enabled: true
Nonlinearity correction enabled: false
Boxcar width: 0
XAxis mode: Wavelengths
Number of Pixels in Spectrum: 2048
>>>>>Begin Spectral Data<<<<<
223.165	-19.62
223.4	-19.62
223.635	-19.62
223.869	-10.62
224.104	-28.62
224.338	-18.62
224.573	-22.62
224.808	-18.62
225.042	-2.62
225.277	5.38
225.511	8.38
225.746	2.38
225.98	4.38
226.215	21.38
226.449	17.38
226.683	15.38
226.918	22.38
227.152	24.38
227.387	34.38
227.621	37.38
227.856	38.38
228.09	32.38
228.324	47.38
228.559	45.38
228.793	46.38
229.027	76.38
229.262	72.38
229.496	71.38
229.73	71.38
229.964	93.38
230.199	82.38
230.433	89.38
230.667	82.38
230.901	87.38
231.136	95.38
231.37	91.38
231.604	107.38
231.838	102.38
232.072	99.38
232.306	91.38
232.541	104.38
232.775	121.38
233.009	99.38
233.243	93.38
233.477	114.38
233.711	99.38
233.945	98.38
234.179	96.38
234.413	117.38
234.647	101.38
234.881	97.38
235.115	108.38
235.349	111.38
235.583	104.38
235.817	111.38
236.051	102.38
236.285	113.38
236.519	113.38
236.753	108.38
236.987	103.38
237.221	111.38
237.455	121.38
237.689	105.38
237.922	109.38
238.156	112.38
238.39	118.38
238.624	117.38
238.858	117.38
239.091	116.38
239.325	118.38
239.559	125.38
239.793	114.38
240.027	127.38
240.26	119.38
240.494	121.38
240.728	117.38
240.961	132.38
241.195	117.38
241.429	121.38
241.662	120.38
241.896	107.38
242.13	114.38
242.363	109.38
242.597	126.38
242.83	111.38
243.064	129.38
243.298	118.38
243.531	123.38
243.765	129.38
243.998	118.38
244.232	136.38
244.465	138.38
244.699	134.38
244.932	121.38
245.166	125.38
245.399	137.38
245.633	111.38
245.866	126.38
246.099	134.38
246.333	128.38
246.566	131.38
246.8	135.38
247.033	127.38
247.266	130.38
247.5	143.38
247.733	133.38
247.966	134.38
248.2	148.38
248.433	138.38
248.666	148.38
248.899	152.38
249.133	133.38
249.366	169.38
249.599	162.38
249.832	152.38
250.066	146.38
250.299	157.38
250.532	149.38
250.765	135.38
250.998	158.38
251.231	136.38
251.465	146.38
251.698	151.38
251.931	150.38
252.164	149.38
252.397	155.38
252.63	152.38
252.863	173.38
253.096	155.38
253.329	164.38
253.562	160.38
253.795	162.38
254.028	167.38
254.261	163.38
254.494	168.38
254.727	167.38
254.96	158.38
255.193	157.38
255.426	149.38
255.659	155.38
255.892	160.38
256.124	161.38
256.357	178.38
256.59	164.38
256.823	159.38
257.056	163.38
257.289	153.38
257.521	179.38
257.754	171.38
257.987	161.38
258.22	164.38
258.452	174.38
258.685	168.38
258.918	182.38
259.151	173.38
259.383	177.38
259.616	173.38
259.849	192.38
260.081	190.38
260.314	202.38
260.547	189.38
260.779	169.38
261.012	181.38
261.244	181.38
261.477	202.38
261.71	191.38
261.942	186.38
262.175	185.38
262.407	173.38
262.64	192.38
262.872	178.38
263.105	192.38
263.337	182.38
263.57	194.38
263.802	192.38
264.035	195.38
264.267	187.38
264.499	190.38
264.732	195.38
264.964	187.38
265.197	190.38
265.429	190.38
265.661	199.38
265.894	188.38
266.126	204.38
266.358	199.38
266.591	200.38
266.823	201.38
267.055	211.38
267.287	190.38
267.52	196.38
267.752	201.38
267.984	188.38
268.216	184.38
268.448	211.38
268.681	215.38
268.913	201.38
269.145	220.38
269.377	210.38
269.609	200.38
269.841	209.38
270.073	210.38
270.306	223.38
270.538	221.38
270.77	214.38
271.002	216.38
271.234	209.38
271.466	204.38
271.698	206.38
271.93	221.38
272.162	220.38
272.394	235.38
272.626	199.38
272.858	233.38
273.09	228.38
273.322	232.38
273.553	226.38
273.785	234.38
274.017	213.38
274.249	231.38
274.481	235.38
274.713	263.38
274.945	250.38
275.176	253.38
275.408	246.38
275.64	246.38
275.872	226.38
276.104	229.38
276.335	240.38
276.567	230.38
276.799	223.38
277.031	213.38
277.262	232.38
277.494	241.38
277.726	232.38
277.957	227.38
278.189	230.38
278.421	244.38
278.652	231.38
278.884	255.38
279.115	242.38
279.347	236.38
279.579	227.38
279.81	239.38
280.042	240.38
280.273	246.38
280.505	248.38
280.736	257.38
280.968	251.38
281.199	239.38
281.431	248.38
281.662	244.38
281.894	240.38
282.125	246.38
282.356	244.38
282.588	249.38
282.819	262.38
283.051	258.38
283.282	245.38
283.513	251.38
283.745	251.38
283.976	262.38
284.207	265.38
284.439	252.38
284.67	264.38
284.901	270.38
285.132	262.38
285.364	265.38
285.595	240.38
285.826	280.38
286.057	269.38
286.288	276.38
286.52	279.38
286.751	268.38
286.982	250.38
287.213	271.38
287.444	261.38
287.675	269.38
287.906	276.38
288.138	279.38
288.369	279.38
288.6	275.38
288.831	255.38
289.062	280.38
289.293	283.38
289.524	273.38
289.755	271.38
289.986	280.38
290.217	274.38
290.448	278.38
290.679	278.38
290.91	265.38
291.141	293.38
291.371	273.38
291.602	288.38
291.833	271.38
292.064	269.38
292.295	262.38
292.526	293.38
292.757	257.38
292.987	295.38
293.218	295.38
293.449	294.38
293.68	283.38
293.91	289.38
294.141	297.38
294.372	280.38
294.603	281.38
294.833	307.38
295.064	287.38
295.295	276.38
295.525	299.38
295.756	292.38
295.987	294.38
296.217	293.38
296.448	308.38
296.679	289.38
296.909	286.38
297.14	311.38
297.37	297.38
297.601	294.38
297.831	311.38
298.062	305.38
298.292	304.38
298.523	290.38
298.753	326.38
298.984	313.38
299.214	305.38
299.445	312.38
299.675	304.38
299.905	326.38
300.136	291.38
300.366	293.38
300.597	320.38
300.827	315.38
301.057	299.38
301.288	322.38
301.518	317.38
301.748	339.38
301.979	336.38
302.209	343.38
302.439	321.38
302.669	321.38
302.9	338.38
303.13	307.38
303.36	315.38
303.59	320.38
303.82	334.38
304.051	361.38
304.281	329.38
304.511	341.38
304.741	338.38
304.971	343.38
305.201	321.38
305.431	336.38
305.661	328.38
305.891	329.38
306.121	330.38
306.352	324.38
306.582	324.38
306.812	329.38
307.042	323.38
307.272	329.38
307.502	323.38
307.731	331.38
307.961	318.38
308.191	324.38
308.421	315.38
308.651	328.38
308.881	328.38
309.111	335.38
309.341	339.38
309.571	343.38
309.8	339.38
310.03	325.38
310.26	323.38
310.49	356.38
310.72	348.38
310.949	342.38
311.179	325.38
311.409	348.38
311.639	344.38
311.868	347.38
312.098	342.38
312.328	343.38
312.557	356.38
312.787	349.38
313.017	352.38
313.246	361.38
313.476	340.38
313.706	378.38
313.935	377.38
314.165	367.38
314.394	367.38
314.624	348.38
314.853	355.38
315.083	357.38
315.312	382.38
315.542	375.38
315.771	367.38
316.001	359.38
316.23	351.38
316.46	348.38
316.689	369.38
316.919	357.38
317.148	363.38
317.377	379.38
317.607	356.38
317.836	371.38
318.065	352.38
318.295	362.38
318.524	365.38
318.753	357.38
318.983	363.38
319.212	361.38
319.441	371.38
319.67	375.38
319.9	376.38
320.129	375.38
320.358	360.38
320.587	365.38
320.816	387.38
321.046	363.38
321.275	374.38
321.504	373.38
321.733	363.38
321.962	370.38
322.191	386.38
322.42	380.38
322.649	376.38
322.878	371.38
323.108	370.38
323.337	400.38
323.566	385.38
323.795	391.38
324.024	379.38
324.253	377.38
324.482	387.38
324.71	385.38
324.939	398.38
325.168	385.38
325.397	379.38
325.626	386.38
325.855	395.38
326.084	393.38
326.313	399.38
326.542	372.38
326.77	403.38
326.999	381.38
327.228	409.38
327.457	405.38
327.686	398.38
327.914	402.38
328.143	404.38
328.372	400.38
328.6	379.38
328.829	405.38
329.058	384.38
329.287	415.38
329.515	411.38
329.744	401.38
329.972	403.38
330.201	412.38
330.43	417.38
330.658	399.38
330.887	415.38
331.115	428.38
331.344	438.38
331.572	436.38
331.801	423.38
332.03	409.38
332.258	439.38
332.486	471.38
332.715	439.38
332.943	441.38
333.172	441.38
333.4	462.38
333.629	468.38
333.857	469.38
334.085	472.38
334.314	470.38
334.542	467.38
334.771	454.38
334.999	477.38
335.227	467.38
335.455	476.38
335.684	485.38
335.912	477.38
336.14	460.38
336.369	467.38
336.597	474.38
336.825	453.38
337.053	452.38
337.281	476.38
337.51	459.38
337.738	440.38
337.966	443.38
338.194	467.38
338.422	436.38
338.65	432.38
338.878	439.38
339.106	443.38
339.334	454.38
339.562	436.38
339.79	436.38
340.018	434.38
340.246	427.38
340.474	434.38
340.702	439.38
340.93	416.38
341.158	409.38
341.386	419.38
341.614	446.38
341.842	427.38
342.07	416.38
342.298	437.38
342.526	444.38
342.754	425.38
342.981	430.38
343.209	449.38
343.437	475.38
343.665	447.38
343.893	497.38
344.12	492.38
344.348	482.38
344.576	456.38
344.804	461.38
345.031	440.38
345.259	442.38
345.487	453.38
345.714	456.38
345.942	436.38
346.17	423.38
346.397	423.38
346.625	419.38
346.853	410.38
347.08	433.38
347.308	423.38
347.535	418.38
347.763	406.38
347.99	420.38
348.218	431.38
348.445	425.38
348.673	406.38
348.9	438.38
349.128	421.38
349.355	421.38
349.583	407.38
349.81	409.38
350.037	419.38
350.265	431.38
350.492	427.38
350.72	392.38
350.947	429.38
351.174	417.38
351.402	439.38
351.629	405.38
351.856	420.38
352.083	397.38
352.311	400.38
352.538	397.38
352.765	420.38
352.992	399.38
353.22	399.38
353.447	427.38
353.674	413.38
353.901	412.38
354.128	403.38
354.355	415.38
354.583	421.38
354.81	409.38
355.037	387.38
355.264	424.38
355.491	424.38
355.718	410.38
355.945	426.38
356.172	431.38
356.399	421.38
356.626	443.38
356.853	420.38
357.08	422.38
357.307	404.38
357.534	409.38
357.761	404.38
357.988	425.38
358.215	427.38
358.441	409.38
358.668	408.38
358.895	418.38
359.122	403.38
359.349	437.38
359.576	431.38
359.802	435.38
360.029	412.38
360.256	414.38
360.483	419.38
360.709	437.38
360.936	440.38
361.163	447.38
361.39	425.38
361.616	434.38
361.843	416.38
362.07	423.38
362.296	408.38
362.523	429.38
362.749	433.38
362.976	419.38
363.203	409.38
363.429	421.38
363.656	427.38
363.882	433.38
364.109	433.38
364.335	417.38
364.562	427.38
364.788	430.38
365.015	404.38
365.241	452.38
365.468	422.38
365.694	413.38
365.92	428.38
366.147	432.38
366.373	447.38
366.599	438.38
366.826	427.38
367.052	411.38
367.278	436.38
367.505	422.38
367.731	419.38
367.957	445.38
368.184	425.38
368.41	414.38
368.636	432.38
368.862	431.38
369.089	415.38
369.315	435.38
369.541	464.38
369.767	420.38
369.993	445.38
370.219	442.38
370.445	441.38
370.672	437.38
370.898	436.38
371.124	449.38
371.35	468.38
371.576	479.38
371.802	450.38
372.028	440.38
372.254	472.38
372.48	456.38
372.706	463.38
372.932	480.38
373.158	461.38
373.384	470.38
373.61	477.38
373.835	463.38
374.061	474.38
374.287	473.38
374.513	476.38
374.739	464.38
374.965	496.38
375.191	485.38
375.416	458.38
375.642	467.38
375.868	480.38
376.094	474.38
376.319	477.38
376.545	453.38
376.771	455.38
376.997	458.38
377.222	465.38
377.448	440.38
377.674	449.38
377.899	450.38
378.125	447.38
378.35	447.38
378.576	443.38
378.802	465.38
379.027	473.38
379.253	455.38
379.478	457.38
379.704	448.38
379.929	467.38
380.155	427.38
380.38	460.38
380.606	471.38
380.831	464.38
381.057	452.38
381.282	468.38
381.507	467.38
381.733	468.38
381.958	484.38
382.184	487.38
382.409	476.38
382.634	453.38
382.86	479.38
383.085	485.38
383.31	511.38
383.535	485.38
383.761	471.38
383.986	502.38
384.211	483.38
384.436	518.38
384.662	481.38
384.887	497.38
385.112	525.38
385.337	533.38
385.562	498.38
385.787	484.38
386.013	549.38
386.238	521.38
386.463	511.38
386.688	531.38
386.913	523.38
387.138	515.38
387.363	524.38
387.588	528.38
387.813	512.38
388.038	517.38
388.263	518.38
388.488	521.38
388.713	545.38
388.938	536.38
389.163	534.38
389.387	544.38
389.612	510.38
389.837	524.38
390.062	544.38
390.287	529.38
390.512	529.38
390.736	539.38
390.961	521.38
391.186	536.38
391.411	559.38
391.636	547.38
391.86	557.38
392.085	581.38
392.31	554.38
392.534	572.38
392.759	564.38
392.984	533.38
393.208	547.38
393.433	563.38
393.658	543.38
393.882	532.38
394.107	558.38
394.331	545.38
394.556	563.38
394.78	567.38
395.005	552.38
395.229	551.38
395.454	560.38
395.678	565.38
395.903	576.38
396.127	570.38
396.352	573.38
396.576	555.38
396.801	583.38
397.025	573.38
397.249	592.38
397.474	591.38
397.698	580.38
397.922	615.38
398.147	607.38
398.371	603.38
398.595	614.38
398.82	640.38
399.044	691.38
399.268	717.38
399.492	720.38
399.717	773.38
399.941	767.38
400.165	744.38
400.389	729.38
400.613	719.38
400.837	645.38
401.062	685.38
401.286	659.38
401.51	654.38
401.734	657.38
401.958	629.38
402.182	647.38
402.406	623.38
402.63	630.38
402.854	640.38
403.078	635.38
403.302	628.38
403.526	659.38
403.75	647.38
403.974	677.38
404.198	624.38
404.422	649.38
404.645	641.38
404.869	626.38
405.093	628.38
405.317	656.38
405.541	641.38
405.765	655.38
405.988	651.38
406.212	665.38
406.436	666.38
406.66	666.38
406.883	665.38
407.107	713.38
407.331	727.38
407.555	692.38
407.778	727.38
408.002	713.38
408.226	712.38
408.449	717.38
408.673	685.38
408.896	711.38
409.12	701.38
409.344	690.38
409.567	668.38
409.791	649.38
410.014	659.38
410.238	656.38
410.461	673.38
410.685	640.38
410.908	663.38
411.132	656.38
411.355	647.38
411.578	643.38
411.802	657.38
412.025	645.38
412.249	637.38
412.472	637.38
412.695	630.38
412.919	639.38
413.142	612.38
413.365	621.38
413.589	647.38
413.812	635.38
414.035	643.38
414.258	622.38
414.482	630.38
414.705	624.38
414.928	647.38
415.151	616.38
415.374	639.38
415.597	623.38
415.821	610.38
416.044	596.38
416.267	589.38
416.49	615.38
416.713	597.38
416.936	619.38
417.159	588.38
417.382	597.38
417.605	615.38
417.828	581.38
418.051	607.38
418.274	599.38
418.497	608.38
418.72	590.38
418.943	612.38
419.166	634.38
419.389	630.38
419.611	640.38
419.834	629.38
420.057	619.38
420.28	588.38
420.503	594.38
420.726	605.38
420.948	592.38
421.171	580.38
421.394	593.38
421.617	593.38
421.839	581.38
422.062	594.38
422.285	606.38
422.507	600.38
422.73	584.38
422.953	589.38
423.175	590.38
423.398	604.38
423.621	600.38
423.843	603.38
424.066	601.38
424.288	565.38
424.511	598.38
424.733	619.38
424.956	576.38
425.178	587.38
425.401	572.38
425.623	589.38
425.846	540.38
426.068	591.38
426.291	582.38
426.513	565.38
426.735	574.38
426.958	567.38
427.18	558.38
427.402	576.38
427.625	584.38
427.847	538.38
428.069	574.38
428.292	553.38
428.514	571.38
428.736	570.38
428.958	570.38
429.181	536.38
429.403	535.38
429.625	529.38
429.847	547.38
430.069	538.38
430.292	545.38
430.514	542.38
430.736	557.38
430.958	543.38
431.18	568.38
431.402	563.38
431.624	555.38
431.846	571.38
432.068	566.38
432.29	557.38
432.512	555.38
432.734	563.38
432.956	527.38
433.178	553.38
433.4	573.38
433.622	571.38
433.844	568.38
434.066	578.38
434.287	560.38
434.509	568.38
434.731	577.38
434.953	590.38
435.175	592.38
435.397	565.38
435.618	551.38
435.84	562.38
436.062	556.38
436.284	564.38
436.505	581.38
436.727	552.38
436.949	565.38
437.17	542.38
437.392	545.38
437.614	553.38
437.835	524.38
438.057	535.38
438.278	535.38
438.5	552.38
438.721	540.38
438.943	536.38
439.165	546.38
439.386	533.38
439.608	535.38
439.829	547.38
440.05	551.38
440.272	547.38
440.493	569.38
440.715	557.38
440.936	568.38
441.158	558.38
441.379	559.38
441.6	570.38
441.822	577.38
442.043	588.38
442.264	590.38
442.486	566.38
442.707	581.38
442.928	591.38
443.149	567.38
443.371	575.38
443.592	567.38
443.813	589.38
444.034	587.38
444.255	593.38
444.476	578.38
444.698	589.38
444.919	630.38
445.14	737.38
445.361	644.38
445.582	579.38
445.803	584.38
446.024	564.38
446.245	575.38
446.466	553.38
446.687	557.38
446.908	560.38
447.129	556.38
447.35	532.38
447.571	521.38
447.792	519.38
448.013	517.38
448.234	497.38
448.455	505.38
448.675	516.38
448.896	511.38
449.117	493.38
449.338	498.38
449.559	498.38
449.779	500.38
450	502.38
450.221	499.38
450.442	489.38
450.662	488.38
450.883	480.38
451.104	489.38
451.324	494.38
451.545	478.38
451.766	508.38
451.986	497.38
452.207	483.38
452.428	491.38
452.648	469.38
452.869	475.38
453.089	480.38
453.31	495.38
453.53	488.38
453.751	479.38
453.971	469.38
454.192	479.38
454.412	482.38
454.633	478.38
454.853	491.38
455.073	469.38
455.294	473.38
455.514	471.38
455.734	482.38
455.955	477.38
456.175	492.38
456.395	477.38
456.616	494.38
456.836	472.38
457.056	473.38
457.276	462.38
457.497	470.38
457.717	478.38
457.937	481.38
458.157	481.38
458.377	480.38
458.598	513.38
458.818	507.38
459.038	512.38
459.258	528.38
459.478	569.38
459.698	555.38
459.918	560.38
460.138	575.38
460.358	559.38
460.578	600.38
460.798	587.38
461.018	596.38
461.238	611.38
461.458	647.38
461.678	622.38
461.898	619.38
462.118	624.38
462.338	639.38
462.558	640.38
462.777	644.38
462.997	649.38
463.217	680.38
463.437	677.38
463.657	664.38
463.876	661.38
464.096	659.38
464.316	670.38
464.536	651.38
464.755	641.38
464.975	628.38
465.195	603.38
465.414	600.38
465.634	582.38
465.854	596.38
466.073	575.38
466.293	540.38
466.512	544.38
466.732	563.38
466.951	553.38
467.171	536.38
467.391	544.38
467.61	519.38
467.829	521.38
468.049	547.38
468.268	532.38
468.488	536.38
468.707	538.38
468.927	533.38
469.146	509.38
469.365	531.38
469.585	511.38
469.804	535.38
470.023	521.38
470.243	542.38
470.462	534.38
470.681	531.38
470.901	548.38
471.12	532.38
471.339	539.38
471.558	536.38
471.777	545.38
471.997	536.38
472.216	519.38
472.435	520.38
472.654	529.38
472.873	539.38
473.092	538.38
473.311	529.38
473.53	527.38
473.749	548.38
473.968	528.38
474.187	535.38
474.406	531.38
474.625	511.38
474.844	532.38
475.063	533.38
475.282	546.38
475.501	545.38
475.72	547.38
475.939	536.38
476.158	543.38
476.377	574.38
476.596	564.38
476.814	588.38
477.033	569.38
477.252	586.38
477.471	585.38
477.69	596.38
477.908	585.38
478.127	610.38
478.346	606.38
478.564	604.38
478.783	628.38
479.002	639.38
479.22	635.38
479.439	649.38
479.658	624.38
479.876	644.38
480.095	617.38
480.313	651.38
480.532	637.38
480.751	645.38
480.969	639.38
481.188	645.38
481.406	631.38
481.624	629.38
481.843	630.38
482.061	616.38
482.28	639.38
482.498	592.38
482.717	604.38
482.935	611.38
483.153	619.38
483.372	611.38
483.59	625.38
483.808	637.38
484.027	622.38
484.245	632.38
484.463	627.38
484.681	637.38
484.9	615.38
485.118	612.38
485.336	616.38
485.554	625.38
485.772	631.38
485.99	640.38
486.209	618.38
486.427	623.38
486.645	624.38
486.863	656.38
487.081	648.38
487.299	639.38
487.517	643.38
487.735	651.38
487.953	655.38
488.171	617.38
488.389	631.38
488.607	631.38
488.825	628.38
489.043	643.38
489.261	629.38
489.479	632.38
489.696	639.38
489.914	630.38
490.132	651.38
490.35	650.38
490.568	644.38
490.786	633.38
491.003	648.38
491.221	641.38
491.439	655.38
491.657	669.38
491.874	653.38
492.092	658.38
492.31	664.38
492.527	653.38
492.745	638.38
492.963	647.38
493.18	686.38
493.398	655.38
493.615	667.38
493.833	666.38
494.05	649.38
494.268	668.38
494.485	683.38
494.703	678.38
494.92	684.38
495.138	681.38
495.355	660.38
495.573	685.38
495.79	675.38
496.008	697.38
496.225	677.38
496.442	700.38
496.66	723.38
496.877	714.38
497.094	729.38
497.312	740.38
497.529	754.38
497.746	773.38
497.963	785.38
498.181	806.38
498.398	807.38
498.615	877.38
498.832	888.38
499.049	947.38
499.267	966.38
499.484	1017.38
499.701	1047.38
499.918	1102.38
500.135	1155.38
500.352	1225.38
500.569	1231.38
500.786	1231.38
501.003	1213.38
501.22	1129.38
501.437	1098.38
501.654	1040.38
