Data from Fe(NO3)3@0.0125M.TitratingCurve.Agarose3%dH2O.NegLispCup.LampEnergy10.LIBS07252019_HRD10591_16-59-29-336.txt Node
Date: Thu Jul 25 16:59:29 EDT 2019
User: cochatt
Spectrometer: HR+D1059
Trigger mode: 1
Integration Time (sec): 1.000000E-1
Scans to average: 1
Electric dark correction enabled: true
Nonlinearity correction enabled: false
Boxcar width: 0
XAxis mode: Wavelengths
Number of Pixels in Spectrum: 2048
>>>>>Begin Spectral Data<<<<<
223.165	-13
223.4	-13
223.635	-13
223.869	-16
224.104	-16
224.338	-21
224.573	-21
224.808	-23
225.042	-4
225.277	6
225.511	11
225.746	9
225.98	-7
226.215	17
226.449	12
226.683	20
226.918	21
227.152	25
227.387	39
227.621	31
227.856	51
228.09	67
228.324	40
228.559	51
228.793	53
229.027	91
229.262	98
229.496	87
229.73	93
229.964	101
230.199	84
230.433	97
230.667	93
230.901	98
231.136	96
231.37	103
231.604	112
231.838	103
232.072	97
232.306	110
232.541	94
232.775	81
233.009	95
233.243	84
233.477	105
233.711	96
233.945	102
234.179	83
234.413	107
234.647	111
234.881	100
235.115	119
235.349	109
235.583	122
235.817	103
236.051	102
236.285	101
236.519	110
236.753	106
236.987	103
237.221	107
237.455	109
237.689	108
237.922	116
238.156	107
238.39	107
238.624	118
238.858	112
239.091	114
239.325	112
239.559	119
239.793	119
240.027	129
240.26	130
240.494	129
240.728	119
240.961	112
241.195	125
241.429	120
241.662	106
241.896	106
242.13	108
242.363	119
242.597	95
242.83	112
243.064	120
243.298	113
243.531	125
243.765	139
243.998	113
244.232	115
244.465	137
244.699	122
244.932	123
245.166	121
245.399	106
245.633	127
245.866	121
246.099	140
246.333	129
246.566	113
246.8	119
247.033	138
247.266	125
247.5	130
247.733	127
247.966	136
248.2	129
248.433	134
248.666	135
248.899	139
249.133	137
249.366	159
249.599	145
249.832	133
250.066	151
250.299	132
250.532	131
250.765	145
250.998	142
251.231	121
251.465	157
251.698	143
251.931	150
252.164	134
252.397	144
252.63	134
252.863	131
253.096	158
253.329	163
253.562	150
253.795	151
254.028	139
254.261	131
254.494	152
254.727	150
254.96	161
255.193	150
255.426	126
255.659	155
255.892	147
256.124	147
256.357	152
256.59	152
256.823	150
257.056	166
257.289	150
257.521	150
257.754	158
257.987	168
258.22	174
258.452	169
258.685	179
258.918	161
259.151	158
259.383	166
259.616	171
259.849	155
260.081	181
260.314	183
260.547	182
260.779	184
261.012	185
261.244	162
261.477	176
261.71	155
261.942	173
262.175	179
262.407	175
262.64	167
262.872	171
263.105	171
263.337	163
263.57	164
263.802	179
264.035	177
264.267	172
264.499	180
264.732	183
264.964	175
265.197	189
265.429	192
265.661	195
265.894	199
266.126	193
266.358	188
266.591	185
266.823	183
267.055	177
267.287	191
267.52	179
267.752	183
267.984	200
268.216	194
268.448	174
268.681	197
268.913	204
269.145	204
269.377	203
269.609	183
269.841	212
270.073	208
270.306	195
270.538	184
270.77	193
271.002	203
271.234	197
271.466	206
271.698	202
271.93	199
272.162	208
272.394	207
272.626	219
272.858	214
273.09	220
273.322	219
273.553	209
273.785	208
274.017	214
274.249	209
274.481	227
274.713	228
274.945	239
275.176	230
275.408	233
275.64	240
275.872	244
276.104	251
276.335	219
276.567	232
276.799	227
277.031	238
277.262	243
277.494	228
277.726	243
277.957	221
278.189	243
278.421	247
278.652	248
278.884	257
279.115	234
279.347	241
279.579	242
279.81	237
280.042	249
280.273	248
280.505	254
280.736	245
280.968	257
281.199	249
281.431	258
281.662	255
281.894	256
282.125	255
282.356	270
282.588	260
282.819	251
283.051	271
283.282	265
283.513	280
283.745	278
283.976	268
284.207	278
284.439	271
284.67	274
284.901	261
285.132	275
285.364	279
285.595	283
285.826	293
286.057	272
286.288	285
286.52	265
286.751	283
286.982	291
287.213	281
287.444	267
287.675	291
287.906	291
288.138	288
288.369	298
288.6	282
288.831	287
289.062	275
289.293	307
289.524	302
289.755	290
289.986	299
290.217	320
290.448	315
290.679	320
290.91	311
291.141	304
291.371	319
291.602	312
291.833	302
292.064	301
292.295	292
292.526	311
292.757	307
292.987	312
293.218	300
293.449	297
293.68	308
293.91	311
294.141	328
294.372	325
294.603	327
294.833	326
295.064	319
295.295	325
295.525	303
295.756	337
295.987	327
296.217	323
296.448	331
296.679	321
296.909	336
297.14	325
297.37	320
297.601	341
297.831	331
298.062	351
298.292	338
298.523	351
298.753	358
298.984	349
299.214	338
299.445	351
299.675	357
299.905	361
300.136	357
300.366	332
300.597	369
300.827	341
301.057	338
301.288	351
301.518	355
301.748	358
301.979	357
302.209	360
302.439	348
302.669	363
302.9	349
303.13	374
303.36	370
303.59	357
303.82	377
304.051	389
304.281	362
304.511	355
304.741	369
304.971	368
305.201	384
305.431	368
305.661	381
305.891	385
306.121	377
306.352	354
306.582	391
306.812	373
307.042	380
307.272	376
307.502	381
307.731	368
307.961	381
308.191	385
308.421	398
308.651	393
308.881	390
309.111	368
309.341	368
309.571	389
309.8	393
310.03	386
310.26	397
310.49	392
310.72	400
310.949	396
311.179	407
311.409	405
311.639	379
311.868	401
312.098	422
312.328	398
312.557	397
312.787	416
313.017	422
313.246	419
313.476	415
313.706	427
313.935	403
314.165	399
314.394	435
314.624	418
314.853	416
315.083	397
315.312	452
315.542	422
315.771	427
316.001	426
316.23	446
316.46	436
316.689	427
316.919	428
317.148	447
317.377	439
317.607	432
317.836	432
318.065	425
318.295	433
318.524	429
318.753	426
318.983	440
319.212	452
319.441	435
319.67	460
319.9	453
320.129	446
320.358	445
320.587	447
320.816	461
321.046	459
321.275	445
321.504	453
321.733	457
321.962	446
322.191	457
322.42	454
322.649	458
322.878	458
323.108	470
323.337	467
323.566	477
323.795	455
324.024	455
324.253	465
324.482	455
324.71	472
324.939	487
325.168	477
325.397	473
325.626	488
325.855	478
326.084	489
326.313	486
326.542	484
326.77	494
326.999	493
327.228	478
327.457	461
327.686	476
327.914	489
328.143	505
328.372	479
328.6	484
328.829	477
329.058	499
329.287	489
329.515	492
329.744	495
329.972	521
330.201	502
330.43	504
330.658	490
330.887	517
331.115	509
331.344	498
331.572	509
331.801	489
332.03	507
332.258	512
332.486	504
332.715	487
332.943	502
333.172	509
333.4	523
333.629	523
333.857	546
334.085	527
334.314	533
334.542	506
334.771	521
334.999	535
335.227	509
335.455	517
335.684	545
335.912	534
336.14	537
336.369	535
336.597	541
336.825	528
337.053	524
337.281	552
337.51	537
337.738	506
337.966	515
338.194	534
338.422	520
338.65	543
338.878	523
339.106	521
339.334	551
339.562	500
339.79	519
340.018	526
340.246	525
340.474	532
340.702	526
340.93	522
341.158	520
341.386	527
341.614	536
341.842	537
342.07	542
342.298	539
342.526	526
342.754	529
342.981	529
343.209	530
343.437	560
343.665	528
343.893	534
344.12	547
344.348	531
344.576	530
344.804	516
345.031	537
345.259	517
345.487	555
345.714	537
345.942	539
346.17	524
346.397	526
346.625	532
346.853	528
347.08	519
347.308	523
347.535	525
347.763	525
347.99	534
348.218	517
348.445	504
348.673	529
348.9	520
349.128	507
349.355	525
349.583	547
349.81	527
350.037	535
350.265	533
350.492	507
350.72	518
350.947	537
351.174	545
351.402	527
351.629	527
351.856	526
352.083	526
352.311	523
352.538	532
352.765	519
352.992	529
353.22	519
353.447	535
353.674	525
353.901	511
354.128	538
354.355	509
354.583	528
354.81	523
355.037	532
355.264	515
355.491	550
355.718	540
355.945	505
356.172	544
356.399	535
356.626	526
356.853	539
357.08	535
357.307	533
357.534	530
357.761	527
357.988	537
358.215	512
358.441	535
358.668	519
358.895	530
359.122	510
359.349	550
359.576	523
359.802	548
360.029	542
360.256	539
360.483	523
360.709	515
360.936	540
361.163	547
361.39	543
361.616	523
361.843	547
362.07	541
362.296	540
362.523	548
362.749	530
362.976	541
363.203	542
363.429	540
363.656	556
363.882	552
364.109	548
364.335	539
364.562	536
364.788	541
365.015	563
365.241	553
365.468	551
365.694	563
365.92	558
366.147	570
366.373	557
366.599	560
366.826	549
367.052	549
367.278	565
367.505	560
367.731	539
367.957	557
368.184	547
368.41	568
368.636	545
368.862	573
369.089	581
369.315	580
369.541	563
369.767	547
369.993	575
370.219	558
370.445	538
370.672	570
370.898	579
371.124	569
371.35	565
371.576	576
371.802	568
372.028	579
372.254	573
372.48	580
372.706	605
372.932	550
373.158	570
373.384	595
373.61	577
373.835	575
374.061	592
374.287	593
374.513	570
374.739	581
374.965	578
375.191	603
375.416	585
375.642	564
375.868	582
376.094	601
376.319	598
376.545	563
376.771	612
376.997	557
377.222	590
377.448	567
377.674	591
377.899	565
378.125	576
378.35	577
378.576	567
378.802	583
379.027	606
379.253	573
379.478	575
379.704	590
379.929	590
380.155	580
380.38	571
380.606	585
380.831	568
381.057	587
381.282	565
381.507	594
381.733	591
381.958	593
382.184	574
382.409	583
382.634	574
382.86	589
383.085	573
383.31	559
383.535	575
383.761	599
383.986	614
384.211	609
384.436	608
384.662	612
384.887	603
385.112	615
385.337	600
385.562	616
385.787	624
386.013	627
386.238	606
386.463	609
386.688	620
386.913	609
387.138	628
387.363	602
387.588	621
387.813	628
388.038	611
388.263	627
388.488	616
388.713	609
388.938	615
389.163	609
389.387	624
389.612	620
389.837	620
390.062	631
390.287	649
390.512	627
390.736	641
390.961	643
391.186	636
391.411	631
391.636	620
391.86	621
392.085	660
392.31	659
392.534	630
392.759	656
392.984	617
393.208	649
393.433	645
393.658	643
393.882	646
394.107	633
394.331	629
394.556	625
394.78	661
395.005	655
395.229	648
395.454	645
395.678	646
395.903	640
396.127	665
396.352	641
396.576	653
396.801	653
397.025	659
397.249	627
397.474	650
397.698	665
397.922	654
398.147	645
398.371	651
398.595	675
398.82	669
399.044	684
399.268	677
399.492	705
399.717	695
399.941	712
400.165	720
400.389	727
400.613	676
400.837	696
401.062	688
401.286	683
401.51	702
401.734	691
401.958	691
402.182	666
402.406	661
402.63	698
402.854	691
403.078	711
403.302	684
403.526	710
403.75	690
403.974	700
404.198	688
404.422	713
404.645	684
404.869	693
405.093	711
405.317	696
405.541	705
405.765	704
405.988	703
406.212	686
406.436	684
406.66	724
406.883	701
407.107	732
407.331	743
407.555	717
407.778	723
408.002	711
408.226	729
408.449	723
408.673	706
408.896	723
409.12	717
409.344	731
409.567	712
409.791	735
410.014	718
410.238	722
410.461	708
410.685	717
410.908	724
411.132	695
411.355	696
411.578	699
411.802	681
412.025	698
412.249	715
412.472	714
412.695	708
412.919	694
413.142	661
413.365	724
413.589	701
413.812	705
414.035	683
414.258	676
414.482	676
414.705	678
414.928	685
415.151	683
415.374	653
415.597	668
415.821	667
416.044	659
416.267	668
416.49	657
416.713	693
416.936	679
417.159	663
417.382	654
417.605	643
417.828	670
418.051	660
418.274	668
418.497	655
418.72	647
418.943	639
419.166	681
419.389	704
419.611	714
419.834	688
420.057	693
420.28	685
420.503	656
420.726	658
420.948	643
421.171	656
421.394	656
421.617	641
421.839	648
422.062	665
422.285	653
422.507	666
422.73	670
422.953	684
423.175	663
423.398	667
423.621	639
423.843	644
424.066	669
424.288	654
424.511	684
424.733	663
424.956	672
425.178	674
425.401	661
425.623	665
425.846	666
426.068	658
426.291	648
426.513	650
426.735	647
426.958	661
427.18	633
427.402	643
427.625	646
427.847	639
428.069	635
428.292	668
428.514	650
428.736	653
428.958	658
429.181	649
429.403	648
429.625	635
429.847	655
430.069	663
430.292	647
430.514	657
430.736	639
430.958	636
431.18	647
431.402	647
431.624	630
431.846	645
432.068	629
432.29	645
432.512	661
432.734	647
432.956	645
433.178	655
433.4	669
433.622	660
433.844	661
434.066	647
434.287	643
434.509	651
434.731	667
434.953	654
435.175	661
435.397	675
435.618	656
435.84	660
436.062	637
436.284	657
436.505	658
436.727	651
436.949	656
437.17	660
437.392	653
437.614	647
437.835	623
438.057	627
438.278	639
438.5	645
438.721	624
438.943	654
439.165	629
439.386	645
439.608	634
439.829	618
440.05	633
440.272	632
440.493	660
440.715	639
440.936	643
441.158	661
441.379	634
441.6	637
441.822	618
442.043	647
442.264	649
442.486	643
442.707	645
442.928	614
443.149	671
443.371	647
443.592	658
443.813	630
444.034	636
444.255	643
444.476	646
444.698	657
444.919	643
445.14	751
445.361	698
445.582	633
445.803	661
446.024	604
446.245	637
446.466	634
446.687	617
446.908	637
447.129	641
447.35	606
447.571	634
447.792	611
448.013	631
448.234	631
448.455	617
448.675	638
448.896	610
449.117	602
449.338	612
449.559	607
449.779	603
450	589
450.221	595
450.442	609
450.662	594
450.883	616
451.104	611
451.324	603
451.545	602
451.766	595
451.986	598
452.207	603
452.428	595
452.648	603
452.869	593
453.089	588
453.31	597
453.53	605
453.751	590
453.971	605
454.192	602
454.412	589
454.633	571
454.853	603
455.073	592
455.294	594
455.514	588
455.734	598
455.955	603
456.175	590
456.395	579
456.616	620
456.836	606
457.056	614
457.276	597
457.497	587
457.717	582
457.937	606
458.157	592
458.377	612
458.598	613
458.818	618
459.038	603
459.258	603
459.478	592
459.698	632
459.918	619
460.138	634
460.358	623
460.578	651
460.798	641
461.018	651
461.238	668
461.458	640
461.678	646
461.898	665
462.118	659
462.338	664
462.558	647
462.777	674
462.997	697
463.217	699
463.437	671
463.657	661
463.876	669
464.096	710
464.316	677
464.536	677
464.755	675
464.975	650
465.195	643
465.414	650
465.634	640
465.854	639
466.073	649
466.293	636
466.512	639
466.732	634
466.951	637
467.171	636
467.391	652
467.61	635
467.829	634
468.049	638
468.268	621
468.488	613
468.707	647
468.927	628
469.146	627
469.365	656
469.585	632
469.804	631
470.023	629
470.243	653
470.462	652
470.681	641
470.901	660
471.12	650
471.339	643
471.558	652
471.777	677
471.997	669
472.216	672
472.435	671
472.654	641
472.873	652
473.092	686
473.311	668
473.53	650
473.749	648
473.968	665
474.187	661
474.406	671
474.625	697
474.844	673
475.063	673
475.282	681
475.501	671
475.72	697
475.939	701
476.158	721
476.377	728
476.596	676
476.814	732
477.033	702
477.252	715
477.471	713
477.69	708
477.908	718
478.127	749
478.346	725
478.564	732
478.783	732
479.002	741
479.22	774
479.439	796
479.658	785
479.876	766
480.095	732
480.313	775
480.532	797
480.751	775
480.969	784
481.188	752
481.406	784
481.624	772
481.843	756
482.061	756
482.28	789
482.498	795
482.717	784
482.935	776
483.153	784
483.372	807
483.59	824
483.808	823
484.027	798
484.245	791
484.463	802
484.681	815
484.9	819
485.118	825
485.336	817
485.554	808
485.772	841
485.99	807
486.209	799
486.427	811
486.645	809
486.863	828
487.081	823
487.299	836
487.517	830
487.735	841
487.953	824
488.171	843
488.389	819
488.607	824
488.825	829
489.043	829
489.261	838
489.479	841
489.696	842
489.914	839
490.132	835
490.35	843
490.568	808
490.786	837
491.003	835
491.221	870
491.439	846
491.657	844
491.874	849
492.092	856
492.31	870
492.527	810
492.745	860
492.963	853
493.18	837
493.398	846
493.615	886
493.833	879
494.05	854
494.268	861
494.485	829
494.703	840
494.92	879
495.138	890
495.355	861
495.573	855
495.79	837
496.008	877
496.225	881
496.442	865
496.66	881
496.877	870
497.094	858
497.312	865
497.529	886
497.746	903
497.963	900
498.181	916
498.398	940
498.615	945
498.832	941
499.049	964
499.267	1000
499.484	993
499.701	1004
499.918	1018
500.135	1039
500.352	1066
500.569	1073
500.786	1081
501.003	1031
501.22	1046
501.437	1006
501.654	983
501.871	972
502.088	956
502.305	951
502.522	927
502.739	911
502.956	899
503.172	919
503.389	886
503.606	890
503.823	865
504.04	868
504.256	869
504.473	867
504.69	861
504.907	878
505.123	835
505.34	825
505.557	826
505.773	825
505.99	817
506.207	817
506.423	826
506.64	809
506.856	773
507.073	810
507.289	809
507.506	774
507.722	777
507.939	771
508.155	799
508.372	782
508.588	773
508.805	769
509.021	780
509.238	762
509.454	757
509.67	771
509.887	752
510.103	739
510.319	741
510.536	751
510.752	753
510.968	763
511.184	732
511.401	729
511.617	760
511.833	737
512.049	728
512.265	743
512.481	742
512.698	755
512.914	734
513.13	767
513.346	733
513.562	759
513.778	719
513.994	730
514.21	707
514.426	725
514.642	751
514.858	747
515.074	720
515.29	741
515.506	750
515.721	746
515.937	767
516.153	757
516.369	755
516.585	730
516.801	768
517.016	729
517.232	751
517.448	756
517.664	752
517.879	772
518.095	784
518.311	752
518.527	758
518.742	742
518.958	760
519.173	721
519.389	727
519.605	731
519.82	730
520.036	741
520.251	728
520.467	717
520.682	739
520.898	711
521.113	724
521.329	704
521.544	700
521.76	717
521.975	708
522.19	704
522.406	716
522.621	705
522.836	712
523.052	721
523.267	701
523.482	693
523.698	687
523.913	694
524.128	697
524.343	696
524.559	694
524.774	718
524.989	698
525.204	700
525.419	701
525.634	688
525.849	686
526.064	694
526.28	671
526.495	708
526.71	688
526.925	687
527.14	703
527.355	689
527.57	675
527.785	699
527.999	682
528.214	688
528.429	660
528.644	684
528.859	670
529.074	676
529.289	686
529.503	686
529.718	681
529.933	677
530.148	662
530.363	695
530.577	685
530.792	687
531.007	664
531.221	682
531.436	666
531.651	666
531.865	649
532.08	682
532.295	665
532.509	665
532.724	662
532.938	664
533.153	645
533.367	674
533.582	659
533.796	672
534.011	663
534.225	647
534.44	636
534.654	653
534.868	637
535.083	672
535.297	647
535.511	656
535.726	663
535.94	641
536.154	652
536.369	648
536.583	634
536.797	644
537.011	626
537.225	634
537.44	641
537.654	637
537.868	630
538.082	646
538.296	636
538.51	627
538.724	629
538.938	617
539.153	620
539.367	632
539.581	639
539.795	612
540.009	624
540.222	623
540.436	612
540.65	627
540.864	624
541.078	620
541.292	627
541.506	639
541.72	638
541.934	644
542.147	621
542.361	619
542.575	632
542.789	643
543.002	612
543.216	612
543.43	625
543.644	605
543.857	614
544.071	615
544.285	611
544.498	612
544.712	591
544.925	628
545.139	622
545.352	607
545.566	615
545.779	615
545.993	609
546.206	607
546.42	591
546.633	635
546.847	637
547.06	611
547.274	616
547.487	617
547.7	622
547.914	595
548.127	605
548.34	614
548.554	625
548.767	624
548.98	631
549.193	609
549.407	601
549.62	606
549.833	613
550.046	592
550.259	599
550.473	589
550.686	586
550.899	611
551.112	619
551.325	588
551.538	582
551.751	580
551.964	565
552.177	591
552.39	576
552.603	585
552.816	623
553.029	608
553.242	564
553.455	588
553.667	595
553.88	599
554.093	598
554.306	558
554.519	568
554.732	593
554.944	549
555.157	558
555.37	567
555.583	589
555.795	552
556.008	548
556.221	579
556.433	555
556.646	547
556.859	538
557.071	545
557.284	550
557.496	554
557.709	528
557.921	548
558.134	572
558.346	548
558.559	533
558.771	529
558.984	537
559.196	539
559.409	528
559.621	561
559.833	538
560.046	533
560.258	523
560.47	531
560.683	533
560.895	543
561.107	529
561.32	547
561.532	533
561.744	537
561.956	539
562.168	532
562.381	532
562.593	541
562.805	528
563.017	509
563.229	506
