Data from Fe(NO3)3@0.025M.TitratingCurve.Agarose3%dH2O.NegLispCup.LampEnergy10.LIBS07252019_HRD10591_16-56-24-336.txt Node
Date: Thu Jul 25 16:56:24 EDT 2019
User: cochatt
Spectrometer: HR+D1059
Trigger mode: 1
Integration Time (sec): 1.000000E-1
Scans to average: 1
Electric dark correction enabled: true
Nonlinearity correction enabled: false
Boxcar width: 0
XAxis mode: Wavelengths
Number of Pixels in Spectrum: 2048
>>>>>Begin Spectral Data<<<<<
223.165	-17.5
223.4	-17.5
223.635	-17.5
223.869	-14.5
224.104	-29.5
224.338	-3.5
224.573	-15.5
224.808	-20.5
225.042	-12.5
225.277	-4.5
225.511	-7.5
225.746	-6.5
225.98	7.5
226.215	9.5
226.449	28.5
226.683	42.5
226.918	12.5
227.152	31.5
227.387	45.5
227.621	47.5
227.856	35.5
228.09	54.5
228.324	58.5
228.559	46.5
228.793	73.5
229.027	81.5
229.262	91.5
229.496	98.5
229.73	77.5
229.964	108.5
230.199	84.5
230.433	96.5
230.667	94.5
230.901	93.5
231.136	98.5
231.37	92.5
231.604	111.5
231.838	119.5
232.072	97.5
232.306	103.5
232.541	99.5
232.775	105.5
233.009	113.5
233.243	101.5
233.477	120.5
233.711	118.5
233.945	108.5
234.179	110.5
234.413	105.5
234.647	114.5
234.881	129.5
235.115	107.5
235.349	105.5
235.583	105.5
235.817	98.5
236.051	105.5
236.285	90.5
236.519	115.5
236.753	113.5
236.987	102.5
237.221	112.5
237.455	104.5
237.689	116.5
237.922	131.5
238.156	115.5
238.39	112.5
238.624	103.5
238.858	116.5
239.091	117.5
239.325	114.5
239.559	118.5
239.793	110.5
240.027	110.5
240.26	119.5
240.494	125.5
240.728	124.5
240.961	122.5
241.195	121.5
241.429	123.5
241.662	109.5
241.896	131.5
242.13	102.5
242.363	123.5
242.597	122.5
242.83	109.5
243.064	112.5
243.298	133.5
243.531	113.5
243.765	124.5
243.998	120.5
244.232	120.5
244.465	118.5
244.699	129.5
244.932	135.5
245.166	122.5
245.399	127.5
245.633	138.5
245.866	139.5
246.099	132.5
246.333	127.5
246.566	135.5
246.8	139.5
247.033	136.5
247.266	139.5
247.5	133.5
247.733	139.5
247.966	136.5
248.2	137.5
248.433	137.5
248.666	136.5
248.899	134.5
249.133	134.5
249.366	156.5
249.599	145.5
249.832	140.5
250.066	149.5
250.299	141.5
250.532	146.5
250.765	164.5
250.998	144.5
251.231	143.5
251.465	137.5
251.698	143.5
251.931	151.5
252.164	158.5
252.397	155.5
252.63	145.5
252.863	150.5
253.096	141.5
253.329	157.5
253.562	137.5
253.795	153.5
254.028	151.5
254.261	152.5
254.494	157.5
254.727	163.5
254.96	159.5
255.193	158.5
255.426	152.5
255.659	169.5
255.892	154.5
256.124	166.5
256.357	150.5
256.59	165.5
256.823	159.5
257.056	155.5
257.289	169.5
257.521	169.5
257.754	169.5
257.987	159.5
258.22	162.5
258.452	167.5
258.685	163.5
258.918	162.5
259.151	173.5
259.383	172.5
259.616	146.5
259.849	172.5
260.081	169.5
260.314	172.5
260.547	167.5
260.779	179.5
261.012	175.5
261.244	175.5
261.477	175.5
261.71	179.5
261.942	158.5
262.175	165.5
262.407	181.5
262.64	184.5
262.872	185.5
263.105	182.5
263.337	183.5
263.57	177.5
263.802	171.5
264.035	172.5
264.267	168.5
264.499	174.5
264.732	181.5
264.964	195.5
265.197	190.5
265.429	176.5
265.661	184.5
265.894	181.5
266.126	188.5
266.358	176.5
266.591	173.5
266.823	206.5
267.055	202.5
267.287	179.5
267.52	196.5
267.752	183.5
267.984	185.5
268.216	183.5
268.448	204.5
268.681	182.5
268.913	192.5
269.145	185.5
269.377	209.5
269.609	185.5
269.841	197.5
270.073	179.5
270.306	184.5
270.538	210.5
270.77	204.5
271.002	183.5
271.234	190.5
271.466	195.5
271.698	206.5
271.93	196.5
272.162	189.5
272.394	205.5
272.626	213.5
272.858	193.5
273.09	206.5
273.322	229.5
273.553	193.5
273.785	204.5
274.017	213.5
274.249	226.5
274.481	207.5
274.713	212.5
274.945	227.5
275.176	224.5
275.408	203.5
275.64	229.5
275.872	221.5
276.104	215.5
276.335	224.5
276.567	218.5
276.799	231.5
277.031	216.5
277.262	240.5
277.494	219.5
277.726	239.5
277.957	225.5
278.189	251.5
278.421	221.5
278.652	239.5
278.884	228.5
279.115	227.5
279.347	219.5
279.579	212.5
279.81	225.5
280.042	230.5
280.273	222.5
280.505	224.5
280.736	230.5
280.968	234.5
281.199	231.5
281.431	236.5
281.662	217.5
281.894	248.5
282.125	245.5
282.356	250.5
282.588	230.5
282.819	239.5
283.051	239.5
283.282	262.5
283.513	240.5
283.745	257.5
283.976	251.5
284.207	244.5
284.439	244.5
284.67	259.5
284.901	245.5
285.132	241.5
285.364	252.5
285.595	256.5
285.826	236.5
286.057	248.5
286.288	272.5
286.52	261.5
286.751	235.5
286.982	255.5
287.213	252.5
287.444	233.5
287.675	256.5
287.906	258.5
288.138	252.5
288.369	256.5
288.6	260.5
288.831	259.5
289.062	254.5
289.293	257.5
289.524	253.5
289.755	261.5
289.986	261.5
290.217	275.5
290.448	277.5
290.679	280.5
290.91	267.5
291.141	246.5
291.371	264.5
291.602	277.5
291.833	272.5
292.064	263.5
292.295	243.5
292.526	275.5
292.757	263.5
292.987	279.5
293.218	265.5
293.449	270.5
293.68	283.5
293.91	253.5
294.141	269.5
294.372	272.5
294.603	264.5
294.833	259.5
295.064	273.5
295.295	260.5
295.525	285.5
295.756	274.5
295.987	272.5
296.217	274.5
296.448	279.5
296.679	273.5
296.909	279.5
297.14	291.5
297.37	280.5
297.601	282.5
297.831	273.5
298.062	269.5
298.292	278.5
298.523	289.5
298.753	289.5
298.984	281.5
299.214	284.5
299.445	312.5
299.675	302.5
299.905	288.5
300.136	295.5
300.366	280.5
300.597	300.5
300.827	301.5
301.057	283.5
301.288	304.5
301.518	299.5
301.748	284.5
301.979	304.5
302.209	315.5
302.439	311.5
302.669	312.5
302.9	309.5
303.13	336.5
303.36	301.5
303.59	327.5
303.82	311.5
304.051	307.5
304.281	319.5
304.511	325.5
304.741	309.5
304.971	297.5
305.201	322.5
305.431	299.5
305.661	301.5
305.891	300.5
306.121	332.5
306.352	311.5
306.582	317.5
306.812	303.5
307.042	309.5
307.272	297.5
307.502	312.5
307.731	307.5
307.961	322.5
308.191	314.5
308.421	295.5
308.651	311.5
308.881	307.5
309.111	294.5
309.341	310.5
309.571	313.5
309.8	326.5
310.03	295.5
310.26	287.5
310.49	315.5
310.72	329.5
310.949	308.5
311.179	327.5
311.409	335.5
311.639	313.5
311.868	324.5
312.098	332.5
312.328	348.5
312.557	310.5
312.787	320.5
313.017	331.5
313.246	347.5
313.476	339.5
313.706	329.5
313.935	349.5
314.165	313.5
314.394	320.5
314.624	334.5
314.853	334.5
315.083	335.5
315.312	332.5
315.542	356.5
315.771	343.5
316.001	332.5
316.23	319.5
316.46	342.5
316.689	333.5
316.919	332.5
317.148	331.5
317.377	352.5
317.607	345.5
317.836	343.5
318.065	344.5
318.295	347.5
318.524	353.5
318.753	336.5
318.983	346.5
319.212	333.5
319.441	334.5
319.67	367.5
319.9	354.5
320.129	340.5
320.358	343.5
320.587	341.5
320.816	350.5
321.046	354.5
321.275	359.5
321.504	354.5
321.733	347.5
321.962	344.5
322.191	347.5
322.42	356.5
322.649	344.5
322.878	350.5
323.108	357.5
323.337	373.5
323.566	364.5
323.795	344.5
324.024	349.5
324.253	347.5
324.482	333.5
324.71	362.5
324.939	351.5
325.168	361.5
325.397	349.5
325.626	354.5
325.855	357.5
326.084	385.5
326.313	362.5
326.542	381.5
326.77	375.5
326.999	362.5
327.228	358.5
327.457	379.5
327.686	365.5
327.914	379.5
328.143	367.5
328.372	371.5
328.6	393.5
328.829	368.5
329.058	383.5
329.287	383.5
329.515	398.5
329.744	378.5
329.972	387.5
330.201	395.5
330.43	389.5
330.658	398.5
330.887	391.5
331.115	368.5
331.344	387.5
331.572	380.5
331.801	411.5
332.03	404.5
332.258	391.5
332.486	395.5
332.715	418.5
332.943	431.5
333.172	409.5
333.4	419.5
333.629	424.5
333.857	453.5
334.085	424.5
334.314	467.5
334.542	450.5
334.771	450.5
334.999	433.5
335.227	437.5
335.455	440.5
335.684	447.5
335.912	411.5
336.14	433.5
336.369	427.5
336.597	424.5
336.825	433.5
337.053	436.5
337.281	423.5
337.51	413.5
337.738	419.5
337.966	406.5
338.194	403.5
338.422	427.5
338.65	418.5
338.878	395.5
339.106	412.5
339.334	397.5
339.562	411.5
339.79	414.5
340.018	391.5
340.246	387.5
340.474	411.5
340.702	403.5
340.93	414.5
341.158	421.5
341.386	382.5
341.614	391.5
341.842	405.5
342.07	378.5
342.298	400.5
342.526	379.5
342.754	399.5
342.981	411.5
343.209	423.5
343.437	396.5
343.665	405.5
343.893	414.5
344.12	428.5
344.348	437.5
344.576	435.5
344.804	424.5
345.031	399.5
345.259	399.5
345.487	403.5
345.714	407.5
345.942	381.5
346.17	407.5
346.397	398.5
346.625	397.5
346.853	384.5
347.08	390.5
347.308	382.5
347.535	389.5
347.763	383.5
347.99	383.5
348.218	384.5
348.445	394.5
348.673	376.5
348.9	380.5
349.128	377.5
349.355	369.5
349.583	391.5
349.81	389.5
350.037	396.5
350.265	393.5
350.492	378.5
350.72	393.5
350.947	409.5
351.174	380.5
351.402	401.5
351.629	400.5
351.856	386.5
352.083	397.5
352.311	387.5
352.538	384.5
352.765	397.5
352.992	401.5
353.22	376.5
353.447	380.5
353.674	362.5
353.901	375.5
354.128	385.5
354.355	375.5
354.583	387.5
354.81	377.5
355.037	404.5
355.264	392.5
355.491	371.5
355.718	380.5
355.945	391.5
356.172	382.5
356.399	385.5
356.626	391.5
356.853	395.5
357.08	390.5
357.307	386.5
357.534	383.5
357.761	378.5
357.988	368.5
358.215	399.5
358.441	395.5
358.668	396.5
358.895	375.5
359.122	388.5
359.349	385.5
359.576	391.5
359.802	390.5
360.029	384.5
360.256	402.5
360.483	380.5
360.709	373.5
360.936	392.5
361.163	389.5
361.39	369.5
361.616	391.5
361.843	370.5
362.07	395.5
362.296	393.5
362.523	395.5
362.749	383.5
362.976	402.5
363.203	385.5
363.429	385.5
363.656	406.5
363.882	394.5
364.109	388.5
364.335	384.5
364.562	393.5
364.788	383.5
365.015	405.5
365.241	397.5
365.468	408.5
365.694	385.5
365.92	396.5
366.147	397.5
366.373	395.5
366.599	407.5
366.826	406.5
367.052	417.5
367.278	406.5
367.505	410.5
367.731	410.5
367.957	400.5
368.184	411.5
368.41	407.5
368.636	411.5
368.862	416.5
369.089	403.5
369.315	411.5
369.541	404.5
369.767	392.5
369.993	401.5
370.219	398.5
370.445	391.5
370.672	437.5
370.898	405.5
371.124	407.5
371.35	423.5
371.576	416.5
371.802	413.5
372.028	399.5
372.254	424.5
372.48	423.5
372.706	399.5
372.932	436.5
373.158	429.5
373.384	429.5
373.61	429.5
373.835	439.5
374.061	417.5
374.287	439.5
374.513	428.5
374.739	447.5
374.965	457.5
375.191	423.5
375.416	440.5
375.642	440.5
375.868	456.5
376.094	444.5
376.319	428.5
376.545	409.5
376.771	425.5
376.997	424.5
377.222	407.5
377.448	430.5
377.674	426.5
377.899	407.5
378.125	424.5
378.35	408.5
378.576	428.5
378.802	440.5
379.027	412.5
379.253	428.5
379.478	423.5
379.704	428.5
379.929	413.5
380.155	418.5
380.38	403.5
380.606	423.5
380.831	400.5
381.057	451.5
381.282	433.5
381.507	421.5
381.733	431.5
381.958	440.5
382.184	428.5
382.409	438.5
382.634	443.5
382.86	443.5
383.085	459.5
383.31	431.5
383.535	455.5
383.761	439.5
383.986	436.5
384.211	456.5
384.436	469.5
384.662	469.5
384.887	464.5
385.112	470.5
385.337	466.5
385.562	455.5
385.787	465.5
386.013	483.5
386.238	455.5
386.463	475.5
386.688	482.5
386.913	466.5
387.138	489.5
387.363	490.5
387.588	481.5
387.813	499.5
388.038	471.5
388.263	490.5
388.488	495.5
388.713	485.5
388.938	488.5
389.163	480.5
389.387	486.5
389.612	487.5
389.837	491.5
390.062	491.5
390.287	493.5
390.512	494.5
390.736	489.5
390.961	501.5
391.186	501.5
391.411	504.5
391.636	501.5
391.86	508.5
392.085	501.5
392.31	529.5
392.534	520.5
392.759	528.5
392.984	501.5
393.208	507.5
393.433	533.5
393.658	512.5
393.882	490.5
394.107	495.5
394.331	516.5
394.556	509.5
394.78	510.5
395.005	521.5
395.229	525.5
395.454	530.5
395.678	519.5
395.903	544.5
396.127	530.5
396.352	519.5
396.576	531.5
396.801	543.5
397.025	520.5
397.249	534.5
397.474	539.5
397.698	533.5
397.922	564.5
398.147	548.5
398.371	529.5
398.595	563.5
398.82	591.5
399.044	609.5
399.268	627.5
399.492	681.5
399.717	709.5
399.941	695.5
400.165	700.5
400.389	651.5
400.613	644.5
400.837	612.5
401.062	596.5
401.286	589.5
401.51	575.5
401.734	577.5
401.958	584.5
402.182	579.5
402.406	581.5
402.63	620.5
402.854	584.5
403.078	573.5
403.302	587.5
403.526	609.5
403.75	597.5
403.974	619.5
404.198	592.5
404.422	609.5
404.645	611.5
404.869	608.5
405.093	603.5
405.317	599.5
405.541	601.5
405.765	607.5
405.988	613.5
406.212	623.5
406.436	615.5
406.66	661.5
406.883	621.5
407.107	632.5
407.331	648.5
407.555	659.5
407.778	661.5
408.002	663.5
408.226	635.5
408.449	636.5
408.673	644.5
408.896	637.5
409.12	619.5
409.344	615.5
409.567	601.5
409.791	605.5
410.014	568.5
410.238	616.5
410.461	599.5
410.685	602.5
410.908	603.5
411.132	582.5
411.355	581.5
411.578	607.5
411.802	574.5
412.025	588.5
412.249	595.5
412.472	599.5
412.695	590.5
412.919	586.5
413.142	589.5
413.365	579.5
413.589	583.5
413.812	593.5
414.035	573.5
414.258	571.5
414.482	572.5
414.705	605.5
414.928	577.5
415.151	556.5
415.374	572.5
415.597	577.5
415.821	548.5
416.044	560.5
416.267	546.5
416.49	567.5
416.713	539.5
416.936	558.5
417.159	541.5
417.382	537.5
417.605	544.5
417.828	556.5
418.051	559.5
418.274	555.5
418.497	565.5
418.72	575.5
418.943	583.5
419.166	566.5
419.389	594.5
419.611	592.5
419.834	592.5
420.057	551.5
420.28	560.5
420.503	559.5
420.726	532.5
420.948	558.5
421.171	547.5
421.394	554.5
421.617	547.5
421.839	536.5
422.062	556.5
422.285	549.5
422.507	571.5
422.73	531.5
422.953	564.5
423.175	545.5
423.398	557.5
423.621	532.5
423.843	547.5
424.066	553.5
424.288	542.5
424.511	542.5
424.733	551.5
424.956	539.5
425.178	559.5
425.401	539.5
425.623	567.5
425.846	549.5
426.068	508.5
426.291	545.5
426.513	548.5
426.735	543.5
426.958	533.5
427.18	530.5
427.402	529.5
427.625	527.5
427.847	519.5
428.069	515.5
428.292	511.5
428.514	485.5
428.736	526.5
428.958	517.5
429.181	497.5
429.403	510.5
429.625	526.5
429.847	527.5
430.069	523.5
430.292	508.5
430.514	506.5
430.736	499.5
430.958	495.5
431.18	503.5
431.402	508.5
431.624	520.5
431.846	507.5
432.068	507.5
432.29	512.5
432.512	519.5
432.734	515.5
432.956	488.5
433.178	504.5
433.4	513.5
433.622	501.5
433.844	529.5
434.066	519.5
434.287	527.5
434.509	536.5
434.731	539.5
434.953	543.5
435.175	540.5
435.397	532.5
435.618	536.5
435.84	511.5
436.062	505.5
436.284	500.5
436.505	535.5
436.727	519.5
436.949	517.5
437.17	525.5
437.392	494.5
437.614	507.5
437.835	482.5
438.057	496.5
438.278	497.5
438.5	497.5
438.721	487.5
438.943	502.5
439.165	496.5
439.386	478.5
439.608	513.5
439.829	480.5
440.05	502.5
440.272	504.5
440.493	514.5
440.715	495.5
440.936	513.5
441.158	501.5
441.379	525.5
441.6	533.5
441.822	526.5
442.043	519.5
442.264	529.5
442.486	514.5
442.707	541.5
442.928	517.5
443.149	531.5
443.371	541.5
443.592	504.5
443.813	532.5
444.034	528.5
444.255	536.5
444.476	535.5
444.698	556.5
444.919	555.5
445.14	648.5
445.361	595.5
445.582	556.5
445.803	543.5
446.024	525.5
446.245	517.5
446.466	522.5
446.687	497.5
446.908	480.5
447.129	511.5
447.35	490.5
447.571	496.5
447.792	487.5
448.013	470.5
448.234	464.5
448.455	461.5
448.675	477.5
448.896	449.5
449.117	480.5
449.338	468.5
449.559	468.5
449.779	461.5
450	482.5
450.221	459.5
450.442	449.5
450.662	463.5
450.883	462.5
451.104	488.5
451.324	457.5
451.545	465.5
451.766	451.5
451.986	457.5
452.207	450.5
452.428	454.5
452.648	446.5
452.869	444.5
453.089	447.5
453.31	456.5
453.53	452.5
453.751	432.5
453.971	448.5
454.192	431.5
454.412	454.5
454.633	435.5
454.853	438.5
455.073	423.5
455.294	439.5
455.514	444.5
455.734	437.5
455.955	440.5
456.175	432.5
456.395	426.5
456.616	439.5
456.836	445.5
457.056	427.5
457.276	449.5
457.497	447.5
457.717	453.5
457.937	467.5
458.157	453.5
458.377	446.5
458.598	445.5
458.818	494.5
459.038	507.5
459.258	487.5
459.478	495.5
459.698	495.5
459.918	517.5
460.138	504.5
460.358	556.5
460.578	533.5
460.798	555.5
461.018	566.5
461.238	553.5
461.458	554.5
461.678	572.5
461.898	568.5
462.118	564.5
462.338	572.5
462.558	593.5
462.777	595.5
462.997	631.5
463.217	637.5
463.437	651.5
463.657	622.5
463.876	600.5
464.096	596.5
464.316	606.5
464.536	615.5
464.755	630.5
464.975	575.5
465.195	557.5
465.414	581.5
465.634	532.5
465.854	537.5
466.073	525.5
466.293	501.5
466.512	493.5
466.732	492.5
466.951	493.5
467.171	493.5
467.391	476.5
467.61	472.5
467.829	479.5
468.049	473.5
468.268	483.5
468.488	472.5
468.707	475.5
468.927	487.5
469.146	469.5
469.365	473.5
469.585	484.5
469.804	511.5
470.023	473.5
470.243	492.5
470.462	496.5
470.681	492.5
470.901	492.5
471.12	500.5
471.339	482.5
471.558	492.5
471.777	472.5
471.997	470.5
472.216	483.5
472.435	489.5
472.654	484.5
472.873	471.5
473.092	470.5
473.311	474.5
473.53	471.5
473.749	470.5
473.968	487.5
474.187	496.5
474.406	465.5
474.625	477.5
474.844	476.5
475.063	495.5
475.282	481.5
475.501	498.5
475.72	480.5
475.939	486.5
476.158	493.5
476.377	498.5
476.596	495.5
476.814	515.5
477.033	524.5
477.252	519.5
477.471	543.5
477.69	530.5
477.908	543.5
478.127	549.5
478.346	572.5
478.564	557.5
478.783	540.5
479.002	558.5
479.22	587.5
479.439	585.5
479.658	551.5
479.876	595.5
480.095	573.5
480.313	600.5
480.532	613.5
480.751	578.5
480.969	581.5
481.188	598.5
481.406	595.5
481.624	588.5
481.843	566.5
482.061	565.5
482.28	568.5
482.498	581.5
482.717	566.5
482.935	576.5
483.153	555.5
483.372	563.5
483.59	567.5
483.808	561.5
484.027	560.5
484.245	584.5
484.463	557.5
484.681	575.5
484.9	576.5
485.118	577.5
485.336	588.5
485.554	596.5
485.772	606.5
485.99	598.5
486.209	577.5
486.427	591.5
486.645	610.5
486.863	580.5
487.081	592.5
487.299	582.5
487.517	570.5
487.735	605.5
487.953	597.5
488.171	583.5
488.389	565.5
488.607	556.5
488.825	578.5
489.043	575.5
489.261	591.5
489.479	567.5
489.696	573.5
489.914	577.5
490.132	607.5
490.35	577.5
490.568	590.5
490.786	586.5
491.003	574.5
491.221	586.5
491.439	572.5
491.657	596.5
491.874	589.5
492.092	612.5
492.31	588.5
492.527	577.5
492.745	581.5
492.963	606.5
493.18	601.5
493.398	591.5
493.615	611.5
493.833	605.5
494.05	605.5
494.268	597.5
494.485	608.5
494.703	587.5
494.92	603.5
495.138	622.5
495.355	630.5
495.573	624.5
495.79	614.5
496.008	621.5
496.225	630.5
496.442	637.5
496.66	654.5
496.877	637.5
497.094	667.5
497.312	641.5
497.529	665.5
497.746	726.5
497.963	691.5
498.181	725.5
498.398	727.5
498.615	756.5
498.832	800.5
499.049	851.5
499.267	904.5
499.484	909.5
499.701	981.5
499.918	1040.5
500.135	1128.5
500.352	1149.5
500.569	1189.5
500.786	1154.5
501.003	1124.5
501.22	1072.5
501.437	990.5
501.654	908.5
501.871	893.5
502.088	846.5
502.305	816.5
502.522	791.5
502.739	765.5
502.956	757.5
503.172	720.5
503.389	681.5
503.606	667.5
503.823	711.5
504.04	689.5
504.256	673.5
504.473	651.5
504.69	654.5
504.907	678.5
505.123	652.5
505.34	629.5
505.557	611.5
505.773	563.5
505.99	603.5
506.207	576.5
506.423	563.5
506.64	579.5
506.856	544.5
507.073	521.5
507.289	554.5
507.506	548.5
507.722	532.5
507.939	557.5
508.155	541.5
508.372	535.5
508.588	517.5
508.805	503.5
509.021	492.5
509.238	507.5
509.454	495.5
509.67	496.5
509.887	486.5
510.103	492.5
510.319	496.5
510.536	504.5
510.752	475.5
510.968	475.5
511.184	499.5
511.401	491.5
511.617	498.5
511.833	501.5
512.049	501.5
512.265	491.5
512.481	480.5
512.698	489.5
512.914	477.5
513.13	502.5
513.346	509.5
513.562	483.5
513.778	491.5
513.994	475.5
514.21	515.5
514.426	524.5
514.642	509.5
514.858	497.5
515.074	506.5
515.29	506.5
515.506	500.5
515.721	501.5
515.937	521.5
516.153	520.5
516.369	526.5
516.585	535.5
516.801	557.5
517.016	576.5
517.232	565.5
517.448	572.5
517.664	574.5
517.879	575.5
518.095	572.5
518.311	588.5
518.527	576.5
518.742	563.5
518.958	532.5
519.173	553.5
519.389	526.5
519.605	532.5
