Data from Fe(NO3)3@0.0125M.TitratingCurve.Agarose3%dH2O.NegLispCup.LampEnergy10.LIBS07252019_HRD10591_17-00-38-337.txt Node
Date: Thu Jul 25 17:00:38 EDT 2019
User: cochatt
Spectrometer: HR+D1059
Trigger mode: 1
Integration Time (sec): 1.000000E-1
Scans to average: 1
Electric dark correction enabled: true
Nonlinearity correction enabled: false
Boxcar width: 0
XAxis mode: Wavelengths
Number of Pixels in Spectrum: 2048
>>>>>Begin Spectral Data<<<<<
223.165	-21.5
223.4	-21.5
223.635	-21.5
223.869	-15.5
224.104	-12.5
224.338	-10.5
224.573	-0.5
224.808	-14.5
225.042	-28.5
225.277	-7.5
225.511	2.5
225.746	-2.5
225.98	12.5
226.215	8.5
226.449	11.5
226.683	17.5
226.918	30.5
227.152	30.5
227.387	33.5
227.621	28.5
227.856	34.5
228.09	55.5
228.324	43.5
228.559	39.5
228.793	72.5
229.027	68.5
229.262	75.5
229.496	76.5
229.73	68.5
229.964	94.5
230.199	95.5
230.433	75.5
230.667	98.5
230.901	90.5
231.136	95.5
231.37	88.5
231.604	82.5
231.838	99.5
232.072	90.5
232.306	95.5
232.541	94.5
232.775	109.5
233.009	92.5
233.243	95.5
233.477	98.5
233.711	88.5
233.945	81.5
234.179	91.5
234.413	93.5
234.647	98.5
234.881	90.5
235.115	104.5
235.349	100.5
235.583	102.5
235.817	100.5
236.051	88.5
236.285	85.5
236.519	106.5
236.753	103.5
236.987	87.5
237.221	100.5
237.455	91.5
237.689	95.5
237.922	80.5
238.156	98.5
238.39	98.5
238.624	102.5
238.858	87.5
239.091	111.5
239.325	103.5
239.559	104.5
239.793	95.5
240.027	116.5
240.26	95.5
240.494	104.5
240.728	98.5
240.961	94.5
241.195	102.5
241.429	107.5
241.662	110.5
241.896	112.5
242.13	120.5
242.363	95.5
242.597	118.5
242.83	94.5
243.064	113.5
243.298	123.5
243.531	108.5
243.765	96.5
243.998	120.5
244.232	119.5
244.465	127.5
244.699	104.5
244.932	104.5
245.166	112.5
245.399	116.5
245.633	125.5
245.866	110.5
246.099	129.5
246.333	123.5
246.566	120.5
246.8	121.5
247.033	124.5
247.266	124.5
247.5	128.5
247.733	118.5
247.966	114.5
248.2	122.5
248.433	122.5
248.666	110.5
248.899	114.5
249.133	113.5
249.366	117.5
249.599	115.5
249.832	128.5
250.066	135.5
250.299	120.5
250.532	126.5
250.765	131.5
250.998	123.5
251.231	116.5
251.465	128.5
251.698	120.5
251.931	120.5
252.164	137.5
252.397	139.5
252.63	121.5
252.863	130.5
253.096	133.5
253.329	131.5
253.562	132.5
253.795	134.5
254.028	139.5
254.261	148.5
254.494	135.5
254.727	119.5
254.96	133.5
255.193	130.5
255.426	118.5
255.659	134.5
255.892	127.5
256.124	132.5
256.357	147.5
256.59	136.5
256.823	128.5
257.056	129.5
257.289	136.5
257.521	147.5
257.754	134.5
257.987	138.5
258.22	134.5
258.452	128.5
258.685	137.5
258.918	126.5
259.151	143.5
259.383	149.5
259.616	137.5
259.849	139.5
260.081	147.5
260.314	153.5
260.547	156.5
260.779	142.5
261.012	129.5
261.244	134.5
261.477	154.5
261.71	154.5
261.942	147.5
262.175	152.5
262.407	141.5
262.64	160.5
262.872	137.5
263.105	143.5
263.337	144.5
263.57	151.5
263.802	153.5
264.035	141.5
264.267	131.5
264.499	155.5
264.732	145.5
264.964	140.5
265.197	148.5
265.429	156.5
265.661	145.5
265.894	141.5
266.126	160.5
266.358	149.5
266.591	152.5
266.823	159.5
267.055	158.5
267.287	163.5
267.52	162.5
267.752	150.5
267.984	149.5
268.216	162.5
268.448	164.5
268.681	147.5
268.913	154.5
269.145	164.5
269.377	163.5
269.609	153.5
269.841	163.5
270.073	169.5
270.306	156.5
270.538	177.5
270.77	160.5
271.002	170.5
271.234	173.5
271.466	178.5
271.698	166.5
271.93	170.5
272.162	172.5
272.394	155.5
272.626	163.5
272.858	160.5
273.09	162.5
273.322	163.5
273.553	166.5
273.785	177.5
274.017	200.5
274.249	180.5
274.481	169.5
274.713	178.5
274.945	183.5
275.176	174.5
275.408	190.5
275.64	185.5
275.872	178.5
276.104	190.5
276.335	177.5
276.567	168.5
276.799	168.5
277.031	169.5
277.262	156.5
277.494	182.5
277.726	166.5
277.957	174.5
278.189	171.5
278.421	190.5
278.652	182.5
278.884	185.5
279.115	183.5
279.347	186.5
279.579	178.5
279.81	196.5
280.042	170.5
280.273	189.5
280.505	193.5
280.736	183.5
280.968	188.5
281.199	203.5
281.431	161.5
281.662	191.5
281.894	174.5
282.125	194.5
282.356	222.5
282.588	185.5
282.819	186.5
283.051	194.5
283.282	192.5
283.513	205.5
283.745	208.5
283.976	194.5
284.207	192.5
284.439	194.5
284.67	208.5
284.901	191.5
285.132	184.5
285.364	199.5
285.595	190.5
285.826	196.5
286.057	201.5
286.288	210.5
286.52	196.5
286.751	205.5
286.982	222.5
287.213	213.5
287.444	207.5
287.675	198.5
287.906	197.5
288.138	191.5
288.369	200.5
288.6	206.5
288.831	222.5
289.062	217.5
289.293	200.5
289.524	199.5
289.755	203.5
289.986	209.5
290.217	208.5
290.448	194.5
290.679	208.5
290.91	211.5
291.141	215.5
291.371	199.5
291.602	202.5
291.833	200.5
292.064	226.5
292.295	229.5
292.526	210.5
292.757	199.5
292.987	226.5
293.218	225.5
293.449	209.5
293.68	219.5
293.91	207.5
294.141	208.5
294.372	211.5
294.603	193.5
294.833	219.5
295.064	218.5
295.295	226.5
295.525	221.5
295.756	229.5
295.987	213.5
296.217	224.5
296.448	210.5
296.679	219.5
296.909	214.5
297.14	240.5
297.37	207.5
297.601	219.5
297.831	234.5
298.062	226.5
298.292	238.5
298.523	218.5
298.753	241.5
298.984	248.5
299.214	232.5
299.445	240.5
299.675	226.5
299.905	227.5
300.136	219.5
300.366	224.5
300.597	231.5
300.827	241.5
301.057	240.5
301.288	220.5
301.518	240.5
301.748	247.5
301.979	245.5
302.209	244.5
302.439	243.5
302.669	242.5
302.9	239.5
303.13	247.5
303.36	236.5
303.59	236.5
303.82	236.5
304.051	261.5
304.281	252.5
304.511	266.5
304.741	245.5
304.971	247.5
305.201	242.5
305.431	252.5
305.661	267.5
305.891	236.5
306.121	244.5
306.352	245.5
306.582	259.5
306.812	239.5
307.042	246.5
307.272	250.5
307.502	255.5
307.731	252.5
307.961	238.5
308.191	272.5
308.421	273.5
308.651	257.5
308.881	233.5
309.111	250.5
309.341	231.5
309.571	242.5
309.8	232.5
310.03	246.5
310.26	262.5
310.49	261.5
310.72	259.5
310.949	234.5
311.179	252.5
311.409	252.5
311.639	281.5
311.868	260.5
312.098	254.5
312.328	269.5
312.557	260.5
312.787	277.5
313.017	272.5
313.246	274.5
313.476	271.5
313.706	265.5
313.935	238.5
314.165	276.5
314.394	258.5
314.624	270.5
314.853	275.5
315.083	279.5
315.312	263.5
315.542	272.5
315.771	263.5
316.001	279.5
316.23	275.5
316.46	275.5
316.689	272.5
316.919	292.5
317.148	272.5
317.377	283.5
317.607	282.5
317.836	280.5
318.065	288.5
318.295	291.5
318.524	280.5
318.753	259.5
318.983	268.5
319.212	256.5
319.441	289.5
319.67	289.5
319.9	275.5
320.129	281.5
320.358	280.5
320.587	288.5
320.816	278.5
321.046	279.5
321.275	278.5
321.504	286.5
321.733	287.5
321.962	273.5
322.191	298.5
322.42	286.5
322.649	283.5
322.878	273.5
323.108	294.5
323.337	302.5
323.566	278.5
323.795	297.5
324.024	304.5
324.253	294.5
324.482	290.5
324.71	284.5
324.939	267.5
325.168	301.5
325.397	304.5
325.626	279.5
325.855	286.5
326.084	287.5
326.313	291.5
326.542	292.5
326.77	297.5
326.999	285.5
327.228	292.5
327.457	289.5
327.686	307.5
327.914	304.5
328.143	293.5
328.372	304.5
328.6	316.5
328.829	297.5
329.058	295.5
329.287	303.5
329.515	294.5
329.744	298.5
329.972	306.5
330.201	293.5
330.43	310.5
330.658	303.5
330.887	308.5
331.115	318.5
331.344	316.5
331.572	313.5
331.801	325.5
332.03	311.5
332.258	313.5
332.486	305.5
332.715	323.5
332.943	319.5
333.172	327.5
333.4	332.5
333.629	329.5
333.857	337.5
334.085	335.5
334.314	324.5
334.542	338.5
334.771	339.5
334.999	337.5
335.227	332.5
335.455	326.5
335.684	336.5
335.912	328.5
336.14	354.5
336.369	356.5
336.597	337.5
336.825	325.5
337.053	322.5
337.281	347.5
337.51	334.5
337.738	334.5
337.966	299.5
338.194	326.5
338.422	332.5
338.65	328.5
338.878	319.5
339.106	323.5
339.334	328.5
339.562	327.5
339.79	324.5
340.018	314.5
340.246	305.5
340.474	300.5
340.702	343.5
340.93	314.5
341.158	306.5
341.386	311.5
341.614	326.5
341.842	318.5
342.07	319.5
342.298	317.5
342.526	332.5
342.754	329.5
342.981	326.5
343.209	318.5
343.437	342.5
343.665	329.5
343.893	341.5
344.12	343.5
344.348	344.5
344.576	333.5
344.804	317.5
345.031	325.5
345.259	325.5
345.487	311.5
345.714	327.5
345.942	323.5
346.17	328.5
346.397	311.5
346.625	322.5
346.853	315.5
347.08	304.5
347.308	309.5
347.535	305.5
347.763	331.5
347.99	329.5
348.218	311.5
348.445	308.5
348.673	322.5
348.9	303.5
349.128	336.5
349.355	319.5
349.583	316.5
349.81	323.5
350.037	297.5
350.265	308.5
350.492	315.5
350.72	310.5
350.947	318.5
351.174	326.5
351.402	316.5
351.629	335.5
351.856	325.5
352.083	313.5
352.311	329.5
352.538	319.5
352.765	334.5
352.992	315.5
353.22	325.5
353.447	319.5
353.674	317.5
353.901	321.5
354.128	327.5
354.355	316.5
354.583	307.5
354.81	322.5
355.037	335.5
355.264	331.5
355.491	327.5
355.718	321.5
355.945	338.5
356.172	330.5
356.399	323.5
356.626	320.5
356.853	326.5
357.08	311.5
357.307	316.5
357.534	315.5
357.761	320.5
357.988	322.5
358.215	323.5
358.441	332.5
358.668	314.5
358.895	331.5
359.122	318.5
359.349	333.5
359.576	319.5
359.802	330.5
360.029	316.5
360.256	331.5
360.483	324.5
360.709	315.5
360.936	343.5
361.163	333.5
361.39	326.5
361.616	318.5
361.843	323.5
362.07	314.5
362.296	315.5
362.523	322.5
362.749	331.5
362.976	331.5
363.203	332.5
363.429	326.5
363.656	337.5
363.882	342.5
364.109	330.5
364.335	316.5
364.562	331.5
364.788	336.5
365.015	320.5
365.241	338.5
365.468	348.5
365.694	317.5
365.92	338.5
366.147	328.5
366.373	329.5
366.599	324.5
366.826	330.5
367.052	335.5
367.278	341.5
367.505	337.5
367.731	370.5
367.957	351.5
368.184	349.5
368.41	340.5
368.636	336.5
368.862	336.5
369.089	333.5
369.315	336.5
369.541	347.5
369.767	344.5
369.993	337.5
370.219	347.5
370.445	366.5
370.672	347.5
370.898	346.5
371.124	351.5
371.35	346.5
371.576	356.5
371.802	371.5
372.028	363.5
372.254	360.5
372.48	358.5
372.706	342.5
372.932	331.5
373.158	356.5
373.384	378.5
373.61	376.5
373.835	368.5
374.061	343.5
374.287	353.5
374.513	350.5
374.739	352.5
374.965	374.5
375.191	356.5
375.416	366.5
375.642	352.5
375.868	346.5
376.094	364.5
376.319	356.5
376.545	376.5
376.771	353.5
376.997	346.5
377.222	353.5
377.448	362.5
377.674	356.5
377.899	352.5
378.125	349.5
378.35	348.5
378.576	361.5
378.802	334.5
379.027	356.5
379.253	368.5
379.478	353.5
379.704	344.5
379.929	350.5
380.155	350.5
380.38	357.5
380.606	371.5
380.831	330.5
381.057	364.5
381.282	347.5
381.507	348.5
381.733	364.5
381.958	352.5
382.184	387.5
382.409	364.5
382.634	363.5
382.86	341.5
383.085	380.5
383.31	373.5
383.535	357.5
383.761	375.5
383.986	386.5
384.211	370.5
384.436	353.5
384.662	384.5
384.887	366.5
385.112	387.5
385.337	389.5
385.562	379.5
385.787	383.5
386.013	399.5
386.238	379.5
386.463	389.5
386.688	391.5
386.913	395.5
387.138	395.5
387.363	392.5
387.588	392.5
387.813	373.5
388.038	396.5
388.263	404.5
388.488	396.5
388.713	406.5
388.938	378.5
389.163	386.5
389.387	398.5
389.612	401.5
389.837	399.5
390.062	404.5
390.287	406.5
390.512	379.5
390.736	392.5
390.961	395.5
391.186	400.5
391.411	402.5
391.636	415.5
391.86	395.5
392.085	402.5
392.31	402.5
392.534	407.5
392.759	396.5
392.984	417.5
393.208	425.5
393.433	434.5
393.658	434.5
393.882	401.5
394.107	391.5
394.331	423.5
394.556	408.5
394.78	420.5
395.005	410.5
395.229	407.5
395.454	410.5
395.678	420.5
395.903	415.5
396.127	422.5
396.352	408.5
396.576	412.5
396.801	433.5
397.025	459.5
397.249	416.5
397.474	410.5
397.698	425.5
397.922	443.5
398.147	447.5
398.371	460.5
398.595	448.5
398.82	470.5
399.044	462.5
399.268	473.5
399.492	487.5
399.717	489.5
399.941	508.5
400.165	504.5
400.389	471.5
400.613	501.5
400.837	486.5
401.062	439.5
401.286	445.5
401.51	441.5
401.734	468.5
401.958	461.5
402.182	449.5
402.406	456.5
402.63	455.5
402.854	431.5
403.078	461.5
403.302	470.5
403.526	473.5
403.75	444.5
403.974	438.5
404.198	448.5
404.422	450.5
404.645	475.5
404.869	479.5
405.093	483.5
405.317	464.5
405.541	476.5
405.765	481.5
405.988	471.5
406.212	476.5
406.436	488.5
406.66	497.5
406.883	491.5
407.107	510.5
407.331	491.5
407.555	498.5
407.778	514.5
408.002	484.5
408.226	459.5
408.449	495.5
408.673	471.5
408.896	488.5
409.12	494.5
409.344	476.5
409.567	470.5
409.791	482.5
410.014	496.5
410.238	484.5
410.461	467.5
410.685	474.5
410.908	471.5
411.132	480.5
411.355	482.5
411.578	486.5
411.802	465.5
412.025	462.5
412.249	474.5
412.472	457.5
412.695	473.5
412.919	470.5
413.142	465.5
413.365	490.5
413.589	467.5
413.812	466.5
414.035	482.5
414.258	466.5
414.482	467.5
414.705	444.5
414.928	470.5
415.151	473.5
415.374	451.5
415.597	434.5
415.821	460.5
416.044	447.5
416.267	436.5
416.49	447.5
416.713	435.5
416.936	451.5
417.159	449.5
417.382	442.5
417.605	442.5
417.828	451.5
418.051	456.5
418.274	458.5
418.497	454.5
418.72	463.5
418.943	430.5
419.166	491.5
419.389	470.5
419.611	475.5
419.834	471.5
420.057	455.5
420.28	449.5
420.503	443.5
420.726	443.5
420.948	458.5
421.171	444.5
421.394	434.5
421.617	424.5
421.839	450.5
422.062	459.5
422.285	445.5
422.507	434.5
422.73	451.5
422.953	449.5
423.175	413.5
423.398	426.5
423.621	434.5
423.843	419.5
424.066	454.5
424.288	454.5
424.511	439.5
424.733	428.5
424.956	435.5
425.178	448.5
425.401	459.5
425.623	461.5
425.846	440.5
426.068	452.5
426.291	429.5
426.513	434.5
426.735	421.5
426.958	450.5
427.18	441.5
427.402	440.5
427.625	427.5
427.847	425.5
428.069	426.5
428.292	448.5
428.514	427.5
428.736	429.5
428.958	441.5
429.181	424.5
429.403	442.5
429.625	427.5
429.847	408.5
430.069	439.5
430.292	433.5
430.514	428.5
430.736	424.5
430.958	438.5
431.18	448.5
431.402	446.5
431.624	442.5
431.846	437.5
432.068	437.5
432.29	424.5
432.512	418.5
432.734	460.5
432.956	438.5
433.178	455.5
433.4	437.5
433.622	453.5
433.844	430.5
434.066	456.5
434.287	454.5
434.509	442.5
434.731	446.5
434.953	431.5
435.175	456.5
435.397	456.5
435.618	442.5
435.84	452.5
436.062	424.5
436.284	440.5
436.505	440.5
436.727	433.5
436.949	448.5
437.17	443.5
437.392	429.5
437.614	419.5
437.835	395.5
438.057	432.5
438.278	431.5
438.5	437.5
438.721	429.5
438.943	432.5
439.165	430.5
439.386	450.5
439.608	452.5
439.829	438.5
440.05	422.5
440.272	424.5
440.493	436.5
440.715	440.5
440.936	443.5
441.158	443.5
441.379	455.5
441.6	447.5
441.822	441.5
442.043	441.5
442.264	432.5
442.486	408.5
442.707	444.5
442.928	439.5
443.149	450.5
443.371	448.5
443.592	462.5
443.813	445.5
444.034	449.5
444.255	455.5
444.476	466.5
444.698	463.5
444.919	471.5
445.14	540.5
445.361	501.5
445.582	474.5
445.803	438.5
446.024	444.5
446.245	454.5
446.466	438.5
446.687	451.5
446.908	446.5
447.129	423.5
447.35	422.5
447.571	428.5
447.792	422.5
448.013	428.5
448.234	419.5
448.455	412.5
448.675	418.5
448.896	420.5
449.117	415.5
449.338	406.5
449.559	427.5
449.779	411.5
450	410.5
450.221	398.5
450.442	441.5
450.662	416.5
450.883	419.5
451.104	426.5
451.324	384.5
451.545	393.5
451.766	418.5
451.986	425.5
452.207	396.5
452.428	402.5
452.648	406.5
452.869	416.5
453.089	395.5
453.31	402.5
453.53	419.5
453.751	388.5
453.971	400.5
454.192	395.5
454.412	397.5
454.633	386.5
454.853	393.5
455.073	395.5
455.294	397.5
455.514	387.5
455.734	400.5
455.955	386.5
456.175	410.5
456.395	404.5
456.616	402.5
456.836	430.5
457.056	396.5
457.276	405.5
457.497	423.5
457.717	386.5
457.937	411.5
458.157	401.5
458.377	405.5
458.598	435.5
458.818	424.5
459.038	413.5
459.258	400.5
459.478	447.5
459.698	430.5
459.918	460.5
460.138	434.5
460.358	461.5
460.578	461.5
460.798	473.5
461.018	458.5
461.238	486.5
461.458	459.5
461.678	464.5
461.898	496.5
462.118	490.5
462.338	464.5
462.558	473.5
462.777	475.5
462.997	480.5
463.217	504.5
463.437	512.5
463.657	482.5
463.876	504.5
464.096	483.5
464.316	490.5
464.536	481.5
464.755	472.5
464.975	492.5
465.195	477.5
465.414	455.5
465.634	461.5
465.854	450.5
466.073	422.5
466.293	427.5
466.512	453.5
466.732	454.5
466.951	456.5
467.171	435.5
467.391	434.5
467.61	441.5
467.829	438.5
468.049	432.5
468.268	446.5
468.488	431.5
468.707	452.5
468.927	455.5
469.146	446.5
469.365	441.5
469.585	437.5
469.804	447.5
470.023	468.5
470.243	454.5
470.462	437.5
470.681	444.5
470.901	465.5
471.12	441.5
471.339	466.5
471.558	472.5
471.777	453.5
471.997	448.5
472.216	442.5
472.435	444.5
472.654	438.5
472.873	439.5
473.092	451.5
473.311	440.5
473.53	453.5
473.749	439.5
473.968	463.5
474.187	468.5
474.406	463.5
474.625	449.5
474.844	464.5
475.063	457.5
475.282	470.5
475.501	470.5
475.72	464.5
475.939	478.5
476.158	497.5
476.377	465.5
476.596	474.5
476.814	476.5
477.033	483.5
477.252	504.5
477.471	489.5
477.69	507.5
477.908	517.5
478.127	497.5
478.346	485.5
478.564	498.5
478.783	514.5
479.002	508.5
479.22	536.5
479.439	555.5
479.658	522.5
479.876	528.5
480.095	522.5
480.313	530.5
480.532	539.5
480.751	554.5
480.969	551.5
481.188	524.5
481.406	540.5
481.624	532.5
481.843	519.5
482.061	539.5
482.28	508.5
482.498	526.5
482.717	528.5
482.935	543.5
483.153	554.5
483.372	545.5
483.59	551.5
483.808	546.5
484.027	562.5
484.245	530.5
484.463	527.5
484.681	551.5
484.9	543.5
485.118	549.5
485.336	540.5
485.554	534.5
485.772	541.5
485.99	551.5
486.209	565.5
486.427	544.5
486.645	545.5
486.863	548.5
487.081	548.5
487.299	570.5
487.517	566.5
487.735	565.5
487.953	564.5
488.171	583.5
488.389	564.5
488.607	537.5
488.825	556.5
489.043	559.5
489.261	558.5
489.479	562.5
489.696	571.5
489.914	556.5
490.132	542.5
490.35	564.5
490.568	553.5
490.786	578.5
491.003	568.5
491.221	591.5
491.439	571.5
491.657	567.5
491.874	571.5
492.092	593.5
492.31	595.5
492.527	566.5
492.745	571.5
492.963	561.5
493.18	586.5
493.398	573.5
493.615	570.5
493.833	580.5
494.05	579.5
494.268	602.5
494.485	600.5
494.703	581.5
494.92	618.5
495.138	581.5
495.355	585.5
495.573	593.5
495.79	566.5
496.008	595.5
496.225	596.5
496.442	592.5
496.66	622.5
496.877	629.5
497.094	606.5
497.312	619.5
497.529	634.5
497.746	634.5
497.963	643.5
498.181	652.5
498.398	675.5
498.615	678.5
498.832	705.5
499.049	679.5
499.267	714.5
499.484	712.5
499.701	752.5
499.918	775.5
500.135	809.5
500.352	826.5
500.569	807.5
500.786	838.5
501.003	806.5
501.22	819.5
501.437	772.5
501.654	751.5
501.871	730.5
502.088	713.5
502.305	727.5
502.522	688.5
502.739	684.5
502.956	663.5
503.172	648.5
503.389	641.5
503.606	618.5
503.823	629.5
504.04	622.5
504.256	606.5
504.473	623.5
504.69	586.5
504.907	611.5
505.123	595.5
505.34	587.5
505.557	568.5
505.773	581.5
505.99	576.5
506.207	564.5
506.423	553.5
506.64	552.5
506.856	535.5
507.073	570.5
507.289	547.5
507.506	537.5
507.722	547.5
507.939	529.5
508.155	514.5
508.372	550.5
508.588	524.5
508.805	521.5
509.021	523.5
509.238	527.5
509.454	551.5
509.67	540.5
509.887	506.5
510.103	512.5
510.319	504.5
510.536	520.5
510.752	477.5
510.968	515.5
511.184	512.5
511.401	499.5
511.617	522.5
511.833	503.5
512.049	498.5
512.265	509.5
512.481	490.5
512.698	502.5
512.914	495.5
513.13	518.5
513.346	482.5
513.562	502.5
513.778	519.5
513.994	521.5
514.21	498.5
514.426	506.5
514.642	492.5
514.858	494.5
515.074	496.5
515.29	499.5
515.506	529.5
515.721	502.5
515.937	510.5
516.153	510.5
516.369	496.5
516.585	540.5
516.801	542.5
517.016	542.5
517.232	528.5
517.448	540.5
517.664	528.5
517.879	528.5
518.095	539.5
518.311	545.5
518.527	517.5
518.742	515.5
518.958	512.5
519.173	533.5
519.389	497.5
519.605	513.5
519.82	520.5
520.036	508.5
