Data from Fe(NO3)3@0.1M.TitratingCurve.Agarose3%dH2O.NegLispCup.LampEnergy10.LIBS07252019_HRD10591_16-37-37-331.txt Node
Date: Thu Jul 25 16:37:37 EDT 2019
User: cochatt
Spectrometer: HR+D1059
Trigger mode: 1
Integration Time (sec): 1.000000E-1
Scans to average: 1
Electric dark correction enabled: true
Nonlinearity correction enabled: false
Boxcar width: 0
XAxis mode: Wavelengths
Number of Pixels in Spectrum: 2048
>>>>>Begin Spectral Data<<<<<
223.165	-5.75
223.4	-5.75
223.635	-5.75
223.869	-8.75
224.104	-32.75
224.338	-21.75
224.573	-21.75
224.808	-9.75
225.042	-15.75
225.277	1.25
225.511	3.25
225.746	0.25
225.98	5.25
226.215	13.25
226.449	21.25
226.683	17.25
226.918	26.25
227.152	28.25
227.387	38.25
227.621	33.25
227.856	41.25
228.09	31.25
228.324	46.25
228.559	58.25
228.793	66.25
229.027	77.25
229.262	70.25
229.496	89.25
229.73	87.25
229.964	95.25
230.199	91.25
230.433	91.25
230.667	88.25
230.901	86.25
231.136	87.25
231.37	85.25
231.604	106.25
231.838	92.25
232.072	91.25
232.306	90.25
232.541	95.25
232.775	107.25
233.009	83.25
233.243	98.25
233.477	108.25
233.711	102.25
233.945	105.25
234.179	124.25
234.413	101.25
234.647	93.25
234.881	108.25
235.115	91.25
235.349	103.25
235.583	108.25
235.817	110.25
236.051	104.25
236.285	105.25
236.519	100.25
236.753	101.25
236.987	105.25
237.221	90.25
237.455	109.25
237.689	112.25
237.922	97.25
238.156	108.25
238.39	105.25
238.624	112.25
238.858	93.25
239.091	93.25
239.325	104.25
239.559	121.25
239.793	104.25
240.027	118.25
240.26	107.25
240.494	103.25
240.728	100.25
240.961	116.25
241.195	129.25
241.429	101.25
241.662	116.25
241.896	119.25
242.13	111.25
242.363	100.25
242.597	106.25
242.83	119.25
243.064	119.25
243.298	129.25
243.531	120.25
243.765	119.25
243.998	119.25
244.232	120.25
244.465	115.25
244.699	111.25
244.932	118.25
245.166	122.25
245.399	123.25
245.633	129.25
245.866	141.25
246.099	139.25
246.333	141.25
246.566	132.25
246.8	122.25
247.033	129.25
247.266	135.25
247.5	125.25
247.733	137.25
247.966	136.25
248.2	133.25
248.433	135.25
248.666	135.25
248.899	122.25
249.133	145.25
249.366	137.25
249.599	137.25
249.832	141.25
250.066	140.25
250.299	147.25
250.532	149.25
250.765	141.25
250.998	123.25
251.231	119.25
251.465	144.25
251.698	149.25
251.931	156.25
252.164	137.25
252.397	130.25
252.63	129.25
252.863	164.25
253.096	137.25
253.329	156.25
253.562	152.25
253.795	170.25
254.028	150.25
254.261	158.25
254.494	161.25
254.727	133.25
254.96	152.25
255.193	152.25
255.426	124.25
255.659	155.25
255.892	155.25
256.124	142.25
256.357	150.25
256.59	164.25
256.823	162.25
257.056	173.25
257.289	167.25
257.521	165.25
257.754	157.25
257.987	139.25
258.22	158.25
258.452	182.25
258.685	163.25
258.918	155.25
259.151	159.25
259.383	159.25
259.616	158.25
259.849	172.25
260.081	184.25
260.314	172.25
260.547	166.25
260.779	160.25
261.012	175.25
261.244	181.25
261.477	172.25
261.71	164.25
261.942	173.25
262.175	175.25
262.407	153.25
262.64	160.25
262.872	173.25
263.105	178.25
263.337	177.25
263.57	159.25
263.802	173.25
264.035	178.25
264.267	167.25
264.499	166.25
264.732	191.25
264.964	171.25
265.197	183.25
265.429	179.25
265.661	187.25
265.894	159.25
266.126	191.25
266.358	179.25
266.591	173.25
266.823	179.25
267.055	163.25
267.287	194.25
267.52	171.25
267.752	195.25
267.984	198.25
268.216	177.25
268.448	180.25
268.681	196.25
268.913	172.25
269.145	182.25
269.377	185.25
269.609	179.25
269.841	195.25
270.073	193.25
270.306	195.25
270.538	211.25
270.77	185.25
271.002	191.25
271.234	190.25
271.466	194.25
271.698	203.25
271.93	185.25
272.162	182.25
272.394	196.25
272.626	181.25
272.858	181.25
273.09	197.25
273.322	198.25
273.553	194.25
273.785	216.25
274.017	199.25
274.249	209.25
274.481	220.25
274.713	210.25
274.945	205.25
275.176	196.25
275.408	204.25
275.64	221.25
275.872	203.25
276.104	192.25
276.335	211.25
276.567	205.25
276.799	209.25
277.031	217.25
277.262	201.25
277.494	229.25
277.726	215.25
277.957	201.25
278.189	219.25
278.421	215.25
278.652	208.25
278.884	209.25
279.115	212.25
279.347	204.25
279.579	215.25
279.81	218.25
280.042	201.25
280.273	210.25
280.505	217.25
280.736	232.25
280.968	215.25
281.199	219.25
281.431	228.25
281.662	217.25
281.894	227.25
282.125	215.25
282.356	232.25
282.588	223.25
282.819	227.25
283.051	217.25
283.282	234.25
283.513	234.25
283.745	216.25
283.976	221.25
284.207	231.25
284.439	219.25
284.67	226.25
284.901	217.25
285.132	221.25
285.364	231.25
285.595	214.25
285.826	233.25
286.057	231.25
286.288	222.25
286.52	234.25
286.751	257.25
286.982	220.25
287.213	255.25
287.444	248.25
287.675	236.25
287.906	228.25
288.138	255.25
288.369	228.25
288.6	247.25
288.831	242.25
289.062	234.25
289.293	241.25
289.524	243.25
289.755	255.25
289.986	252.25
290.217	249.25
290.448	232.25
290.679	248.25
290.91	219.25
291.141	243.25
291.371	244.25
291.602	251.25
291.833	242.25
292.064	245.25
292.295	256.25
292.526	243.25
292.757	242.25
292.987	234.25
293.218	252.25
293.449	246.25
293.68	249.25
293.91	236.25
294.141	245.25
294.372	250.25
294.603	240.25
294.833	247.25
295.064	247.25
295.295	264.25
295.525	256.25
295.756	248.25
295.987	248.25
296.217	238.25
296.448	257.25
296.679	243.25
296.909	249.25
297.14	256.25
297.37	252.25
297.601	253.25
297.831	265.25
298.062	258.25
298.292	263.25
298.523	271.25
298.753	268.25
298.984	285.25
299.214	268.25
299.445	259.25
299.675	256.25
299.905	254.25
300.136	265.25
300.366	270.25
300.597	269.25
300.827	285.25
301.057	258.25
301.288	284.25
301.518	270.25
301.748	272.25
301.979	280.25
302.209	293.25
302.439	284.25
302.669	271.25
302.9	255.25
303.13	290.25
303.36	267.25
303.59	257.25
303.82	270.25
304.051	283.25
304.281	267.25
304.511	275.25
304.741	266.25
304.971	275.25
305.201	262.25
305.431	272.25
305.661	262.25
305.891	259.25
306.121	267.25
306.352	273.25
306.582	280.25
306.812	279.25
307.042	267.25
307.272	280.25
307.502	271.25
307.731	269.25
307.961	267.25
308.191	260.25
308.421	272.25
308.651	261.25
308.881	263.25
309.111	251.25
309.341	263.25
309.571	274.25
309.8	266.25
310.03	267.25
310.26	257.25
310.49	274.25
310.72	279.25
310.949	272.25
311.179	273.25
311.409	293.25
311.639	261.25
311.868	291.25
312.098	293.25
312.328	275.25
312.557	277.25
312.787	285.25
313.017	301.25
313.246	290.25
313.476	284.25
313.706	284.25
313.935	307.25
314.165	281.25
314.394	289.25
314.624	292.25
314.853	291.25
315.083	285.25
315.312	285.25
315.542	296.25
315.771	302.25
316.001	281.25
316.23	283.25
316.46	269.25
316.689	287.25
316.919	298.25
317.148	289.25
317.377	295.25
317.607	293.25
317.836	289.25
318.065	297.25
318.295	289.25
318.524	289.25
318.753	290.25
318.983	285.25
319.212	284.25
319.441	287.25
319.67	279.25
319.9	295.25
320.129	297.25
320.358	287.25
320.587	284.25
320.816	289.25
321.046	291.25
321.275	277.25
321.504	280.25
321.733	293.25
321.962	293.25
322.191	280.25
322.42	282.25
322.649	291.25
322.878	309.25
323.108	291.25
323.337	296.25
323.566	309.25
323.795	315.25
324.024	300.25
324.253	288.25
324.482	298.25
324.71	300.25
324.939	296.25
325.168	294.25
325.397	293.25
325.626	327.25
325.855	313.25
326.084	303.25
326.313	320.25
326.542	327.25
326.77	298.25
326.999	319.25
327.228	289.25
327.457	329.25
327.686	319.25
327.914	275.25
328.143	301.25
328.372	296.25
328.6	323.25
328.829	305.25
329.058	313.25
329.287	314.25
329.515	320.25
329.744	324.25
329.972	308.25
330.201	294.25
330.43	316.25
330.658	307.25
330.887	323.25
331.115	329.25
331.344	319.25
331.572	328.25
331.801	312.25
332.03	338.25
332.258	338.25
332.486	354.25
332.715	352.25
332.943	370.25
333.172	372.25
333.4	375.25
333.629	382.25
333.857	389.25
334.085	394.25
334.314	391.25
334.542	364.25
334.771	375.25
334.999	371.25
335.227	381.25
335.455	392.25
335.684	377.25
335.912	370.25
336.14	360.25
336.369	367.25
336.597	365.25
336.825	371.25
337.053	362.25
337.281	370.25
337.51	358.25
337.738	341.25
337.966	356.25
338.194	350.25
338.422	347.25
338.65	360.25
338.878	343.25
339.106	335.25
339.334	336.25
339.562	335.25
339.79	331.25
340.018	330.25
340.246	327.25
340.474	315.25
340.702	315.25
340.93	328.25
341.158	311.25
341.386	336.25
341.614	339.25
341.842	343.25
342.07	319.25
342.298	321.25
342.526	319.25
342.754	341.25
342.981	315.25
343.209	320.25
343.437	358.25
343.665	359.25
343.893	354.25
344.12	390.25
344.348	395.25
344.576	363.25
344.804	349.25
345.031	353.25
345.259	364.25
345.487	330.25
345.714	329.25
345.942	319.25
346.17	314.25
346.397	315.25
346.625	320.25
346.853	316.25
347.08	324.25
347.308	313.25
347.535	298.25
347.763	332.25
347.99	338.25
348.218	323.25
348.445	316.25
348.673	306.25
348.9	333.25
349.128	321.25
349.355	315.25
349.583	315.25
349.81	322.25
350.037	300.25
350.265	316.25
350.492	310.25
350.72	305.25
350.947	325.25
351.174	320.25
351.402	321.25
351.629	324.25
351.856	323.25
352.083	288.25
352.311	303.25
352.538	289.25
352.765	311.25
352.992	309.25
353.22	317.25
353.447	309.25
353.674	306.25
353.901	319.25
354.128	304.25
354.355	315.25
354.583	319.25
354.81	313.25
355.037	316.25
355.264	321.25
355.491	319.25
355.718	319.25
355.945	320.25
356.172	324.25
356.399	297.25
356.626	297.25
356.853	313.25
357.08	297.25
357.307	317.25
357.534	302.25
357.761	339.25
357.988	321.25
358.215	307.25
358.441	323.25
358.668	299.25
358.895	298.25
359.122	325.25
359.349	329.25
359.576	319.25
359.802	325.25
360.029	323.25
360.256	304.25
360.483	323.25
360.709	323.25
360.936	331.25
361.163	320.25
361.39	329.25
361.616	306.25
361.843	299.25
362.07	299.25
362.296	307.25
362.523	301.25
362.749	322.25
362.976	309.25
363.203	320.25
363.429	312.25
363.656	315.25
363.882	317.25
364.109	301.25
364.335	321.25
364.562	305.25
364.788	316.25
365.015	317.25
365.241	312.25
365.468	325.25
365.694	329.25
365.92	324.25
366.147	319.25
366.373	315.25
366.599	308.25
366.826	317.25
367.052	320.25
367.278	328.25
367.505	325.25
367.731	320.25
367.957	307.25
368.184	293.25
368.41	321.25
368.636	319.25
368.862	313.25
369.089	318.25
369.315	341.25
369.541	329.25
369.767	348.25
369.993	300.25
370.219	331.25
370.445	332.25
370.672	339.25
370.898	343.25
371.124	346.25
371.35	348.25
371.576	328.25
371.802	331.25
372.028	345.25
372.254	331.25
372.48	338.25
372.706	343.25
372.932	374.25
373.158	361.25
373.384	379.25
373.61	358.25
373.835	355.25
374.061	356.25
374.287	332.25
374.513	371.25
374.739	364.25
374.965	363.25
375.191	362.25
375.416	362.25
375.642	371.25
375.868	385.25
376.094	360.25
376.319	349.25
376.545	341.25
376.771	351.25
376.997	347.25
377.222	357.25
377.448	363.25
377.674	332.25
377.899	353.25
378.125	339.25
378.35	351.25
378.576	347.25
378.802	315.25
379.027	342.25
379.253	327.25
379.478	349.25
379.704	324.25
379.929	345.25
380.155	331.25
380.38	355.25
380.606	357.25
380.831	351.25
381.057	377.25
381.282	363.25
381.507	373.25
381.733	353.25
381.958	356.25
382.184	377.25
382.409	355.25
382.634	372.25
382.86	390.25
383.085	371.25
383.31	379.25
383.535	398.25
383.761	388.25
383.986	407.25
384.211	387.25
384.436	384.25
384.662	402.25
384.887	399.25
385.112	409.25
385.337	423.25
385.562	411.25
385.787	422.25
386.013	424.25
386.238	400.25
386.463	415.25
386.688	423.25
386.913	423.25
387.138	412.25
387.363	426.25
387.588	419.25
387.813	408.25
388.038	412.25
388.263	437.25
388.488	412.25
388.713	422.25
388.938	408.25
389.163	410.25
389.387	411.25
389.612	407.25
389.837	422.25
390.062	425.25
390.287	420.25
390.512	419.25
390.736	441.25
390.961	435.25
391.186	442.25
391.411	449.25
391.636	462.25
391.86	453.25
392.085	464.25
392.31	469.25
392.534	451.25
392.759	458.25
392.984	459.25
393.208	446.25
393.433	455.25
393.658	452.25
393.882	457.25
394.107	433.25
394.331	451.25
394.556	454.25
394.78	476.25
395.005	463.25
395.229	469.25
395.454	487.25
395.678	473.25
395.903	456.25
396.127	464.25
396.352	436.25
396.576	452.25
396.801	456.25
397.025	451.25
397.249	480.25
397.474	465.25
397.698	485.25
397.922	482.25
398.147	473.25
398.371	489.25
398.595	505.25
398.82	526.25
399.044	544.25
399.268	570.25
399.492	645.25
399.717	699.25
399.941	700.25
400.165	667.25
400.389	582.25
400.613	579.25
400.837	568.25
401.062	517.25
401.286	522.25
401.51	531.25
401.734	511.25
401.958	536.25
402.182	531.25
402.406	549.25
402.63	543.25
402.854	565.25
403.078	572.25
403.302	555.25
403.526	552.25
403.75	598.25
403.974	563.25
404.198	569.25
404.422	594.25
404.645	533.25
404.869	555.25
405.093	556.25
405.317	569.25
405.541	572.25
405.765	556.25
405.988	568.25
406.212	587.25
406.436	573.25
406.66	587.25
406.883	595.25
407.107	629.25
407.331	647.25
407.555	648.25
407.778	668.25
408.002	659.25
408.226	619.25
408.449	616.25
408.673	596.25
408.896	611.25
409.12	587.25
409.344	595.25
409.567	580.25
409.791	567.25
410.014	573.25
410.238	599.25
410.461	584.25
410.685	559.25
410.908	585.25
411.132	581.25
411.355	543.25
411.578	567.25
411.802	533.25
412.025	575.25
412.249	578.25
412.472	553.25
412.695	559.25
412.919	541.25
413.142	538.25
413.365	520.25
413.589	544.25
413.812	529.25
414.035	537.25
414.258	534.25
414.482	514.25
414.705	530.25
414.928	553.25
415.151	551.25
415.374	527.25
415.597	539.25
415.821	528.25
416.044	531.25
416.267	542.25
416.49	512.25
416.713	513.25
416.936	546.25
417.159	521.25
417.382	521.25
417.605	529.25
417.828	525.25
418.051	515.25
418.274	543.25
418.497	526.25
418.72	535.25
418.943	564.25
419.166	549.25
419.389	573.25
419.611	576.25
419.834	565.25
420.057	552.25
420.28	541.25
420.503	521.25
420.726	529.25
420.948	512.25
421.171	507.25
421.394	521.25
421.617	521.25
421.839	519.25
422.062	509.25
422.285	513.25
422.507	512.25
422.73	531.25
422.953	531.25
423.175	534.25
423.398	538.25
423.621	530.25
423.843	547.25
424.066	550.25
424.288	539.25
424.511	524.25
424.733	530.25
424.956	520.25
425.178	535.25
425.401	533.25
425.623	515.25
425.846	498.25
426.068	513.25
426.291	492.25
426.513	482.25
426.735	493.25
426.958	503.25
427.18	475.25
427.402	492.25
427.625	475.25
427.847	480.25
428.069	485.25
428.292	477.25
428.514	483.25
428.736	475.25
428.958	481.25
429.181	478.25
429.403	475.25
429.625	473.25
429.847	455.25
430.069	479.25
430.292	480.25
430.514	486.25
430.736	474.25
430.958	465.25
431.18	449.25
431.402	472.25
431.624	456.25
431.846	458.25
432.068	479.25
432.29	487.25
432.512	480.25
432.734	486.25
432.956	466.25
433.178	496.25
433.4	490.25
433.622	509.25
433.844	472.25
434.066	477.25
434.287	495.25
434.509	511.25
434.731	534.25
434.953	516.25
435.175	531.25
435.397	522.25
435.618	503.25
435.84	499.25
436.062	485.25
436.284	486.25
436.505	495.25
436.727	491.25
436.949	490.25
437.17	479.25
437.392	462.25
437.614	477.25
437.835	454.25
438.057	462.25
438.278	461.25
438.5	457.25
438.721	475.25
438.943	460.25
439.165	468.25
439.386	485.25
439.608	472.25
439.829	488.25
440.05	465.25
440.272	479.25
440.493	488.25
440.715	482.25
440.936	484.25
441.158	499.25
441.379	500.25
441.6	528.25
441.822	514.25
442.043	523.25
442.264	514.25
442.486	509.25
442.707	522.25
442.928	501.25
443.149	505.25
443.371	535.25
443.592	526.25
443.813	523.25
444.034	529.25
444.255	534.25
444.476	543.25
444.698	553.25
444.919	599.25
445.14	708.25
445.361	611.25
445.582	559.25
445.803	511.25
446.024	488.25
446.245	511.25
446.466	507.25
446.687	465.25
446.908	482.25
447.129	476.25
447.35	470.25
447.571	467.25
447.792	459.25
448.013	445.25
448.234	451.25
448.455	458.25
448.675	467.25
448.896	459.25
449.117	435.25
449.338	433.25
449.559	432.25
449.779	433.25
450	437.25
450.221	439.25
450.442	459.25
450.662	433.25
450.883	444.25
451.104	431.25
451.324	458.25
451.545	435.25
451.766	450.25
451.986	428.25
452.207	443.25
452.428	455.25
452.648	433.25
452.869	434.25
453.089	442.25
453.31	442.25
453.53	443.25
453.751	424.25
453.971	415.25
454.192	432.25
454.412	434.25
454.633	418.25
454.853	417.25
455.073	409.25
455.294	427.25
455.514	429.25
455.734	411.25
455.955	410.25
456.175	436.25
456.395	422.25
456.616	416.25
456.836	401.25
457.056	417.25
457.276	400.25
457.497	410.25
457.717	418.25
457.937	427.25
458.157	413.25
458.377	412.25
458.598	461.25
458.818	451.25
459.038	464.25
459.258	459.25
459.478	481.25
459.698	480.25
459.918	500.25
460.138	500.25
460.358	522.25
460.578	523.25
460.798	551.25
461.018	560.25
461.238	555.25
461.458	552.25
461.678	557.25
461.898	540.25
462.118	544.25
462.338	569.25
462.558	584.25
462.777	590.25
462.997	623.25
463.217	693.25
463.437	685.25
463.657	651.25
463.876	620.25
464.096	616.25
464.316	611.25
464.536	595.25
464.755	608.25
464.975	596.25
465.195	555.25
465.414	565.25
465.634	535.25
465.854	490.25
466.073	509.25
466.293	498.25
466.512	490.25
466.732	479.25
466.951	461.25
467.171	483.25
467.391	479.25
467.61	468.25
467.829	458.25
468.049	462.25
468.268	455.25
468.488	439.25
468.707	438.25
468.927	448.25
469.146	445.25
469.365	458.25
469.585	454.25
469.804	469.25
470.023	448.25
470.243	459.25
470.462	469.25
470.681	444.25
470.901	459.25
471.12	476.25
471.339	473.25
471.558	445.25
471.777	455.25
471.997	436.25
472.216	441.25
472.435	436.25
472.654	439.25
472.873	452.25
473.092	444.25
473.311	441.25
473.53	443.25
473.749	437.25
473.968	440.25
474.187	445.25
474.406	448.25
474.625	434.25
474.844	443.25
475.063	450.25
475.282	440.25
475.501	444.25
475.72	439.25
475.939	454.25
476.158	436.25
476.377	459.25
476.596	429.25
476.814	454.25
477.033	468.25
477.252	475.25
477.471	474.25
477.69	503.25
477.908	499.25
478.127	507.25
478.346	503.25
478.564	520.25
478.783	529.25
479.002	539.25
479.22	552.25
479.439	535.25
479.658	512.25
479.876	547.25
480.095	533.25
480.313	555.25
480.532	536.25
480.751	559.25
480.969	531.25
481.188	528.25
481.406	512.25
481.624	515.25
481.843	509.25
482.061	502.25
482.28	481.25
482.498	507.25
482.717	491.25
482.935	491.25
483.153	494.25
483.372	496.25
483.59	514.25
483.808	513.25
484.027	484.25
484.245	524.25
484.463	488.25
484.681	503.25
484.9	495.25
485.118	515.25
485.336	506.25
485.554	512.25
485.772	515.25
485.99	505.25
486.209	532.25
486.427	507.25
486.645	507.25
486.863	502.25
487.081	524.25
487.299	499.25
487.517	512.25
487.735	517.25
487.953	538.25
488.171	530.25
488.389	501.25
488.607	499.25
488.825	513.25
489.043	503.25
489.261	495.25
489.479	512.25
489.696	508.25
489.914	479.25
490.132	553.25
490.35	522.25
490.568	523.25
490.786	504.25
491.003	525.25
491.221	531.25
491.439	543.25
491.657	532.25
491.874	531.25
492.092	531.25
492.31	531.25
492.527	524.25
492.745	554.25
492.963	566.25
493.18	537.25
493.398	532.25
493.615	545.25
493.833	556.25
494.05	576.25
494.268	556.25
494.485	549.25
494.703	549.25
494.92	551.25
495.138	539.25
495.355	563.25
495.573	551.25
495.79	546.25
496.008	567.25
496.225	545.25
496.442	570.25
496.66	559.25
496.877	578.25
497.094	581.25
497.312	613.25
497.529	600.25
497.746	633.25
497.963	648.25
498.181	669.25
498.398	695.25
498.615	713.25
498.832	738.25
499.049	801.25
499.267	842.25
499.484	895.25
499.701	998.25
499.918	1093.25
500.135	1178.25
500.352	1300.25
500.569	1335.25
500.786	1331.25
501.003	1253.25
501.22	1191.25
501.437	1057.25
501.654	960.25
501.871	896.25
