Data from Fe(NO3)3@0.1M.TitratingCurve.Agarose3%dH2O.NegLispCup.LampEnergy10.LIBS07252019_HRD10591_16-41-22-334.txt Node
Date: Thu Jul 25 16:41:22 EDT 2019
User: cochatt
Spectrometer: HR+D1059
Trigger mode: 1
Integration Time (sec): 1.000000E-1
Scans to average: 1
Electric dark correction enabled: true
Nonlinearity correction enabled: false
Boxcar width: 0
XAxis mode: Wavelengths
Number of Pixels in Spectrum: 2048
>>>>>Begin Spectral Data<<<<<
223.165	-13.06
223.4	-13.06
223.635	-13.06
223.869	-19.06
224.104	-16.06
224.338	-14.06
224.573	-6.06
224.808	-9.06
225.042	-6.06
225.277	-3.06
225.511	0.94
225.746	-0.06
225.98	9.94
226.215	7.94
226.449	19.94
226.683	7.94
226.918	16.94
227.152	22.94
227.387	39.94
227.621	39.94
227.856	46.94
228.09	36.94
228.324	52.94
228.559	67.94
228.793	66.94
229.027	94.94
229.262	109.94
229.496	93.94
229.73	114.94
229.964	110.94
230.199	124.94
230.433	120.94
230.667	126.94
230.901	110.94
231.136	121.94
231.37	133.94
231.604	114.94
231.838	120.94
232.072	130.94
232.306	122.94
232.541	108.94
232.775	140.94
233.009	136.94
233.243	134.94
233.477	139.94
233.711	120.94
233.945	148.94
234.179	138.94
234.413	134.94
234.647	121.94
234.881	149.94
235.115	123.94
235.349	131.94
235.583	138.94
235.817	133.94
236.051	121.94
236.285	118.94
236.519	140.94
236.753	142.94
236.987	134.94
237.221	158.94
237.455	139.94
237.689	150.94
237.922	154.94
238.156	136.94
238.39	140.94
238.624	124.94
238.858	140.94
239.091	142.94
239.325	146.94
239.559	151.94
239.793	155.94
240.027	153.94
240.26	144.94
240.494	144.94
240.728	161.94
240.961	139.94
241.195	133.94
241.429	160.94
241.662	174.94
241.896	157.94
242.13	150.94
242.363	159.94
242.597	154.94
242.83	162.94
243.064	163.94
243.298	166.94
243.531	185.94
243.765	160.94
243.998	178.94
244.232	180.94
244.465	163.94
244.699	159.94
244.932	179.94
245.166	179.94
245.399	195.94
245.633	168.94
245.866	169.94
246.099	172.94
246.333	181.94
246.566	165.94
246.8	195.94
247.033	179.94
247.266	186.94
247.5	194.94
247.733	192.94
247.966	186.94
248.2	202.94
248.433	190.94
248.666	194.94
248.899	190.94
249.133	202.94
249.366	190.94
249.599	191.94
249.832	191.94
250.066	212.94
250.299	187.94
250.532	204.94
250.765	205.94
250.998	193.94
251.231	202.94
251.465	218.94
251.698	223.94
251.931	222.94
252.164	211.94
252.397	226.94
252.63	227.94
252.863	212.94
253.096	215.94
253.329	230.94
253.562	199.94
253.795	211.94
254.028	248.94
254.261	217.94
254.494	231.94
254.727	215.94
254.96	211.94
255.193	226.94
255.426	238.94
255.659	244.94
255.892	222.94
256.124	220.94
256.357	220.94
256.59	228.94
256.823	228.94
257.056	240.94
257.289	230.94
257.521	247.94
257.754	233.94
257.987	240.94
258.22	231.94
258.452	241.94
258.685	259.94
258.918	249.94
259.151	246.94
259.383	247.94
259.616	244.94
259.849	260.94
260.081	251.94
260.314	257.94
260.547	244.94
260.779	239.94
261.012	248.94
261.244	258.94
261.477	259.94
261.71	254.94
261.942	270.94
262.175	261.94
262.407	260.94
262.64	271.94
262.872	266.94
263.105	259.94
263.337	250.94
263.57	269.94
263.802	264.94
264.035	266.94
264.267	290.94
264.499	273.94
264.732	277.94
264.964	277.94
265.197	273.94
265.429	275.94
265.661	289.94
265.894	295.94
266.126	281.94
266.358	282.94
266.591	297.94
266.823	278.94
267.055	287.94
267.287	278.94
267.52	276.94
267.752	283.94
267.984	297.94
268.216	285.94
268.448	295.94
268.681	299.94
268.913	308.94
269.145	282.94
269.377	306.94
269.609	307.94
269.841	309.94
270.073	304.94
270.306	306.94
270.538	322.94
270.77	298.94
271.002	295.94
271.234	296.94
271.466	330.94
271.698	326.94
271.93	316.94
272.162	316.94
272.394	310.94
272.626	321.94
272.858	314.94
273.09	309.94
273.322	328.94
273.553	318.94
273.785	316.94
274.017	329.94
274.249	324.94
274.481	351.94
274.713	305.94
274.945	316.94
275.176	349.94
275.408	327.94
275.64	336.94
275.872	338.94
276.104	341.94
276.335	328.94
276.567	343.94
276.799	346.94
277.031	329.94
277.262	333.94
277.494	351.94
277.726	331.94
277.957	348.94
278.189	332.94
278.421	324.94
278.652	330.94
278.884	376.94
279.115	345.94
279.347	356.94
279.579	347.94
279.81	346.94
280.042	328.94
280.273	349.94
280.505	350.94
280.736	364.94
280.968	360.94
281.199	356.94
281.431	356.94
281.662	370.94
281.894	349.94
282.125	380.94
282.356	369.94
282.588	360.94
282.819	382.94
283.051	379.94
283.282	372.94
283.513	378.94
283.745	388.94
283.976	371.94
284.207	380.94
284.439	402.94
284.67	387.94
284.901	392.94
285.132	380.94
285.364	383.94
285.595	384.94
285.826	394.94
286.057	400.94
286.288	386.94
286.52	366.94
286.751	390.94
286.982	391.94
287.213	403.94
287.444	401.94
287.675	413.94
287.906	414.94
288.138	407.94
288.369	410.94
288.6	400.94
288.831	400.94
289.062	420.94
289.293	403.94
289.524	400.94
289.755	408.94
289.986	415.94
290.217	395.94
290.448	414.94
290.679	409.94
290.91	412.94
291.141	407.94
291.371	396.94
291.602	402.94
291.833	393.94
292.064	404.94
292.295	396.94
292.526	415.94
292.757	408.94
292.987	420.94
293.218	405.94
293.449	416.94
293.68	420.94
293.91	430.94
294.141	422.94
294.372	400.94
294.603	417.94
294.833	435.94
295.064	395.94
295.295	411.94
295.525	412.94
295.756	407.94
295.987	407.94
296.217	417.94
296.448	417.94
296.679	415.94
296.909	446.94
297.14	434.94
297.37	475.94
297.601	446.94
297.831	418.94
298.062	427.94
298.292	430.94
298.523	464.94
298.753	452.94
298.984	448.94
299.214	449.94
299.445	442.94
299.675	456.94
299.905	447.94
300.136	442.94
300.366	442.94
300.597	464.94
300.827	441.94
301.057	471.94
301.288	473.94
301.518	471.94
301.748	467.94
301.979	488.94
302.209	492.94
302.439	485.94
302.669	478.94
302.9	473.94
303.13	488.94
303.36	488.94
303.59	475.94
303.82	486.94
304.051	435.94
304.281	480.94
304.511	486.94
304.741	474.94
304.971	464.94
305.201	466.94
305.431	442.94
305.661	454.94
305.891	456.94
306.121	456.94
306.352	439.94
306.582	460.94
306.812	458.94
307.042	464.94
307.272	459.94
307.502	458.94
307.731	458.94
307.961	463.94
308.191	466.94
308.421	452.94
308.651	446.94
308.881	466.94
309.111	460.94
309.341	469.94
309.571	472.94
309.8	480.94
310.03	468.94
310.26	471.94
310.49	461.94
310.72	457.94
310.949	462.94
311.179	485.94
311.409	474.94
311.639	476.94
311.868	474.94
312.098	478.94
312.328	501.94
312.557	481.94
312.787	494.94
313.017	473.94
313.246	502.94
313.476	494.94
313.706	486.94
313.935	487.94
314.165	502.94
314.394	517.94
314.624	525.94
314.853	506.94
315.083	514.94
315.312	476.94
315.542	507.94
315.771	482.94
316.001	505.94
316.23	520.94
316.46	494.94
316.689	488.94
316.919	483.94
317.148	507.94
317.377	524.94
317.607	520.94
317.836	498.94
318.065	466.94
318.295	475.94
318.524	510.94
318.753	501.94
318.983	501.94
319.212	465.94
319.441	504.94
319.67	494.94
319.9	520.94
320.129	509.94
320.358	498.94
320.587	505.94
320.816	497.94
321.046	488.94
321.275	518.94
321.504	516.94
321.733	524.94
321.962	502.94
322.191	511.94
322.42	513.94
322.649	512.94
322.878	532.94
323.108	500.94
323.337	503.94
323.566	519.94
323.795	529.94
324.024	537.94
324.253	502.94
324.482	521.94
324.71	535.94
324.939	530.94
325.168	519.94
325.397	531.94
325.626	529.94
325.855	526.94
326.084	532.94
326.313	550.94
326.542	536.94
326.77	551.94
326.999	553.94
327.228	551.94
327.457	565.94
327.686	534.94
327.914	543.94
328.143	554.94
328.372	531.94
328.6	553.94
328.829	561.94
329.058	542.94
329.287	532.94
329.515	556.94
329.744	546.94
329.972	548.94
330.201	544.94
330.43	544.94
330.658	561.94
330.887	581.94
331.115	586.94
331.344	590.94
331.572	596.94
331.801	600.94
332.03	578.94
332.258	614.94
332.486	622.94
332.715	619.94
332.943	664.94
333.172	680.94
333.4	682.94
333.629	733.94
333.857	732.94
334.085	707.94
334.314	676.94
334.542	674.94
334.771	687.94
334.999	684.94
335.227	667.94
335.455	660.94
335.684	649.94
335.912	652.94
336.14	661.94
336.369	640.94
336.597	643.94
336.825	626.94
337.053	628.94
337.281	636.94
337.51	616.94
337.738	624.94
337.966	592.94
338.194	595.94
338.422	602.94
338.65	611.94
338.878	613.94
339.106	592.94
339.334	594.94
339.562	592.94
339.79	573.94
340.018	571.94
340.246	580.94
340.474	562.94
340.702	578.94
340.93	592.94
341.158	577.94
341.386	564.94
341.614	558.94
341.842	578.94
342.07	562.94
342.298	570.94
342.526	569.94
342.754	555.94
342.981	576.94
343.209	601.94
343.437	600.94
343.665	652.94
343.893	658.94
344.12	698.94
344.348	652.94
344.576	663.94
344.804	613.94
345.031	601.94
345.259	627.94
345.487	606.94
345.714	575.94
345.942	564.94
346.17	575.94
346.397	564.94
346.625	568.94
346.853	555.94
347.08	546.94
347.308	559.94
347.535	571.94
347.763	544.94
347.99	554.94
348.218	543.94
348.445	574.94
348.673	548.94
348.9	547.94
349.128	554.94
349.355	548.94
349.583	546.94
349.81	554.94
350.037	563.94
350.265	544.94
350.492	520.94
350.72	552.94
350.947	568.94
351.174	560.94
351.402	534.94
351.629	529.94
351.856	528.94
352.083	535.94
352.311	556.94
352.538	537.94
352.765	530.94
352.992	545.94
353.22	547.94
353.447	558.94
353.674	532.94
353.901	516.94
354.128	532.94
354.355	532.94
354.583	522.94
354.81	552.94
355.037	522.94
355.264	554.94
355.491	541.94
355.718	552.94
355.945	558.94
356.172	543.94
356.399	543.94
356.626	536.94
356.853	552.94
357.08	557.94
357.307	564.94
357.534	560.94
357.761	551.94
357.988	566.94
358.215	545.94
358.441	544.94
358.668	523.94
358.895	552.94
359.122	546.94
359.349	543.94
359.576	540.94
359.802	554.94
360.029	521.94
360.256	532.94
360.483	550.94
360.709	537.94
360.936	542.94
361.163	542.94
361.39	547.94
361.616	534.94
361.843	539.94
362.07	550.94
362.296	543.94
362.523	535.94
362.749	540.94
362.976	564.94
363.203	574.94
363.429	558.94
363.656	549.94
363.882	559.94
364.109	544.94
364.335	538.94
364.562	547.94
364.788	549.94
365.015	553.94
365.241	538.94
365.468	549.94
365.694	544.94
365.92	570.94
366.147	535.94
366.373	536.94
366.599	547.94
366.826	555.94
367.052	537.94
367.278	547.94
367.505	564.94
367.731	567.94
367.957	551.94
368.184	570.94
368.41	559.94
368.636	558.94
368.862	577.94
369.089	560.94
369.315	574.94
369.541	569.94
369.767	566.94
369.993	591.94
370.219	577.94
370.445	575.94
370.672	569.94
370.898	582.94
371.124	581.94
371.35	569.94
371.576	607.94
371.802	601.94
372.028	586.94
372.254	585.94
372.48	611.94
372.706	624.94
372.932	609.94
373.158	596.94
373.384	589.94
373.61	593.94
373.835	598.94
374.061	606.94
374.287	600.94
374.513	589.94
374.739	632.94
374.965	652.94
375.191	627.94
375.416	624.94
375.642	626.94
375.868	606.94
376.094	609.94
376.319	588.94
376.545	598.94
376.771	583.94
376.997	575.94
377.222	584.94
377.448	599.94
377.674	600.94
377.899	591.94
378.125	595.94
378.35	609.94
378.576	577.94
378.802	597.94
379.027	596.94
379.253	589.94
379.478	586.94
379.704	584.94
379.929	585.94
380.155	583.94
380.38	590.94
380.606	615.94
380.831	622.94
381.057	604.94
381.282	631.94
381.507	612.94
381.733	604.94
381.958	611.94
382.184	615.94
382.409	616.94
382.634	615.94
382.86	631.94
383.085	649.94
383.31	631.94
383.535	632.94
383.761	639.94
383.986	671.94
384.211	658.94
384.436	679.94
384.662	670.94
384.887	706.94
385.112	702.94
385.337	723.94
385.562	706.94
385.787	730.94
386.013	732.94
386.238	709.94
386.463	719.94
386.688	699.94
386.913	696.94
387.138	727.94
387.363	711.94
387.588	688.94
387.813	717.94
388.038	682.94
388.263	717.94
388.488	725.94
388.713	708.94
388.938	700.94
389.163	711.94
389.387	686.94
389.612	706.94
389.837	693.94
390.062	702.94
390.287	725.94
390.512	730.94
390.736	715.94
390.961	732.94
391.186	737.94
391.411	730.94
391.636	760.94
391.86	801.94
392.085	801.94
392.31	787.94
392.534	782.94
392.759	770.94
392.984	716.94
393.208	739.94
393.433	730.94
393.658	746.94
393.882	724.94
394.107	759.94
394.331	744.94
394.556	748.94
394.78	774.94
395.005	755.94
395.229	752.94
395.454	768.94
395.678	789.94
395.903	782.94
396.127	774.94
396.352	777.94
396.576	749.94
396.801	760.94
397.025	769.94
397.249	766.94
397.474	793.94
397.698	778.94
397.922	803.94
398.147	798.94
398.371	796.94
398.595	835.94
398.82	861.94
399.044	945.94
399.268	1028.94
399.492	1140.94
399.717	1235.94
399.941	1255.94
400.165	1139.94
400.389	1046.94
400.613	967.94
400.837	914.94
401.062	917.94
401.286	928.94
401.51	889.94
401.734	887.94
401.958	892.94
402.182	894.94
402.406	888.94
402.63	928.94
402.854	943.94
403.078	926.94
403.302	942.94
403.526	966.94
403.75	952.94
403.974	993.94
404.198	1012.94
404.422	1020.94
404.645	975.94
404.869	965.94
405.093	994.94
405.317	946.94
405.541	969.94
405.765	947.94
405.988	951.94
406.212	962.94
406.436	960.94
406.66	997.94
406.883	1014.94
407.107	1048.94
407.331	1059.94
407.555	1093.94
407.778	1079.94
408.002	1080.94
408.226	1051.94
408.449	1033.94
408.673	1004.94
408.896	971.94
409.12	976.94
409.344	976.94
409.567	967.94
409.791	974.94
410.014	949.94
410.238	914.94
410.461	916.94
410.685	945.94
410.908	901.94
411.132	935.94
411.355	903.94
411.578	920.94
411.802	904.94
412.025	888.94
412.249	933.94
412.472	923.94
412.695	900.94
412.919	893.94
413.142	885.94
413.365	893.94
413.589	902.94
413.812	860.94
414.035	860.94
414.258	880.94
414.482	906.94
414.705	875.94
414.928	862.94
415.151	909.94
415.374	873.94
415.597	894.94
415.821	856.94
416.044	854.94
416.267	881.94
416.49	871.94
416.713	847.94
416.936	859.94
417.159	862.94
417.382	851.94
417.605	867.94
417.828	885.94
418.051	864.94
418.274	884.94
418.497	852.94
418.72	904.94
418.943	874.94
419.166	904.94
419.389	964.94
419.611	981.94
419.834	897.94
420.057	887.94
420.28	882.94
420.503	854.94
420.726	828.94
420.948	801.94
421.171	854.94
421.394	863.94
421.617	845.94
421.839	851.94
422.062	835.94
422.285	864.94
422.507	901.94
422.73	890.94
422.953	889.94
423.175	897.94
423.398	897.94
423.621	887.94
423.843	901.94
424.066	911.94
424.288	899.94
424.511	903.94
424.733	879.94
424.956	872.94
425.178	870.94
425.401	872.94
425.623	854.94
425.846	863.94
426.068	859.94
426.291	831.94
426.513	838.94
426.735	803.94
426.958	814.94
427.18	792.94
427.402	781.94
427.625	808.94
427.847	772.94
428.069	810.94
428.292	789.94
428.514	775.94
428.736	789.94
428.958	802.94
429.181	762.94
429.403	786.94
429.625	787.94
429.847	763.94
430.069	767.94
430.292	781.94
430.514	786.94
430.736	794.94
430.958	763.94
431.18	773.94
431.402	781.94
431.624	769.94
431.846	782.94
432.068	777.94
432.29	764.94
432.512	768.94
432.734	793.94
432.956	772.94
433.178	786.94
433.4	784.94
433.622	803.94
433.844	812.94
434.066	791.94
434.287	801.94
434.509	820.94
434.731	849.94
434.953	863.94
435.175	877.94
435.397	862.94
435.618	817.94
435.84	802.94
436.062	767.94
436.284	786.94
436.505	767.94
436.727	792.94
436.949	790.94
437.17	790.94
437.392	740.94
437.614	750.94
437.835	760.94
438.057	771.94
438.278	751.94
438.5	704.94
438.721	777.94
438.943	767.94
439.165	764.94
439.386	742.94
439.608	760.94
439.829	772.94
440.05	783.94
440.272	762.94
440.493	770.94
440.715	808.94
440.936	787.94
441.158	809.94
441.379	826.94
441.6	860.94
441.822	833.94
442.043	871.94
442.264	855.94
442.486	854.94
442.707	820.94
442.928	844.94
443.149	865.94
443.371	873.94
443.592	866.94
443.813	874.94
444.034	874.94
444.255	904.94
444.476	948.94
444.698	978.94
444.919	1035.94
445.14	1078.94
445.361	954.94
445.582	885.94
445.803	840.94
446.024	818.94
446.245	811.94
446.466	813.94
446.687	760.94
446.908	792.94
447.129	769.94
447.35	754.94
447.571	738.94
447.792	765.94
448.013	754.94
448.234	736.94
448.455	732.94
448.675	726.94
448.896	731.94
449.117	711.94
449.338	734.94
449.559	732.94
449.779	688.94
450	735.94
450.221	698.94
450.442	717.94
450.662	707.94
450.883	743.94
451.104	716.94
451.324	712.94
451.545	725.94
451.766	704.94
451.986	700.94
452.207	696.94
452.428	708.94
452.648	690.94
452.869	690.94
453.089	703.94
453.31	685.94
453.53	687.94
453.751	669.94
453.971	690.94
454.192	658.94
454.412	661.94
454.633	683.94
454.853	679.94
455.073	681.94
455.294	659.94
455.514	704.94
455.734	672.94
455.955	663.94
456.175	676.94
456.395	662.94
456.616	656.94
456.836	663.94
457.056	652.94
457.276	660.94
457.497	679.94
457.717	697.94
457.937	695.94
458.157	679.94
458.377	693.94
458.598	711.94
458.818	727.94
459.038	739.94
459.258	776.94
459.478	782.94
459.698	803.94
459.918	808.94
460.138	840.94
460.358	902.94
460.578	866.94
460.798	880.94
461.018	884.94
461.238	900.94
461.458	895.94
461.678	890.94
461.898	891.94
462.118	915.94
462.338	958.94
462.558	973.94
462.777	999.94
462.997	1042.94
463.217	1154.94
463.437	1118.94
463.657	1071.94
463.876	1040.94
464.096	1000.94
464.316	1002.94
464.536	1004.94
464.755	965.94
464.975	947.94
465.195	905.94
465.414	879.94
465.634	802.94
465.854	800.94
466.073	823.94
466.293	808.94
466.512	767.94
466.732	764.94
466.951	771.94
467.171	764.94
467.391	740.94
467.61	760.94
467.829	738.94
468.049	738.94
468.268	741.94
468.488	728.94
468.707	715.94
468.927	714.94
469.146	709.94
469.365	728.94
469.585	738.94
469.804	748.94
470.023	765.94
470.243	761.94
470.462	772.94
470.681	788.94
470.901	774.94
471.12	770.94
471.339	786.94
471.558	744.94
471.777	730.94
471.997	706.94
472.216	686.94
472.435	707.94
472.654	686.94
472.873	708.94
473.092	689.94
473.311	702.94
473.53	686.94
473.749	704.94
473.968	711.94
474.187	713.94
474.406	710.94
474.625	701.94
474.844	697.94
475.063	735.94
475.282	727.94
475.501	705.94
475.72	714.94
475.939	734.94
476.158	726.94
476.377	753.94
476.596	730.94
476.814	746.94
477.033	713.94
477.252	734.94
477.471	768.94
477.69	801.94
477.908	819.94
478.127	806.94
478.346	823.94
478.564	824.94
478.783	841.94
479.002	873.94
479.22	853.94
479.439	857.94
479.658	851.94
479.876	838.94
480.095	875.94
480.313	929.94
480.532	905.94
480.751	895.94
480.969	886.94
481.188	838.94
481.406	812.94
481.624	832.94
481.843	790.94
482.061	784.94
482.28	786.94
482.498	806.94
482.717	765.94
482.935	790.94
483.153	803.94
483.372	772.94
483.59	799.94
483.808	807.94
484.027	772.94
484.245	802.94
484.463	785.94
484.681	812.94
484.9	822.94
485.118	806.94
485.336	822.94
485.554	809.94
485.772	806.94
485.99	815.94
486.209	816.94
486.427	812.94
486.645	808.94
486.863	825.94
487.081	831.94
487.299	824.94
487.517	816.94
487.735	828.94
487.953	807.94
488.171	816.94
488.389	818.94
488.607	811.94
488.825	807.94
489.043	840.94
489.261	822.94
489.479	848.94
489.696	826.94
489.914	833.94
490.132	825.94
490.35	852.94
490.568	801.94
490.786	859.94
491.003	819.94
491.221	855.94
491.439	857.94
491.657	828.94
491.874	834.94
492.092	824.94
492.31	852.94
492.527	838.94
492.745	850.94
492.963	887.94
493.18	848.94
493.398	841.94
493.615	850.94
493.833	877.94
494.05	863.94
494.268	865.94
494.485	875.94
494.703	882.94
494.92	894.94
495.138	879.94
495.355	882.94
495.573	870.94
495.79	860.94
496.008	902.94
496.225	906.94
496.442	910.94
496.66	917.94
496.877	932.94
497.094	972.94
497.312	962.94
497.529	1000.94
497.746	1003.94
497.963	1033.94
498.181	1058.94
498.398	1094.94
498.615	1145.94
498.832	1234.94
499.049	1313.94
499.267	1384.94
499.484	1493.94
499.701	1639.94
499.918	1785.94
500.135	2018.94
500.352	2233.94
500.569	2352.94
500.786	2301.94
501.003	2132.94
