Data from Fe(NO3)3@0.0125M.TitratingCurve.Agarose3%dH2O.NegLispCup.LampEnergy10.LIBS07252019_HRD10591_17-00-29-336.txt Node
Date: Thu Jul 25 17:00:29 EDT 2019
User: cochatt
Spectrometer: HR+D1059
Trigger mode: 1
Integration Time (sec): 1.000000E-1
Scans to average: 1
Electric dark correction enabled: true
Nonlinearity correction enabled: false
Boxcar width: 0
XAxis mode: Wavelengths
Number of Pixels in Spectrum: 2048
>>>>>Begin Spectral Data<<<<<
223.165	-32.38
223.4	-32.38
223.635	-32.38
223.869	-20.38
224.104	-23.38
224.338	-9.38
224.573	-7.38
224.808	-8.38
225.042	-7.38
225.277	1.62
225.511	-1.38
225.746	-3.38
225.98	9.62
226.215	13.62
226.449	1.62
226.683	24.62
226.918	22.62
227.152	39.62
227.387	39.62
227.621	40.62
227.856	44.62
228.09	38.62
228.324	62.62
228.559	63.62
228.793	54.62
229.027	80.62
229.262	83.62
229.496	91.62
229.73	78.62
229.964	82.62
230.199	88.62
230.433	101.62
230.667	91.62
230.901	97.62
231.136	94.62
231.37	98.62
231.604	102.62
231.838	106.62
232.072	113.62
232.306	117.62
232.541	117.62
232.775	100.62
233.009	114.62
233.243	118.62
233.477	107.62
233.711	97.62
233.945	106.62
234.179	123.62
234.413	113.62
234.647	115.62
234.881	118.62
235.115	108.62
235.349	105.62
235.583	120.62
235.817	118.62
236.051	131.62
236.285	107.62
236.519	117.62
236.753	96.62
236.987	102.62
237.221	115.62
237.455	126.62
237.689	125.62
237.922	122.62
238.156	118.62
238.39	132.62
238.624	119.62
238.858	127.62
239.091	116.62
239.325	112.62
239.559	125.62
239.793	115.62
240.027	117.62
240.26	122.62
240.494	116.62
240.728	123.62
240.961	129.62
241.195	111.62
241.429	100.62
241.662	127.62
241.896	132.62
242.13	117.62
242.363	126.62
242.597	139.62
242.83	144.62
243.064	130.62
243.298	134.62
243.531	139.62
243.765	129.62
243.998	128.62
244.232	141.62
244.465	131.62
244.699	135.62
244.932	150.62
245.166	144.62
245.399	130.62
245.633	128.62
245.866	126.62
246.099	144.62
246.333	138.62
246.566	126.62
246.8	141.62
247.033	129.62
247.266	128.62
247.5	137.62
247.733	132.62
247.966	140.62
248.2	148.62
248.433	137.62
248.666	138.62
248.899	158.62
249.133	139.62
249.366	153.62
249.599	166.62
249.832	153.62
250.066	150.62
250.299	146.62
250.532	170.62
250.765	152.62
250.998	155.62
251.231	140.62
251.465	151.62
251.698	138.62
251.931	142.62
252.164	162.62
252.397	157.62
252.63	147.62
252.863	160.62
253.096	147.62
253.329	161.62
253.562	168.62
253.795	179.62
254.028	166.62
254.261	161.62
254.494	165.62
254.727	171.62
254.96	160.62
255.193	158.62
255.426	155.62
255.659	150.62
255.892	176.62
256.124	166.62
256.357	172.62
256.59	171.62
256.823	190.62
257.056	160.62
257.289	155.62
257.521	168.62
257.754	192.62
257.987	182.62
258.22	210.62
258.452	190.62
258.685	184.62
258.918	193.62
259.151	178.62
259.383	196.62
259.616	184.62
259.849	168.62
260.081	199.62
260.314	194.62
260.547	186.62
260.779	196.62
261.012	182.62
261.244	194.62
261.477	204.62
261.71	203.62
261.942	190.62
262.175	203.62
262.407	194.62
262.64	190.62
262.872	197.62
263.105	178.62
263.337	198.62
263.57	207.62
263.802	190.62
264.035	194.62
264.267	204.62
264.499	201.62
264.732	195.62
264.964	188.62
265.197	211.62
265.429	197.62
265.661	196.62
265.894	211.62
266.126	203.62
266.358	196.62
266.591	201.62
266.823	207.62
267.055	210.62
267.287	208.62
267.52	195.62
267.752	185.62
267.984	211.62
268.216	203.62
268.448	191.62
268.681	189.62
268.913	197.62
269.145	216.62
269.377	212.62
269.609	209.62
269.841	207.62
270.073	207.62
270.306	206.62
270.538	199.62
270.77	204.62
271.002	211.62
271.234	216.62
271.466	209.62
271.698	224.62
271.93	226.62
272.162	210.62
272.394	206.62
272.626	216.62
272.858	226.62
273.09	236.62
273.322	217.62
273.553	212.62
273.785	217.62
274.017	233.62
274.249	241.62
274.481	251.62
274.713	256.62
274.945	250.62
275.176	232.62
275.408	258.62
275.64	226.62
275.872	243.62
276.104	241.62
276.335	243.62
276.567	246.62
276.799	241.62
277.031	244.62
277.262	252.62
277.494	255.62
277.726	241.62
277.957	245.62
278.189	245.62
278.421	231.62
278.652	244.62
278.884	242.62
279.115	247.62
279.347	257.62
279.579	241.62
279.81	262.62
280.042	252.62
280.273	235.62
280.505	248.62
280.736	240.62
280.968	253.62
281.199	262.62
281.431	249.62
281.662	258.62
281.894	248.62
282.125	262.62
282.356	266.62
282.588	258.62
282.819	262.62
283.051	262.62
283.282	266.62
283.513	260.62
283.745	266.62
283.976	255.62
284.207	255.62
284.439	280.62
284.67	286.62
284.901	262.62
285.132	271.62
285.364	266.62
285.595	239.62
285.826	257.62
286.057	288.62
286.288	265.62
286.52	258.62
286.751	268.62
286.982	268.62
287.213	294.62
287.444	285.62
287.675	287.62
287.906	283.62
288.138	285.62
288.369	284.62
288.6	272.62
288.831	292.62
289.062	279.62
289.293	274.62
289.524	263.62
289.755	272.62
289.986	282.62
290.217	318.62
290.448	285.62
290.679	283.62
290.91	278.62
291.141	294.62
291.371	306.62
291.602	295.62
291.833	301.62
292.064	284.62
292.295	294.62
292.526	282.62
292.757	283.62
292.987	295.62
293.218	293.62
293.449	311.62
293.68	311.62
293.91	293.62
294.141	283.62
294.372	295.62
294.603	299.62
294.833	303.62
295.064	299.62
295.295	287.62
295.525	279.62
295.756	293.62
295.987	314.62
296.217	309.62
296.448	318.62
296.679	314.62
296.909	307.62
297.14	302.62
297.37	296.62
297.601	304.62
297.831	299.62
298.062	318.62
298.292	304.62
298.523	318.62
298.753	325.62
298.984	321.62
299.214	303.62
299.445	305.62
299.675	321.62
299.905	314.62
300.136	310.62
300.366	319.62
300.597	292.62
300.827	321.62
301.057	304.62
301.288	325.62
301.518	321.62
301.748	313.62
301.979	345.62
302.209	352.62
302.439	325.62
302.669	325.62
302.9	339.62
303.13	325.62
303.36	322.62
303.59	331.62
303.82	331.62
304.051	322.62
304.281	346.62
304.511	343.62
304.741	338.62
304.971	325.62
305.201	350.62
305.431	357.62
305.661	327.62
305.891	334.62
306.121	337.62
306.352	343.62
306.582	330.62
306.812	330.62
307.042	342.62
307.272	336.62
307.502	346.62
307.731	345.62
307.961	331.62
308.191	336.62
308.421	332.62
308.651	347.62
308.881	322.62
309.111	328.62
309.341	334.62
309.571	330.62
309.8	336.62
310.03	355.62
310.26	341.62
310.49	343.62
310.72	326.62
310.949	331.62
311.179	350.62
311.409	344.62
311.639	350.62
311.868	332.62
312.098	368.62
312.328	338.62
312.557	353.62
312.787	347.62
313.017	350.62
313.246	366.62
313.476	339.62
313.706	342.62
313.935	336.62
314.165	354.62
314.394	346.62
314.624	371.62
314.853	376.62
315.083	362.62
315.312	365.62
315.542	356.62
315.771	368.62
316.001	358.62
316.23	384.62
316.46	375.62
316.689	374.62
316.919	358.62
317.148	374.62
317.377	376.62
317.607	375.62
317.836	371.62
318.065	379.62
318.295	380.62
318.524	346.62
318.753	370.62
318.983	383.62
319.212	359.62
319.441	374.62
319.67	357.62
319.9	349.62
320.129	376.62
320.358	368.62
320.587	362.62
320.816	359.62
321.046	381.62
321.275	357.62
321.504	349.62
321.733	364.62
321.962	368.62
322.191	362.62
322.42	380.62
322.649	374.62
322.878	355.62
323.108	350.62
323.337	392.62
323.566	363.62
323.795	393.62
324.024	383.62
324.253	389.62
324.482	394.62
324.71	384.62
324.939	405.62
325.168	397.62
325.397	386.62
325.626	387.62
325.855	377.62
326.084	382.62
326.313	391.62
326.542	396.62
326.77	396.62
326.999	405.62
327.228	401.62
327.457	381.62
327.686	392.62
327.914	390.62
328.143	410.62
328.372	392.62
328.6	409.62
328.829	423.62
329.058	407.62
329.287	398.62
329.515	414.62
329.744	414.62
329.972	398.62
330.201	401.62
330.43	414.62
330.658	405.62
330.887	410.62
331.115	402.62
331.344	420.62
331.572	399.62
331.801	412.62
332.03	411.62
332.258	428.62
332.486	416.62
332.715	441.62
332.943	431.62
333.172	448.62
333.4	461.62
333.629	458.62
333.857	464.62
334.085	480.62
334.314	447.62
334.542	464.62
334.771	471.62
334.999	476.62
335.227	455.62
335.455	454.62
335.684	454.62
335.912	458.62
336.14	465.62
336.369	457.62
336.597	475.62
336.825	465.62
337.053	473.62
337.281	474.62
337.51	469.62
337.738	450.62
337.966	445.62
338.194	433.62
338.422	445.62
338.65	445.62
338.878	426.62
339.106	412.62
339.334	443.62
339.562	445.62
339.79	424.62
340.018	435.62
340.246	421.62
340.474	425.62
340.702	428.62
340.93	423.62
341.158	404.62
341.386	417.62
341.614	425.62
341.842	441.62
342.07	417.62
342.298	419.62
342.526	447.62
342.754	446.62
342.981	415.62
343.209	426.62
343.437	440.62
343.665	436.62
343.893	442.62
344.12	458.62
344.348	465.62
344.576	461.62
344.804	448.62
345.031	435.62
345.259	438.62
345.487	431.62
345.714	429.62
345.942	453.62
346.17	424.62
346.397	417.62
346.625	421.62
346.853	404.62
347.08	415.62
347.308	407.62
347.535	411.62
347.763	401.62
347.99	424.62
348.218	417.62
348.445	410.62
348.673	427.62
348.9	412.62
349.128	409.62
349.355	402.62
349.583	407.62
349.81	399.62
350.037	409.62
350.265	415.62
350.492	409.62
350.72	432.62
350.947	405.62
351.174	401.62
351.402	393.62
351.629	402.62
351.856	408.62
352.083	414.62
352.311	415.62
352.538	400.62
352.765	403.62
352.992	403.62
353.22	380.62
353.447	408.62
353.674	394.62
353.901	420.62
354.128	409.62
354.355	420.62
354.583	409.62
354.81	404.62
355.037	395.62
355.264	406.62
355.491	405.62
355.718	418.62
355.945	389.62
356.172	438.62
356.399	401.62
356.626	423.62
356.853	435.62
357.08	436.62
357.307	397.62
357.534	425.62
357.761	422.62
357.988	413.62
358.215	415.62
358.441	410.62
358.668	412.62
358.895	412.62
359.122	410.62
359.349	409.62
359.576	415.62
359.802	434.62
360.029	411.62
360.256	425.62
360.483	418.62
360.709	436.62
360.936	419.62
361.163	426.62
361.39	400.62
361.616	422.62
361.843	416.62
362.07	422.62
362.296	414.62
362.523	431.62
362.749	408.62
362.976	408.62
363.203	401.62
363.429	434.62
363.656	431.62
363.882	416.62
364.109	439.62
364.335	414.62
364.562	434.62
364.788	428.62
365.015	428.62
365.241	434.62
365.468	409.62
365.694	433.62
365.92	430.62
366.147	448.62
366.373	428.62
366.599	434.62
366.826	418.62
367.052	416.62
367.278	414.62
367.505	437.62
367.731	437.62
367.957	421.62
368.184	424.62
368.41	420.62
368.636	434.62
368.862	418.62
369.089	445.62
369.315	430.62
369.541	431.62
369.767	431.62
369.993	440.62
370.219	444.62
370.445	451.62
370.672	460.62
370.898	449.62
371.124	450.62
371.35	451.62
371.576	424.62
371.802	442.62
372.028	457.62
372.254	464.62
372.48	451.62
372.706	465.62
372.932	473.62
373.158	457.62
373.384	464.62
373.61	472.62
373.835	454.62
374.061	460.62
374.287	478.62
374.513	466.62
374.739	466.62
374.965	484.62
375.191	487.62
375.416	478.62
375.642	502.62
375.868	469.62
376.094	469.62
376.319	491.62
376.545	463.62
376.771	465.62
376.997	447.62
377.222	446.62
377.448	464.62
377.674	471.62
377.899	454.62
378.125	460.62
378.35	458.62
378.576	453.62
378.802	455.62
379.027	457.62
379.253	436.62
379.478	418.62
379.704	452.62
379.929	462.62
380.155	441.62
380.38	435.62
380.606	464.62
380.831	468.62
381.057	459.62
381.282	448.62
381.507	484.62
381.733	488.62
381.958	466.62
382.184	482.62
382.409	492.62
382.634	495.62
382.86	491.62
383.085	472.62
383.31	483.62
383.535	483.62
383.761	485.62
383.986	508.62
384.211	496.62
384.436	500.62
384.662	505.62
384.887	494.62
385.112	514.62
385.337	503.62
385.562	518.62
385.787	505.62
386.013	544.62
386.238	511.62
386.463	510.62
386.688	519.62
386.913	502.62
387.138	527.62
387.363	498.62
387.588	506.62
387.813	522.62
388.038	530.62
388.263	548.62
388.488	537.62
388.713	501.62
388.938	537.62
389.163	528.62
389.387	508.62
389.612	523.62
389.837	530.62
390.062	514.62
390.287	530.62
390.512	546.62
390.736	508.62
390.961	536.62
391.186	510.62
391.411	534.62
391.636	534.62
391.86	543.62
392.085	545.62
392.31	562.62
392.534	537.62
392.759	536.62
392.984	541.62
393.208	565.62
393.433	564.62
393.658	577.62
393.882	547.62
394.107	544.62
394.331	559.62
394.556	535.62
394.78	542.62
395.005	560.62
395.229	560.62
395.454	551.62
395.678	542.62
395.903	570.62
396.127	575.62
396.352	561.62
396.576	572.62
396.801	580.62
397.025	566.62
397.249	576.62
397.474	593.62
397.698	586.62
397.922	584.62
398.147	582.62
398.371	576.62
398.595	613.62
398.82	651.62
399.044	631.62
399.268	660.62
399.492	674.62
399.717	710.62
399.941	728.62
400.165	701.62
400.389	703.62
400.613	672.62
400.837	654.62
401.062	644.62
401.286	620.62
401.51	602.62
401.734	626.62
401.958	635.62
402.182	619.62
402.406	606.62
402.63	642.62
402.854	642.62
403.078	612.62
403.302	640.62
403.526	628.62
403.75	622.62
403.974	644.62
404.198	623.62
404.422	626.62
404.645	649.62
404.869	638.62
405.093	623.62
405.317	644.62
405.541	631.62
405.765	665.62
405.988	654.62
406.212	653.62
406.436	647.62
406.66	692.62
406.883	657.62
407.107	688.62
407.331	688.62
407.555	697.62
407.778	705.62
408.002	720.62
408.226	703.62
408.449	691.62
408.673	676.62
408.896	655.62
409.12	668.62
409.344	680.62
409.567	672.62
409.791	683.62
410.014	661.62
410.238	658.62
410.461	659.62
410.685	652.62
410.908	654.62
411.132	650.62
411.355	644.62
411.578	661.62
411.802	653.62
412.025	649.62
412.249	646.62
412.472	636.62
412.695	643.62
412.919	635.62
413.142	639.62
413.365	640.62
413.589	645.62
413.812	620.62
414.035	614.62
414.258	616.62
414.482	615.62
414.705	612.62
414.928	605.62
415.151	604.62
415.374	629.62
415.597	600.62
415.821	609.62
416.044	597.62
416.267	604.62
416.49	588.62
416.713	612.62
416.936	576.62
417.159	592.62
417.382	582.62
417.605	591.62
417.828	586.62
418.051	618.62
418.274	615.62
418.497	610.62
418.72	590.62
418.943	618.62
419.166	638.62
419.389	671.62
419.611	666.62
419.834	632.62
420.057	627.62
420.28	632.62
420.503	611.62
420.726	582.62
420.948	594.62
421.171	608.62
421.394	634.62
421.617	599.62
421.839	578.62
422.062	575.62
422.285	595.62
422.507	603.62
422.73	582.62
422.953	634.62
423.175	611.62
423.398	610.62
423.621	605.62
423.843	602.62
424.066	605.62
424.288	599.62
424.511	591.62
424.733	599.62
424.956	597.62
425.178	604.62
425.401	590.62
425.623	583.62
425.846	608.62
426.068	610.62
426.291	600.62
426.513	589.62
426.735	574.62
426.958	576.62
427.18	588.62
427.402	576.62
427.625	572.62
427.847	564.62
428.069	587.62
428.292	571.62
428.514	572.62
428.736	559.62
428.958	572.62
429.181	565.62
429.403	568.62
429.625	600.62
429.847	569.62
430.069	565.62
430.292	554.62
430.514	536.62
430.736	575.62
430.958	572.62
431.18	566.62
431.402	602.62
431.624	580.62
431.846	564.62
432.068	582.62
432.29	577.62
432.512	571.62
432.734	591.62
432.956	556.62
433.178	551.62
433.4	580.62
433.622	580.62
433.844	588.62
434.066	571.62
434.287	579.62
434.509	571.62
434.731	563.62
434.953	587.62
435.175	599.62
435.397	616.62
435.618	609.62
435.84	586.62
436.062	575.62
436.284	570.62
436.505	572.62
436.727	592.62
436.949	546.62
437.17	565.62
437.392	552.62
437.614	554.62
437.835	555.62
438.057	568.62
438.278	576.62
438.5	570.62
438.721	547.62
438.943	556.62
439.165	556.62
439.386	564.62
439.608	535.62
439.829	572.62
440.05	581.62
440.272	565.62
440.493	576.62
440.715	568.62
440.936	598.62
441.158	601.62
441.379	586.62
441.6	582.62
441.822	593.62
442.043	593.62
442.264	608.62
442.486	592.62
442.707	591.62
442.928	607.62
443.149	595.62
443.371	603.62
443.592	591.62
443.813	573.62
444.034	582.62
444.255	605.62
444.476	615.62
444.698	629.62
444.919	630.62
445.14	717.62
445.361	668.62
445.582	598.62
445.803	601.62
446.024	584.62
446.245	576.62
446.466	594.62
446.687	593.62
446.908	563.62
447.129	566.62
447.35	553.62
447.571	556.62
447.792	564.62
448.013	539.62
448.234	544.62
448.455	536.62
448.675	512.62
448.896	553.62
449.117	550.62
449.338	538.62
449.559	522.62
449.779	546.62
450	536.62
450.221	545.62
450.442	552.62
450.662	546.62
450.883	522.62
451.104	550.62
451.324	546.62
451.545	525.62
451.766	516.62
451.986	538.62
452.207	512.62
452.428	512.62
452.648	498.62
452.869	504.62
453.089	503.62
453.31	524.62
453.53	526.62
453.751	542.62
453.971	510.62
454.192	508.62
454.412	516.62
454.633	529.62
454.853	511.62
455.073	509.62
455.294	497.62
455.514	517.62
455.734	519.62
455.955	508.62
456.175	496.62
456.395	516.62
456.616	492.62
456.836	516.62
457.056	514.62
457.276	485.62
457.497	508.62
457.717	530.62
457.937	516.62
458.157	517.62
458.377	544.62
458.598	522.62
458.818	552.62
459.038	559.62
459.258	552.62
459.478	561.62
459.698	568.62
459.918	570.62
460.138	584.62
460.358	615.62
460.578	599.62
460.798	591.62
461.018	609.62
461.238	608.62
461.458	620.62
461.678	623.62
461.898	623.62
462.118	631.62
462.338	643.62
462.558	669.62
462.777	683.62
462.997	707.62
463.217	720.62
463.437	701.62
463.657	675.62
463.876	666.62
464.096	670.62
464.316	662.62
464.536	671.62
464.755	669.62
464.975	662.62
465.195	628.62
465.414	633.62
465.634	611.62
465.854	580.62
466.073	586.62
466.293	590.62
466.512	558.62
466.732	577.62
466.951	558.62
467.171	567.62
467.391	570.62
467.61	561.62
467.829	548.62
468.049	556.62
468.268	560.62
468.488	564.62
468.707	557.62
468.927	545.62
469.146	567.62
469.365	576.62
469.585	558.62
469.804	571.62
470.023	586.62
470.243	564.62
470.462	541.62
470.681	550.62
470.901	574.62
471.12	578.62
471.339	561.62
471.558	567.62
471.777	566.62
471.997	555.62
472.216	548.62
472.435	573.62
472.654	550.62
472.873	561.62
473.092	575.62
473.311	574.62
473.53	571.62
473.749	582.62
473.968	589.62
474.187	563.62
474.406	577.62
474.625	568.62
474.844	574.62
475.063	591.62
475.282	568.62
475.501	594.62
475.72	590.62
475.939	594.62
476.158	607.62
476.377	603.62
476.596	601.62
476.814	626.62
477.033	619.62
477.252	619.62
477.471	630.62
477.69	634.62
477.908	619.62
478.127	648.62
478.346	646.62
478.564	649.62
478.783	641.62
479.002	670.62
479.22	656.62
479.439	675.62
479.658	666.62
479.876	660.62
480.095	690.62
480.313	697.62
480.532	672.62
480.751	672.62
480.969	687.62
481.188	667.62
481.406	641.62
481.624	676.62
481.843	642.62
482.061	670.62
482.28	681.62
482.498	653.62
482.717	672.62
482.935	676.62
483.153	661.62
483.372	668.62
483.59	666.62
483.808	675.62
484.027	682.62
484.245	688.62
484.463	668.62
484.681	691.62
484.9	692.62
485.118	678.62
485.336	694.62
485.554	665.62
485.772	666.62
485.99	683.62
486.209	683.62
486.427	704.62
486.645	654.62
486.863	711.62
487.081	690.62
487.299	678.62
487.517	696.62
487.735	683.62
487.953	691.62
488.171	698.62
488.389	678.62
488.607	698.62
488.825	700.62
489.043	700.62
489.261	675.62
489.479	681.62
489.696	678.62
489.914	677.62
490.132	688.62
490.35	720.62
490.568	694.62
490.786	706.62
491.003	720.62
491.221	702.62
491.439	712.62
491.657	738.62
491.874	710.62
492.092	742.62
492.31	699.62
492.527	733.62
492.745	731.62
492.963	727.62
493.18	708.62
493.398	735.62
493.615	707.62
493.833	710.62
494.05	744.62
494.268	732.62
494.485	745.62
494.703	712.62
494.92	726.62
495.138	732.62
495.355	747.62
495.573	724.62
495.79	746.62
496.008	750.62
496.225	742.62
496.442	738.62
496.66	772.62
496.877	765.62
497.094	760.62
497.312	771.62
497.529	793.62
497.746	796.62
497.963	825.62
498.181	842.62
498.398	864.62
498.615	866.62
498.832	922.62
499.049	952.62
499.267	987.62
499.484	1032.62
499.701	1056.62
499.918	1141.62
500.135	1186.62
500.352	1219.62
500.569	1253.62
500.786	1242.62
501.003	1219.62
501.22	1183.62
501.437	1104.62
501.654	1030.62
