Data from Fe(NO3)3@0.1M.TitratingCurve.Agarose3%dH2O.NegLispCup.LampEnergy10.LIBS07252019_HRD10591_16-40-39-333.txt Node
Date: Thu Jul 25 16:40:39 EDT 2019
User: cochatt
Spectrometer: HR+D1059
Trigger mode: 1
Integration Time (sec): 1.000000E-1
Scans to average: 1
Electric dark correction enabled: true
Nonlinearity correction enabled: false
Boxcar width: 0
XAxis mode: Wavelengths
Number of Pixels in Spectrum: 2048
>>>>>Begin Spectral Data<<<<<
223.165	-16.69
223.4	-16.69
223.635	-16.69
223.869	-23.69
224.104	-8.69
224.338	-10.69
224.573	-15.69
224.808	-2.69
225.042	-13.69
225.277	-8.69
225.511	-1.69
225.746	-0.69
225.98	0.31
226.215	15.31
226.449	13.31
226.683	21.31
226.918	23.31
227.152	29.31
227.387	41.31
227.621	32.31
227.856	36.31
228.09	47.31
228.324	54.31
228.559	53.31
228.793	69.31
229.027	92.31
229.262	81.31
229.496	81.31
229.73	100.31
229.964	100.31
230.199	109.31
230.433	96.31
230.667	93.31
230.901	102.31
231.136	110.31
231.37	111.31
231.604	115.31
231.838	118.31
232.072	118.31
232.306	94.31
232.541	122.31
232.775	102.31
233.009	109.31
233.243	123.31
233.477	97.31
233.711	118.31
233.945	104.31
234.179	117.31
234.413	127.31
234.647	117.31
234.881	109.31
235.115	94.31
235.349	119.31
235.583	119.31
235.817	116.31
236.051	122.31
236.285	114.31
236.519	117.31
236.753	110.31
236.987	105.31
237.221	113.31
237.455	124.31
237.689	112.31
237.922	118.31
238.156	135.31
238.39	123.31
238.624	122.31
238.858	108.31
239.091	105.31
239.325	108.31
239.559	111.31
239.793	136.31
240.027	127.31
240.26	127.31
240.494	125.31
240.728	114.31
240.961	123.31
241.195	123.31
241.429	117.31
241.662	123.31
241.896	122.31
242.13	119.31
242.363	128.31
242.597	125.31
242.83	137.31
243.064	129.31
243.298	128.31
243.531	124.31
243.765	137.31
243.998	126.31
244.232	119.31
244.465	143.31
244.699	128.31
244.932	142.31
245.166	131.31
245.399	141.31
245.633	137.31
245.866	142.31
246.099	132.31
246.333	143.31
246.566	129.31
246.8	143.31
247.033	137.31
247.266	137.31
247.5	144.31
247.733	131.31
247.966	150.31
248.2	159.31
248.433	135.31
248.666	143.31
248.899	146.31
249.133	139.31
249.366	131.31
249.599	157.31
249.832	150.31
250.066	161.31
250.299	126.31
250.532	163.31
250.765	137.31
250.998	157.31
251.231	160.31
251.465	158.31
251.698	152.31
251.931	153.31
252.164	165.31
252.397	146.31
252.63	161.31
252.863	157.31
253.096	166.31
253.329	153.31
253.562	144.31
253.795	160.31
254.028	157.31
254.261	165.31
254.494	144.31
254.727	162.31
254.96	171.31
255.193	175.31
255.426	150.31
255.659	166.31
255.892	167.31
256.124	168.31
256.357	160.31
256.59	153.31
256.823	166.31
257.056	165.31
257.289	172.31
257.521	166.31
257.754	168.31
257.987	160.31
258.22	186.31
258.452	175.31
258.685	161.31
258.918	166.31
259.151	171.31
259.383	180.31
259.616	165.31
259.849	179.31
260.081	185.31
260.314	180.31
260.547	174.31
260.779	178.31
261.012	182.31
261.244	187.31
261.477	191.31
261.71	192.31
261.942	181.31
262.175	171.31
262.407	181.31
262.64	176.31
262.872	190.31
263.105	200.31
263.337	179.31
263.57	202.31
263.802	182.31
264.035	186.31
264.267	185.31
264.499	196.31
264.732	192.31
264.964	198.31
265.197	177.31
265.429	180.31
265.661	195.31
265.894	198.31
266.126	191.31
266.358	196.31
266.591	194.31
266.823	191.31
267.055	198.31
267.287	213.31
267.52	199.31
267.752	215.31
267.984	203.31
268.216	202.31
268.448	189.31
268.681	203.31
268.913	210.31
269.145	205.31
269.377	195.31
269.609	198.31
269.841	185.31
270.073	209.31
270.306	199.31
270.538	199.31
270.77	217.31
271.002	219.31
271.234	217.31
271.466	205.31
271.698	199.31
271.93	217.31
272.162	200.31
272.394	209.31
272.626	209.31
272.858	214.31
273.09	206.31
273.322	212.31
273.553	208.31
273.785	220.31
274.017	247.31
274.249	214.31
274.481	220.31
274.713	223.31
274.945	235.31
275.176	232.31
275.408	215.31
275.64	222.31
275.872	215.31
276.104	211.31
276.335	228.31
276.567	221.31
276.799	234.31
277.031	231.31
277.262	238.31
277.494	220.31
277.726	240.31
277.957	224.31
278.189	223.31
278.421	233.31
278.652	228.31
278.884	228.31
279.115	228.31
279.347	227.31
279.579	228.31
279.81	219.31
280.042	224.31
280.273	241.31
280.505	245.31
280.736	231.31
280.968	247.31
281.199	237.31
281.431	234.31
281.662	246.31
281.894	254.31
282.125	234.31
282.356	259.31
282.588	251.31
282.819	251.31
283.051	228.31
283.282	252.31
283.513	238.31
283.745	239.31
283.976	231.31
284.207	241.31
284.439	248.31
284.67	247.31
284.901	257.31
285.132	259.31
285.364	254.31
285.595	260.31
285.826	247.31
286.057	249.31
286.288	244.31
286.52	264.31
286.751	247.31
286.982	266.31
287.213	243.31
287.444	263.31
287.675	248.31
287.906	260.31
288.138	274.31
288.369	261.31
288.6	277.31
288.831	268.31
289.062	260.31
289.293	273.31
289.524	265.31
289.755	268.31
289.986	267.31
290.217	273.31
290.448	255.31
290.679	250.31
290.91	261.31
291.141	251.31
291.371	245.31
291.602	254.31
291.833	264.31
292.064	273.31
292.295	256.31
292.526	278.31
292.757	268.31
292.987	261.31
293.218	269.31
293.449	271.31
293.68	271.31
293.91	266.31
294.141	262.31
294.372	274.31
294.603	264.31
294.833	291.31
295.064	283.31
295.295	284.31
295.525	274.31
295.756	264.31
295.987	281.31
296.217	265.31
296.448	279.31
296.679	288.31
296.909	283.31
297.14	280.31
297.37	288.31
297.601	319.31
297.831	294.31
298.062	286.31
298.292	284.31
298.523	288.31
298.753	302.31
298.984	297.31
299.214	286.31
299.445	288.31
299.675	288.31
299.905	277.31
300.136	288.31
300.366	297.31
300.597	292.31
300.827	309.31
301.057	286.31
301.288	300.31
301.518	293.31
301.748	307.31
301.979	305.31
302.209	305.31
302.439	298.31
302.669	301.31
302.9	295.31
303.13	310.31
303.36	321.31
303.59	300.31
303.82	303.31
304.051	300.31
304.281	302.31
304.511	303.31
304.741	285.31
304.971	307.31
305.201	316.31
305.431	314.31
305.661	295.31
305.891	298.31
306.121	282.31
306.352	289.31
306.582	310.31
306.812	301.31
307.042	287.31
307.272	301.31
307.502	294.31
307.731	323.31
307.961	309.31
308.191	329.31
308.421	302.31
308.651	293.31
308.881	287.31
309.111	320.31
309.341	302.31
309.571	301.31
309.8	289.31
310.03	310.31
310.26	295.31
310.49	300.31
310.72	302.31
310.949	295.31
311.179	309.31
311.409	309.31
311.639	321.31
311.868	295.31
312.098	299.31
312.328	307.31
312.557	317.31
312.787	300.31
313.017	317.31
313.246	319.31
313.476	298.31
313.706	299.31
313.935	323.31
314.165	319.31
314.394	341.31
314.624	331.31
314.853	325.31
315.083	330.31
315.312	325.31
315.542	308.31
315.771	325.31
316.001	325.31
316.23	318.31
316.46	299.31
316.689	321.31
316.919	323.31
317.148	340.31
317.377	311.31
317.607	311.31
317.836	302.31
318.065	310.31
318.295	327.31
318.524	313.31
318.753	329.31
318.983	325.31
319.212	308.31
319.441	315.31
319.67	329.31
319.9	332.31
320.129	315.31
320.358	318.31
320.587	306.31
320.816	316.31
321.046	338.31
321.275	333.31
321.504	315.31
321.733	321.31
321.962	322.31
322.191	315.31
322.42	314.31
322.649	312.31
322.878	332.31
323.108	333.31
323.337	325.31
323.566	322.31
323.795	333.31
324.024	313.31
324.253	329.31
324.482	330.31
324.71	359.31
324.939	341.31
325.168	331.31
325.397	341.31
325.626	341.31
325.855	345.31
326.084	357.31
326.313	341.31
326.542	331.31
326.77	343.31
326.999	344.31
327.228	345.31
327.457	336.31
327.686	332.31
327.914	356.31
328.143	356.31
328.372	345.31
328.6	337.31
328.829	349.31
329.058	356.31
329.287	373.31
329.515	357.31
329.744	351.31
329.972	355.31
330.201	359.31
330.43	348.31
330.658	353.31
330.887	372.31
331.115	361.31
331.344	367.31
331.572	362.31
331.801	378.31
332.03	377.31
332.258	387.31
332.486	396.31
332.715	411.31
332.943	398.31
333.172	416.31
333.4	423.31
333.629	422.31
333.857	457.31
334.085	431.31
334.314	416.31
334.542	395.31
334.771	439.31
334.999	425.31
335.227	423.31
335.455	425.31
335.684	430.31
335.912	412.31
336.14	422.31
336.369	428.31
336.597	393.31
336.825	387.31
337.053	430.31
337.281	435.31
337.51	396.31
337.738	387.31
337.966	378.31
338.194	383.31
338.422	374.31
338.65	375.31
338.878	376.31
339.106	384.31
339.334	384.31
339.562	381.31
339.79	372.31
340.018	371.31
340.246	382.31
340.474	387.31
340.702	356.31
340.93	368.31
341.158	364.31
341.386	380.31
341.614	368.31
341.842	399.31
342.07	367.31
342.298	379.31
342.526	379.31
342.754	379.31
342.981	362.31
343.209	377.31
343.437	399.31
343.665	411.31
343.893	425.31
344.12	443.31
344.348	393.31
344.576	390.31
344.804	369.31
345.031	383.31
345.259	365.31
345.487	375.31
345.714	368.31
345.942	365.31
346.17	361.31
346.397	347.31
346.625	365.31
346.853	350.31
347.08	362.31
347.308	369.31
347.535	367.31
347.763	349.31
347.99	358.31
348.218	367.31
348.445	371.31
348.673	367.31
348.9	363.31
349.128	360.31
349.355	345.31
349.583	373.31
349.81	348.31
350.037	367.31
350.265	350.31
350.492	337.31
350.72	352.31
350.947	345.31
351.174	338.31
351.402	352.31
351.629	347.31
351.856	333.31
352.083	353.31
352.311	343.31
352.538	349.31
352.765	350.31
352.992	347.31
353.22	350.31
353.447	353.31
353.674	343.31
353.901	338.31
354.128	362.31
354.355	355.31
354.583	350.31
354.81	346.31
355.037	330.31
355.264	345.31
355.491	367.31
355.718	343.31
355.945	368.31
356.172	341.31
356.399	339.31
356.626	350.31
356.853	368.31
357.08	355.31
357.307	350.31
357.534	331.31
357.761	363.31
357.988	357.31
358.215	348.31
358.441	349.31
358.668	345.31
358.895	366.31
359.122	347.31
359.349	357.31
359.576	348.31
359.802	351.31
360.029	357.31
360.256	346.31
360.483	354.31
360.709	358.31
360.936	363.31
361.163	342.31
361.39	339.31
361.616	358.31
361.843	353.31
362.07	359.31
362.296	349.31
362.523	344.31
362.749	352.31
362.976	337.31
363.203	343.31
363.429	329.31
363.656	345.31
363.882	376.31
364.109	343.31
364.335	351.31
364.562	353.31
364.788	349.31
365.015	331.31
365.241	351.31
365.468	358.31
365.694	330.31
365.92	356.31
366.147	329.31
366.373	340.31
366.599	355.31
366.826	380.31
367.052	364.31
367.278	361.31
367.505	355.31
367.731	354.31
367.957	373.31
368.184	337.31
368.41	353.31
368.636	355.31
368.862	344.31
369.089	380.31
369.315	371.31
369.541	363.31
369.767	351.31
369.993	373.31
370.219	359.31
370.445	371.31
370.672	389.31
370.898	374.31
371.124	373.31
371.35	384.31
371.576	369.31
371.802	384.31
372.028	381.31
372.254	381.31
372.48	392.31
372.706	381.31
372.932	393.31
373.158	400.31
373.384	394.31
373.61	408.31
373.835	372.31
374.061	386.31
374.287	402.31
374.513	420.31
374.739	394.31
374.965	399.31
375.191	398.31
375.416	409.31
375.642	402.31
375.868	394.31
376.094	402.31
376.319	382.31
376.545	404.31
376.771	403.31
376.997	369.31
377.222	353.31
377.448	380.31
377.674	389.31
377.899	348.31
378.125	371.31
378.35	397.31
378.576	389.31
378.802	391.31
379.027	367.31
379.253	391.31
379.478	366.31
379.704	374.31
379.929	381.31
380.155	373.31
380.38	359.31
380.606	355.31
380.831	401.31
381.057	391.31
381.282	372.31
381.507	367.31
381.733	383.31
381.958	377.31
382.184	402.31
382.409	394.31
382.634	372.31
382.86	410.31
383.085	390.31
383.31	406.31
383.535	404.31
383.761	424.31
383.986	423.31
384.211	416.31
384.436	429.31
384.662	421.31
384.887	439.31
385.112	440.31
385.337	431.31
385.562	451.31
385.787	457.31
386.013	455.31
386.238	446.31
386.463	455.31
386.688	469.31
386.913	477.31
387.138	433.31
387.363	431.31
387.588	445.31
387.813	453.31
388.038	444.31
388.263	441.31
388.488	446.31
388.713	454.31
388.938	447.31
389.163	444.31
389.387	437.31
389.612	445.31
389.837	445.31
390.062	442.31
390.287	456.31
390.512	451.31
390.736	440.31
390.961	465.31
391.186	463.31
391.411	487.31
391.636	485.31
391.86	483.31
392.085	485.31
392.31	484.31
392.534	480.31
392.759	508.31
392.984	465.31
393.208	473.31
393.433	453.31
393.658	453.31
393.882	470.31
394.107	473.31
394.331	480.31
394.556	487.31
394.78	479.31
395.005	465.31
395.229	488.31
395.454	512.31
395.678	487.31
395.903	492.31
396.127	521.31
396.352	486.31
396.576	473.31
396.801	478.31
397.025	504.31
397.249	503.31
397.474	530.31
397.698	517.31
397.922	492.31
398.147	507.31
398.371	533.31
398.595	524.31
398.82	567.31
399.044	563.31
399.268	617.31
399.492	678.31
399.717	725.31
399.941	719.31
400.165	679.31
400.389	623.31
400.613	582.31
400.837	587.31
401.062	588.31
401.286	585.31
401.51	580.31
401.734	559.31
401.958	561.31
402.182	553.31
402.406	552.31
402.63	569.31
402.854	553.31
403.078	550.31
403.302	583.31
403.526	581.31
403.75	607.31
403.974	622.31
404.198	606.31
404.422	617.31
404.645	585.31
404.869	606.31
405.093	614.31
405.317	589.31
405.541	606.31
405.765	577.31
405.988	599.31
406.212	607.31
406.436	580.31
406.66	617.31
406.883	633.31
407.107	665.31
407.331	638.31
407.555	675.31
407.778	681.31
408.002	654.31
408.226	655.31
408.449	641.31
408.673	636.31
408.896	601.31
409.12	628.31
409.344	627.31
409.567	599.31
409.791	619.31
410.014	620.31
410.238	589.31
410.461	601.31
410.685	603.31
410.908	611.31
411.132	592.31
411.355	576.31
411.578	596.31
411.802	604.31
412.025	588.31
412.249	603.31
412.472	595.31
412.695	576.31
412.919	552.31
413.142	569.31
413.365	560.31
413.589	567.31
413.812	550.31
414.035	571.31
414.258	570.31
414.482	561.31
414.705	547.31
414.928	565.31
415.151	572.31
415.374	590.31
415.597	559.31
415.821	549.31
416.044	560.31
416.267	563.31
416.49	544.31
416.713	561.31
416.936	563.31
417.159	572.31
417.382	547.31
417.605	539.31
417.828	560.31
418.051	529.31
418.274	531.31
418.497	551.31
418.72	547.31
418.943	555.31
419.166	596.31
419.389	618.31
419.611	599.31
419.834	592.31
420.057	577.31
420.28	561.31
420.503	527.31
420.726	528.31
420.948	528.31
421.171	535.31
421.394	563.31
421.617	559.31
421.839	555.31
422.062	542.31
422.285	525.31
422.507	536.31
422.73	565.31
422.953	542.31
423.175	561.31
423.398	580.31
423.621	555.31
423.843	574.31
424.066	567.31
424.288	574.31
424.511	563.31
424.733	568.31
424.956	551.31
425.178	553.31
425.401	566.31
425.623	542.31
425.846	537.31
426.068	532.31
426.291	538.31
426.513	534.31
426.735	532.31
426.958	503.31
427.18	535.31
427.402	526.31
427.625	480.31
427.847	511.31
428.069	519.31
428.292	506.31
428.514	515.31
428.736	510.31
428.958	510.31
429.181	505.31
429.403	502.31
429.625	470.31
429.847	479.31
430.069	499.31
430.292	501.31
430.514	484.31
430.736	490.31
430.958	491.31
431.18	492.31
431.402	495.31
431.624	500.31
431.846	501.31
432.068	511.31
432.29	508.31
432.512	510.31
432.734	518.31
432.956	524.31
433.178	515.31
433.4	525.31
433.622	503.31
433.844	535.31
434.066	518.31
434.287	508.31
434.509	526.31
434.731	556.31
434.953	533.31
435.175	561.31
435.397	548.31
435.618	540.31
435.84	531.31
436.062	504.31
436.284	513.31
436.505	504.31
436.727	514.31
436.949	506.31
437.17	500.31
437.392	496.31
437.614	501.31
437.835	501.31
438.057	489.31
438.278	479.31
438.5	477.31
438.721	489.31
438.943	491.31
439.165	492.31
439.386	493.31
439.608	494.31
439.829	500.31
440.05	508.31
440.272	506.31
440.493	512.31
440.715	515.31
440.936	541.31
441.158	555.31
441.379	559.31
441.6	558.31
441.822	567.31
442.043	556.31
442.264	533.31
442.486	544.31
442.707	545.31
442.928	566.31
443.149	567.31
443.371	540.31
443.592	539.31
443.813	574.31
444.034	559.31
444.255	565.31
444.476	601.31
444.698	625.31
444.919	628.31
445.14	697.31
445.361	628.31
445.582	584.31
445.803	565.31
446.024	536.31
446.245	556.31
446.466	544.31
446.687	518.31
446.908	535.31
447.129	519.31
447.35	509.31
447.571	503.31
447.792	512.31
448.013	501.31
448.234	494.31
448.455	509.31
448.675	501.31
448.896	492.31
449.117	474.31
449.338	485.31
449.559	489.31
449.779	470.31
450	486.31
450.221	501.31
450.442	489.31
450.662	483.31
450.883	471.31
451.104	481.31
451.324	472.31
451.545	477.31
451.766	488.31
451.986	476.31
452.207	455.31
452.428	474.31
452.648	475.31
452.869	474.31
453.089	457.31
453.31	457.31
453.53	470.31
453.751	452.31
453.971	455.31
454.192	454.31
454.412	428.31
454.633	432.31
454.853	431.31
455.073	456.31
455.294	454.31
455.514	472.31
455.734	459.31
455.955	423.31
456.175	476.31
456.395	441.31
456.616	457.31
456.836	444.31
457.056	458.31
457.276	440.31
457.497	475.31
457.717	443.31
457.937	459.31
458.157	457.31
458.377	448.31
458.598	461.31
458.818	481.31
459.038	457.31
459.258	477.31
459.478	505.31
459.698	521.31
459.918	520.31
460.138	537.31
460.358	580.31
460.578	544.31
460.798	580.31
461.018	574.31
461.238	558.31
461.458	566.31
461.678	582.31
461.898	591.31
462.118	567.31
462.338	610.31
462.558	601.31
462.777	651.31
462.997	675.31
463.217	698.31
463.437	743.31
463.657	656.31
463.876	646.31
464.096	641.31
464.316	653.31
464.536	641.31
464.755	635.31
464.975	602.31
465.195	579.31
465.414	565.31
465.634	538.31
465.854	515.31
466.073	527.31
466.293	524.31
466.512	508.31
466.732	487.31
466.951	503.31
467.171	482.31
467.391	458.31
467.61	492.31
467.829	488.31
468.049	488.31
468.268	502.31
468.488	479.31
468.707	478.31
468.927	467.31
469.146	480.31
469.365	492.31
469.585	474.31
469.804	496.31
470.023	493.31
470.243	493.31
470.462	511.31
470.681	489.31
470.901	500.31
471.12	494.31
471.339	492.31
471.558	480.31
471.777	483.31
471.997	490.31
472.216	481.31
472.435	473.31
472.654	466.31
472.873	457.31
473.092	469.31
473.311	464.31
473.53	485.31
473.749	468.31
473.968	468.31
474.187	475.31
474.406	470.31
474.625	476.31
474.844	467.31
475.063	474.31
475.282	455.31
475.501	469.31
475.72	465.31
475.939	503.31
476.158	480.31
476.377	479.31
476.596	490.31
476.814	493.31
477.033	491.31
477.252	477.31
477.471	514.31
477.69	535.31
477.908	517.31
478.127	539.31
478.346	505.31
478.564	550.31
478.783	541.31
479.002	553.31
479.22	553.31
479.439	568.31
479.658	544.31
479.876	538.31
480.095	567.31
480.313	577.31
480.532	599.31
480.751	560.31
480.969	554.31
481.188	545.31
481.406	538.31
481.624	541.31
481.843	521.31
482.061	540.31
482.28	513.31
482.498	512.31
482.717	525.31
482.935	518.31
483.153	529.31
483.372	541.31
483.59	540.31
483.808	505.31
484.027	530.31
484.245	509.31
484.463	539.31
484.681	544.31
484.9	533.31
485.118	531.31
485.336	513.31
485.554	540.31
485.772	517.31
485.99	522.31
486.209	542.31
486.427	532.31
486.645	526.31
486.863	559.31
487.081	557.31
487.299	525.31
487.517	549.31
487.735	567.31
487.953	535.31
488.171	552.31
488.389	550.31
488.607	537.31
488.825	519.31
489.043	543.31
489.261	523.31
489.479	537.31
489.696	531.31
489.914	536.31
490.132	548.31
490.35	508.31
490.568	534.31
490.786	517.31
491.003	539.31
491.221	573.31
491.439	560.31
491.657	552.31
491.874	576.31
492.092	556.31
492.31	553.31
492.527	560.31
492.745	558.31
492.963	579.31
493.18	565.31
493.398	575.31
493.615	567.31
493.833	583.31
494.05	545.31
494.268	558.31
494.485	563.31
494.703	572.31
494.92	583.31
495.138	573.31
495.355	570.31
495.573	568.31
495.79	575.31
496.008	577.31
496.225	568.31
496.442	580.31
496.66	599.31
496.877	593.31
497.094	619.31
497.312	617.31
497.529	627.31
497.746	639.31
497.963	668.31
498.181	678.31
498.398	710.31
498.615	741.31
498.832	753.31
499.049	799.31
499.267	858.31
499.484	895.31
499.701	986.31
499.918	1064.31
500.135	1172.31
500.352	1303.31
500.569	1309.31
500.786	1306.31
501.003	1237.31
501.22	1159.31
501.437	1048.31
501.654	953.31
