Data from Fe(NO3)3@0.025M.TitratingCurve.Agarose3%dH2O.NegLispCup.LampEnergy10.LIBS07252019_HRD10591_16-53-57-335.txt Node
Date: Thu Jul 25 16:53:57 EDT 2019
User: cochatt
Spectrometer: HR+D1059
Trigger mode: 1
Integration Time (sec): 1.000000E-1
Scans to average: 1
Electric dark correction enabled: true
Nonlinearity correction enabled: false
Boxcar width: 0
XAxis mode: Wavelengths
Number of Pixels in Spectrum: 2048
>>>>>Begin Spectral Data<<<<<
223.165	-20.62
223.4	-20.62
223.635	-20.62
223.869	-13.62
224.104	-14.62
224.338	-14.62
224.573	-23.62
224.808	-22.62
225.042	-4.62
225.277	7.38
225.511	2.38
225.746	10.38
225.98	3.38
226.215	3.38
226.449	10.38
226.683	24.38
226.918	27.38
227.152	25.38
227.387	33.38
227.621	36.38
227.856	52.38
228.09	39.38
228.324	47.38
228.559	60.38
228.793	42.38
229.027	70.38
229.262	68.38
229.496	73.38
229.73	91.38
229.964	72.38
230.199	89.38
230.433	81.38
230.667	69.38
230.901	93.38
231.136	90.38
231.37	97.38
231.604	98.38
231.838	92.38
232.072	86.38
232.306	89.38
232.541	88.38
232.775	97.38
233.009	112.38
233.243	94.38
233.477	95.38
233.711	85.38
233.945	95.38
234.179	87.38
234.413	105.38
234.647	107.38
234.881	94.38
235.115	89.38
235.349	88.38
235.583	106.38
235.817	100.38
236.051	92.38
236.285	93.38
236.519	95.38
236.753	91.38
236.987	94.38
237.221	100.38
237.455	93.38
237.689	97.38
237.922	86.38
238.156	94.38
238.39	110.38
238.624	116.38
238.858	112.38
239.091	107.38
239.325	90.38
239.559	95.38
239.793	110.38
240.027	107.38
240.26	109.38
240.494	116.38
240.728	121.38
240.961	113.38
241.195	103.38
241.429	122.38
241.662	101.38
241.896	118.38
242.13	101.38
242.363	102.38
242.597	104.38
242.83	113.38
243.064	119.38
243.298	111.38
243.531	111.38
243.765	107.38
243.998	117.38
244.232	110.38
244.465	114.38
244.699	106.38
244.932	124.38
245.166	119.38
245.399	116.38
245.633	119.38
245.866	98.38
246.099	108.38
246.333	127.38
246.566	116.38
246.8	126.38
247.033	126.38
247.266	111.38
247.5	124.38
247.733	118.38
247.966	119.38
248.2	105.38
248.433	128.38
248.666	126.38
248.899	130.38
249.133	127.38
249.366	127.38
249.599	114.38
249.832	124.38
250.066	134.38
250.299	121.38
250.532	118.38
250.765	125.38
250.998	124.38
251.231	111.38
251.465	123.38
251.698	123.38
251.931	120.38
252.164	110.38
252.397	126.38
252.63	141.38
252.863	130.38
253.096	134.38
253.329	132.38
253.562	132.38
253.795	125.38
254.028	134.38
254.261	128.38
254.494	143.38
254.727	136.38
254.96	122.38
255.193	134.38
255.426	134.38
255.659	131.38
255.892	147.38
256.124	136.38
256.357	136.38
256.59	141.38
256.823	135.38
257.056	141.38
257.289	130.38
257.521	132.38
257.754	138.38
257.987	137.38
258.22	145.38
258.452	134.38
258.685	147.38
258.918	135.38
259.151	153.38
259.383	138.38
259.616	138.38
259.849	140.38
260.081	146.38
260.314	138.38
260.547	138.38
260.779	128.38
261.012	136.38
261.244	137.38
261.477	151.38
261.71	151.38
261.942	161.38
262.175	142.38
262.407	154.38
262.64	139.38
262.872	146.38
263.105	159.38
263.337	158.38
263.57	174.38
263.802	164.38
264.035	156.38
264.267	137.38
264.499	158.38
264.732	158.38
264.964	153.38
265.197	156.38
265.429	168.38
265.661	165.38
265.894	147.38
266.126	165.38
266.358	150.38
266.591	147.38
266.823	156.38
267.055	162.38
267.287	144.38
267.52	155.38
267.752	158.38
267.984	162.38
268.216	158.38
268.448	154.38
268.681	145.38
268.913	152.38
269.145	161.38
269.377	163.38
269.609	151.38
269.841	164.38
270.073	158.38
270.306	163.38
270.538	159.38
270.77	169.38
271.002	175.38
271.234	166.38
271.466	170.38
271.698	170.38
271.93	177.38
272.162	172.38
272.394	174.38
272.626	189.38
272.858	171.38
273.09	160.38
273.322	159.38
273.553	152.38
273.785	179.38
274.017	179.38
274.249	169.38
274.481	175.38
274.713	195.38
274.945	181.38
275.176	201.38
275.408	189.38
275.64	198.38
275.872	175.38
276.104	176.38
276.335	194.38
276.567	196.38
276.799	176.38
277.031	184.38
277.262	188.38
277.494	168.38
277.726	184.38
277.957	182.38
278.189	174.38
278.421	167.38
278.652	182.38
278.884	184.38
279.115	186.38
279.347	189.38
279.579	204.38
279.81	202.38
280.042	184.38
280.273	197.38
280.505	218.38
280.736	177.38
280.968	184.38
281.199	190.38
281.431	217.38
281.662	206.38
281.894	198.38
282.125	198.38
282.356	193.38
282.588	193.38
282.819	198.38
283.051	192.38
283.282	179.38
283.513	190.38
283.745	192.38
283.976	212.38
284.207	196.38
284.439	201.38
284.67	190.38
284.901	201.38
285.132	196.38
285.364	198.38
285.595	209.38
285.826	209.38
286.057	224.38
286.288	195.38
286.52	207.38
286.751	216.38
286.982	184.38
287.213	213.38
287.444	213.38
287.675	211.38
287.906	201.38
288.138	212.38
288.369	225.38
288.6	186.38
288.831	204.38
289.062	219.38
289.293	211.38
289.524	218.38
289.755	208.38
289.986	204.38
290.217	214.38
290.448	230.38
290.679	215.38
290.91	222.38
291.141	219.38
291.371	221.38
291.602	193.38
291.833	210.38
292.064	219.38
292.295	207.38
292.526	227.38
292.757	209.38
292.987	229.38
293.218	225.38
293.449	223.38
293.68	225.38
293.91	200.38
294.141	208.38
294.372	216.38
294.603	224.38
294.833	202.38
295.064	226.38
295.295	219.38
295.525	222.38
295.756	229.38
295.987	222.38
296.217	234.38
296.448	225.38
296.679	235.38
296.909	221.38
297.14	225.38
297.37	215.38
297.601	246.38
297.831	222.38
298.062	238.38
298.292	240.38
298.523	230.38
298.753	229.38
298.984	238.38
299.214	218.38
299.445	219.38
299.675	249.38
299.905	239.38
300.136	255.38
300.366	230.38
300.597	235.38
300.827	219.38
301.057	249.38
301.288	235.38
301.518	244.38
301.748	256.38
301.979	252.38
302.209	251.38
302.439	239.38
302.669	239.38
302.9	253.38
303.13	240.38
303.36	247.38
303.59	246.38
303.82	253.38
304.051	270.38
304.281	250.38
304.511	248.38
304.741	247.38
304.971	245.38
305.201	240.38
305.431	222.38
305.661	256.38
305.891	258.38
306.121	247.38
306.352	248.38
306.582	257.38
306.812	252.38
307.042	254.38
307.272	235.38
307.502	242.38
307.731	248.38
307.961	246.38
308.191	255.38
308.421	264.38
308.651	269.38
308.881	238.38
309.111	245.38
309.341	240.38
309.571	258.38
309.8	238.38
310.03	254.38
310.26	239.38
310.49	250.38
310.72	250.38
310.949	274.38
311.179	248.38
311.409	233.38
311.639	275.38
311.868	262.38
312.098	269.38
312.328	267.38
312.557	272.38
312.787	262.38
313.017	266.38
313.246	257.38
313.476	263.38
313.706	286.38
313.935	264.38
314.165	265.38
314.394	263.38
314.624	268.38
314.853	243.38
315.083	276.38
315.312	273.38
315.542	276.38
315.771	275.38
316.001	282.38
316.23	275.38
316.46	264.38
316.689	269.38
316.919	272.38
317.148	275.38
317.377	276.38
317.607	259.38
317.836	270.38
318.065	283.38
318.295	287.38
318.524	261.38
318.753	280.38
318.983	280.38
319.212	291.38
319.441	278.38
319.67	273.38
319.9	268.38
320.129	256.38
320.358	274.38
320.587	289.38
320.816	274.38
321.046	286.38
321.275	288.38
321.504	290.38
321.733	300.38
321.962	299.38
322.191	271.38
322.42	316.38
322.649	296.38
322.878	292.38
323.108	292.38
323.337	303.38
323.566	289.38
323.795	294.38
324.024	301.38
324.253	300.38
324.482	298.38
324.71	302.38
324.939	297.38
325.168	291.38
325.397	296.38
325.626	275.38
325.855	291.38
326.084	304.38
326.313	305.38
326.542	298.38
326.77	303.38
326.999	309.38
327.228	310.38
327.457	304.38
327.686	310.38
327.914	297.38
328.143	297.38
328.372	286.38
328.6	321.38
328.829	296.38
329.058	322.38
329.287	299.38
329.515	295.38
329.744	303.38
329.972	307.38
330.201	312.38
330.43	304.38
330.658	308.38
330.887	316.38
331.115	276.38
331.344	320.38
331.572	318.38
331.801	317.38
332.03	307.38
332.258	317.38
332.486	336.38
332.715	318.38
332.943	327.38
333.172	340.38
333.4	333.38
333.629	346.38
333.857	363.38
334.085	331.38
334.314	347.38
334.542	358.38
334.771	349.38
334.999	356.38
335.227	339.38
335.455	328.38
335.684	340.38
335.912	342.38
336.14	347.38
336.369	335.38
336.597	351.38
336.825	330.38
337.053	347.38
337.281	348.38
337.51	335.38
337.738	347.38
337.966	348.38
338.194	325.38
338.422	346.38
338.65	340.38
338.878	331.38
339.106	339.38
339.334	329.38
339.562	331.38
339.79	330.38
340.018	331.38
340.246	305.38
340.474	299.38
340.702	336.38
340.93	320.38
341.158	315.38
341.386	306.38
341.614	320.38
341.842	336.38
342.07	328.38
342.298	312.38
342.526	332.38
342.754	330.38
342.981	333.38
343.209	326.38
343.437	329.38
343.665	336.38
343.893	334.38
344.12	352.38
344.348	338.38
344.576	342.38
344.804	361.38
345.031	321.38
345.259	342.38
345.487	321.38
345.714	338.38
345.942	331.38
346.17	324.38
346.397	313.38
346.625	328.38
346.853	312.38
347.08	333.38
347.308	316.38
347.535	299.38
347.763	310.38
347.99	304.38
348.218	300.38
348.445	296.38
348.673	300.38
348.9	332.38
349.128	324.38
349.355	306.38
349.583	291.38
349.81	306.38
350.037	313.38
350.265	321.38
350.492	290.38
350.72	319.38
350.947	306.38
351.174	309.38
351.402	316.38
351.629	315.38
351.856	302.38
352.083	297.38
352.311	318.38
352.538	294.38
352.765	282.38
352.992	313.38
353.22	306.38
353.447	314.38
353.674	311.38
353.901	316.38
354.128	296.38
354.355	300.38
354.583	303.38
354.81	310.38
355.037	305.38
355.264	300.38
355.491	315.38
355.718	296.38
355.945	309.38
356.172	300.38
356.399	310.38
356.626	304.38
356.853	317.38
357.08	321.38
357.307	303.38
357.534	315.38
357.761	307.38
357.988	308.38
358.215	320.38
358.441	311.38
358.668	319.38
358.895	331.38
359.122	312.38
359.349	294.38
359.576	289.38
359.802	317.38
360.029	310.38
360.256	315.38
360.483	308.38
360.709	303.38
360.936	320.38
361.163	324.38
361.39	300.38
361.616	308.38
361.843	315.38
362.07	310.38
362.296	306.38
362.523	319.38
362.749	295.38
362.976	310.38
363.203	323.38
363.429	299.38
363.656	317.38
363.882	320.38
364.109	321.38
364.335	312.38
364.562	318.38
364.788	322.38
365.015	339.38
365.241	312.38
365.468	309.38
365.694	321.38
365.92	319.38
366.147	312.38
366.373	329.38
366.599	316.38
366.826	318.38
367.052	311.38
367.278	341.38
367.505	320.38
367.731	340.38
367.957	331.38
368.184	333.38
368.41	328.38
368.636	335.38
368.862	317.38
369.089	322.38
369.315	321.38
369.541	326.38
369.767	338.38
369.993	331.38
370.219	324.38
370.445	324.38
370.672	334.38
370.898	340.38
371.124	340.38
371.35	339.38
371.576	327.38
371.802	332.38
372.028	335.38
372.254	321.38
372.48	345.38
372.706	353.38
372.932	344.38
373.158	329.38
373.384	378.38
373.61	361.38
373.835	352.38
374.061	345.38
374.287	340.38
374.513	366.38
374.739	357.38
374.965	364.38
375.191	359.38
375.416	355.38
375.642	337.38
375.868	338.38
376.094	351.38
376.319	342.38
376.545	350.38
376.771	337.38
376.997	355.38
377.222	347.38
377.448	325.38
377.674	322.38
377.899	353.38
378.125	350.38
378.35	331.38
378.576	344.38
378.802	342.38
379.027	333.38
379.253	339.38
379.478	330.38
379.704	330.38
379.929	339.38
380.155	338.38
380.38	327.38
380.606	357.38
380.831	341.38
381.057	336.38
381.282	326.38
381.507	338.38
381.733	346.38
381.958	359.38
382.184	386.38
382.409	358.38
382.634	357.38
382.86	350.38
383.085	369.38
383.31	362.38
383.535	349.38
383.761	362.38
383.986	360.38
384.211	391.38
384.436	354.38
384.662	369.38
384.887	342.38
385.112	366.38
385.337	374.38
385.562	364.38
385.787	362.38
386.013	385.38
386.238	372.38
386.463	380.38
386.688	402.38
386.913	379.38
387.138	387.38
387.363	381.38
387.588	392.38
387.813	407.38
388.038	402.38
388.263	411.38
388.488	397.38
388.713	395.38
388.938	406.38
389.163	384.38
389.387	395.38
389.612	393.38
389.837	393.38
390.062	380.38
390.287	391.38
390.512	376.38
390.736	379.38
390.961	391.38
391.186	408.38
391.411	416.38
391.636	397.38
391.86	411.38
392.085	435.38
392.31	386.38
392.534	398.38
392.759	392.38
392.984	390.38
393.208	419.38
393.433	414.38
393.658	401.38
393.882	404.38
394.107	404.38
394.331	411.38
394.556	421.38
394.78	401.38
395.005	401.38
395.229	419.38
395.454	404.38
395.678	434.38
395.903	427.38
396.127	429.38
396.352	438.38
396.576	417.38
396.801	410.38
397.025	436.38
397.249	433.38
397.474	436.38
397.698	439.38
397.922	439.38
398.147	448.38
398.371	438.38
398.595	445.38
398.82	442.38
399.044	453.38
399.268	480.38
399.492	510.38
399.717	530.38
399.941	535.38
400.165	518.38
400.389	534.38
400.613	492.38
400.837	481.38
401.062	495.38
401.286	484.38
401.51	421.38
401.734	450.38
401.958	462.38
402.182	438.38
402.406	460.38
402.63	463.38
402.854	444.38
403.078	441.38
403.302	453.38
403.526	440.38
403.75	460.38
403.974	484.38
404.198	465.38
404.422	475.38
404.645	467.38
404.869	465.38
405.093	475.38
405.317	437.38
405.541	467.38
405.765	478.38
405.988	473.38
406.212	467.38
406.436	508.38
406.66	517.38
406.883	486.38
407.107	510.38
407.331	527.38
407.555	542.38
407.778	522.38
408.002	540.38
408.226	522.38
408.449	522.38
408.673	517.38
408.896	513.38
409.12	489.38
409.344	503.38
409.567	484.38
409.791	454.38
410.014	493.38
410.238	470.38
410.461	499.38
410.685	489.38
410.908	473.38
411.132	486.38
411.355	464.38
411.578	472.38
411.802	477.38
412.025	475.38
412.249	468.38
412.472	479.38
412.695	484.38
412.919	470.38
413.142	452.38
413.365	454.38
413.589	471.38
413.812	452.38
414.035	456.38
414.258	464.38
414.482	459.38
414.705	460.38
414.928	477.38
415.151	439.38
415.374	440.38
415.597	446.38
415.821	436.38
416.044	438.38
416.267	444.38
416.49	466.38
416.713	444.38
416.936	420.38
417.159	449.38
417.382	428.38
417.605	423.38
417.828	455.38
418.051	452.38
418.274	445.38
418.497	446.38
418.72	446.38
418.943	449.38
419.166	480.38
419.389	487.38
419.611	473.38
419.834	466.38
420.057	459.38
420.28	435.38
420.503	422.38
420.726	449.38
420.948	437.38
421.171	456.38
421.394	444.38
421.617	423.38
421.839	452.38
422.062	432.38
422.285	444.38
422.507	442.38
422.73	450.38
422.953	411.38
423.175	437.38
423.398	455.38
423.621	450.38
423.843	427.38
424.066	426.38
424.288	440.38
424.511	426.38
424.733	448.38
424.956	432.38
425.178	432.38
425.401	422.38
425.623	433.38
425.846	425.38
426.068	438.38
426.291	422.38
426.513	433.38
426.735	445.38
426.958	435.38
427.18	396.38
427.402	424.38
427.625	431.38
427.847	409.38
428.069	428.38
428.292	434.38
428.514	412.38
428.736	421.38
428.958	421.38
429.181	413.38
429.403	425.38
429.625	414.38
429.847	395.38
430.069	416.38
430.292	422.38
430.514	426.38
430.736	421.38
430.958	402.38
431.18	416.38
431.402	436.38
431.624	408.38
431.846	422.38
432.068	426.38
432.29	427.38
432.512	418.38
432.734	426.38
432.956	410.38
433.178	425.38
433.4	425.38
433.622	424.38
433.844	441.38
434.066	438.38
434.287	416.38
434.509	430.38
434.731	423.38
434.953	430.38
435.175	432.38
435.397	438.38
435.618	415.38
435.84	430.38
436.062	423.38
436.284	424.38
436.505	416.38
436.727	422.38
436.949	410.38
437.17	419.38
437.392	410.38
437.614	397.38
437.835	391.38
438.057	425.38
438.278	394.38
438.5	401.38
438.721	416.38
438.943	393.38
439.165	406.38
439.386	421.38
439.608	417.38
439.829	401.38
440.05	407.38
440.272	402.38
440.493	404.38
440.715	423.38
440.936	399.38
441.158	401.38
441.379	412.38
441.6	435.38
441.822	438.38
442.043	435.38
442.264	426.38
442.486	424.38
442.707	429.38
442.928	430.38
443.149	428.38
443.371	422.38
443.592	424.38
443.813	434.38
444.034	435.38
444.255	451.38
444.476	451.38
444.698	433.38
444.919	457.38
445.14	574.38
445.361	489.38
445.582	415.38
445.803	432.38
446.024	414.38
446.245	426.38
446.466	437.38
446.687	412.38
446.908	416.38
447.129	433.38
447.35	408.38
447.571	405.38
447.792	386.38
448.013	415.38
448.234	396.38
448.455	402.38
448.675	376.38
448.896	384.38
449.117	377.38
449.338	415.38
449.559	389.38
449.779	385.38
450	390.38
450.221	387.38
450.442	366.38
450.662	370.38
450.883	382.38
451.104	379.38
451.324	370.38
451.545	390.38
451.766	380.38
451.986	370.38
452.207	376.38
452.428	379.38
452.648	376.38
452.869	379.38
453.089	348.38
453.31	395.38
453.53	370.38
453.751	393.38
453.971	392.38
454.192	358.38
454.412	352.38
454.633	379.38
454.853	357.38
455.073	360.38
455.294	376.38
455.514	363.38
455.734	370.38
455.955	373.38
456.175	375.38
456.395	368.38
456.616	377.38
456.836	377.38
457.056	385.38
457.276	383.38
457.497	377.38
457.717	372.38
457.937	382.38
458.157	379.38
458.377	392.38
458.598	380.38
458.818	399.38
459.038	418.38
459.258	384.38
459.478	404.38
459.698	415.38
459.918	435.38
460.138	412.38
460.358	446.38
460.578	445.38
460.798	453.38
461.018	455.38
461.238	447.38
461.458	466.38
461.678	473.38
461.898	459.38
462.118	444.38
462.338	472.38
462.558	471.38
462.777	483.38
462.997	502.38
463.217	507.38
463.437	520.38
463.657	500.38
463.876	491.38
464.096	491.38
464.316	485.38
464.536	474.38
464.755	474.38
464.975	476.38
465.195	482.38
465.414	449.38
465.634	426.38
465.854	435.38
466.073	417.38
466.293	419.38
466.512	426.38
466.732	408.38
466.951	409.38
467.171	404.38
467.391	402.38
467.61	410.38
467.829	412.38
468.049	387.38
468.268	380.38
468.488	396.38
468.707	375.38
468.927	389.38
469.146	408.38
469.365	409.38
469.585	404.38
469.804	402.38
470.023	409.38
470.243	423.38
470.462	392.38
470.681	406.38
470.901	392.38
471.12	390.38
471.339	407.38
471.558	407.38
471.777	424.38
471.997	413.38
472.216	410.38
472.435	396.38
472.654	407.38
472.873	402.38
473.092	397.38
473.311	397.38
473.53	404.38
473.749	399.38
473.968	383.38
474.187	396.38
474.406	391.38
474.625	403.38
474.844	411.38
475.063	417.38
475.282	396.38
475.501	395.38
475.72	414.38
475.939	421.38
476.158	422.38
476.377	411.38
476.596	415.38
476.814	450.38
477.033	416.38
477.252	411.38
477.471	432.38
477.69	445.38
477.908	444.38
478.127	446.38
478.346	448.38
478.564	463.38
478.783	448.38
479.002	465.38
479.22	460.38
479.439	485.38
479.658	484.38
479.876	449.38
480.095	493.38
480.313	509.38
480.532	482.38
480.751	478.38
480.969	467.38
481.188	472.38
481.406	472.38
481.624	488.38
481.843	467.38
482.061	470.38
482.28	479.38
482.498	487.38
482.717	448.38
482.935	480.38
483.153	442.38
483.372	446.38
483.59	446.38
483.808	454.38
484.027	479.38
484.245	458.38
484.463	449.38
484.681	454.38
484.9	484.38
485.118	474.38
485.336	461.38
485.554	487.38
485.772	479.38
485.99	467.38
486.209	464.38
486.427	468.38
486.645	474.38
486.863	512.38
487.081	479.38
487.299	499.38
487.517	496.38
487.735	474.38
487.953	504.38
488.171	468.38
488.389	487.38
488.607	467.38
488.825	450.38
489.043	499.38
489.261	476.38
489.479	477.38
489.696	459.38
489.914	472.38
490.132	492.38
490.35	493.38
490.568	486.38
490.786	462.38
491.003	484.38
491.221	474.38
491.439	506.38
491.657	490.38
491.874	484.38
492.092	490.38
492.31	464.38
492.527	488.38
492.745	491.38
492.963	495.38
493.18	516.38
493.398	489.38
493.615	493.38
493.833	502.38
494.05	502.38
494.268	502.38
494.485	498.38
494.703	488.38
494.92	486.38
495.138	528.38
495.355	519.38
495.573	515.38
495.79	518.38
496.008	520.38
496.225	523.38
496.442	523.38
496.66	533.38
496.877	546.38
497.094	562.38
497.312	534.38
497.529	556.38
497.746	563.38
497.963	594.38
498.181	613.38
498.398	618.38
498.615	636.38
498.832	653.38
499.049	673.38
499.267	678.38
499.484	718.38
499.701	734.38
499.918	795.38
500.135	827.38
500.352	835.38
500.569	857.38
500.786	891.38
501.003	847.38
501.22	827.38
501.437	793.38
501.654	751.38
501.871	704.38
502.088	714.38
