Data from Fe(NO3)3@0.1M.TitratingCurve.Agarose3%dH2O.NegLispCup.LampEnergy10.LIBS07252019_HRD10591_16-42-16-334.txt Node
Date: Thu Jul 25 16:42:16 EDT 2019
User: cochatt
Spectrometer: HR+D1059
Trigger mode: 1
Integration Time (sec): 1.000000E-1
Scans to average: 1
Electric dark correction enabled: true
Nonlinearity correction enabled: false
Boxcar width: 0
XAxis mode: Wavelengths
Number of Pixels in Spectrum: 2048
>>>>>Begin Spectral Data<<<<<
223.165	-13.5
223.4	-13.5
223.635	-13.5
223.869	-10.5
224.104	-14.5
224.338	-22.5
224.573	-27.5
224.808	-20.5
225.042	3.5
225.277	7.5
225.511	-9.5
225.746	-8.5
225.98	3.5
226.215	8.5
226.449	18.5
226.683	20.5
226.918	23.5
227.152	41.5
227.387	37.5
227.621	33.5
227.856	28.5
228.09	42.5
228.324	60.5
228.559	58.5
228.793	72.5
229.027	77.5
229.262	80.5
229.496	57.5
229.73	78.5
229.964	75.5
230.199	75.5
230.433	87.5
230.667	75.5
230.901	94.5
231.136	91.5
231.37	78.5
231.604	90.5
231.838	88.5
232.072	91.5
232.306	98.5
232.541	94.5
232.775	84.5
233.009	92.5
233.243	89.5
233.477	103.5
233.711	87.5
233.945	91.5
234.179	90.5
234.413	98.5
234.647	99.5
234.881	97.5
235.115	87.5
235.349	88.5
235.583	84.5
235.817	89.5
236.051	91.5
236.285	84.5
236.519	82.5
236.753	92.5
236.987	90.5
237.221	87.5
237.455	89.5
237.689	104.5
237.922	94.5
238.156	81.5
238.39	76.5
238.624	84.5
238.858	91.5
239.091	81.5
239.325	90.5
239.559	90.5
239.793	95.5
240.027	97.5
240.26	92.5
240.494	92.5
240.728	90.5
240.961	92.5
241.195	86.5
241.429	84.5
241.662	89.5
241.896	89.5
242.13	102.5
242.363	88.5
242.597	98.5
242.83	90.5
243.064	87.5
243.298	97.5
243.531	89.5
243.765	96.5
243.998	93.5
244.232	89.5
244.465	99.5
244.699	96.5
244.932	90.5
245.166	106.5
245.399	106.5
245.633	74.5
245.866	95.5
246.099	94.5
246.333	86.5
246.566	101.5
246.8	97.5
247.033	91.5
247.266	89.5
247.5	74.5
247.733	102.5
247.966	92.5
248.2	88.5
248.433	78.5
248.666	98.5
248.899	99.5
249.133	109.5
249.366	104.5
249.599	106.5
249.832	94.5
250.066	87.5
250.299	86.5
250.532	97.5
250.765	99.5
250.998	109.5
251.231	90.5
251.465	91.5
251.698	95.5
251.931	91.5
252.164	95.5
252.397	84.5
252.63	104.5
252.863	102.5
253.096	105.5
253.329	101.5
253.562	104.5
253.795	97.5
254.028	88.5
254.261	107.5
254.494	92.5
254.727	96.5
254.96	109.5
255.193	108.5
255.426	102.5
255.659	89.5
255.892	115.5
256.124	108.5
256.357	102.5
256.59	107.5
256.823	101.5
257.056	99.5
257.289	106.5
257.521	99.5
257.754	93.5
257.987	106.5
258.22	105.5
258.452	99.5
258.685	105.5
258.918	103.5
259.151	109.5
259.383	96.5
259.616	91.5
259.849	103.5
260.081	121.5
260.314	107.5
260.547	108.5
260.779	130.5
261.012	101.5
261.244	115.5
261.477	116.5
261.71	107.5
261.942	107.5
262.175	102.5
262.407	102.5
262.64	102.5
262.872	100.5
263.105	107.5
263.337	125.5
263.57	116.5
263.802	110.5
264.035	104.5
264.267	116.5
264.499	115.5
264.732	100.5
264.964	104.5
265.197	102.5
265.429	116.5
265.661	117.5
265.894	110.5
266.126	109.5
266.358	118.5
266.591	116.5
266.823	99.5
267.055	97.5
267.287	122.5
267.52	101.5
267.752	110.5
267.984	101.5
268.216	110.5
268.448	105.5
268.681	117.5
268.913	114.5
269.145	109.5
269.377	112.5
269.609	115.5
269.841	107.5
270.073	117.5
270.306	111.5
270.538	129.5
270.77	111.5
271.002	108.5
271.234	104.5
271.466	114.5
271.698	110.5
271.93	103.5
272.162	123.5
272.394	107.5
272.626	117.5
272.858	111.5
273.09	141.5
273.322	110.5
273.553	120.5
273.785	116.5
274.017	105.5
274.249	125.5
274.481	121.5
274.713	133.5
274.945	120.5
275.176	129.5
275.408	128.5
275.64	127.5
275.872	120.5
276.104	127.5
276.335	134.5
276.567	114.5
276.799	104.5
277.031	125.5
277.262	118.5
277.494	124.5
277.726	127.5
277.957	127.5
278.189	109.5
278.421	113.5
278.652	121.5
278.884	118.5
279.115	131.5
279.347	114.5
279.579	120.5
279.81	130.5
280.042	128.5
280.273	125.5
280.505	120.5
280.736	137.5
280.968	125.5
281.199	111.5
281.431	131.5
281.662	125.5
281.894	128.5
282.125	121.5
282.356	125.5
282.588	115.5
282.819	126.5
283.051	121.5
283.282	115.5
283.513	134.5
283.745	143.5
283.976	138.5
284.207	134.5
284.439	134.5
284.67	126.5
284.901	130.5
285.132	110.5
285.364	128.5
285.595	123.5
285.826	126.5
286.057	133.5
286.288	133.5
286.52	131.5
286.751	133.5
286.982	133.5
287.213	118.5
287.444	127.5
287.675	129.5
287.906	159.5
288.138	141.5
288.369	126.5
288.6	133.5
288.831	129.5
289.062	130.5
289.293	122.5
289.524	126.5
289.755	108.5
289.986	129.5
290.217	135.5
290.448	134.5
290.679	129.5
290.91	134.5
291.141	141.5
291.371	132.5
291.602	137.5
291.833	131.5
292.064	131.5
292.295	139.5
292.526	143.5
292.757	166.5
292.987	144.5
293.218	127.5
293.449	142.5
293.68	140.5
293.91	138.5
294.141	145.5
294.372	151.5
294.603	156.5
294.833	138.5
295.064	151.5
295.295	129.5
295.525	144.5
295.756	129.5
295.987	131.5
296.217	146.5
296.448	139.5
296.679	147.5
296.909	141.5
297.14	161.5
297.37	137.5
297.601	143.5
297.831	128.5
298.062	149.5
298.292	136.5
298.523	131.5
298.753	148.5
298.984	139.5
299.214	128.5
299.445	140.5
299.675	124.5
299.905	133.5
300.136	131.5
300.366	137.5
300.597	144.5
300.827	162.5
301.057	138.5
301.288	151.5
301.518	168.5
301.748	153.5
301.979	149.5
302.209	140.5
302.439	157.5
302.669	148.5
302.9	149.5
303.13	148.5
303.36	146.5
303.59	148.5
303.82	155.5
304.051	153.5
304.281	151.5
304.511	152.5
304.741	154.5
304.971	127.5
305.201	166.5
305.431	137.5
305.661	138.5
305.891	141.5
306.121	153.5
306.352	150.5
306.582	160.5
306.812	148.5
307.042	159.5
307.272	151.5
307.502	138.5
307.731	152.5
307.961	142.5
308.191	146.5
308.421	140.5
308.651	144.5
308.881	146.5
309.111	149.5
309.341	146.5
309.571	145.5
309.8	153.5
310.03	143.5
310.26	147.5
310.49	140.5
310.72	148.5
310.949	154.5
311.179	147.5
311.409	159.5
311.639	141.5
311.868	158.5
312.098	147.5
312.328	159.5
312.557	153.5
312.787	170.5
313.017	147.5
313.246	157.5
313.476	143.5
313.706	152.5
313.935	153.5
314.165	138.5
314.394	160.5
314.624	155.5
314.853	166.5
315.083	166.5
315.312	141.5
315.542	151.5
315.771	135.5
316.001	158.5
316.23	167.5
316.46	158.5
316.689	155.5
316.919	159.5
317.148	170.5
317.377	156.5
317.607	164.5
317.836	154.5
318.065	145.5
318.295	169.5
318.524	164.5
318.753	159.5
318.983	164.5
319.212	154.5
319.441	166.5
319.67	173.5
319.9	163.5
320.129	165.5
320.358	141.5
320.587	152.5
320.816	168.5
321.046	145.5
321.275	147.5
321.504	169.5
321.733	151.5
321.962	158.5
322.191	170.5
322.42	178.5
322.649	164.5
322.878	160.5
323.108	165.5
323.337	151.5
323.566	162.5
323.795	147.5
324.024	175.5
324.253	164.5
324.482	165.5
324.71	174.5
324.939	169.5
325.168	166.5
325.397	159.5
325.626	148.5
325.855	185.5
326.084	177.5
326.313	159.5
326.542	161.5
326.77	158.5
326.999	171.5
327.228	161.5
327.457	165.5
327.686	171.5
327.914	152.5
328.143	174.5
328.372	168.5
328.6	177.5
328.829	172.5
329.058	172.5
329.287	157.5
329.515	172.5
329.744	183.5
329.972	171.5
330.201	166.5
330.43	177.5
330.658	161.5
330.887	164.5
331.115	181.5
331.344	179.5
331.572	172.5
331.801	177.5
332.03	169.5
332.258	190.5
332.486	181.5
332.715	177.5
332.943	194.5
333.172	192.5
333.4	170.5
333.629	207.5
333.857	183.5
334.085	194.5
334.314	183.5
334.542	197.5
334.771	206.5
334.999	187.5
335.227	188.5
335.455	187.5
335.684	201.5
335.912	182.5
336.14	190.5
336.369	175.5
336.597	175.5
336.825	185.5
337.053	193.5
337.281	198.5
337.51	170.5
337.738	194.5
337.966	174.5
338.194	186.5
338.422	185.5
338.65	190.5
338.878	182.5
339.106	179.5
339.334	169.5
339.562	183.5
339.79	173.5
340.018	166.5
340.246	194.5
340.474	168.5
340.702	170.5
340.93	174.5
341.158	173.5
341.386	177.5
341.614	181.5
341.842	163.5
342.07	165.5
342.298	178.5
342.526	171.5
342.754	176.5
342.981	193.5
343.209	198.5
343.437	192.5
343.665	179.5
343.893	205.5
344.12	195.5
344.348	189.5
344.576	180.5
344.804	172.5
345.031	194.5
345.259	170.5
345.487	171.5
345.714	178.5
345.942	185.5
346.17	165.5
346.397	171.5
346.625	173.5
346.853	170.5
347.08	182.5
347.308	167.5
347.535	158.5
347.763	180.5
347.99	176.5
348.218	184.5
348.445	169.5
348.673	161.5
348.9	161.5
349.128	179.5
349.355	186.5
349.583	172.5
349.81	182.5
350.037	168.5
350.265	189.5
350.492	165.5
350.72	169.5
350.947	180.5
351.174	181.5
351.402	170.5
351.629	170.5
351.856	172.5
352.083	189.5
352.311	166.5
352.538	172.5
352.765	191.5
352.992	199.5
353.22	181.5
353.447	185.5
353.674	187.5
353.901	181.5
354.128	171.5
354.355	168.5
354.583	167.5
354.81	183.5
355.037	184.5
355.264	179.5
355.491	182.5
355.718	188.5
355.945	184.5
356.172	186.5
356.399	169.5
356.626	177.5
356.853	179.5
357.08	172.5
357.307	173.5
357.534	179.5
357.761	187.5
357.988	200.5
358.215	173.5
358.441	185.5
358.668	186.5
358.895	195.5
359.122	176.5
359.349	189.5
359.576	185.5
359.802	175.5
360.029	159.5
360.256	166.5
360.483	174.5
360.709	171.5
360.936	210.5
361.163	196.5
361.39	172.5
361.616	180.5
361.843	178.5
362.07	178.5
362.296	189.5
362.523	179.5
362.749	186.5
362.976	179.5
363.203	183.5
363.429	157.5
363.656	182.5
363.882	188.5
364.109	182.5
364.335	169.5
364.562	188.5
364.788	177.5
365.015	191.5
365.241	170.5
365.468	178.5
365.694	185.5
365.92	181.5
366.147	158.5
366.373	177.5
366.599	188.5
366.826	169.5
367.052	165.5
367.278	163.5
367.505	173.5
367.731	188.5
367.957	193.5
368.184	159.5
368.41	195.5
368.636	179.5
368.862	194.5
369.089	193.5
369.315	196.5
369.541	197.5
369.767	188.5
369.993	183.5
370.219	185.5
370.445	189.5
370.672	189.5
370.898	184.5
371.124	171.5
371.35	194.5
371.576	180.5
371.802	210.5
372.028	206.5
372.254	197.5
372.48	191.5
372.706	206.5
372.932	193.5
373.158	203.5
373.384	214.5
373.61	197.5
373.835	190.5
374.061	191.5
374.287	181.5
374.513	196.5
374.739	211.5
374.965	218.5
375.191	202.5
375.416	197.5
375.642	195.5
375.868	198.5
376.094	212.5
376.319	203.5
376.545	203.5
376.771	195.5
376.997	185.5
377.222	201.5
377.448	179.5
377.674	179.5
377.899	189.5
378.125	181.5
378.35	177.5
378.576	180.5
378.802	185.5
379.027	195.5
379.253	193.5
379.478	171.5
379.704	191.5
379.929	193.5
380.155	194.5
380.38	193.5
380.606	181.5
380.831	192.5
381.057	191.5
381.282	193.5
381.507	193.5
381.733	198.5
381.958	193.5
382.184	195.5
382.409	211.5
382.634	190.5
382.86	208.5
383.085	229.5
383.31	202.5
383.535	206.5
383.761	219.5
383.986	202.5
384.211	216.5
384.436	211.5
384.662	202.5
384.887	216.5
385.112	213.5
385.337	212.5
385.562	217.5
385.787	213.5
386.013	220.5
386.238	228.5
386.463	198.5
386.688	210.5
386.913	210.5
387.138	220.5
387.363	210.5
387.588	227.5
387.813	223.5
388.038	223.5
388.263	217.5
388.488	230.5
388.713	222.5
388.938	227.5
389.163	217.5
389.387	212.5
389.612	221.5
389.837	237.5
390.062	217.5
390.287	224.5
390.512	225.5
390.736	217.5
390.961	229.5
391.186	221.5
391.411	219.5
391.636	223.5
391.86	227.5
392.085	237.5
392.31	237.5
392.534	219.5
392.759	218.5
392.984	219.5
393.208	232.5
393.433	229.5
393.658	228.5
393.882	238.5
394.107	223.5
394.331	211.5
394.556	235.5
394.78	234.5
395.005	231.5
395.229	224.5
395.454	223.5
395.678	235.5
395.903	236.5
396.127	227.5
396.352	229.5
396.576	227.5
396.801	225.5
397.025	230.5
397.249	230.5
397.474	251.5
397.698	243.5
397.922	257.5
398.147	249.5
398.371	238.5
398.595	252.5
398.82	269.5
399.044	276.5
399.268	293.5
399.492	308.5
399.717	294.5
399.941	289.5
400.165	294.5
400.389	285.5
400.613	275.5
400.837	264.5
401.062	276.5
401.286	262.5
401.51	269.5
401.734	265.5
401.958	251.5
402.182	255.5
402.406	235.5
402.63	269.5
402.854	249.5
403.078	244.5
403.302	263.5
403.526	267.5
403.75	253.5
403.974	246.5
404.198	261.5
404.422	281.5
404.645	278.5
404.869	273.5
405.093	283.5
405.317	262.5
405.541	263.5
405.765	266.5
405.988	270.5
406.212	279.5
406.436	267.5
406.66	279.5
406.883	269.5
407.107	274.5
407.331	281.5
407.555	297.5
407.778	282.5
408.002	298.5
408.226	292.5
408.449	275.5
408.673	291.5
408.896	268.5
409.12	271.5
409.344	287.5
409.567	261.5
409.791	259.5
410.014	280.5
410.238	269.5
410.461	281.5
410.685	264.5
410.908	238.5
411.132	264.5
411.355	264.5
411.578	280.5
411.802	263.5
412.025	281.5
412.249	257.5
412.472	254.5
412.695	257.5
412.919	269.5
413.142	255.5
413.365	257.5
413.589	264.5
413.812	244.5
414.035	274.5
414.258	267.5
414.482	267.5
414.705	266.5
414.928	262.5
415.151	275.5
415.374	270.5
415.597	260.5
415.821	251.5
416.044	257.5
416.267	251.5
416.49	261.5
416.713	253.5
416.936	269.5
417.159	259.5
417.382	257.5
417.605	250.5
417.828	255.5
418.051	277.5
418.274	265.5
418.497	262.5
418.72	281.5
418.943	274.5
419.166	270.5
419.389	297.5
419.611	282.5
419.834	263.5
420.057	293.5
420.28	253.5
420.503	276.5
420.726	259.5
420.948	275.5
421.171	283.5
421.394	271.5
421.617	260.5
421.839	257.5
422.062	258.5
422.285	265.5
422.507	268.5
422.73	289.5
422.953	283.5
423.175	283.5
423.398	243.5
423.621	278.5
423.843	271.5
424.066	274.5
424.288	265.5
424.511	281.5
424.733	285.5
424.956	263.5
425.178	282.5
425.401	259.5
425.623	275.5
425.846	257.5
426.068	258.5
426.291	278.5
426.513	260.5
426.735	262.5
426.958	266.5
427.18	262.5
427.402	254.5
427.625	262.5
427.847	247.5
428.069	246.5
428.292	261.5
428.514	255.5
428.736	231.5
428.958	271.5
429.181	246.5
429.403	234.5
429.625	255.5
429.847	244.5
430.069	246.5
430.292	255.5
430.514	259.5
430.736	277.5
430.958	267.5
431.18	272.5
431.402	261.5
431.624	270.5
431.846	270.5
432.068	254.5
432.29	267.5
432.512	266.5
432.734	259.5
432.956	255.5
433.178	275.5
433.4	274.5
433.622	260.5
433.844	262.5
434.066	275.5
434.287	277.5
434.509	261.5
434.731	270.5
434.953	276.5
435.175	280.5
435.397	270.5
435.618	281.5
435.84	258.5
436.062	269.5
436.284	267.5
436.505	256.5
436.727	263.5
436.949	256.5
437.17	261.5
437.392	249.5
437.614	260.5
437.835	263.5
438.057	259.5
438.278	257.5
438.5	283.5
438.721	270.5
438.943	270.5
439.165	275.5
439.386	279.5
439.608	284.5
439.829	269.5
440.05	270.5
440.272	265.5
440.493	286.5
440.715	289.5
440.936	277.5
441.158	284.5
441.379	285.5
441.6	302.5
441.822	280.5
442.043	304.5
442.264	288.5
442.486	286.5
442.707	284.5
442.928	288.5
443.149	301.5
443.371	302.5
443.592	291.5
443.813	279.5
444.034	275.5
444.255	301.5
444.476	292.5
444.698	314.5
444.919	312.5
445.14	387.5
445.361	331.5
445.582	282.5
445.803	303.5
446.024	271.5
446.245	277.5
446.466	289.5
446.687	274.5
446.908	293.5
447.129	293.5
447.35	267.5
447.571	282.5
447.792	274.5
448.013	287.5
448.234	281.5
448.455	263.5
448.675	285.5
448.896	262.5
449.117	245.5
449.338	260.5
449.559	245.5
449.779	265.5
450	264.5
450.221	261.5
450.442	277.5
450.662	266.5
450.883	266.5
451.104	256.5
451.324	254.5
451.545	265.5
451.766	261.5
451.986	263.5
452.207	247.5
452.428	254.5
452.648	243.5
452.869	239.5
453.089	263.5
453.31	226.5
453.53	237.5
453.751	235.5
453.971	233.5
454.192	241.5
454.412	242.5
454.633	235.5
454.853	230.5
455.073	256.5
455.294	245.5
455.514	237.5
455.734	236.5
455.955	250.5
456.175	220.5
456.395	254.5
456.616	230.5
456.836	233.5
457.056	245.5
457.276	235.5
457.497	241.5
457.717	250.5
457.937	246.5
458.157	258.5
458.377	261.5
458.598	250.5
458.818	246.5
459.038	246.5
459.258	245.5
459.478	235.5
459.698	287.5
459.918	291.5
460.138	271.5
460.358	296.5
460.578	289.5
460.798	289.5
461.018	282.5
461.238	292.5
461.458	281.5
461.678	285.5
461.898	281.5
462.118	297.5
462.338	284.5
462.558	315.5
462.777	330.5
462.997	313.5
463.217	324.5
463.437	331.5
463.657	323.5
463.876	311.5
464.096	308.5
464.316	323.5
464.536	317.5
464.755	314.5
464.975	291.5
465.195	287.5
465.414	278.5
465.634	268.5
465.854	279.5
466.073	277.5
466.293	288.5
466.512	279.5
466.732	277.5
466.951	262.5
467.171	273.5
467.391	285.5
467.61	254.5
467.829	266.5
468.049	252.5
468.268	263.5
468.488	262.5
468.707	249.5
468.927	265.5
469.146	258.5
469.365	262.5
469.585	268.5
469.804	273.5
470.023	268.5
470.243	260.5
470.462	267.5
470.681	287.5
470.901	255.5
471.12	279.5
471.339	285.5
471.558	266.5
471.777	274.5
471.997	262.5
472.216	247.5
472.435	252.5
472.654	255.5
472.873	263.5
473.092	233.5
473.311	263.5
473.53	251.5
473.749	260.5
473.968	254.5
474.187	251.5
474.406	266.5
474.625	246.5
474.844	252.5
475.063	257.5
475.282	253.5
475.501	277.5
475.72	268.5
475.939	263.5
476.158	257.5
476.377	283.5
476.596	266.5
476.814	273.5
477.033	273.5
477.252	267.5
477.471	283.5
477.69	290.5
477.908	296.5
478.127	289.5
478.346	291.5
478.564	281.5
478.783	285.5
479.002	301.5
479.22	302.5
479.439	299.5
479.658	290.5
479.876	279.5
480.095	297.5
480.313	313.5
480.532	296.5
480.751	300.5
480.969	303.5
481.188	283.5
481.406	291.5
481.624	290.5
481.843	294.5
482.061	276.5
482.28	283.5
482.498	296.5
482.717	263.5
482.935	284.5
483.153	309.5
483.372	300.5
483.59	299.5
483.808	293.5
484.027	317.5
484.245	301.5
484.463	295.5
484.681	319.5
484.9	302.5
485.118	313.5
485.336	301.5
485.554	298.5
485.772	306.5
485.99	295.5
486.209	293.5
486.427	303.5
486.645	298.5
486.863	299.5
487.081	305.5
487.299	305.5
487.517	299.5
487.735	307.5
487.953	309.5
488.171	316.5
488.389	306.5
488.607	286.5
488.825	297.5
489.043	311.5
489.261	305.5
489.479	293.5
489.696	308.5
489.914	284.5
490.132	319.5
490.35	313.5
490.568	304.5
490.786	309.5
491.003	300.5
491.221	309.5
491.439	302.5
491.657	326.5
491.874	317.5
492.092	319.5
492.31	337.5
492.527	316.5
492.745	320.5
492.963	317.5
493.18	307.5
493.398	315.5
493.615	300.5
493.833	321.5
494.05	310.5
494.268	301.5
494.485	321.5
494.703	308.5
494.92	321.5
495.138	302.5
495.355	296.5
495.573	315.5
495.79	327.5
496.008	311.5
496.225	321.5
496.442	287.5
496.66	325.5
496.877	325.5
497.094	305.5
497.312	316.5
497.529	340.5
497.746	340.5
497.963	341.5
498.181	335.5
498.398	350.5
498.615	370.5
498.832	365.5
499.049	407.5
499.267	433.5
499.484	449.5
499.701	474.5
499.918	494.5
500.135	517.5
500.352	573.5
500.569	560.5
500.786	557.5
501.003	554.5
501.22	503.5
501.437	462.5
501.654	455.5
501.871	428.5
502.088	385.5
502.305	394.5
502.522	374.5
502.739	357.5
502.956	345.5
503.172	331.5
503.389	332.5
503.606	326.5
503.823	326.5
504.04	324.5
504.256	308.5
504.473	320.5
504.69	329.5
504.907	325.5
505.123	297.5
505.34	276.5
505.557	298.5
505.773	275.5
505.99	282.5
506.207	282.5
506.423	263.5
506.64	251.5
506.856	270.5
507.073	284.5
507.289	261.5
507.506	271.5
507.722	259.5
507.939	262.5
508.155	259.5
508.372	258.5
508.588	261.5
508.805	253.5
509.021	256.5
509.238	264.5
509.454	246.5
509.67	247.5
509.887	251.5
510.103	246.5
510.319	230.5
510.536	250.5
510.752	261.5
510.968	247.5
511.184	226.5
511.401	231.5
511.617	235.5
511.833	245.5
512.049	261.5
512.265	251.5
512.481	253.5
512.698	248.5
512.914	233.5
513.13	232.5
513.346	237.5
513.562	239.5
513.778	245.5
513.994	249.5
514.21	244.5
514.426	238.5
514.642	261.5
514.858	252.5
515.074	248.5
515.29	263.5
515.506	247.5
515.721	262.5
515.937	262.5
516.153	257.5
516.369	284.5
516.585	284.5
516.801	268.5
517.016	280.5
517.232	285.5
517.448	281.5
517.664	286.5
517.879	287.5
518.095	298.5
518.311	265.5
518.527	268.5
518.742	290.5
518.958	268.5
519.173	265.5
519.389	266.5
519.605	264.5
519.82	259.5
520.036	248.5
520.251	246.5
520.467	241.5
520.682	245.5
520.898	239.5
