Data from Fe(NO3)3@0.05M.TitratingCurve.Agarose3%dH2O.NegLispCup.LampEnergy10.LIBS07252019_HRD10591_16-48-38-334.txt Node
Date: Thu Jul 25 16:48:38 EDT 2019
User: cochatt
Spectrometer: HR+D1059
Trigger mode: 1
Integration Time (sec): 1.000000E-1
Scans to average: 1
Electric dark correction enabled: true
Nonlinearity correction enabled: false
Boxcar width: 0
XAxis mode: Wavelengths
Number of Pixels in Spectrum: 2048
>>>>>Begin Spectral Data<<<<<
223.165	-16.75
223.4	-16.75
223.635	-16.75
223.869	-16.75
224.104	-17.75
224.338	-16.75
224.573	-22.75
224.808	-11.75
225.042	2.25
225.277	4.25
225.511	-0.75
225.746	2.25
225.98	9.25
226.215	8.25
226.449	3.25
226.683	8.25
226.918	25.25
227.152	40.25
227.387	37.25
227.621	35.25
227.856	51.25
228.09	47.25
228.324	54.25
228.559	55.25
228.793	54.25
229.027	82.25
229.262	63.25
229.496	72.25
229.73	62.25
229.964	80.25
230.199	95.25
230.433	86.25
230.667	80.25
230.901	96.25
231.136	87.25
231.37	99.25
231.604	87.25
231.838	90.25
232.072	84.25
232.306	98.25
232.541	91.25
232.775	93.25
233.009	105.25
233.243	77.25
233.477	93.25
233.711	94.25
233.945	102.25
234.179	96.25
234.413	108.25
234.647	91.25
234.881	98.25
235.115	100.25
235.349	103.25
235.583	80.25
235.817	94.25
236.051	87.25
236.285	83.25
236.519	85.25
236.753	88.25
236.987	101.25
237.221	94.25
237.455	97.25
237.689	93.25
237.922	93.25
238.156	91.25
238.39	79.25
238.624	95.25
238.858	86.25
239.091	98.25
239.325	87.25
239.559	106.25
239.793	84.25
240.027	92.25
240.26	89.25
240.494	93.25
240.728	88.25
240.961	107.25
241.195	101.25
241.429	93.25
241.662	108.25
241.896	100.25
242.13	89.25
242.363	103.25
242.597	96.25
242.83	93.25
243.064	99.25
243.298	90.25
243.531	101.25
243.765	92.25
243.998	107.25
244.232	91.25
244.465	94.25
244.699	94.25
244.932	115.25
245.166	106.25
245.399	109.25
245.633	101.25
245.866	83.25
246.099	98.25
246.333	103.25
246.566	94.25
246.8	95.25
247.033	114.25
247.266	115.25
247.5	96.25
247.733	95.25
247.966	102.25
248.2	105.25
248.433	107.25
248.666	95.25
248.899	116.25
249.133	104.25
249.366	100.25
249.599	103.25
249.832	113.25
250.066	98.25
250.299	108.25
250.532	115.25
250.765	107.25
250.998	104.25
251.231	106.25
251.465	101.25
251.698	99.25
251.931	110.25
252.164	109.25
252.397	110.25
252.63	115.25
252.863	118.25
253.096	125.25
253.329	129.25
253.562	116.25
253.795	111.25
254.028	114.25
254.261	110.25
254.494	120.25
254.727	116.25
254.96	114.25
255.193	111.25
255.426	111.25
255.659	105.25
255.892	101.25
256.124	106.25
256.357	106.25
256.59	109.25
256.823	121.25
257.056	106.25
257.289	125.25
257.521	117.25
257.754	126.25
257.987	117.25
258.22	109.25
258.452	121.25
258.685	116.25
258.918	112.25
259.151	106.25
259.383	110.25
259.616	120.25
259.849	119.25
260.081	125.25
260.314	128.25
260.547	93.25
260.779	124.25
261.012	117.25
261.244	105.25
261.477	119.25
261.71	117.25
261.942	120.25
262.175	114.25
262.407	115.25
262.64	129.25
262.872	136.25
263.105	128.25
263.337	109.25
263.57	126.25
263.802	124.25
264.035	120.25
264.267	120.25
264.499	125.25
264.732	106.25
264.964	130.25
265.197	126.25
265.429	122.25
265.661	115.25
265.894	130.25
266.126	118.25
266.358	140.25
266.591	140.25
266.823	127.25
267.055	129.25
267.287	116.25
267.52	116.25
267.752	132.25
267.984	130.25
268.216	124.25
268.448	123.25
268.681	141.25
268.913	123.25
269.145	133.25
269.377	148.25
269.609	125.25
269.841	122.25
270.073	131.25
270.306	136.25
270.538	129.25
270.77	123.25
271.002	125.25
271.234	116.25
271.466	131.25
271.698	130.25
271.93	132.25
272.162	129.25
272.394	136.25
272.626	105.25
272.858	124.25
273.09	134.25
273.322	142.25
273.553	132.25
273.785	132.25
274.017	133.25
274.249	139.25
274.481	138.25
274.713	137.25
274.945	130.25
275.176	138.25
275.408	139.25
275.64	141.25
275.872	141.25
276.104	156.25
276.335	130.25
276.567	136.25
276.799	132.25
277.031	139.25
277.262	139.25
277.494	131.25
277.726	137.25
277.957	150.25
278.189	145.25
278.421	140.25
278.652	137.25
278.884	142.25
279.115	139.25
279.347	135.25
279.579	147.25
279.81	139.25
280.042	152.25
280.273	144.25
280.505	157.25
280.736	153.25
280.968	146.25
281.199	148.25
281.431	150.25
281.662	132.25
281.894	144.25
282.125	160.25
282.356	144.25
282.588	138.25
282.819	132.25
283.051	138.25
283.282	144.25
283.513	152.25
283.745	143.25
283.976	132.25
284.207	148.25
284.439	144.25
284.67	147.25
284.901	140.25
285.132	144.25
285.364	139.25
285.595	145.25
285.826	133.25
286.057	136.25
286.288	158.25
286.52	154.25
286.751	158.25
286.982	161.25
287.213	157.25
287.444	139.25
287.675	156.25
287.906	146.25
288.138	171.25
288.369	155.25
288.6	159.25
288.831	168.25
289.062	151.25
289.293	149.25
289.524	135.25
289.755	152.25
289.986	150.25
290.217	149.25
290.448	148.25
290.679	155.25
290.91	161.25
291.141	171.25
291.371	152.25
291.602	153.25
291.833	157.25
292.064	143.25
292.295	145.25
292.526	150.25
292.757	161.25
292.987	154.25
293.218	149.25
293.449	131.25
293.68	158.25
293.91	156.25
294.141	144.25
294.372	147.25
294.603	162.25
294.833	169.25
295.064	163.25
295.295	149.25
295.525	145.25
295.756	152.25
295.987	167.25
296.217	154.25
296.448	154.25
296.679	171.25
296.909	157.25
297.14	154.25
297.37	150.25
297.601	153.25
297.831	157.25
298.062	174.25
298.292	160.25
298.523	150.25
298.753	157.25
298.984	163.25
299.214	168.25
299.445	163.25
299.675	157.25
299.905	149.25
300.136	169.25
300.366	167.25
300.597	151.25
300.827	166.25
301.057	156.25
301.288	173.25
301.518	171.25
301.748	163.25
301.979	164.25
302.209	185.25
302.439	174.25
302.669	174.25
302.9	158.25
303.13	184.25
303.36	166.25
303.59	157.25
303.82	179.25
304.051	172.25
304.281	180.25
304.511	170.25
304.741	154.25
304.971	170.25
305.201	173.25
305.431	165.25
305.661	163.25
305.891	164.25
306.121	163.25
306.352	162.25
306.582	157.25
306.812	162.25
307.042	153.25
307.272	152.25
307.502	170.25
307.731	171.25
307.961	164.25
308.191	164.25
308.421	165.25
308.651	162.25
308.881	167.25
309.111	169.25
309.341	165.25
309.571	167.25
309.8	156.25
310.03	178.25
310.26	170.25
310.49	170.25
310.72	160.25
310.949	160.25
311.179	156.25
311.409	161.25
311.639	162.25
311.868	159.25
312.098	166.25
312.328	171.25
312.557	157.25
312.787	162.25
313.017	164.25
313.246	188.25
313.476	168.25
313.706	182.25
313.935	176.25
314.165	163.25
314.394	167.25
314.624	178.25
314.853	171.25
315.083	173.25
315.312	166.25
315.542	167.25
315.771	159.25
316.001	174.25
316.23	165.25
316.46	169.25
316.689	174.25
316.919	166.25
317.148	163.25
317.377	182.25
317.607	184.25
317.836	168.25
318.065	161.25
318.295	158.25
318.524	170.25
318.753	175.25
318.983	182.25
319.212	148.25
319.441	180.25
319.67	175.25
319.9	176.25
320.129	178.25
320.358	178.25
320.587	165.25
320.816	154.25
321.046	166.25
321.275	169.25
321.504	171.25
321.733	169.25
321.962	166.25
322.191	154.25
322.42	157.25
322.649	176.25
322.878	169.25
323.108	174.25
323.337	187.25
323.566	185.25
323.795	187.25
324.024	165.25
324.253	181.25
324.482	172.25
324.71	156.25
324.939	175.25
325.168	183.25
325.397	182.25
325.626	178.25
325.855	177.25
326.084	179.25
326.313	179.25
326.542	198.25
326.77	190.25
326.999	194.25
327.228	181.25
327.457	168.25
327.686	182.25
327.914	187.25
328.143	175.25
328.372	165.25
328.6	175.25
328.829	167.25
329.058	192.25
329.287	186.25
329.515	195.25
329.744	189.25
329.972	190.25
330.201	189.25
330.43	194.25
330.658	166.25
330.887	171.25
331.115	185.25
331.344	185.25
331.572	185.25
331.801	200.25
332.03	206.25
332.258	200.25
332.486	204.25
332.715	216.25
332.943	205.25
333.172	209.25
333.4	221.25
333.629	222.25
333.857	230.25
334.085	212.25
334.314	218.25
334.542	222.25
334.771	212.25
334.999	212.25
335.227	227.25
335.455	214.25
335.684	215.25
335.912	225.25
336.14	206.25
336.369	211.25
336.597	187.25
336.825	214.25
337.053	206.25
337.281	205.25
337.51	206.25
337.738	208.25
337.966	211.25
338.194	188.25
338.422	200.25
338.65	204.25
338.878	203.25
339.106	211.25
339.334	196.25
339.562	197.25
339.79	187.25
340.018	173.25
340.246	171.25
340.474	195.25
340.702	194.25
340.93	186.25
341.158	200.25
341.386	180.25
341.614	196.25
341.842	198.25
342.07	184.25
342.298	176.25
342.526	199.25
342.754	179.25
342.981	186.25
343.209	184.25
343.437	209.25
343.665	219.25
343.893	237.25
344.12	221.25
344.348	204.25
344.576	198.25
344.804	196.25
345.031	211.25
345.259	191.25
345.487	203.25
345.714	186.25
345.942	184.25
346.17	187.25
346.397	179.25
346.625	192.25
346.853	190.25
347.08	187.25
347.308	188.25
347.535	182.25
347.763	191.25
347.99	182.25
348.218	179.25
348.445	190.25
348.673	189.25
348.9	196.25
349.128	189.25
349.355	180.25
349.583	184.25
349.81	172.25
350.037	173.25
350.265	193.25
350.492	176.25
350.72	167.25
350.947	178.25
351.174	178.25
351.402	166.25
351.629	178.25
351.856	166.25
352.083	162.25
352.311	175.25
352.538	186.25
352.765	171.25
352.992	182.25
353.22	172.25
353.447	180.25
353.674	191.25
353.901	181.25
354.128	190.25
354.355	195.25
354.583	183.25
354.81	183.25
355.037	176.25
355.264	177.25
355.491	172.25
355.718	178.25
355.945	174.25
356.172	174.25
356.399	185.25
356.626	178.25
356.853	182.25
357.08	172.25
357.307	188.25
357.534	178.25
357.761	186.25
357.988	183.25
358.215	194.25
358.441	206.25
358.668	172.25
358.895	201.25
359.122	170.25
359.349	162.25
359.576	183.25
359.802	174.25
360.029	173.25
360.256	157.25
360.483	179.25
360.709	180.25
360.936	180.25
361.163	168.25
361.39	170.25
361.616	185.25
361.843	176.25
362.07	191.25
362.296	170.25
362.523	167.25
362.749	179.25
362.976	187.25
363.203	192.25
363.429	181.25
363.656	180.25
363.882	168.25
364.109	172.25
364.335	180.25
364.562	196.25
364.788	181.25
365.015	182.25
365.241	183.25
365.468	195.25
365.694	174.25
365.92	191.25
366.147	188.25
366.373	180.25
366.599	184.25
366.826	183.25
367.052	172.25
367.278	183.25
367.505	181.25
367.731	191.25
367.957	178.25
368.184	193.25
368.41	182.25
368.636	186.25
368.862	197.25
369.089	184.25
369.315	207.25
369.541	183.25
369.767	185.25
369.993	197.25
370.219	188.25
370.445	198.25
370.672	186.25
370.898	188.25
371.124	196.25
371.35	192.25
371.576	201.25
371.802	199.25
372.028	196.25
372.254	205.25
372.48	195.25
372.706	216.25
372.932	223.25
373.158	196.25
373.384	199.25
373.61	209.25
373.835	213.25
374.061	211.25
374.287	190.25
374.513	202.25
374.739	205.25
374.965	209.25
375.191	216.25
375.416	219.25
375.642	212.25
375.868	218.25
376.094	212.25
376.319	206.25
376.545	213.25
376.771	189.25
376.997	200.25
377.222	203.25
377.448	210.25
377.674	199.25
377.899	208.25
378.125	205.25
378.35	218.25
378.576	208.25
378.802	209.25
379.027	212.25
379.253	220.25
379.478	190.25
379.704	205.25
379.929	210.25
380.155	195.25
380.38	196.25
380.606	205.25
380.831	216.25
381.057	212.25
381.282	205.25
381.507	216.25
381.733	198.25
381.958	201.25
382.184	183.25
382.409	228.25
382.634	225.25
382.86	215.25
383.085	230.25
383.31	213.25
383.535	236.25
383.761	232.25
383.986	224.25
384.211	214.25
384.436	235.25
384.662	226.25
384.887	232.25
385.112	243.25
385.337	219.25
385.562	228.25
385.787	241.25
386.013	253.25
386.238	253.25
386.463	243.25
386.688	239.25
386.913	243.25
387.138	237.25
387.363	228.25
387.588	236.25
387.813	232.25
388.038	226.25
388.263	238.25
388.488	242.25
388.713	231.25
388.938	223.25
389.163	247.25
389.387	228.25
389.612	236.25
389.837	233.25
390.062	227.25
390.287	240.25
390.512	228.25
390.736	244.25
390.961	239.25
391.186	239.25
391.411	259.25
391.636	268.25
391.86	258.25
392.085	284.25
392.31	260.25
392.534	263.25
392.759	237.25
392.984	260.25
393.208	254.25
393.433	251.25
393.658	260.25
393.882	250.25
394.107	260.25
394.331	258.25
394.556	258.25
394.78	275.25
395.005	238.25
395.229	254.25
395.454	262.25
395.678	279.25
395.903	259.25
396.127	256.25
396.352	260.25
396.576	239.25
396.801	258.25
397.025	255.25
397.249	252.25
397.474	273.25
397.698	266.25
397.922	266.25
398.147	260.25
398.371	269.25
398.595	287.25
398.82	286.25
399.044	306.25
399.268	317.25
399.492	374.25
399.717	404.25
399.941	395.25
400.165	378.25
400.389	339.25
400.613	322.25
400.837	297.25
401.062	303.25
401.286	283.25
401.51	303.25
401.734	287.25
401.958	292.25
402.182	285.25
402.406	295.25
402.63	300.25
402.854	328.25
403.078	301.25
403.302	313.25
403.526	312.25
403.75	328.25
403.974	328.25
404.198	326.25
404.422	353.25
404.645	319.25
404.869	319.25
405.093	330.25
405.317	336.25
405.541	336.25
405.765	327.25
405.988	338.25
406.212	332.25
406.436	312.25
406.66	330.25
406.883	328.25
407.107	349.25
407.331	344.25
407.555	368.25
407.778	359.25
408.002	357.25
408.226	361.25
408.449	355.25
408.673	341.25
408.896	330.25
409.12	322.25
409.344	334.25
409.567	308.25
409.791	347.25
410.014	341.25
410.238	332.25
410.461	341.25
410.685	348.25
410.908	322.25
411.132	322.25
411.355	307.25
411.578	331.25
411.802	331.25
412.025	326.25
412.249	337.25
412.472	323.25
412.695	315.25
412.919	313.25
413.142	303.25
413.365	294.25
413.589	329.25
413.812	308.25
414.035	303.25
414.258	301.25
414.482	312.25
414.705	325.25
414.928	317.25
415.151	315.25
415.374	315.25
415.597	303.25
415.821	316.25
416.044	302.25
416.267	311.25
416.49	306.25
416.713	309.25
416.936	307.25
417.159	314.25
417.382	302.25
417.605	309.25
417.828	306.25
418.051	296.25
418.274	318.25
418.497	319.25
418.72	292.25
418.943	318.25
419.166	323.25
419.389	346.25
419.611	317.25
419.834	314.25
420.057	327.25
420.28	314.25
420.503	312.25
420.726	318.25
420.948	314.25
421.171	319.25
421.394	314.25
421.617	317.25
421.839	321.25
422.062	312.25
422.285	306.25
422.507	309.25
422.73	318.25
422.953	323.25
423.175	304.25
423.398	317.25
423.621	312.25
423.843	332.25
424.066	317.25
424.288	318.25
424.511	322.25
424.733	330.25
424.956	312.25
425.178	328.25
425.401	313.25
425.623	310.25
425.846	319.25
426.068	307.25
426.291	297.25
426.513	306.25
426.735	304.25
426.958	302.25
427.18	287.25
427.402	306.25
427.625	294.25
427.847	294.25
428.069	294.25
428.292	311.25
428.514	281.25
428.736	292.25
428.958	287.25
429.181	297.25
429.403	258.25
429.625	289.25
429.847	289.25
430.069	303.25
430.292	290.25
430.514	285.25
430.736	303.25
430.958	291.25
431.18	300.25
431.402	288.25
431.624	282.25
431.846	295.25
432.068	296.25
432.29	287.25
432.512	293.25
432.734	298.25
432.956	279.25
433.178	285.25
433.4	278.25
433.622	288.25
433.844	330.25
434.066	295.25
434.287	294.25
434.509	296.25
434.731	308.25
434.953	317.25
435.175	319.25
435.397	309.25
435.618	295.25
435.84	304.25
436.062	330.25
436.284	302.25
436.505	297.25
436.727	314.25
436.949	292.25
437.17	315.25
437.392	297.25
437.614	295.25
437.835	272.25
438.057	276.25
438.278	279.25
438.5	292.25
438.721	287.25
438.943	310.25
439.165	300.25
439.386	299.25
439.608	306.25
439.829	287.25
440.05	317.25
440.272	298.25
440.493	320.25
440.715	324.25
440.936	316.25
441.158	314.25
441.379	326.25
441.6	339.25
441.822	331.25
442.043	339.25
442.264	328.25
442.486	333.25
442.707	320.25
442.928	339.25
443.149	317.25
443.371	320.25
443.592	345.25
443.813	316.25
444.034	341.25
444.255	339.25
444.476	353.25
444.698	371.25
444.919	382.25
445.14	462.25
445.361	417.25
445.582	328.25
445.803	304.25
446.024	331.25
446.245	332.25
446.466	297.25
446.687	313.25
446.908	322.25
447.129	307.25
447.35	312.25
447.571	323.25
447.792	278.25
448.013	293.25
448.234	279.25
448.455	312.25
448.675	296.25
448.896	299.25
449.117	290.25
449.338	283.25
449.559	299.25
449.779	293.25
450	287.25
450.221	298.25
450.442	292.25
450.662	301.25
450.883	301.25
451.104	291.25
451.324	287.25
451.545	292.25
451.766	291.25
451.986	280.25
452.207	293.25
452.428	295.25
452.648	286.25
452.869	286.25
453.089	282.25
453.31	280.25
453.53	278.25
453.751	286.25
453.971	294.25
454.192	285.25
454.412	266.25
454.633	278.25
454.853	272.25
455.073	263.25
455.294	273.25
455.514	275.25
455.734	277.25
455.955	271.25
456.175	282.25
456.395	261.25
456.616	263.25
456.836	268.25
457.056	275.25
457.276	268.25
457.497	290.25
457.717	277.25
457.937	276.25
458.157	290.25
458.377	276.25
458.598	263.25
458.818	268.25
459.038	280.25
459.258	271.25
459.478	284.25
459.698	292.25
459.918	291.25
460.138	323.25
460.358	339.25
460.578	330.25
460.798	332.25
461.018	333.25
461.238	332.25
461.458	336.25
461.678	338.25
461.898	329.25
462.118	349.25
462.338	345.25
462.558	361.25
462.777	372.25
462.997	382.25
463.217	427.25
463.437	421.25
463.657	395.25
463.876	356.25
464.096	380.25
464.316	383.25
464.536	392.25
464.755	364.25
464.975	370.25
465.195	362.25
465.414	330.25
465.634	324.25
465.854	328.25
466.073	305.25
466.293	315.25
466.512	302.25
466.732	314.25
466.951	298.25
467.171	297.25
467.391	322.25
467.61	311.25
467.829	297.25
468.049	290.25
468.268	286.25
468.488	297.25
468.707	289.25
468.927	294.25
469.146	312.25
469.365	292.25
469.585	284.25
469.804	319.25
470.023	294.25
470.243	306.25
470.462	301.25
470.681	302.25
470.901	314.25
471.12	288.25
471.339	299.25
471.558	287.25
471.777	292.25
471.997	292.25
472.216	308.25
472.435	273.25
472.654	283.25
472.873	267.25
473.092	286.25
473.311	299.25
473.53	286.25
473.749	302.25
473.968	291.25
474.187	263.25
474.406	292.25
474.625	299.25
474.844	290.25
475.063	275.25
475.282	277.25
475.501	278.25
475.72	288.25
475.939	284.25
476.158	293.25
476.377	282.25
476.596	274.25
476.814	297.25
477.033	294.25
477.252	285.25
477.471	309.25
477.69	284.25
477.908	317.25
478.127	307.25
478.346	305.25
478.564	308.25
478.783	315.25
479.002	330.25
479.22	324.25
479.439	325.25
479.658	335.25
479.876	326.25
480.095	330.25
480.313	340.25
480.532	360.25
480.751	330.25
480.969	311.25
481.188	306.25
481.406	328.25
481.624	328.25
481.843	307.25
482.061	310.25
482.28	278.25
482.498	294.25
482.717	310.25
482.935	311.25
483.153	316.25
483.372	292.25
483.59	334.25
483.808	318.25
484.027	317.25
484.245	316.25
484.463	319.25
484.681	322.25
484.9	303.25
485.118	322.25
485.336	313.25
485.554	303.25
485.772	301.25
485.99	318.25
486.209	326.25
486.427	318.25
486.645	331.25
486.863	327.25
487.081	312.25
487.299	319.25
487.517	337.25
487.735	330.25
487.953	333.25
488.171	325.25
488.389	325.25
488.607	325.25
488.825	318.25
489.043	314.25
489.261	313.25
489.479	307.25
489.696	324.25
489.914	341.25
490.132	319.25
490.35	347.25
490.568	339.25
490.786	326.25
491.003	322.25
491.221	342.25
491.439	357.25
491.657	345.25
491.874	355.25
492.092	327.25
492.31	346.25
492.527	347.25
492.745	356.25
492.963	327.25
493.18	335.25
493.398	366.25
493.615	339.25
493.833	326.25
494.05	338.25
494.268	360.25
494.485	338.25
494.703	342.25
494.92	336.25
495.138	348.25
495.355	336.25
495.573	337.25
495.79	348.25
496.008	362.25
496.225	331.25
496.442	354.25
496.66	360.25
496.877	363.25
497.094	363.25
497.312	387.25
497.529	372.25
497.746	368.25
497.963	388.25
498.181	378.25
498.398	381.25
498.615	425.25
498.832	437.25
499.049	466.25
499.267	477.25
499.484	531.25
499.701	572.25
499.918	610.25
500.135	682.25
500.352	772.25
500.569	797.25
500.786	790.25
501.003	710.25
501.22	666.25
501.437	609.25
501.654	542.25
501.871	513.25
502.088	474.25
502.305	454.25
502.522	436.25
