Data from Fe(NO3)3@0.1M.TitratingCurve.Agarose3%dH2O.NegLispCup.LampEnergy10.LIBS07252019_HRD10591_16-41-11-333.txt Node
Date: Thu Jul 25 16:41:11 EDT 2019
User: cochatt
Spectrometer: HR+D1059
Trigger mode: 1
Integration Time (sec): 1.000000E-1
Scans to average: 1
Electric dark correction enabled: true
Nonlinearity correction enabled: false
Boxcar width: 0
XAxis mode: Wavelengths
Number of Pixels in Spectrum: 2048
>>>>>Begin Spectral Data<<<<<
223.165	-25.38
223.4	-25.38
223.635	-25.38
223.869	-19.38
224.104	-21.38
224.338	-13.38
224.573	-13.38
224.808	-22.38
225.042	-12.38
225.277	0.62
225.511	7.62
225.746	7.62
225.98	9.62
226.215	8.62
226.449	12.62
226.683	18.62
226.918	30.62
227.152	31.62
227.387	34.62
227.621	31.62
227.856	49.62
228.09	52.62
228.324	59.62
228.559	61.62
228.793	56.62
229.027	63.62
229.262	73.62
229.496	69.62
229.73	89.62
229.964	72.62
230.199	89.62
230.433	92.62
230.667	99.62
230.901	90.62
231.136	93.62
231.37	102.62
231.604	98.62
231.838	98.62
232.072	97.62
232.306	82.62
232.541	97.62
232.775	97.62
233.009	97.62
233.243	105.62
233.477	96.62
233.711	96.62
233.945	105.62
234.179	99.62
234.413	69.62
234.647	98.62
234.881	97.62
235.115	90.62
235.349	106.62
235.583	104.62
235.817	98.62
236.051	89.62
236.285	91.62
236.519	88.62
236.753	97.62
236.987	102.62
237.221	92.62
237.455	101.62
237.689	99.62
237.922	100.62
238.156	100.62
238.39	96.62
238.624	86.62
238.858	100.62
239.091	80.62
239.325	103.62
239.559	106.62
239.793	94.62
240.027	108.62
240.26	109.62
240.494	109.62
240.728	101.62
240.961	99.62
241.195	115.62
241.429	106.62
241.662	104.62
241.896	101.62
242.13	96.62
242.363	97.62
242.597	97.62
242.83	97.62
243.064	105.62
243.298	109.62
243.531	101.62
243.765	95.62
243.998	100.62
244.232	86.62
244.465	109.62
244.699	119.62
244.932	98.62
245.166	112.62
245.399	117.62
245.633	101.62
245.866	107.62
246.099	107.62
246.333	106.62
246.566	102.62
246.8	117.62
247.033	119.62
247.266	127.62
247.5	120.62
247.733	119.62
247.966	101.62
248.2	101.62
248.433	113.62
248.666	103.62
248.899	129.62
249.133	123.62
249.366	113.62
249.599	109.62
249.832	106.62
250.066	100.62
250.299	109.62
250.532	112.62
250.765	121.62
250.998	120.62
251.231	92.62
251.465	121.62
251.698	122.62
251.931	122.62
252.164	123.62
252.397	110.62
252.63	100.62
252.863	108.62
253.096	120.62
253.329	116.62
253.562	120.62
253.795	123.62
254.028	120.62
254.261	134.62
254.494	127.62
254.727	132.62
254.96	130.62
255.193	126.62
255.426	123.62
255.659	113.62
255.892	126.62
256.124	120.62
256.357	128.62
256.59	130.62
256.823	128.62
257.056	117.62
257.289	121.62
257.521	131.62
257.754	135.62
257.987	126.62
258.22	117.62
258.452	133.62
258.685	126.62
258.918	124.62
259.151	137.62
259.383	129.62
259.616	140.62
259.849	124.62
260.081	129.62
260.314	118.62
260.547	128.62
260.779	138.62
261.012	143.62
261.244	138.62
261.477	145.62
261.71	134.62
261.942	103.62
262.175	116.62
262.407	126.62
262.64	135.62
262.872	136.62
263.105	144.62
263.337	136.62
263.57	132.62
263.802	136.62
264.035	140.62
264.267	142.62
264.499	129.62
264.732	131.62
264.964	140.62
265.197	142.62
265.429	124.62
265.661	148.62
265.894	141.62
266.126	128.62
266.358	164.62
266.591	137.62
266.823	144.62
267.055	129.62
267.287	154.62
267.52	130.62
267.752	139.62
267.984	144.62
268.216	128.62
268.448	142.62
268.681	132.62
268.913	154.62
269.145	148.62
269.377	147.62
269.609	130.62
269.841	137.62
270.073	144.62
270.306	142.62
270.538	128.62
270.77	146.62
271.002	151.62
271.234	156.62
271.466	133.62
271.698	148.62
271.93	148.62
272.162	130.62
272.394	145.62
272.626	145.62
272.858	158.62
273.09	148.62
273.322	138.62
273.553	144.62
273.785	155.62
274.017	149.62
274.249	139.62
274.481	146.62
274.713	151.62
274.945	162.62
275.176	141.62
275.408	156.62
275.64	145.62
275.872	162.62
276.104	147.62
276.335	156.62
276.567	157.62
276.799	164.62
277.031	162.62
277.262	146.62
277.494	145.62
277.726	156.62
277.957	156.62
278.189	146.62
278.421	152.62
278.652	142.62
278.884	141.62
279.115	141.62
279.347	169.62
279.579	149.62
279.81	155.62
280.042	152.62
280.273	136.62
280.505	165.62
280.736	165.62
280.968	147.62
281.199	159.62
281.431	156.62
281.662	176.62
281.894	159.62
282.125	159.62
282.356	164.62
282.588	153.62
282.819	156.62
283.051	172.62
283.282	175.62
283.513	161.62
283.745	152.62
283.976	165.62
284.207	165.62
284.439	163.62
284.67	159.62
284.901	161.62
285.132	176.62
285.364	158.62
285.595	187.62
285.826	177.62
286.057	176.62
286.288	179.62
286.52	172.62
286.751	169.62
286.982	180.62
287.213	173.62
287.444	168.62
287.675	168.62
287.906	170.62
288.138	182.62
288.369	191.62
288.6	186.62
288.831	188.62
289.062	182.62
289.293	189.62
289.524	185.62
289.755	164.62
289.986	175.62
290.217	194.62
290.448	173.62
290.679	187.62
290.91	168.62
291.141	171.62
291.371	176.62
291.602	169.62
291.833	181.62
292.064	182.62
292.295	177.62
292.526	189.62
292.757	184.62
292.987	183.62
293.218	166.62
293.449	166.62
293.68	193.62
293.91	197.62
294.141	171.62
294.372	187.62
294.603	176.62
294.833	177.62
295.064	176.62
295.295	177.62
295.525	172.62
295.756	192.62
295.987	185.62
296.217	188.62
296.448	187.62
296.679	176.62
296.909	191.62
297.14	187.62
297.37	181.62
297.601	188.62
297.831	188.62
298.062	182.62
298.292	188.62
298.523	200.62
298.753	189.62
298.984	194.62
299.214	175.62
299.445	173.62
299.675	190.62
299.905	203.62
300.136	170.62
300.366	196.62
300.597	191.62
300.827	183.62
301.057	183.62
301.288	185.62
301.518	197.62
301.748	188.62
301.979	208.62
302.209	194.62
302.439	199.62
302.669	198.62
302.9	206.62
303.13	187.62
303.36	189.62
303.59	209.62
303.82	209.62
304.051	174.62
304.281	209.62
304.511	185.62
304.741	192.62
304.971	194.62
305.201	186.62
305.431	209.62
305.661	205.62
305.891	195.62
306.121	188.62
306.352	202.62
306.582	186.62
306.812	193.62
307.042	185.62
307.272	180.62
307.502	199.62
307.731	198.62
307.961	204.62
308.191	182.62
308.421	180.62
308.651	187.62
308.881	201.62
309.111	203.62
309.341	193.62
309.571	184.62
309.8	187.62
310.03	191.62
310.26	193.62
310.49	187.62
310.72	203.62
310.949	189.62
311.179	218.62
311.409	202.62
311.639	185.62
311.868	204.62
312.098	206.62
312.328	216.62
312.557	200.62
312.787	176.62
313.017	211.62
313.246	194.62
313.476	200.62
313.706	204.62
313.935	206.62
314.165	209.62
314.394	220.62
314.624	213.62
314.853	214.62
315.083	204.62
315.312	210.62
315.542	216.62
315.771	212.62
316.001	211.62
316.23	204.62
316.46	200.62
316.689	206.62
316.919	214.62
317.148	221.62
317.377	208.62
317.607	198.62
317.836	208.62
318.065	189.62
318.295	203.62
318.524	196.62
318.753	220.62
318.983	197.62
319.212	206.62
319.441	216.62
319.67	203.62
319.9	216.62
320.129	192.62
320.358	203.62
320.587	189.62
320.816	205.62
321.046	216.62
321.275	208.62
321.504	219.62
321.733	206.62
321.962	206.62
322.191	217.62
322.42	202.62
322.649	221.62
322.878	230.62
323.108	210.62
323.337	211.62
323.566	204.62
323.795	221.62
324.024	222.62
324.253	181.62
324.482	192.62
324.71	220.62
324.939	188.62
325.168	194.62
325.397	211.62
325.626	219.62
325.855	241.62
326.084	248.62
326.313	215.62
326.542	231.62
326.77	214.62
326.999	222.62
327.228	224.62
327.457	217.62
327.686	210.62
327.914	214.62
328.143	232.62
328.372	209.62
328.6	217.62
328.829	241.62
329.058	211.62
329.287	233.62
329.515	214.62
329.744	225.62
329.972	239.62
330.201	230.62
330.43	235.62
330.658	233.62
330.887	216.62
331.115	225.62
331.344	224.62
331.572	231.62
331.801	241.62
332.03	240.62
332.258	250.62
332.486	241.62
332.715	244.62
332.943	258.62
333.172	259.62
333.4	268.62
333.629	261.62
333.857	272.62
334.085	274.62
334.314	268.62
334.542	265.62
334.771	262.62
334.999	256.62
335.227	245.62
335.455	260.62
335.684	259.62
335.912	276.62
336.14	264.62
336.369	262.62
336.597	243.62
336.825	249.62
337.053	240.62
337.281	242.62
337.51	257.62
337.738	245.62
337.966	250.62
338.194	245.62
338.422	242.62
338.65	240.62
338.878	244.62
339.106	231.62
339.334	240.62
339.562	228.62
339.79	221.62
340.018	225.62
340.246	214.62
340.474	228.62
340.702	226.62
340.93	236.62
341.158	240.62
341.386	223.62
341.614	222.62
341.842	244.62
342.07	231.62
342.298	230.62
342.526	221.62
342.754	245.62
342.981	223.62
343.209	232.62
343.437	245.62
343.665	245.62
343.893	261.62
344.12	257.62
344.348	250.62
344.576	248.62
344.804	252.62
345.031	227.62
345.259	229.62
345.487	225.62
345.714	228.62
345.942	242.62
346.17	213.62
346.397	223.62
346.625	243.62
346.853	222.62
347.08	196.62
347.308	230.62
347.535	203.62
347.763	216.62
347.99	219.62
348.218	210.62
348.445	235.62
348.673	224.62
348.9	233.62
349.128	228.62
349.355	231.62
349.583	227.62
349.81	227.62
350.037	229.62
350.265	213.62
350.492	204.62
350.72	219.62
350.947	212.62
351.174	229.62
351.402	220.62
351.629	210.62
351.856	218.62
352.083	203.62
352.311	233.62
352.538	223.62
352.765	237.62
352.992	211.62
353.22	220.62
353.447	215.62
353.674	215.62
353.901	212.62
354.128	224.62
354.355	225.62
354.583	210.62
354.81	240.62
355.037	224.62
355.264	229.62
355.491	214.62
355.718	215.62
355.945	226.62
356.172	230.62
356.399	220.62
356.626	213.62
356.853	227.62
357.08	233.62
357.307	227.62
357.534	229.62
357.761	215.62
357.988	218.62
358.215	231.62
358.441	217.62
358.668	204.62
358.895	247.62
359.122	214.62
359.349	230.62
359.576	228.62
359.802	221.62
360.029	222.62
360.256	224.62
360.483	229.62
360.709	215.62
360.936	237.62
361.163	227.62
361.39	221.62
361.616	218.62
361.843	226.62
362.07	207.62
362.296	215.62
362.523	220.62
362.749	234.62
362.976	211.62
363.203	210.62
363.429	221.62
363.656	239.62
363.882	220.62
364.109	229.62
364.335	221.62
364.562	233.62
364.788	210.62
365.015	205.62
365.241	223.62
365.468	217.62
365.694	221.62
365.92	224.62
366.147	194.62
366.373	235.62
366.599	235.62
366.826	229.62
367.052	217.62
367.278	218.62
367.505	231.62
367.731	244.62
367.957	213.62
368.184	220.62
368.41	236.62
368.636	206.62
368.862	230.62
369.089	225.62
369.315	242.62
369.541	242.62
369.767	212.62
369.993	231.62
370.219	225.62
370.445	240.62
370.672	247.62
370.898	240.62
371.124	234.62
371.35	231.62
371.576	243.62
371.802	258.62
372.028	258.62
372.254	246.62
372.48	240.62
372.706	246.62
372.932	216.62
373.158	227.62
373.384	242.62
373.61	254.62
373.835	231.62
374.061	242.62
374.287	244.62
374.513	241.62
374.739	255.62
374.965	247.62
375.191	255.62
375.416	230.62
375.642	242.62
375.868	238.62
376.094	247.62
376.319	258.62
376.545	247.62
376.771	248.62
376.997	242.62
377.222	254.62
377.448	260.62
377.674	240.62
377.899	238.62
378.125	227.62
378.35	232.62
378.576	233.62
378.802	229.62
379.027	227.62
379.253	229.62
379.478	250.62
379.704	237.62
379.929	242.62
380.155	233.62
380.38	225.62
380.606	232.62
380.831	246.62
381.057	236.62
381.282	248.62
381.507	256.62
381.733	238.62
381.958	260.62
382.184	253.62
382.409	252.62
382.634	243.62
382.86	261.62
383.085	250.62
383.31	252.62
383.535	273.62
383.761	269.62
383.986	269.62
384.211	244.62
384.436	291.62
384.662	273.62
384.887	272.62
385.112	279.62
385.337	270.62
385.562	276.62
385.787	270.62
386.013	275.62
386.238	288.62
386.463	301.62
386.688	270.62
386.913	284.62
387.138	267.62
387.363	275.62
387.588	263.62
387.813	280.62
388.038	278.62
388.263	263.62
388.488	282.62
388.713	264.62
388.938	288.62
389.163	274.62
389.387	273.62
389.612	258.62
389.837	286.62
390.062	295.62
390.287	272.62
390.512	271.62
390.736	274.62
390.961	281.62
391.186	297.62
391.411	281.62
391.636	274.62
391.86	314.62
392.085	287.62
392.31	306.62
392.534	294.62
392.759	295.62
392.984	282.62
393.208	288.62
393.433	288.62
393.658	304.62
393.882	312.62
394.107	285.62
394.331	297.62
394.556	291.62
394.78	290.62
395.005	304.62
395.229	306.62
395.454	299.62
395.678	309.62
395.903	309.62
396.127	310.62
396.352	282.62
396.576	293.62
396.801	285.62
397.025	275.62
397.249	309.62
397.474	291.62
397.698	312.62
397.922	337.62
398.147	307.62
398.371	311.62
398.595	332.62
398.82	342.62
399.044	357.62
399.268	386.62
399.492	419.62
399.717	454.62
399.941	443.62
400.165	410.62
400.389	386.62
400.613	358.62
400.837	344.62
401.062	332.62
401.286	317.62
401.51	355.62
401.734	332.62
401.958	318.62
402.182	331.62
402.406	355.62
402.63	347.62
402.854	338.62
403.078	371.62
403.302	354.62
403.526	357.62
403.75	375.62
403.974	358.62
404.198	378.62
404.422	372.62
404.645	355.62
404.869	356.62
405.093	368.62
405.317	360.62
405.541	363.62
405.765	370.62
405.988	364.62
406.212	369.62
406.436	364.62
406.66	378.62
406.883	374.62
407.107	379.62
407.331	397.62
407.555	406.62
407.778	404.62
408.002	399.62
408.226	401.62
408.449	381.62
408.673	375.62
408.896	372.62
409.12	375.62
409.344	378.62
409.567	366.62
409.791	364.62
410.014	362.62
410.238	374.62
410.461	362.62
410.685	382.62
410.908	346.62
411.132	359.62
411.355	356.62
411.578	378.62
411.802	355.62
412.025	340.62
412.249	347.62
412.472	356.62
412.695	343.62
412.919	328.62
413.142	328.62
413.365	341.62
413.589	336.62
413.812	342.62
414.035	341.62
414.258	352.62
414.482	343.62
414.705	338.62
414.928	357.62
415.151	344.62
415.374	356.62
415.597	334.62
415.821	348.62
416.044	340.62
416.267	325.62
416.49	333.62
416.713	313.62
416.936	329.62
417.159	328.62
417.382	328.62
417.605	349.62
417.828	346.62
418.051	351.62
418.274	356.62
418.497	326.62
418.72	346.62
418.943	348.62
419.166	359.62
419.389	380.62
419.611	381.62
419.834	359.62
420.057	353.62
420.28	336.62
420.503	329.62
420.726	338.62
420.948	336.62
421.171	326.62
421.394	340.62
421.617	360.62
421.839	330.62
422.062	336.62
422.285	352.62
422.507	348.62
422.73	348.62
422.953	391.62
423.175	344.62
423.398	345.62
423.621	380.62
423.843	371.62
424.066	352.62
424.288	348.62
424.511	344.62
424.733	346.62
424.956	353.62
425.178	343.62
425.401	353.62
425.623	330.62
425.846	340.62
426.068	353.62
426.291	342.62
426.513	332.62
426.735	318.62
426.958	312.62
427.18	315.62
427.402	327.62
427.625	333.62
427.847	310.62
428.069	308.62
428.292	320.62
428.514	316.62
428.736	308.62
428.958	330.62
429.181	304.62
429.403	328.62
429.625	318.62
429.847	324.62
430.069	325.62
430.292	318.62
430.514	319.62
430.736	302.62
430.958	316.62
431.18	302.62
431.402	308.62
431.624	325.62
431.846	323.62
432.068	307.62
432.29	320.62
432.512	314.62
432.734	317.62
432.956	324.62
433.178	319.62
433.4	316.62
433.622	335.62
433.844	354.62
434.066	325.62
434.287	334.62
434.509	338.62
434.731	330.62
434.953	334.62
435.175	345.62
435.397	340.62
435.618	344.62
435.84	325.62
436.062	321.62
436.284	323.62
436.505	331.62
436.727	332.62
436.949	317.62
437.17	333.62
437.392	305.62
437.614	315.62
437.835	297.62
438.057	293.62
438.278	306.62
438.5	312.62
438.721	318.62
438.943	321.62
439.165	321.62
439.386	338.62
439.608	317.62
439.829	349.62
440.05	348.62
440.272	320.62
440.493	338.62
440.715	320.62
440.936	344.62
441.158	342.62
441.379	357.62
441.6	372.62
441.822	363.62
442.043	364.62
442.264	363.62
442.486	358.62
442.707	360.62
442.928	362.62
443.149	339.62
443.371	350.62
443.592	363.62
443.813	376.62
444.034	352.62
444.255	354.62
444.476	378.62
444.698	398.62
444.919	416.62
445.14	480.62
445.361	425.62
445.582	368.62
445.803	357.62
446.024	356.62
446.245	335.62
446.466	369.62
446.687	316.62
446.908	357.62
447.129	344.62
447.35	330.62
447.571	327.62
447.792	340.62
448.013	314.62
448.234	322.62
448.455	312.62
448.675	312.62
448.896	323.62
449.117	328.62
449.338	308.62
449.559	312.62
449.779	321.62
450	327.62
450.221	315.62
450.442	312.62
450.662	301.62
450.883	318.62
451.104	314.62
451.324	315.62
451.545	318.62
451.766	323.62
451.986	312.62
452.207	308.62
452.428	311.62
452.648	297.62
452.869	305.62
453.089	310.62
453.31	296.62
453.53	288.62
453.751	290.62
453.971	289.62
454.192	296.62
454.412	295.62
454.633	307.62
454.853	310.62
455.073	309.62
455.294	286.62
455.514	288.62
455.734	304.62
455.955	297.62
456.175	273.62
456.395	294.62
456.616	312.62
456.836	275.62
457.056	294.62
457.276	282.62
457.497	269.62
457.717	310.62
457.937	306.62
458.157	311.62
458.377	299.62
458.598	318.62
458.818	306.62
459.038	304.62
459.258	317.62
459.478	326.62
459.698	345.62
459.918	331.62
460.138	337.62
460.358	370.62
460.578	370.62
460.798	358.62
461.018	372.62
461.238	374.62
461.458	370.62
461.678	349.62
461.898	368.62
462.118	368.62
462.338	364.62
462.558	390.62
462.777	414.62
462.997	452.62
463.217	463.62
463.437	454.62
463.657	412.62
463.876	392.62
464.096	409.62
464.316	419.62
464.536	402.62
464.755	417.62
464.975	379.62
465.195	370.62
465.414	351.62
465.634	322.62
465.854	327.62
466.073	352.62
466.293	337.62
466.512	311.62
466.732	304.62
466.951	328.62
467.171	324.62
467.391	329.62
467.61	323.62
467.829	327.62
468.049	321.62
468.268	318.62
468.488	313.62
468.707	301.62
468.927	333.62
469.146	315.62
469.365	313.62
469.585	305.62
469.804	315.62
470.023	326.62
470.243	318.62
470.462	333.62
470.681	317.62
470.901	339.62
471.12	347.62
471.339	331.62
471.558	312.62
471.777	325.62
471.997	315.62
472.216	322.62
472.435	324.62
472.654	312.62
472.873	306.62
473.092	287.62
473.311	282.62
473.53	300.62
473.749	309.62
473.968	308.62
474.187	286.62
474.406	308.62
474.625	302.62
474.844	296.62
475.063	311.62
475.282	318.62
475.501	293.62
475.72	310.62
475.939	325.62
476.158	324.62
476.377	320.62
476.596	312.62
476.814	317.62
477.033	323.62
477.252	302.62
477.471	301.62
477.69	331.62
477.908	360.62
478.127	339.62
478.346	348.62
478.564	350.62
478.783	356.62
479.002	354.62
479.22	355.62
479.439	361.62
479.658	363.62
479.876	368.62
480.095	345.62
480.313	388.62
480.532	372.62
480.751	364.62
480.969	366.62
481.188	372.62
481.406	342.62
481.624	326.62
481.843	336.62
482.061	354.62
482.28	332.62
482.498	316.62
482.717	325.62
482.935	336.62
483.153	354.62
483.372	324.62
483.59	329.62
483.808	322.62
484.027	342.62
484.245	347.62
484.463	336.62
484.681	350.62
484.9	356.62
485.118	343.62
485.336	321.62
485.554	346.62
485.772	342.62
485.99	344.62
486.209	339.62
486.427	348.62
486.645	355.62
486.863	333.62
487.081	358.62
487.299	349.62
487.517	353.62
487.735	366.62
487.953	362.62
488.171	362.62
488.389	356.62
488.607	343.62
488.825	329.62
489.043	361.62
489.261	349.62
489.479	346.62
489.696	341.62
489.914	354.62
490.132	348.62
490.35	347.62
490.568	360.62
490.786	356.62
491.003	358.62
491.221	357.62
491.439	352.62
491.657	337.62
491.874	356.62
492.092	355.62
492.31	363.62
492.527	364.62
492.745	362.62
492.963	377.62
493.18	357.62
493.398	366.62
493.615	361.62
493.833	376.62
494.05	359.62
494.268	355.62
494.485	356.62
494.703	356.62
494.92	362.62
495.138	352.62
495.355	377.62
495.573	363.62
495.79	390.62
496.008	370.62
496.225	358.62
496.442	376.62
496.66	389.62
496.877	380.62
497.094	385.62
497.312	388.62
497.529	394.62
497.746	374.62
497.963	413.62
498.181	394.62
498.398	441.62
498.615	451.62
498.832	480.62
499.049	503.62
499.267	537.62
499.484	562.62
499.701	626.62
499.918	692.62
500.135	752.62
500.352	840.62
500.569	835.62
500.786	818.62
501.003	749.62
501.22	717.62
501.437	626.62
501.654	578.62
501.871	543.62
502.088	503.62
502.305	490.62
