Data from Fe(NO3)3@0.05M.TitratingCurve.Agarose3%dH2O.NegLispCup.LampEnergy10.LIBS07252019_HRD10591_16-48-40-334.txt Node
Date: Thu Jul 25 16:48:40 EDT 2019
User: cochatt
Spectrometer: HR+D1059
Trigger mode: 1
Integration Time (sec): 1.000000E-1
Scans to average: 1
Electric dark correction enabled: true
Nonlinearity correction enabled: false
Boxcar width: 0
XAxis mode: Wavelengths
Number of Pixels in Spectrum: 2048
>>>>>Begin Spectral Data<<<<<
223.165	-14.94
223.4	-14.94
223.635	-14.94
223.869	-14.94
224.104	-20.94
224.338	-1.94
224.573	-18.94
224.808	-5.94
225.042	-10.94
225.277	-15.94
225.511	10.06
225.746	17.06
225.98	7.06
226.215	3.06
226.449	12.06
226.683	13.06
226.918	21.06
227.152	21.06
227.387	27.06
227.621	42.06
227.856	42.06
228.09	38.06
228.324	38.06
228.559	48.06
228.793	56.06
229.027	54.06
229.262	70.06
229.496	73.06
229.73	88.06
229.964	89.06
230.199	73.06
230.433	84.06
230.667	82.06
230.901	77.06
231.136	79.06
231.37	88.06
231.604	87.06
231.838	90.06
232.072	95.06
232.306	97.06
232.541	88.06
232.775	93.06
233.009	95.06
233.243	88.06
233.477	112.06
233.711	84.06
233.945	94.06
234.179	100.06
234.413	99.06
234.647	99.06
234.881	113.06
235.115	103.06
235.349	82.06
235.583	98.06
235.817	92.06
236.051	98.06
236.285	106.06
236.519	109.06
236.753	86.06
236.987	79.06
237.221	100.06
237.455	99.06
237.689	95.06
237.922	112.06
238.156	93.06
238.39	91.06
238.624	98.06
238.858	102.06
239.091	103.06
239.325	75.06
239.559	90.06
239.793	106.06
240.027	101.06
240.26	96.06
240.494	104.06
240.728	103.06
240.961	100.06
241.195	91.06
241.429	95.06
241.662	101.06
241.896	117.06
242.13	111.06
242.363	95.06
242.597	112.06
242.83	98.06
243.064	107.06
243.298	100.06
243.531	90.06
243.765	103.06
243.998	115.06
244.232	105.06
244.465	113.06
244.699	102.06
244.932	95.06
245.166	112.06
245.399	117.06
245.633	101.06
245.866	109.06
246.099	104.06
246.333	116.06
246.566	115.06
246.8	111.06
247.033	114.06
247.266	112.06
247.5	98.06
247.733	106.06
247.966	116.06
248.2	106.06
248.433	112.06
248.666	113.06
248.899	114.06
249.133	113.06
249.366	110.06
249.599	111.06
249.832	125.06
250.066	112.06
250.299	121.06
250.532	114.06
250.765	114.06
250.998	93.06
251.231	114.06
251.465	118.06
251.698	122.06
251.931	114.06
252.164	117.06
252.397	111.06
252.63	124.06
252.863	129.06
253.096	129.06
253.329	127.06
253.562	121.06
253.795	110.06
254.028	113.06
254.261	125.06
254.494	133.06
254.727	115.06
254.96	119.06
255.193	131.06
255.426	129.06
255.659	126.06
255.892	116.06
256.124	122.06
256.357	136.06
256.59	135.06
256.823	125.06
257.056	134.06
257.289	114.06
257.521	135.06
257.754	117.06
257.987	123.06
258.22	132.06
258.452	130.06
258.685	143.06
258.918	134.06
259.151	121.06
259.383	118.06
259.616	127.06
259.849	133.06
260.081	130.06
260.314	137.06
260.547	144.06
260.779	142.06
261.012	125.06
261.244	124.06
261.477	127.06
261.71	131.06
261.942	128.06
262.175	149.06
262.407	129.06
262.64	121.06
262.872	126.06
263.105	137.06
263.337	128.06
263.57	139.06
263.802	131.06
264.035	136.06
264.267	129.06
264.499	124.06
264.732	149.06
264.964	139.06
265.197	139.06
265.429	148.06
265.661	127.06
265.894	125.06
266.126	154.06
266.358	143.06
266.591	143.06
266.823	135.06
267.055	153.06
267.287	139.06
267.52	145.06
267.752	130.06
267.984	141.06
268.216	123.06
268.448	146.06
268.681	150.06
268.913	141.06
269.145	137.06
269.377	145.06
269.609	147.06
269.841	156.06
270.073	143.06
270.306	148.06
270.538	146.06
270.77	144.06
271.002	154.06
271.234	143.06
271.466	150.06
271.698	146.06
271.93	139.06
272.162	149.06
272.394	141.06
272.626	145.06
272.858	137.06
273.09	143.06
273.322	135.06
273.553	158.06
273.785	157.06
274.017	149.06
274.249	158.06
274.481	154.06
274.713	163.06
274.945	161.06
275.176	148.06
275.408	146.06
275.64	135.06
275.872	158.06
276.104	163.06
276.335	150.06
276.567	161.06
276.799	155.06
277.031	165.06
277.262	146.06
277.494	152.06
277.726	152.06
277.957	148.06
278.189	164.06
278.421	154.06
278.652	162.06
278.884	151.06
279.115	157.06
279.347	145.06
279.579	176.06
279.81	167.06
280.042	153.06
280.273	157.06
280.505	170.06
280.736	164.06
280.968	161.06
281.199	187.06
281.431	151.06
281.662	169.06
281.894	157.06
282.125	158.06
282.356	154.06
282.588	171.06
282.819	167.06
283.051	166.06
283.282	167.06
283.513	157.06
283.745	161.06
283.976	173.06
284.207	181.06
284.439	167.06
284.67	179.06
284.901	189.06
285.132	180.06
285.364	168.06
285.595	184.06
285.826	171.06
286.057	169.06
286.288	165.06
286.52	159.06
286.751	177.06
286.982	189.06
287.213	170.06
287.444	180.06
287.675	168.06
287.906	186.06
288.138	165.06
288.369	189.06
288.6	189.06
288.831	181.06
289.062	190.06
289.293	191.06
289.524	167.06
289.755	198.06
289.986	169.06
290.217	169.06
290.448	157.06
290.679	194.06
290.91	177.06
291.141	177.06
291.371	188.06
291.602	177.06
291.833	183.06
292.064	177.06
292.295	185.06
292.526	162.06
292.757	191.06
292.987	170.06
293.218	162.06
293.449	183.06
293.68	176.06
293.91	181.06
294.141	180.06
294.372	161.06
294.603	170.06
294.833	182.06
295.064	177.06
295.295	180.06
295.525	183.06
295.756	183.06
295.987	179.06
296.217	165.06
296.448	177.06
296.679	179.06
296.909	184.06
297.14	197.06
297.37	198.06
297.601	198.06
297.831	191.06
298.062	181.06
298.292	196.06
298.523	198.06
298.753	189.06
298.984	185.06
299.214	196.06
299.445	185.06
299.675	183.06
299.905	197.06
300.136	191.06
300.366	205.06
300.597	179.06
300.827	182.06
301.057	184.06
301.288	201.06
301.518	196.06
301.748	188.06
301.979	205.06
302.209	197.06
302.439	195.06
302.669	197.06
302.9	200.06
303.13	199.06
303.36	197.06
303.59	198.06
303.82	191.06
304.051	205.06
304.281	194.06
304.511	205.06
304.741	202.06
304.971	204.06
305.201	203.06
305.431	207.06
305.661	200.06
305.891	185.06
306.121	193.06
306.352	189.06
306.582	188.06
306.812	198.06
307.042	202.06
307.272	181.06
307.502	194.06
307.731	191.06
307.961	187.06
308.191	193.06
308.421	206.06
308.651	199.06
308.881	193.06
309.111	195.06
309.341	199.06
309.571	206.06
309.8	188.06
310.03	204.06
310.26	208.06
310.49	193.06
310.72	210.06
310.949	185.06
311.179	209.06
311.409	192.06
311.639	210.06
311.868	198.06
312.098	206.06
312.328	202.06
312.557	218.06
312.787	193.06
313.017	188.06
313.246	204.06
313.476	199.06
313.706	211.06
313.935	222.06
314.165	212.06
314.394	209.06
314.624	201.06
314.853	205.06
315.083	199.06
315.312	197.06
315.542	217.06
315.771	217.06
316.001	203.06
316.23	200.06
316.46	196.06
316.689	206.06
316.919	187.06
317.148	202.06
317.377	206.06
317.607	214.06
317.836	208.06
318.065	198.06
318.295	206.06
318.524	187.06
318.753	189.06
318.983	200.06
319.212	208.06
319.441	208.06
319.67	214.06
319.9	214.06
320.129	205.06
320.358	197.06
320.587	200.06
320.816	205.06
321.046	200.06
321.275	205.06
321.504	212.06
321.733	195.06
321.962	202.06
322.191	203.06
322.42	216.06
322.649	201.06
322.878	210.06
323.108	195.06
323.337	209.06
323.566	222.06
323.795	197.06
324.024	207.06
324.253	205.06
324.482	225.06
324.71	208.06
324.939	230.06
325.168	220.06
325.397	212.06
325.626	215.06
325.855	221.06
326.084	211.06
326.313	219.06
326.542	222.06
326.77	221.06
326.999	197.06
327.228	223.06
327.457	218.06
327.686	216.06
327.914	222.06
328.143	219.06
328.372	218.06
328.6	218.06
328.829	213.06
329.058	222.06
329.287	218.06
329.515	216.06
329.744	236.06
329.972	237.06
330.201	220.06
330.43	242.06
330.658	217.06
330.887	213.06
331.115	227.06
331.344	224.06
331.572	251.06
331.801	243.06
332.03	255.06
332.258	243.06
332.486	240.06
332.715	239.06
332.943	254.06
333.172	276.06
333.4	263.06
333.629	252.06
333.857	284.06
334.085	265.06
334.314	271.06
334.542	267.06
334.771	275.06
334.999	249.06
335.227	276.06
335.455	261.06
335.684	253.06
335.912	258.06
336.14	266.06
336.369	251.06
336.597	262.06
336.825	265.06
337.053	250.06
337.281	248.06
337.51	244.06
337.738	235.06
337.966	239.06
338.194	230.06
338.422	238.06
338.65	245.06
338.878	234.06
339.106	251.06
339.334	232.06
339.562	219.06
339.79	243.06
340.018	227.06
340.246	209.06
340.474	246.06
340.702	232.06
340.93	213.06
341.158	229.06
341.386	217.06
341.614	243.06
341.842	227.06
342.07	223.06
342.298	233.06
342.526	238.06
342.754	233.06
342.981	231.06
343.209	223.06
343.437	245.06
343.665	246.06
343.893	262.06
344.12	254.06
344.348	251.06
344.576	265.06
344.804	247.06
345.031	253.06
345.259	251.06
345.487	236.06
345.714	228.06
345.942	221.06
346.17	244.06
346.397	232.06
346.625	225.06
346.853	240.06
347.08	233.06
347.308	233.06
347.535	217.06
347.763	222.06
347.99	225.06
348.218	220.06
348.445	210.06
348.673	225.06
348.9	223.06
349.128	227.06
349.355	219.06
349.583	226.06
349.81	226.06
350.037	226.06
350.265	227.06
350.492	222.06
350.72	219.06
350.947	209.06
351.174	230.06
351.402	213.06
351.629	211.06
351.856	211.06
352.083	225.06
352.311	216.06
352.538	207.06
352.765	222.06
352.992	227.06
353.22	216.06
353.447	234.06
353.674	235.06
353.901	208.06
354.128	232.06
354.355	227.06
354.583	210.06
354.81	210.06
355.037	241.06
355.264	218.06
355.491	245.06
355.718	216.06
355.945	216.06
356.172	225.06
356.399	215.06
356.626	214.06
356.853	234.06
357.08	213.06
357.307	243.06
357.534	217.06
357.761	212.06
357.988	224.06
358.215	239.06
358.441	217.06
358.668	207.06
358.895	211.06
359.122	224.06
359.349	227.06
359.576	219.06
359.802	210.06
360.029	217.06
360.256	225.06
360.483	224.06
360.709	210.06
360.936	217.06
361.163	212.06
361.39	222.06
361.616	213.06
361.843	222.06
362.07	216.06
362.296	226.06
362.523	224.06
362.749	216.06
362.976	229.06
363.203	216.06
363.429	227.06
363.656	219.06
363.882	223.06
364.109	237.06
364.335	226.06
364.562	211.06
364.788	225.06
365.015	226.06
365.241	216.06
365.468	239.06
365.694	217.06
365.92	225.06
366.147	221.06
366.373	225.06
366.599	215.06
366.826	222.06
367.052	238.06
367.278	239.06
367.505	221.06
367.731	251.06
367.957	221.06
368.184	237.06
368.41	206.06
368.636	228.06
368.862	239.06
369.089	234.06
369.315	232.06
369.541	250.06
369.767	218.06
369.993	230.06
370.219	224.06
370.445	244.06
370.672	235.06
370.898	243.06
371.124	237.06
371.35	243.06
371.576	261.06
371.802	250.06
372.028	225.06
372.254	268.06
372.48	232.06
372.706	241.06
372.932	246.06
373.158	243.06
373.384	247.06
373.61	249.06
373.835	239.06
374.061	243.06
374.287	242.06
374.513	255.06
374.739	265.06
374.965	244.06
375.191	264.06
375.416	266.06
375.642	247.06
375.868	245.06
376.094	251.06
376.319	243.06
376.545	255.06
376.771	243.06
376.997	238.06
377.222	253.06
377.448	256.06
377.674	245.06
377.899	252.06
378.125	253.06
378.35	228.06
378.576	239.06
378.802	247.06
379.027	234.06
379.253	241.06
379.478	258.06
379.704	241.06
379.929	250.06
380.155	247.06
380.38	263.06
380.606	235.06
380.831	249.06
381.057	241.06
381.282	238.06
381.507	253.06
381.733	264.06
381.958	239.06
382.184	253.06
382.409	267.06
382.634	265.06
382.86	257.06
383.085	286.06
383.31	250.06
383.535	287.06
383.761	259.06
383.986	270.06
384.211	279.06
384.436	276.06
384.662	290.06
384.887	291.06
385.112	289.06
385.337	281.06
385.562	299.06
385.787	290.06
386.013	306.06
386.238	282.06
386.463	273.06
386.688	288.06
386.913	304.06
387.138	278.06
387.363	277.06
387.588	286.06
387.813	294.06
388.038	287.06
388.263	288.06
388.488	299.06
388.713	300.06
388.938	301.06
389.163	289.06
389.387	293.06
389.612	297.06
389.837	290.06
390.062	293.06
390.287	278.06
390.512	286.06
390.736	287.06
390.961	296.06
391.186	293.06
391.411	317.06
391.636	285.06
391.86	305.06
392.085	318.06
392.31	336.06
392.534	303.06
392.759	294.06
392.984	306.06
393.208	312.06
393.433	313.06
393.658	294.06
393.882	293.06
394.107	321.06
394.331	317.06
394.556	312.06
394.78	320.06
395.005	320.06
395.229	330.06
395.454	322.06
395.678	334.06
395.903	328.06
396.127	304.06
396.352	302.06
396.576	302.06
396.801	310.06
397.025	323.06
397.249	320.06
397.474	327.06
397.698	331.06
397.922	344.06
398.147	322.06
398.371	322.06
398.595	342.06
398.82	361.06
399.044	374.06
399.268	396.06
399.492	443.06
399.717	486.06
399.941	454.06
400.165	413.06
400.389	410.06
400.613	382.06
400.837	367.06
401.062	368.06
401.286	358.06
401.51	345.06
401.734	337.06
401.958	343.06
402.182	350.06
402.406	367.06
402.63	377.06
402.854	381.06
403.078	375.06
403.302	381.06
403.526	371.06
403.75	382.06
403.974	373.06
404.198	395.06
404.422	379.06
404.645	396.06
404.869	394.06
405.093	385.06
405.317	379.06
405.541	386.06
405.765	379.06
405.988	381.06
406.212	375.06
406.436	381.06
406.66	394.06
406.883	401.06
407.107	402.06
407.331	437.06
407.555	431.06
407.778	431.06
408.002	435.06
408.226	429.06
408.449	421.06
408.673	399.06
408.896	426.06
409.12	395.06
409.344	405.06
409.567	409.06
409.791	412.06
410.014	400.06
410.238	380.06
410.461	389.06
410.685	399.06
410.908	394.06
411.132	385.06
411.355	386.06
411.578	391.06
411.802	381.06
412.025	373.06
412.249	405.06
412.472	394.06
412.695	374.06
412.919	374.06
413.142	393.06
413.365	366.06
413.589	371.06
413.812	365.06
414.035	357.06
414.258	371.06
414.482	375.06
414.705	376.06
414.928	371.06
415.151	390.06
415.374	381.06
415.597	370.06
415.821	370.06
416.044	361.06
416.267	383.06
416.49	361.06
416.713	372.06
416.936	362.06
417.159	357.06
417.382	359.06
417.605	374.06
417.828	369.06
418.051	359.06
418.274	374.06
418.497	369.06
418.72	386.06
418.943	400.06
419.166	392.06
419.389	418.06
419.611	393.06
419.834	409.06
420.057	383.06
420.28	367.06
420.503	356.06
420.726	369.06
420.948	365.06
421.171	373.06
421.394	360.06
421.617	371.06
421.839	367.06
422.062	362.06
422.285	375.06
422.507	350.06
422.73	363.06
422.953	366.06
423.175	398.06
423.398	385.06
423.621	372.06
423.843	377.06
424.066	370.06
424.288	358.06
424.511	374.06
424.733	379.06
424.956	377.06
425.178	360.06
425.401	369.06
425.623	378.06
425.846	355.06
426.068	358.06
426.291	366.06
426.513	353.06
426.735	367.06
426.958	334.06
427.18	345.06
427.402	355.06
427.625	342.06
427.847	347.06
428.069	350.06
428.292	348.06
428.514	337.06
428.736	340.06
428.958	349.06
429.181	349.06
429.403	344.06
429.625	340.06
429.847	342.06
430.069	356.06
430.292	318.06
430.514	341.06
430.736	337.06
430.958	333.06
431.18	329.06
431.402	334.06
431.624	327.06
431.846	341.06
432.068	329.06
432.29	333.06
432.512	344.06
432.734	370.06
432.956	357.06
433.178	345.06
433.4	345.06
433.622	341.06
433.844	354.06
434.066	332.06
434.287	360.06
434.509	367.06
434.731	364.06
434.953	384.06
435.175	373.06
435.397	373.06
435.618	361.06
435.84	354.06
436.062	362.06
436.284	353.06
436.505	329.06
436.727	357.06
436.949	333.06
437.17	345.06
437.392	343.06
437.614	346.06
437.835	341.06
438.057	349.06
438.278	330.06
438.5	327.06
438.721	338.06
438.943	344.06
439.165	337.06
439.386	339.06
439.608	347.06
439.829	357.06
440.05	350.06
440.272	377.06
440.493	344.06
440.715	369.06
440.936	359.06
441.158	347.06
441.379	353.06
441.6	358.06
441.822	393.06
442.043	389.06
442.264	376.06
442.486	373.06
442.707	363.06
442.928	362.06
443.149	365.06
443.371	377.06
443.592	370.06
443.813	377.06
444.034	389.06
444.255	406.06
444.476	389.06
444.698	399.06
444.919	442.06
445.14	515.06
445.361	458.06
445.582	405.06
445.803	377.06
446.024	382.06
446.245	371.06
446.466	362.06
446.687	359.06
446.908	358.06
447.129	338.06
447.35	350.06
447.571	354.06
447.792	338.06
448.013	342.06
448.234	355.06
448.455	324.06
448.675	330.06
448.896	332.06
449.117	313.06
449.338	333.06
449.559	340.06
449.779	342.06
450	323.06
450.221	323.06
450.442	320.06
450.662	328.06
450.883	331.06
451.104	338.06
451.324	330.06
451.545	311.06
451.766	326.06
451.986	334.06
452.207	330.06
452.428	311.06
452.648	319.06
452.869	327.06
453.089	313.06
453.31	314.06
453.53	314.06
453.751	331.06
453.971	302.06
454.192	305.06
454.412	291.06
454.633	317.06
454.853	321.06
455.073	318.06
455.294	324.06
455.514	302.06
455.734	322.06
455.955	309.06
456.175	293.06
456.395	309.06
456.616	293.06
456.836	287.06
457.056	316.06
457.276	299.06
457.497	318.06
457.717	309.06
457.937	303.06
458.157	313.06
458.377	302.06
458.598	332.06
458.818	331.06
459.038	337.06
459.258	342.06
459.478	339.06
459.698	361.06
459.918	354.06
460.138	365.06
460.358	385.06
460.578	375.06
460.798	393.06
461.018	389.06
461.238	371.06
461.458	384.06
461.678	394.06
461.898	392.06
462.118	405.06
462.338	420.06
462.558	413.06
462.777	434.06
462.997	457.06
463.217	487.06
463.437	462.06
463.657	447.06
463.876	431.06
464.096	418.06
464.316	435.06
464.536	456.06
464.755	422.06
464.975	394.06
465.195	396.06
465.414	385.06
465.634	355.06
465.854	368.06
466.073	359.06
466.293	357.06
466.512	355.06
466.732	338.06
466.951	345.06
467.171	351.06
467.391	343.06
467.61	348.06
467.829	334.06
468.049	332.06
468.268	325.06
468.488	326.06
468.707	327.06
468.927	320.06
469.146	340.06
469.365	347.06
469.585	335.06
469.804	336.06
470.023	355.06
470.243	334.06
470.462	335.06
470.681	347.06
470.901	338.06
471.12	322.06
471.339	341.06
471.558	334.06
471.777	332.06
471.997	338.06
472.216	334.06
472.435	317.06
472.654	327.06
472.873	320.06
473.092	311.06
473.311	323.06
473.53	307.06
473.749	324.06
473.968	319.06
474.187	313.06
474.406	302.06
474.625	321.06
474.844	319.06
475.063	328.06
475.282	320.06
475.501	345.06
475.72	331.06
475.939	326.06
476.158	334.06
476.377	337.06
476.596	343.06
476.814	354.06
477.033	350.06
477.252	327.06
477.471	343.06
477.69	357.06
477.908	349.06
478.127	390.06
478.346	363.06
478.564	371.06
478.783	371.06
479.002	379.06
479.22	381.06
479.439	381.06
479.658	376.06
479.876	398.06
480.095	395.06
480.313	405.06
480.532	393.06
480.751	394.06
480.969	384.06
481.188	354.06
481.406	379.06
481.624	338.06
481.843	374.06
482.061	356.06
482.28	353.06
482.498	335.06
482.717	342.06
482.935	354.06
483.153	356.06
483.372	361.06
483.59	361.06
483.808	346.06
484.027	375.06
484.245	379.06
484.463	377.06
484.681	362.06
484.9	373.06
485.118	381.06
485.336	365.06
485.554	369.06
485.772	361.06
485.99	354.06
486.209	351.06
486.427	383.06
486.645	377.06
486.863	359.06
487.081	386.06
487.299	376.06
487.517	389.06
487.735	370.06
487.953	377.06
488.171	401.06
488.389	369.06
488.607	366.06
488.825	370.06
489.043	365.06
489.261	373.06
489.479	374.06
489.696	374.06
489.914	384.06
490.132	379.06
490.35	366.06
490.568	378.06
490.786	387.06
491.003	391.06
491.221	402.06
491.439	403.06
491.657	401.06
491.874	376.06
492.092	397.06
492.31	405.06
492.527	410.06
492.745	386.06
492.963	411.06
493.18	400.06
493.398	390.06
493.615	392.06
493.833	385.06
494.05	388.06
494.268	389.06
494.485	386.06
494.703	389.06
494.92	379.06
495.138	415.06
495.355	390.06
495.573	384.06
495.79	407.06
496.008	411.06
496.225	414.06
496.442	391.06
496.66	403.06
496.877	406.06
497.094	415.06
497.312	425.06
497.529	433.06
497.746	418.06
497.963	430.06
498.181	458.06
498.398	457.06
498.615	469.06
498.832	514.06
499.049	569.06
499.267	587.06
499.484	597.06
499.701	645.06
499.918	726.06
500.135	808.06
500.352	864.06
500.569	903.06
500.786	907.06
501.003	873.06
501.22	778.06
501.437	695.06
501.654	637.06
501.871	607.06
502.088	563.06
