Data from Fe(NO3)3@0.1M.TitratingCurve.Agarose3%dH2O.NegLispCup.LampEnergy10.LIBS07252019_HRD10591_16-37-50-331.txt Node
Date: Thu Jul 25 16:37:50 EDT 2019
User: cochatt
Spectrometer: HR+D1059
Trigger mode: 1
Integration Time (sec): 1.000000E-1
Scans to average: 1
Electric dark correction enabled: true
Nonlinearity correction enabled: false
Boxcar width: 0
XAxis mode: Wavelengths
Number of Pixels in Spectrum: 2048
>>>>>Begin Spectral Data<<<<<
223.165	0.5
223.4	0.5
223.635	0.5
223.869	-23.5
224.104	-24.5
224.338	-23.5
224.573	-1.5
224.808	-11.5
225.042	2.5
225.277	-17.5
225.511	-2.5
225.746	-2.5
225.98	8.5
226.215	10.5
226.449	18.5
226.683	10.5
226.918	19.5
227.152	36.5
227.387	34.5
227.621	42.5
227.856	46.5
228.09	45.5
228.324	39.5
228.559	51.5
228.793	56.5
229.027	73.5
229.262	79.5
229.496	53.5
229.73	82.5
229.964	67.5
230.199	80.5
230.433	74.5
230.667	76.5
230.901	76.5
231.136	93.5
231.37	85.5
231.604	63.5
231.838	89.5
232.072	89.5
232.306	82.5
232.541	89.5
232.775	90.5
233.009	84.5
233.243	77.5
233.477	86.5
233.711	90.5
233.945	78.5
234.179	76.5
234.413	102.5
234.647	91.5
234.881	74.5
235.115	79.5
235.349	96.5
235.583	86.5
235.817	92.5
236.051	98.5
236.285	86.5
236.519	95.5
236.753	94.5
236.987	76.5
237.221	91.5
237.455	80.5
237.689	85.5
237.922	86.5
238.156	90.5
238.39	78.5
238.624	92.5
238.858	90.5
239.091	69.5
239.325	68.5
239.559	101.5
239.793	84.5
240.027	89.5
240.26	94.5
240.494	80.5
240.728	90.5
240.961	91.5
241.195	85.5
241.429	88.5
241.662	94.5
241.896	87.5
242.13	68.5
242.363	76.5
242.597	94.5
242.83	82.5
243.064	93.5
243.298	74.5
243.531	101.5
243.765	90.5
243.998	89.5
244.232	87.5
244.465	76.5
244.699	85.5
244.932	90.5
245.166	91.5
245.399	84.5
245.633	86.5
245.866	84.5
246.099	91.5
246.333	93.5
246.566	88.5
246.8	81.5
247.033	78.5
247.266	87.5
247.5	65.5
247.733	84.5
247.966	82.5
248.2	90.5
248.433	92.5
248.666	94.5
248.899	93.5
249.133	74.5
249.366	108.5
249.599	93.5
249.832	85.5
250.066	84.5
250.299	83.5
250.532	79.5
250.765	77.5
250.998	98.5
251.231	83.5
251.465	91.5
251.698	86.5
251.931	96.5
252.164	89.5
252.397	106.5
252.63	81.5
252.863	84.5
253.096	78.5
253.329	104.5
253.562	94.5
253.795	94.5
254.028	102.5
254.261	85.5
254.494	100.5
254.727	91.5
254.96	96.5
255.193	97.5
255.426	91.5
255.659	94.5
255.892	87.5
256.124	89.5
256.357	96.5
256.59	93.5
256.823	89.5
257.056	96.5
257.289	96.5
257.521	94.5
257.754	89.5
257.987	70.5
258.22	107.5
258.452	113.5
258.685	83.5
258.918	88.5
259.151	80.5
259.383	87.5
259.616	91.5
259.849	98.5
260.081	104.5
260.314	100.5
260.547	89.5
260.779	91.5
261.012	105.5
261.244	83.5
261.477	87.5
261.71	97.5
261.942	85.5
262.175	93.5
262.407	74.5
262.64	70.5
262.872	95.5
263.105	93.5
263.337	98.5
263.57	100.5
263.802	92.5
264.035	96.5
264.267	104.5
264.499	93.5
264.732	102.5
264.964	87.5
265.197	88.5
265.429	93.5
265.661	80.5
265.894	87.5
266.126	93.5
266.358	107.5
266.591	92.5
266.823	91.5
267.055	102.5
267.287	92.5
267.52	82.5
267.752	90.5
267.984	85.5
268.216	91.5
268.448	86.5
268.681	116.5
268.913	99.5
269.145	86.5
269.377	100.5
269.609	85.5
269.841	84.5
270.073	101.5
270.306	92.5
270.538	94.5
270.77	83.5
271.002	85.5
271.234	103.5
271.466	80.5
271.698	90.5
271.93	101.5
272.162	99.5
272.394	92.5
272.626	96.5
272.858	106.5
273.09	104.5
273.322	78.5
273.553	94.5
273.785	103.5
274.017	96.5
274.249	108.5
274.481	106.5
274.713	117.5
274.945	116.5
275.176	94.5
275.408	91.5
275.64	102.5
275.872	101.5
276.104	99.5
276.335	97.5
276.567	99.5
276.799	92.5
277.031	99.5
277.262	101.5
277.494	82.5
277.726	102.5
277.957	101.5
278.189	92.5
278.421	90.5
278.652	106.5
278.884	96.5
279.115	102.5
279.347	106.5
279.579	95.5
279.81	88.5
280.042	91.5
280.273	90.5
280.505	84.5
280.736	104.5
280.968	107.5
281.199	91.5
281.431	102.5
281.662	92.5
281.894	123.5
282.125	86.5
282.356	108.5
282.588	92.5
282.819	88.5
283.051	95.5
283.282	95.5
283.513	93.5
283.745	100.5
283.976	90.5
284.207	93.5
284.439	100.5
284.67	103.5
284.901	95.5
285.132	90.5
285.364	109.5
285.595	102.5
285.826	92.5
286.057	102.5
286.288	91.5
286.52	93.5
286.751	91.5
286.982	103.5
287.213	114.5
287.444	109.5
287.675	98.5
287.906	98.5
288.138	102.5
288.369	86.5
288.6	102.5
288.831	98.5
289.062	111.5
289.293	101.5
289.524	87.5
289.755	113.5
289.986	92.5
290.217	93.5
290.448	107.5
290.679	93.5
290.91	108.5
291.141	98.5
291.371	115.5
291.602	109.5
291.833	102.5
292.064	80.5
292.295	110.5
292.526	118.5
292.757	102.5
292.987	102.5
293.218	105.5
293.449	92.5
293.68	87.5
293.91	91.5
294.141	103.5
294.372	104.5
294.603	116.5
294.833	108.5
295.064	107.5
295.295	79.5
295.525	108.5
295.756	108.5
295.987	101.5
296.217	88.5
296.448	95.5
296.679	99.5
296.909	105.5
297.14	106.5
297.37	106.5
297.601	112.5
297.831	90.5
298.062	84.5
298.292	102.5
298.523	108.5
298.753	94.5
298.984	107.5
299.214	91.5
299.445	100.5
299.675	102.5
299.905	106.5
300.136	98.5
300.366	77.5
300.597	102.5
300.827	109.5
301.057	109.5
301.288	95.5
301.518	110.5
301.748	109.5
301.979	115.5
302.209	111.5
302.439	105.5
302.669	98.5
302.9	118.5
303.13	115.5
303.36	105.5
303.59	103.5
303.82	96.5
304.051	112.5
304.281	91.5
304.511	110.5
304.741	109.5
304.971	109.5
305.201	98.5
305.431	120.5
305.661	115.5
305.891	99.5
306.121	103.5
306.352	103.5
306.582	115.5
306.812	123.5
307.042	119.5
307.272	98.5
307.502	120.5
307.731	120.5
307.961	115.5
308.191	95.5
308.421	109.5
308.651	109.5
308.881	110.5
309.111	108.5
309.341	101.5
309.571	126.5
309.8	104.5
310.03	108.5
310.26	107.5
310.49	97.5
310.72	93.5
310.949	102.5
311.179	105.5
311.409	106.5
311.639	111.5
311.868	110.5
312.098	120.5
312.328	107.5
312.557	116.5
312.787	116.5
313.017	122.5
313.246	126.5
313.476	107.5
313.706	119.5
313.935	116.5
314.165	106.5
314.394	111.5
314.624	114.5
314.853	111.5
315.083	118.5
315.312	106.5
315.542	95.5
315.771	122.5
316.001	108.5
316.23	112.5
316.46	104.5
316.689	102.5
316.919	122.5
317.148	124.5
317.377	118.5
317.607	120.5
317.836	101.5
318.065	96.5
318.295	116.5
318.524	92.5
318.753	97.5
318.983	107.5
319.212	106.5
319.441	109.5
319.67	106.5
319.9	112.5
320.129	105.5
320.358	117.5
320.587	110.5
320.816	95.5
321.046	115.5
321.275	111.5
321.504	108.5
321.733	100.5
321.962	106.5
322.191	106.5
322.42	114.5
322.649	110.5
322.878	106.5
323.108	119.5
323.337	114.5
323.566	124.5
323.795	103.5
324.024	103.5
324.253	109.5
324.482	109.5
324.71	116.5
324.939	122.5
325.168	102.5
325.397	111.5
325.626	108.5
325.855	104.5
326.084	107.5
326.313	122.5
326.542	100.5
326.77	104.5
326.999	97.5
327.228	105.5
327.457	125.5
327.686	120.5
327.914	107.5
328.143	91.5
328.372	107.5
328.6	108.5
328.829	100.5
329.058	105.5
329.287	112.5
329.515	106.5
329.744	114.5
329.972	103.5
330.201	118.5
330.43	102.5
330.658	111.5
330.887	109.5
331.115	111.5
331.344	108.5
331.572	122.5
331.801	107.5
332.03	111.5
332.258	110.5
332.486	96.5
332.715	119.5
332.943	123.5
333.172	124.5
333.4	120.5
333.629	125.5
333.857	121.5
334.085	118.5
334.314	134.5
334.542	115.5
334.771	118.5
334.999	111.5
335.227	104.5
335.455	120.5
335.684	123.5
335.912	122.5
336.14	111.5
336.369	121.5
336.597	111.5
336.825	114.5
337.053	99.5
337.281	101.5
337.51	124.5
337.738	124.5
337.966	116.5
338.194	109.5
338.422	107.5
338.65	109.5
338.878	124.5
339.106	118.5
339.334	119.5
339.562	120.5
339.79	122.5
340.018	125.5
340.246	107.5
340.474	116.5
340.702	115.5
340.93	111.5
341.158	104.5
341.386	110.5
341.614	115.5
341.842	111.5
342.07	117.5
342.298	129.5
342.526	116.5
342.754	106.5
342.981	111.5
343.209	103.5
343.437	126.5
343.665	116.5
343.893	124.5
344.12	131.5
344.348	114.5
344.576	123.5
344.804	116.5
345.031	105.5
345.259	114.5
345.487	116.5
345.714	110.5
345.942	124.5
346.17	121.5
346.397	115.5
346.625	115.5
346.853	120.5
347.08	115.5
347.308	115.5
347.535	114.5
347.763	117.5
347.99	121.5
348.218	118.5
348.445	114.5
348.673	127.5
348.9	109.5
349.128	126.5
349.355	112.5
349.583	115.5
349.81	125.5
350.037	132.5
350.265	120.5
350.492	121.5
350.72	109.5
350.947	107.5
351.174	113.5
351.402	116.5
351.629	109.5
351.856	125.5
352.083	121.5
352.311	110.5
352.538	117.5
352.765	126.5
352.992	122.5
353.22	112.5
353.447	118.5
353.674	130.5
353.901	119.5
354.128	126.5
354.355	137.5
354.583	121.5
354.81	98.5
355.037	119.5
355.264	99.5
355.491	104.5
355.718	111.5
355.945	125.5
356.172	109.5
356.399	129.5
356.626	96.5
356.853	111.5
357.08	105.5
357.307	107.5
357.534	128.5
357.761	131.5
357.988	104.5
358.215	116.5
358.441	114.5
358.668	111.5
358.895	123.5
359.122	126.5
359.349	112.5
359.576	118.5
359.802	118.5
360.029	116.5
360.256	118.5
360.483	120.5
360.709	116.5
360.936	122.5
361.163	117.5
361.39	117.5
361.616	101.5
361.843	130.5
362.07	121.5
362.296	110.5
362.523	120.5
362.749	114.5
362.976	123.5
363.203	126.5
363.429	130.5
363.656	124.5
363.882	116.5
364.109	121.5
364.335	107.5
364.562	107.5
364.788	115.5
365.015	110.5
365.241	108.5
365.468	126.5
365.694	120.5
365.92	111.5
366.147	102.5
366.373	116.5
366.599	114.5
366.826	120.5
367.052	124.5
367.278	108.5
367.505	125.5
367.731	129.5
367.957	118.5
368.184	117.5
368.41	115.5
368.636	118.5
368.862	125.5
369.089	135.5
369.315	120.5
369.541	97.5
369.767	105.5
369.993	129.5
370.219	119.5
370.445	121.5
370.672	121.5
370.898	125.5
371.124	127.5
371.35	118.5
371.576	125.5
371.802	118.5
372.028	127.5
372.254	125.5
372.48	130.5
372.706	119.5
372.932	112.5
373.158	114.5
373.384	106.5
373.61	119.5
373.835	122.5
374.061	142.5
374.287	120.5
374.513	130.5
374.739	140.5
374.965	128.5
375.191	146.5
375.416	128.5
375.642	130.5
375.868	146.5
376.094	134.5
376.319	139.5
376.545	120.5
376.771	138.5
376.997	135.5
377.222	120.5
377.448	136.5
377.674	135.5
377.899	132.5
378.125	122.5
378.35	135.5
378.576	124.5
378.802	133.5
379.027	119.5
379.253	124.5
379.478	140.5
379.704	132.5
379.929	120.5
380.155	123.5
380.38	118.5
380.606	111.5
380.831	125.5
381.057	132.5
381.282	130.5
381.507	133.5
381.733	125.5
381.958	125.5
382.184	142.5
382.409	150.5
382.634	149.5
382.86	138.5
383.085	143.5
383.31	135.5
383.535	143.5
383.761	131.5
383.986	121.5
384.211	143.5
384.436	136.5
384.662	124.5
384.887	142.5
385.112	137.5
385.337	148.5
385.562	148.5
385.787	147.5
386.013	156.5
386.238	156.5
386.463	147.5
386.688	151.5
386.913	149.5
387.138	153.5
387.363	145.5
387.588	167.5
387.813	151.5
388.038	144.5
388.263	140.5
388.488	143.5
388.713	127.5
388.938	140.5
389.163	149.5
389.387	149.5
389.612	148.5
389.837	154.5
390.062	158.5
390.287	144.5
390.512	143.5
390.736	148.5
390.961	150.5
391.186	146.5
391.411	159.5
391.636	161.5
391.86	150.5
392.085	158.5
392.31	152.5
392.534	152.5
392.759	143.5
392.984	170.5
393.208	166.5
393.433	160.5
393.658	154.5
393.882	143.5
394.107	142.5
394.331	146.5
394.556	156.5
394.78	149.5
395.005	154.5
395.229	155.5
395.454	157.5
395.678	170.5
395.903	171.5
396.127	162.5
396.352	164.5
396.576	161.5
396.801	172.5
397.025	148.5
397.249	141.5
397.474	165.5
397.698	156.5
397.922	146.5
398.147	153.5
398.371	169.5
398.595	155.5
398.82	169.5
399.044	162.5
399.268	186.5
399.492	200.5
399.717	200.5
399.941	206.5
400.165	191.5
400.389	184.5
400.613	178.5
400.837	162.5
401.062	179.5
401.286	178.5
401.51	167.5
401.734	174.5
401.958	168.5
402.182	181.5
402.406	164.5
402.63	172.5
402.854	180.5
403.078	184.5
403.302	173.5
403.526	175.5
403.75	175.5
403.974	190.5
404.198	186.5
404.422	183.5
404.645	181.5
404.869	196.5
405.093	197.5
405.317	181.5
405.541	198.5
405.765	192.5
405.988	183.5
406.212	189.5
406.436	195.5
406.66	192.5
406.883	180.5
407.107	211.5
407.331	197.5
407.555	199.5
407.778	203.5
408.002	198.5
408.226	187.5
408.449	180.5
408.673	186.5
408.896	183.5
409.12	172.5
409.344	178.5
409.567	190.5
409.791	190.5
410.014	208.5
410.238	202.5
410.461	176.5
410.685	194.5
410.908	173.5
411.132	169.5
411.355	173.5
411.578	181.5
411.802	168.5
412.025	178.5
412.249	179.5
412.472	188.5
412.695	171.5
412.919	184.5
413.142	173.5
413.365	180.5
413.589	190.5
413.812	181.5
414.035	190.5
414.258	171.5
414.482	164.5
414.705	181.5
414.928	186.5
415.151	174.5
415.374	171.5
415.597	188.5
415.821	171.5
416.044	182.5
416.267	182.5
416.49	184.5
416.713	182.5
416.936	186.5
417.159	176.5
417.382	178.5
417.605	182.5
417.828	172.5
418.051	175.5
418.274	184.5
418.497	175.5
418.72	153.5
418.943	179.5
419.166	182.5
419.389	194.5
419.611	195.5
419.834	188.5
420.057	190.5
420.28	185.5
420.503	172.5
420.726	186.5
420.948	166.5
421.171	173.5
421.394	169.5
421.617	199.5
421.839	190.5
422.062	189.5
422.285	195.5
422.507	186.5
422.73	164.5
422.953	165.5
423.175	182.5
423.398	199.5
423.621	197.5
423.843	195.5
424.066	178.5
424.288	174.5
424.511	180.5
424.733	184.5
424.956	195.5
425.178	173.5
425.401	162.5
425.623	180.5
425.846	175.5
426.068	184.5
426.291	166.5
426.513	166.5
426.735	191.5
426.958	180.5
427.18	175.5
427.402	184.5
427.625	186.5
427.847	175.5
428.069	170.5
428.292	166.5
428.514	167.5
428.736	157.5
428.958	166.5
429.181	166.5
429.403	162.5
429.625	181.5
429.847	168.5
430.069	159.5
430.292	189.5
430.514	159.5
430.736	174.5
430.958	162.5
431.18	155.5
431.402	185.5
431.624	171.5
431.846	176.5
432.068	181.5
432.29	158.5
432.512	169.5
432.734	174.5
432.956	192.5
433.178	176.5
433.4	163.5
433.622	165.5
433.844	183.5
434.066	174.5
434.287	181.5
434.509	180.5
434.731	168.5
434.953	201.5
435.175	195.5
435.397	211.5
435.618	178.5
435.84	167.5
436.062	186.5
436.284	168.5
436.505	158.5
436.727	184.5
436.949	192.5
437.17	180.5
437.392	190.5
437.614	174.5
437.835	170.5
438.057	158.5
438.278	171.5
438.5	175.5
438.721	173.5
438.943	166.5
439.165	153.5
439.386	170.5
439.608	194.5
439.829	178.5
440.05	180.5
440.272	171.5
440.493	174.5
440.715	189.5
440.936	182.5
441.158	187.5
441.379	180.5
441.6	191.5
441.822	190.5
442.043	185.5
442.264	172.5
442.486	176.5
442.707	178.5
442.928	196.5
443.149	181.5
443.371	194.5
443.592	172.5
443.813	199.5
444.034	172.5
444.255	187.5
444.476	207.5
444.698	199.5
444.919	225.5
445.14	328.5
445.361	248.5
445.582	190.5
445.803	187.5
446.024	178.5
446.245	185.5
446.466	174.5
446.687	186.5
446.908	182.5
447.129	175.5
447.35	198.5
447.571	189.5
447.792	188.5
448.013	180.5
448.234	162.5
448.455	166.5
448.675	175.5
448.896	183.5
449.117	172.5
449.338	166.5
449.559	172.5
449.779	173.5
450	168.5
450.221	179.5
450.442	155.5
450.662	175.5
450.883	163.5
451.104	187.5
451.324	168.5
451.545	169.5
451.766	168.5
451.986	171.5
452.207	159.5
452.428	170.5
452.648	162.5
452.869	175.5
453.089	185.5
453.31	166.5
453.53	168.5
453.751	160.5
453.971	152.5
454.192	162.5
454.412	175.5
454.633	174.5
454.853	165.5
455.073	181.5
455.294	161.5
455.514	172.5
455.734	170.5
455.955	163.5
456.175	148.5
456.395	169.5
456.616	169.5
456.836	168.5
457.056	181.5
457.276	166.5
457.497	140.5
457.717	160.5
457.937	164.5
458.157	164.5
458.377	158.5
458.598	158.5
458.818	167.5
459.038	167.5
459.258	162.5
459.478	162.5
459.698	165.5
459.918	190.5
460.138	185.5
460.358	198.5
460.578	190.5
460.798	187.5
461.018	202.5
461.238	205.5
461.458	177.5
461.678	189.5
461.898	201.5
462.118	202.5
462.338	199.5
462.558	194.5
462.777	212.5
462.997	211.5
463.217	233.5
463.437	222.5
463.657	203.5
463.876	205.5
464.096	206.5
464.316	204.5
464.536	212.5
464.755	219.5
464.975	204.5
465.195	205.5
465.414	173.5
465.634	180.5
465.854	180.5
466.073	189.5
466.293	190.5
466.512	184.5
466.732	174.5
466.951	179.5
467.171	167.5
467.391	178.5
467.61	171.5
467.829	183.5
468.049	180.5
468.268	176.5
468.488	170.5
468.707	182.5
468.927	188.5
469.146	190.5
469.365	182.5
469.585	179.5
469.804	183.5
470.023	174.5
470.243	188.5
470.462	184.5
470.681	160.5
470.901	178.5
471.12	184.5
471.339	179.5
471.558	179.5
471.777	194.5
471.997	199.5
472.216	166.5
472.435	188.5
472.654	164.5
472.873	179.5
473.092	179.5
473.311	182.5
473.53	165.5
473.749	171.5
473.968	189.5
474.187	162.5
474.406	164.5
474.625	164.5
474.844	174.5
475.063	179.5
475.282	174.5
475.501	178.5
475.72	174.5
475.939	193.5
476.158	193.5
476.377	207.5
476.596	185.5
476.814	191.5
477.033	185.5
477.252	180.5
477.471	191.5
477.69	195.5
477.908	190.5
478.127	208.5
478.346	196.5
478.564	197.5
478.783	182.5
479.002	196.5
479.22	196.5
479.439	203.5
479.658	194.5
479.876	202.5
480.095	207.5
480.313	208.5
480.532	211.5
480.751	203.5
480.969	208.5
481.188	184.5
481.406	189.5
481.624	206.5
481.843	195.5
482.061	194.5
482.28	187.5
482.498	189.5
482.717	181.5
482.935	201.5
483.153	193.5
483.372	197.5
483.59	204.5
483.808	203.5
484.027	208.5
484.245	196.5
484.463	202.5
484.681	211.5
484.9	214.5
485.118	203.5
485.336	203.5
485.554	190.5
485.772	186.5
485.99	198.5
486.209	196.5
486.427	202.5
486.645	191.5
486.863	194.5
487.081	194.5
487.299	193.5
487.517	195.5
487.735	207.5
487.953	197.5
488.171	217.5
488.389	200.5
488.607	206.5
488.825	196.5
489.043	207.5
489.261	197.5
489.479	202.5
489.696	185.5
489.914	198.5
490.132	212.5
490.35	208.5
490.568	204.5
490.786	208.5
491.003	202.5
491.221	219.5
491.439	197.5
491.657	208.5
491.874	213.5
492.092	214.5
492.31	217.5
492.527	215.5
492.745	224.5
492.963	222.5
493.18	215.5
493.398	212.5
493.615	213.5
493.833	207.5
494.05	207.5
494.268	213.5
494.485	209.5
494.703	226.5
494.92	206.5
495.138	205.5
495.355	214.5
495.573	229.5
495.79	189.5
496.008	200.5
496.225	209.5
496.442	206.5
496.66	204.5
496.877	232.5
497.094	209.5
497.312	207.5
497.529	234.5
497.746	227.5
497.963	208.5
498.181	217.5
498.398	246.5
498.615	231.5
498.832	237.5
499.049	253.5
499.267	258.5
499.484	285.5
499.701	322.5
499.918	335.5
500.135	352.5
500.352	398.5
500.569	380.5
500.786	396.5
501.003	360.5
501.22	325.5
501.437	307.5
501.654	290.5
501.871	268.5
502.088	275.5
502.305	251.5
502.522	232.5
502.739	230.5
502.956	246.5
503.172	232.5
503.389	232.5
503.606	212.5
503.823	209.5
504.04	216.5
504.256	216.5
504.473	219.5
504.69	215.5
504.907	223.5
505.123	211.5
505.34	201.5
505.557	206.5
505.773	194.5
505.99	202.5
506.207	208.5
506.423	197.5
506.64	203.5
506.856	200.5
507.073	195.5
507.289	202.5
507.506	195.5
507.722	182.5
507.939	169.5
508.155	198.5
508.372	187.5
508.588	197.5
508.805	184.5
509.021	182.5
509.238	181.5
509.454	181.5
509.67	165.5
509.887	199.5
510.103	180.5
510.319	199.5
510.536	182.5
510.752	174.5
510.968	182.5
511.184	178.5
511.401	183.5
511.617	172.5
511.833	193.5
512.049	176.5
512.265	174.5
512.481	190.5
512.698	195.5
512.914	171.5
513.13	194.5
513.346	180.5
513.562	169.5
513.778	198.5
513.994	169.5
514.21	186.5
514.426	199.5
514.642	180.5
514.858	189.5
515.074	188.5
515.29	180.5
515.506	190.5
515.721	179.5
515.937	184.5
516.153	195.5
516.369	188.5
516.585	186.5
516.801	193.5
517.016	197.5
517.232	189.5
517.448	210.5
517.664	223.5
517.879	207.5
518.095	196.5
518.311	209.5
518.527	212.5
518.742	213.5
518.958	198.5
519.173	206.5
519.389	183.5
519.605	202.5
519.82	179.5
520.036	199.5
520.251	186.5
520.467	195.5
520.682	176.5
520.898	174.5
521.113	188.5
521.329	184.5
521.544	183.5
521.76	172.5
521.975	184.5
522.19	175.5
522.406	165.5
522.621	188.5
522.836	178.5
523.052	197.5
