Data from Fe(NO3)3@0.1M.TitratingCurve.Agarose3%dH2O.NegLispCup.LampEnergy10.LIBS07252019_HRD10591_16-37-31-332.txt Node
Date: Thu Jul 25 16:37:31 EDT 2019
User: cochatt
Spectrometer: HR+D1059
Trigger mode: 1
Integration Time (sec): 1.000000E-1
Scans to average: 1
Electric dark correction enabled: true
Nonlinearity correction enabled: false
Boxcar width: 0
XAxis mode: Wavelengths
Number of Pixels in Spectrum: 2048
>>>>>Begin Spectral Data<<<<<
223.165	-17.75
223.4	-17.75
223.635	-17.75
223.869	-21.75
224.104	-3.75
224.338	-17.75
224.573	-23.75
224.808	-22.75
225.042	-0.75
225.277	-14.75
225.511	-5.75
225.746	3.25
225.98	8.25
226.215	12.25
226.449	16.25
226.683	29.25
226.918	18.25
227.152	41.25
227.387	33.25
227.621	37.25
227.856	46.25
228.09	49.25
228.324	62.25
228.559	37.25
228.793	48.25
229.027	50.25
229.262	61.25
229.496	75.25
229.73	83.25
229.964	84.25
230.199	91.25
230.433	92.25
230.667	87.25
230.901	83.25
231.136	80.25
231.37	95.25
231.604	85.25
231.838	72.25
232.072	97.25
232.306	95.25
232.541	93.25
232.775	82.25
233.009	87.25
233.243	74.25
233.477	86.25
233.711	97.25
233.945	90.25
234.179	93.25
234.413	74.25
234.647	77.25
234.881	89.25
235.115	87.25
235.349	84.25
235.583	82.25
235.817	87.25
236.051	97.25
236.285	92.25
236.519	88.25
236.753	76.25
236.987	77.25
237.221	86.25
237.455	68.25
237.689	96.25
237.922	87.25
238.156	84.25
238.39	97.25
238.624	94.25
238.858	97.25
239.091	77.25
239.325	98.25
239.559	79.25
239.793	87.25
240.027	89.25
240.26	96.25
240.494	91.25
240.728	82.25
240.961	89.25
241.195	78.25
241.429	113.25
241.662	90.25
241.896	90.25
242.13	91.25
242.363	85.25
242.597	96.25
242.83	97.25
243.064	75.25
243.298	87.25
243.531	78.25
243.765	85.25
243.998	93.25
244.232	89.25
244.465	83.25
244.699	80.25
244.932	87.25
245.166	96.25
245.399	92.25
245.633	90.25
245.866	90.25
246.099	102.25
246.333	77.25
246.566	98.25
246.8	95.25
247.033	106.25
247.266	100.25
247.5	83.25
247.733	94.25
247.966	96.25
248.2	82.25
248.433	97.25
248.666	99.25
248.899	98.25
249.133	98.25
249.366	100.25
249.599	105.25
249.832	91.25
250.066	90.25
250.299	94.25
250.532	98.25
250.765	97.25
250.998	99.25
251.231	90.25
251.465	95.25
251.698	96.25
251.931	100.25
252.164	90.25
252.397	103.25
252.63	95.25
252.863	113.25
253.096	91.25
253.329	99.25
253.562	92.25
253.795	96.25
254.028	103.25
254.261	111.25
254.494	98.25
254.727	118.25
254.96	106.25
255.193	107.25
255.426	105.25
255.659	100.25
255.892	97.25
256.124	100.25
256.357	110.25
256.59	100.25
256.823	87.25
257.056	96.25
257.289	99.25
257.521	107.25
257.754	100.25
257.987	115.25
258.22	119.25
258.452	105.25
258.685	103.25
258.918	115.25
259.151	112.25
259.383	108.25
259.616	106.25
259.849	117.25
260.081	104.25
260.314	114.25
260.547	117.25
260.779	112.25
261.012	112.25
261.244	104.25
261.477	105.25
261.71	102.25
261.942	108.25
262.175	98.25
262.407	111.25
262.64	109.25
262.872	117.25
263.105	106.25
263.337	110.25
263.57	115.25
263.802	102.25
264.035	102.25
264.267	95.25
264.499	105.25
264.732	130.25
264.964	103.25
265.197	113.25
265.429	108.25
265.661	101.25
265.894	106.25
266.126	118.25
266.358	118.25
266.591	113.25
266.823	107.25
267.055	104.25
267.287	114.25
267.52	122.25
267.752	123.25
267.984	119.25
268.216	117.25
268.448	107.25
268.681	110.25
268.913	97.25
269.145	110.25
269.377	114.25
269.609	107.25
269.841	106.25
270.073	118.25
270.306	124.25
270.538	112.25
270.77	110.25
271.002	126.25
271.234	107.25
271.466	116.25
271.698	115.25
271.93	114.25
272.162	120.25
272.394	129.25
272.626	133.25
272.858	110.25
273.09	112.25
273.322	120.25
273.553	124.25
273.785	133.25
274.017	135.25
274.249	123.25
274.481	133.25
274.713	130.25
274.945	128.25
275.176	126.25
275.408	128.25
275.64	125.25
275.872	141.25
276.104	140.25
276.335	121.25
276.567	130.25
276.799	106.25
277.031	120.25
277.262	125.25
277.494	115.25
277.726	133.25
277.957	123.25
278.189	116.25
278.421	132.25
278.652	126.25
278.884	135.25
279.115	119.25
279.347	124.25
279.579	130.25
279.81	124.25
280.042	126.25
280.273	110.25
280.505	119.25
280.736	117.25
280.968	129.25
281.199	121.25
281.431	120.25
281.662	123.25
281.894	114.25
282.125	124.25
282.356	122.25
282.588	117.25
282.819	124.25
283.051	127.25
283.282	120.25
283.513	131.25
283.745	119.25
283.976	123.25
284.207	129.25
284.439	135.25
284.67	128.25
284.901	129.25
285.132	123.25
285.364	138.25
285.595	123.25
285.826	138.25
286.057	126.25
286.288	128.25
286.52	136.25
286.751	117.25
286.982	123.25
287.213	119.25
287.444	118.25
287.675	138.25
287.906	120.25
288.138	126.25
288.369	131.25
288.6	139.25
288.831	131.25
289.062	135.25
289.293	139.25
289.524	124.25
289.755	134.25
289.986	140.25
290.217	147.25
290.448	126.25
290.679	140.25
290.91	133.25
291.141	142.25
291.371	140.25
291.602	140.25
291.833	133.25
292.064	122.25
292.295	123.25
292.526	131.25
292.757	136.25
292.987	150.25
293.218	134.25
293.449	126.25
293.68	139.25
293.91	130.25
294.141	137.25
294.372	133.25
294.603	153.25
294.833	138.25
295.064	125.25
295.295	142.25
295.525	141.25
295.756	148.25
295.987	128.25
296.217	132.25
296.448	140.25
296.679	138.25
296.909	141.25
297.14	136.25
297.37	142.25
297.601	146.25
297.831	130.25
298.062	137.25
298.292	154.25
298.523	147.25
298.753	137.25
298.984	147.25
299.214	150.25
299.445	139.25
299.675	141.25
299.905	132.25
300.136	144.25
300.366	137.25
300.597	132.25
300.827	140.25
301.057	139.25
301.288	149.25
301.518	146.25
301.748	129.25
301.979	152.25
302.209	138.25
302.439	151.25
302.669	166.25
302.9	127.25
303.13	152.25
303.36	120.25
303.59	124.25
303.82	161.25
304.051	160.25
304.281	143.25
304.511	150.25
304.741	153.25
304.971	150.25
305.201	159.25
305.431	147.25
305.661	150.25
305.891	149.25
306.121	135.25
306.352	127.25
306.582	144.25
306.812	143.25
307.042	161.25
307.272	136.25
307.502	156.25
307.731	143.25
307.961	148.25
308.191	149.25
308.421	145.25
308.651	154.25
308.881	149.25
309.111	125.25
309.341	149.25
309.571	139.25
309.8	140.25
310.03	160.25
310.26	156.25
310.49	135.25
310.72	151.25
310.949	152.25
311.179	153.25
311.409	148.25
311.639	143.25
311.868	165.25
312.098	157.25
312.328	159.25
312.557	153.25
312.787	139.25
313.017	158.25
313.246	159.25
313.476	153.25
313.706	156.25
313.935	151.25
314.165	148.25
314.394	161.25
314.624	146.25
314.853	162.25
315.083	160.25
315.312	152.25
315.542	156.25
315.771	154.25
316.001	161.25
316.23	153.25
316.46	151.25
316.689	140.25
316.919	152.25
317.148	165.25
317.377	150.25
317.607	144.25
317.836	162.25
318.065	144.25
318.295	159.25
318.524	155.25
318.753	135.25
318.983	150.25
319.212	159.25
319.441	163.25
319.67	141.25
319.9	158.25
320.129	163.25
320.358	147.25
320.587	174.25
320.816	167.25
321.046	139.25
321.275	141.25
321.504	153.25
321.733	163.25
321.962	149.25
322.191	159.25
322.42	158.25
322.649	152.25
322.878	151.25
323.108	171.25
323.337	155.25
323.566	156.25
323.795	160.25
324.024	168.25
324.253	158.25
324.482	154.25
324.71	168.25
324.939	163.25
325.168	155.25
325.397	162.25
325.626	169.25
325.855	154.25
326.084	164.25
326.313	174.25
326.542	150.25
326.77	169.25
326.999	159.25
327.228	158.25
327.457	156.25
327.686	152.25
327.914	145.25
328.143	163.25
328.372	169.25
328.6	160.25
328.829	147.25
329.058	160.25
329.287	156.25
329.515	147.25
329.744	171.25
329.972	160.25
330.201	176.25
330.43	171.25
330.658	176.25
330.887	163.25
331.115	168.25
331.344	168.25
331.572	163.25
331.801	169.25
332.03	160.25
332.258	164.25
332.486	169.25
332.715	168.25
332.943	162.25
333.172	179.25
333.4	191.25
333.629	181.25
333.857	196.25
334.085	180.25
334.314	187.25
334.542	199.25
334.771	190.25
334.999	188.25
335.227	179.25
335.455	165.25
335.684	190.25
335.912	176.25
336.14	176.25
336.369	192.25
336.597	171.25
336.825	180.25
337.053	179.25
337.281	167.25
337.51	166.25
337.738	164.25
337.966	162.25
338.194	146.25
338.422	166.25
338.65	174.25
338.878	168.25
339.106	164.25
339.334	176.25
339.562	163.25
339.79	164.25
340.018	176.25
340.246	171.25
340.474	163.25
340.702	164.25
340.93	174.25
341.158	171.25
341.386	167.25
341.614	178.25
341.842	165.25
342.07	182.25
342.298	178.25
342.526	171.25
342.754	161.25
342.981	167.25
343.209	181.25
343.437	179.25
343.665	199.25
343.893	188.25
344.12	192.25
344.348	203.25
344.576	182.25
344.804	191.25
345.031	169.25
345.259	167.25
345.487	187.25
345.714	174.25
345.942	176.25
346.17	171.25
346.397	176.25
346.625	172.25
346.853	158.25
347.08	169.25
347.308	165.25
347.535	161.25
347.763	155.25
347.99	167.25
348.218	180.25
348.445	170.25
348.673	169.25
348.9	164.25
349.128	159.25
349.355	162.25
349.583	158.25
349.81	151.25
350.037	156.25
350.265	156.25
350.492	179.25
350.72	179.25
350.947	166.25
351.174	182.25
351.402	161.25
351.629	186.25
351.856	169.25
352.083	155.25
352.311	174.25
352.538	166.25
352.765	163.25
352.992	174.25
353.22	164.25
353.447	170.25
353.674	159.25
353.901	170.25
354.128	153.25
354.355	162.25
354.583	172.25
354.81	175.25
355.037	172.25
355.264	172.25
355.491	163.25
355.718	164.25
355.945	144.25
356.172	174.25
356.399	178.25
356.626	172.25
356.853	160.25
357.08	189.25
357.307	172.25
357.534	173.25
357.761	178.25
357.988	175.25
358.215	175.25
358.441	179.25
358.668	166.25
358.895	154.25
359.122	181.25
359.349	168.25
359.576	167.25
359.802	179.25
360.029	174.25
360.256	178.25
360.483	169.25
360.709	174.25
360.936	180.25
361.163	186.25
361.39	179.25
361.616	179.25
361.843	171.25
362.07	181.25
362.296	169.25
362.523	163.25
362.749	170.25
362.976	170.25
363.203	177.25
363.429	165.25
363.656	167.25
363.882	172.25
364.109	169.25
364.335	177.25
364.562	159.25
364.788	168.25
365.015	169.25
365.241	176.25
365.468	174.25
365.694	166.25
365.92	162.25
366.147	162.25
366.373	166.25
366.599	167.25
366.826	165.25
367.052	161.25
367.278	156.25
367.505	176.25
367.731	200.25
367.957	175.25
368.184	171.25
368.41	176.25
368.636	177.25
368.862	170.25
369.089	161.25
369.315	170.25
369.541	183.25
369.767	171.25
369.993	173.25
370.219	180.25
370.445	195.25
370.672	188.25
370.898	183.25
371.124	168.25
371.35	170.25
371.576	198.25
371.802	180.25
372.028	191.25
372.254	200.25
372.48	190.25
372.706	184.25
372.932	208.25
373.158	188.25
373.384	187.25
373.61	203.25
373.835	200.25
374.061	196.25
374.287	210.25
374.513	203.25
374.739	200.25
374.965	215.25
375.191	206.25
375.416	197.25
375.642	201.25
375.868	200.25
376.094	202.25
376.319	185.25
376.545	201.25
376.771	214.25
376.997	202.25
377.222	204.25
377.448	199.25
377.674	177.25
377.899	195.25
378.125	197.25
378.35	198.25
378.576	187.25
378.802	183.25
379.027	192.25
379.253	197.25
379.478	182.25
379.704	196.25
379.929	174.25
380.155	195.25
380.38	212.25
380.606	191.25
380.831	185.25
381.057	214.25
381.282	191.25
381.507	199.25
381.733	219.25
381.958	215.25
382.184	212.25
382.409	215.25
382.634	214.25
382.86	209.25
383.085	209.25
383.31	205.25
383.535	203.25
383.761	203.25
383.986	210.25
384.211	228.25
384.436	223.25
384.662	208.25
384.887	219.25
385.112	204.25
385.337	209.25
385.562	226.25
385.787	227.25
386.013	238.25
386.238	232.25
386.463	225.25
386.688	236.25
386.913	220.25
387.138	223.25
387.363	246.25
387.588	238.25
387.813	223.25
388.038	233.25
388.263	229.25
388.488	238.25
388.713	235.25
388.938	238.25
389.163	216.25
389.387	235.25
389.612	226.25
389.837	231.25
390.062	235.25
390.287	239.25
390.512	238.25
390.736	228.25
390.961	239.25
391.186	241.25
391.411	247.25
391.636	240.25
391.86	257.25
392.085	256.25
392.31	262.25
392.534	235.25
392.759	252.25
392.984	263.25
393.208	247.25
393.433	242.25
393.658	248.25
393.882	248.25
394.107	252.25
394.331	258.25
394.556	261.25
394.78	259.25
395.005	251.25
395.229	244.25
395.454	266.25
395.678	256.25
395.903	266.25
396.127	250.25
396.352	255.25
396.576	254.25
396.801	244.25
397.025	269.25
397.249	242.25
397.474	240.25
397.698	256.25
397.922	263.25
398.147	258.25
398.371	254.25
398.595	266.25
398.82	299.25
399.044	297.25
399.268	321.25
399.492	346.25
399.717	363.25
399.941	352.25
400.165	345.25
400.389	320.25
400.613	318.25
400.837	292.25
401.062	286.25
401.286	289.25
401.51	287.25
401.734	290.25
401.958	273.25
402.182	309.25
402.406	302.25
402.63	305.25
402.854	279.25
403.078	278.25
403.302	302.25
403.526	316.25
403.75	293.25
403.974	316.25
404.198	312.25
404.422	316.25
404.645	323.25
404.869	298.25
405.093	322.25
405.317	309.25
405.541	300.25
405.765	304.25
405.988	309.25
406.212	321.25
406.436	299.25
406.66	316.25
406.883	302.25
407.107	318.25
407.331	338.25
407.555	335.25
407.778	322.25
408.002	316.25
408.226	338.25
408.449	324.25
408.673	308.25
408.896	305.25
409.12	323.25
409.344	309.25
409.567	298.25
409.791	306.25
410.014	306.25
410.238	290.25
410.461	290.25
410.685	305.25
410.908	306.25
411.132	296.25
411.355	297.25
411.578	286.25
411.802	292.25
412.025	294.25
412.249	304.25
412.472	297.25
412.695	308.25
412.919	272.25
413.142	302.25
413.365	296.25
413.589	281.25
413.812	286.25
414.035	287.25
414.258	298.25
414.482	286.25
414.705	281.25
414.928	296.25
415.151	285.25
415.374	284.25
415.597	279.25
415.821	268.25
416.044	287.25
416.267	288.25
416.49	286.25
416.713	292.25
416.936	296.25
417.159	286.25
417.382	269.25
417.605	302.25
417.828	300.25
418.051	280.25
418.274	276.25
418.497	308.25
418.72	273.25
418.943	297.25
419.166	302.25
419.389	324.25
419.611	287.25
419.834	289.25
420.057	288.25
420.28	281.25
420.503	287.25
420.726	270.25
420.948	283.25
421.171	288.25
421.394	278.25
421.617	286.25
421.839	288.25
422.062	299.25
422.285	281.25
422.507	287.25
422.73	312.25
422.953	286.25
423.175	290.25
423.398	288.25
423.621	300.25
423.843	298.25
424.066	311.25
424.288	293.25
424.511	308.25
424.733	292.25
424.956	285.25
425.178	305.25
425.401	297.25
425.623	291.25
425.846	295.25
426.068	267.25
426.291	274.25
426.513	271.25
426.735	272.25
426.958	280.25
427.18	249.25
427.402	262.25
427.625	276.25
427.847	280.25
428.069	267.25
428.292	261.25
428.514	262.25
428.736	250.25
428.958	261.25
429.181	281.25
429.403	263.25
429.625	266.25
429.847	284.25
430.069	273.25
430.292	264.25
430.514	241.25
430.736	254.25
430.958	284.25
431.18	274.25
431.402	260.25
431.624	263.25
431.846	268.25
432.068	261.25
432.29	267.25
432.512	267.25
432.734	284.25
432.956	267.25
433.178	272.25
433.4	259.25
433.622	277.25
433.844	279.25
434.066	274.25
434.287	289.25
434.509	276.25
434.731	287.25
434.953	284.25
435.175	307.25
435.397	300.25
435.618	280.25
435.84	297.25
436.062	260.25
436.284	286.25
436.505	286.25
436.727	264.25
436.949	286.25
437.17	281.25
437.392	266.25
437.614	259.25
437.835	266.25
438.057	242.25
438.278	271.25
438.5	274.25
438.721	278.25
438.943	258.25
439.165	259.25
439.386	263.25
439.608	269.25
439.829	278.25
440.05	288.25
440.272	280.25
440.493	271.25
440.715	261.25
440.936	266.25
441.158	294.25
441.379	289.25
441.6	303.25
441.822	284.25
442.043	279.25
442.264	276.25
442.486	274.25
442.707	287.25
442.928	294.25
443.149	298.25
443.371	279.25
443.592	304.25
443.813	297.25
444.034	306.25
444.255	317.25
444.476	293.25
444.698	314.25
444.919	312.25
445.14	434.25
445.361	344.25
445.582	302.25
445.803	293.25
446.024	268.25
446.245	289.25
446.466	294.25
446.687	274.25
446.908	252.25
447.129	263.25
447.35	257.25
447.571	272.25
447.792	268.25
448.013	261.25
448.234	270.25
448.455	251.25
448.675	272.25
448.896	275.25
449.117	268.25
449.338	263.25
449.559	259.25
449.779	244.25
450	263.25
450.221	278.25
450.442	242.25
450.662	263.25
450.883	256.25
451.104	251.25
451.324	244.25
451.545	248.25
451.766	275.25
451.986	272.25
452.207	243.25
452.428	240.25
452.648	234.25
452.869	255.25
453.089	232.25
453.31	242.25
453.53	245.25
453.751	247.25
453.971	229.25
454.192	256.25
454.412	238.25
454.633	231.25
454.853	240.25
455.073	258.25
455.294	241.25
455.514	241.25
455.734	246.25
455.955	247.25
456.175	234.25
456.395	220.25
456.616	230.25
456.836	247.25
457.056	254.25
457.276	242.25
457.497	242.25
457.717	256.25
457.937	245.25
458.157	249.25
458.377	258.25
458.598	241.25
458.818	267.25
459.038	256.25
459.258	256.25
459.478	264.25
459.698	280.25
459.918	279.25
460.138	282.25
460.358	293.25
460.578	295.25
460.798	292.25
461.018	298.25
461.238	296.25
461.458	307.25
461.678	298.25
461.898	306.25
462.118	307.25
462.338	313.25
462.558	327.25
462.777	332.25
462.997	342.25
463.217	379.25
463.437	366.25
463.657	345.25
463.876	329.25
464.096	334.25
464.316	318.25
464.536	325.25
464.755	330.25
464.975	326.25
465.195	318.25
465.414	284.25
465.634	294.25
465.854	272.25
466.073	278.25
466.293	254.25
466.512	269.25
466.732	269.25
466.951	267.25
467.171	275.25
467.391	267.25
467.61	273.25
467.829	274.25
468.049	272.25
468.268	270.25
468.488	255.25
468.707	266.25
468.927	275.25
469.146	270.25
469.365	266.25
469.585	262.25
469.804	266.25
470.023	279.25
470.243	274.25
470.462	275.25
470.681	271.25
470.901	289.25
471.12	279.25
471.339	268.25
471.558	264.25
471.777	253.25
471.997	277.25
472.216	262.25
472.435	271.25
472.654	270.25
472.873	268.25
473.092	265.25
473.311	266.25
473.53	278.25
473.749	277.25
473.968	255.25
474.187	252.25
474.406	256.25
474.625	276.25
474.844	267.25
475.063	274.25
475.282	261.25
475.501	261.25
475.72	285.25
475.939	265.25
476.158	263.25
476.377	259.25
476.596	265.25
476.814	295.25
477.033	287.25
477.252	273.25
477.471	283.25
477.69	276.25
477.908	266.25
478.127	291.25
478.346	278.25
478.564	288.25
478.783	300.25
479.002	321.25
479.22	315.25
479.439	316.25
479.658	291.25
479.876	305.25
480.095	310.25
480.313	322.25
480.532	330.25
480.751	336.25
480.969	310.25
481.188	311.25
481.406	311.25
481.624	274.25
481.843	298.25
482.061	275.25
482.28	288.25
482.498	279.25
482.717	291.25
482.935	302.25
483.153	286.25
483.372	291.25
483.59	290.25
483.808	298.25
484.027	297.25
484.245	309.25
484.463	268.25
484.681	302.25
484.9	287.25
485.118	278.25
485.336	292.25
485.554	287.25
485.772	293.25
485.99	276.25
486.209	304.25
486.427	302.25
486.645	313.25
486.863	290.25
487.081	296.25
487.299	292.25
487.517	290.25
487.735	287.25
487.953	291.25
488.171	300.25
488.389	300.25
488.607	294.25
488.825	289.25
489.043	328.25
489.261	299.25
489.479	309.25
489.696	307.25
489.914	316.25
490.132	307.25
490.35	303.25
490.568	291.25
490.786	300.25
491.003	316.25
491.221	320.25
491.439	302.25
491.657	321.25
491.874	315.25
492.092	331.25
492.31	324.25
492.527	330.25
492.745	328.25
492.963	324.25
493.18	305.25
493.398	318.25
493.615	321.25
493.833	321.25
494.05	328.25
494.268	323.25
494.485	320.25
494.703	303.25
494.92	316.25
495.138	318.25
495.355	320.25
495.573	323.25
495.79	333.25
496.008	335.25
496.225	330.25
496.442	332.25
496.66	339.25
496.877	335.25
497.094	348.25
497.312	341.25
497.529	339.25
497.746	365.25
497.963	378.25
498.181	351.25
498.398	392.25
498.615	412.25
498.832	421.25
499.049	438.25
499.267	466.25
499.484	500.25
499.701	506.25
499.918	553.25
500.135	610.25
500.352	676.25
500.569	680.25
500.786	672.25
501.003	645.25
501.22	582.25
501.437	559.25
501.654	516.25
501.871	471.25
502.088	432.25
502.305	408.25
502.522	406.25
502.739	410.25
502.956	374.25
