Data from Fe(NO3)3@0.1M.TitratingCurve.Agarose3%dH2O.NegLispCup.LampEnergy10.LIBS07252019_HRD10591_16-41-20-333.txt Node
Date: Thu Jul 25 16:41:20 EDT 2019
User: cochatt
Spectrometer: HR+D1059
Trigger mode: 1
Integration Time (sec): 1.000000E-1
Scans to average: 1
Electric dark correction enabled: true
Nonlinearity correction enabled: false
Boxcar width: 0
XAxis mode: Wavelengths
Number of Pixels in Spectrum: 2048
>>>>>Begin Spectral Data<<<<<
223.165	-16.56
223.4	-16.56
223.635	-16.56
223.869	-20.56
224.104	-27.56
224.338	-8.56
224.573	-9.56
224.808	-0.56
225.042	-4.56
225.277	1.44
225.511	-12.56
225.746	-2.56
225.98	5.44
226.215	14.44
226.449	18.44
226.683	27.44
226.918	23.44
227.152	12.44
227.387	48.44
227.621	33.44
227.856	43.44
228.09	39.44
228.324	54.44
228.559	60.44
228.793	52.44
229.027	73.44
229.262	82.44
229.496	77.44
229.73	96.44
229.964	77.44
230.199	84.44
230.433	95.44
230.667	101.44
230.901	99.44
231.136	95.44
231.37	95.44
231.604	81.44
231.838	102.44
232.072	92.44
232.306	102.44
232.541	107.44
232.775	93.44
233.009	99.44
233.243	110.44
233.477	105.44
233.711	106.44
233.945	103.44
234.179	101.44
234.413	102.44
234.647	91.44
234.881	100.44
235.115	98.44
235.349	104.44
235.583	99.44
235.817	106.44
236.051	92.44
236.285	112.44
236.519	112.44
236.753	98.44
236.987	108.44
237.221	104.44
237.455	95.44
237.689	103.44
237.922	101.44
238.156	97.44
238.39	100.44
238.624	98.44
238.858	125.44
239.091	113.44
239.325	103.44
239.559	117.44
239.793	96.44
240.027	114.44
240.26	100.44
240.494	98.44
240.728	106.44
240.961	106.44
241.195	118.44
241.429	119.44
241.662	114.44
241.896	130.44
242.13	95.44
242.363	106.44
242.597	122.44
242.83	106.44
243.064	112.44
243.298	105.44
243.531	109.44
243.765	122.44
243.998	115.44
244.232	129.44
244.465	118.44
244.699	114.44
244.932	120.44
245.166	98.44
245.399	111.44
245.633	112.44
245.866	139.44
246.099	121.44
246.333	126.44
246.566	115.44
246.8	119.44
247.033	118.44
247.266	123.44
247.5	144.44
247.733	120.44
247.966	133.44
248.2	126.44
248.433	107.44
248.666	114.44
248.899	126.44
249.133	119.44
249.366	114.44
249.599	126.44
249.832	120.44
250.066	112.44
250.299	125.44
250.532	134.44
250.765	120.44
250.998	147.44
251.231	132.44
251.465	135.44
251.698	126.44
251.931	130.44
252.164	122.44
252.397	128.44
252.63	120.44
252.863	126.44
253.096	120.44
253.329	131.44
253.562	140.44
253.795	146.44
254.028	156.44
254.261	135.44
254.494	146.44
254.727	128.44
254.96	135.44
255.193	135.44
255.426	141.44
255.659	140.44
255.892	146.44
256.124	135.44
256.357	130.44
256.59	141.44
256.823	128.44
257.056	136.44
257.289	146.44
257.521	144.44
257.754	135.44
257.987	144.44
258.22	134.44
258.452	150.44
258.685	146.44
258.918	145.44
259.151	152.44
259.383	133.44
259.616	130.44
259.849	138.44
260.081	147.44
260.314	158.44
260.547	163.44
260.779	154.44
261.012	155.44
261.244	156.44
261.477	147.44
261.71	150.44
261.942	160.44
262.175	151.44
262.407	158.44
262.64	144.44
262.872	167.44
263.105	140.44
263.337	160.44
263.57	154.44
263.802	149.44
264.035	149.44
264.267	158.44
264.499	154.44
264.732	143.44
264.964	147.44
265.197	149.44
265.429	163.44
265.661	147.44
265.894	181.44
266.126	160.44
266.358	163.44
266.591	158.44
266.823	182.44
267.055	154.44
267.287	162.44
267.52	175.44
267.752	168.44
267.984	168.44
268.216	171.44
268.448	179.44
268.681	177.44
268.913	169.44
269.145	164.44
269.377	174.44
269.609	174.44
269.841	176.44
270.073	168.44
270.306	166.44
270.538	159.44
270.77	174.44
271.002	158.44
271.234	172.44
271.466	171.44
271.698	182.44
271.93	158.44
272.162	178.44
272.394	183.44
272.626	154.44
272.858	177.44
273.09	176.44
273.322	163.44
273.553	168.44
273.785	179.44
274.017	182.44
274.249	177.44
274.481	170.44
274.713	183.44
274.945	186.44
275.176	165.44
275.408	163.44
275.64	176.44
275.872	187.44
276.104	178.44
276.335	178.44
276.567	185.44
276.799	185.44
277.031	178.44
277.262	178.44
277.494	177.44
277.726	182.44
277.957	185.44
278.189	174.44
278.421	185.44
278.652	178.44
278.884	170.44
279.115	170.44
279.347	175.44
279.579	190.44
279.81	199.44
280.042	203.44
280.273	200.44
280.505	198.44
280.736	183.44
280.968	213.44
281.199	180.44
281.431	169.44
281.662	196.44
281.894	191.44
282.125	202.44
282.356	190.44
282.588	186.44
282.819	199.44
283.051	198.44
283.282	209.44
283.513	184.44
283.745	191.44
283.976	183.44
284.207	210.44
284.439	205.44
284.67	191.44
284.901	209.44
285.132	207.44
285.364	203.44
285.595	187.44
285.826	199.44
286.057	215.44
286.288	208.44
286.52	215.44
286.751	215.44
286.982	205.44
287.213	209.44
287.444	215.44
287.675	202.44
287.906	218.44
288.138	217.44
288.369	212.44
288.6	217.44
288.831	218.44
289.062	212.44
289.293	210.44
289.524	204.44
289.755	236.44
289.986	205.44
290.217	223.44
290.448	218.44
290.679	224.44
290.91	228.44
291.141	206.44
291.371	218.44
291.602	218.44
291.833	209.44
292.064	227.44
292.295	206.44
292.526	210.44
292.757	203.44
292.987	213.44
293.218	222.44
293.449	231.44
293.68	208.44
293.91	202.44
294.141	203.44
294.372	217.44
294.603	204.44
294.833	222.44
295.064	225.44
295.295	211.44
295.525	209.44
295.756	219.44
295.987	244.44
296.217	210.44
296.448	223.44
296.679	218.44
296.909	217.44
297.14	230.44
297.37	216.44
297.601	208.44
297.831	223.44
298.062	228.44
298.292	232.44
298.523	260.44
298.753	234.44
298.984	236.44
299.214	235.44
299.445	238.44
299.675	234.44
299.905	231.44
300.136	210.44
300.366	240.44
300.597	229.44
300.827	230.44
301.057	230.44
301.288	255.44
301.518	234.44
301.748	244.44
301.979	247.44
302.209	235.44
302.439	240.44
302.669	255.44
302.9	242.44
303.13	223.44
303.36	236.44
303.59	232.44
303.82	241.44
304.051	243.44
304.281	231.44
304.511	232.44
304.741	255.44
304.971	243.44
305.201	253.44
305.431	262.44
305.661	235.44
305.891	231.44
306.121	260.44
306.352	262.44
306.582	246.44
306.812	222.44
307.042	248.44
307.272	235.44
307.502	240.44
307.731	246.44
307.961	239.44
308.191	230.44
308.421	232.44
308.651	238.44
308.881	263.44
309.111	232.44
309.341	242.44
309.571	242.44
309.8	246.44
310.03	246.44
310.26	232.44
310.49	242.44
310.72	241.44
310.949	255.44
311.179	233.44
311.409	238.44
311.639	248.44
311.868	244.44
312.098	246.44
312.328	239.44
312.557	253.44
312.787	246.44
313.017	263.44
313.246	260.44
313.476	246.44
313.706	255.44
313.935	261.44
314.165	254.44
314.394	254.44
314.624	260.44
314.853	255.44
315.083	265.44
315.312	258.44
315.542	276.44
315.771	266.44
316.001	267.44
316.23	260.44
316.46	249.44
316.689	242.44
316.919	251.44
317.148	241.44
317.377	263.44
317.607	265.44
317.836	259.44
318.065	246.44
318.295	250.44
318.524	242.44
318.753	256.44
318.983	244.44
319.212	264.44
319.441	254.44
319.67	266.44
319.9	242.44
320.129	250.44
320.358	254.44
320.587	246.44
320.816	238.44
321.046	274.44
321.275	254.44
321.504	256.44
321.733	266.44
321.962	251.44
322.191	248.44
322.42	259.44
322.649	250.44
322.878	264.44
323.108	254.44
323.337	275.44
323.566	269.44
323.795	262.44
324.024	266.44
324.253	274.44
324.482	272.44
324.71	257.44
324.939	278.44
325.168	281.44
325.397	269.44
325.626	265.44
325.855	275.44
326.084	272.44
326.313	281.44
326.542	283.44
326.77	251.44
326.999	283.44
327.228	274.44
327.457	278.44
327.686	274.44
327.914	293.44
328.143	280.44
328.372	267.44
328.6	285.44
328.829	281.44
329.058	277.44
329.287	286.44
329.515	283.44
329.744	282.44
329.972	286.44
330.201	289.44
330.43	282.44
330.658	256.44
330.887	282.44
331.115	298.44
331.344	297.44
331.572	298.44
331.801	294.44
332.03	307.44
332.258	295.44
332.486	317.44
332.715	325.44
332.943	319.44
333.172	336.44
333.4	343.44
333.629	337.44
333.857	365.44
334.085	353.44
334.314	360.44
334.542	344.44
334.771	347.44
334.999	340.44
335.227	332.44
335.455	327.44
335.684	347.44
335.912	334.44
336.14	335.44
336.369	326.44
336.597	341.44
336.825	327.44
337.053	334.44
337.281	325.44
337.51	306.44
337.738	322.44
337.966	320.44
338.194	295.44
338.422	294.44
338.65	302.44
338.878	304.44
339.106	303.44
339.334	314.44
339.562	298.44
339.79	276.44
340.018	273.44
340.246	286.44
340.474	291.44
340.702	281.44
340.93	312.44
341.158	307.44
341.386	310.44
341.614	301.44
341.842	306.44
342.07	288.44
342.298	293.44
342.526	308.44
342.754	287.44
342.981	291.44
343.209	309.44
343.437	302.44
343.665	312.44
343.893	316.44
344.12	351.44
344.348	319.44
344.576	321.44
344.804	320.44
345.031	307.44
345.259	302.44
345.487	304.44
345.714	295.44
345.942	279.44
346.17	257.44
346.397	294.44
346.625	279.44
346.853	315.44
347.08	282.44
347.308	276.44
347.535	284.44
347.763	291.44
347.99	286.44
348.218	281.44
348.445	303.44
348.673	285.44
348.9	297.44
349.128	284.44
349.355	278.44
349.583	286.44
349.81	288.44
350.037	283.44
350.265	266.44
350.492	284.44
350.72	290.44
350.947	274.44
351.174	273.44
351.402	282.44
351.629	283.44
351.856	267.44
352.083	271.44
352.311	279.44
352.538	279.44
352.765	274.44
352.992	279.44
353.22	269.44
353.447	274.44
353.674	249.44
353.901	268.44
354.128	287.44
354.355	267.44
354.583	309.44
354.81	291.44
355.037	299.44
355.264	261.44
355.491	267.44
355.718	264.44
355.945	269.44
356.172	274.44
356.399	290.44
356.626	264.44
356.853	270.44
357.08	275.44
357.307	271.44
357.534	282.44
357.761	268.44
357.988	255.44
358.215	274.44
358.441	262.44
358.668	274.44
358.895	293.44
359.122	262.44
359.349	279.44
359.576	295.44
359.802	291.44
360.029	267.44
360.256	280.44
360.483	282.44
360.709	281.44
360.936	299.44
361.163	288.44
361.39	267.44
361.616	275.44
361.843	273.44
362.07	274.44
362.296	281.44
362.523	283.44
362.749	292.44
362.976	262.44
363.203	277.44
363.429	270.44
363.656	283.44
363.882	275.44
364.109	300.44
364.335	266.44
364.562	288.44
364.788	276.44
365.015	276.44
365.241	284.44
365.468	280.44
365.694	273.44
365.92	268.44
366.147	286.44
366.373	289.44
366.599	288.44
366.826	269.44
367.052	283.44
367.278	302.44
367.505	270.44
367.731	281.44
367.957	275.44
368.184	286.44
368.41	269.44
368.636	283.44
368.862	302.44
369.089	304.44
369.315	291.44
369.541	278.44
369.767	293.44
369.993	302.44
370.219	302.44
370.445	305.44
370.672	314.44
370.898	282.44
371.124	293.44
371.35	314.44
371.576	312.44
371.802	302.44
372.028	309.44
372.254	311.44
372.48	304.44
372.706	308.44
372.932	324.44
373.158	322.44
373.384	308.44
373.61	298.44
373.835	309.44
374.061	320.44
374.287	331.44
374.513	311.44
374.739	306.44
374.965	329.44
375.191	315.44
375.416	336.44
375.642	329.44
375.868	326.44
376.094	305.44
376.319	309.44
376.545	306.44
376.771	299.44
376.997	301.44
377.222	308.44
377.448	306.44
377.674	291.44
377.899	313.44
378.125	304.44
378.35	311.44
378.576	292.44
378.802	292.44
379.027	292.44
379.253	322.44
379.478	322.44
379.704	314.44
379.929	287.44
380.155	311.44
380.38	295.44
380.606	313.44
380.831	302.44
381.057	319.44
381.282	327.44
381.507	302.44
381.733	314.44
381.958	307.44
382.184	308.44
382.409	299.44
382.634	327.44
382.86	288.44
383.085	334.44
383.31	338.44
383.535	328.44
383.761	332.44
383.986	318.44
384.211	332.44
384.436	333.44
384.662	352.44
384.887	353.44
385.112	358.44
385.337	352.44
385.562	363.44
385.787	361.44
386.013	353.44
386.238	368.44
386.463	346.44
386.688	350.44
386.913	353.44
387.138	360.44
387.363	369.44
387.588	361.44
387.813	345.44
388.038	354.44
388.263	355.44
388.488	349.44
388.713	367.44
388.938	366.44
389.163	353.44
389.387	353.44
389.612	362.44
389.837	362.44
390.062	338.44
390.287	375.44
390.512	348.44
390.736	368.44
390.961	368.44
391.186	373.44
391.411	382.44
391.636	377.44
391.86	386.44
392.085	374.44
392.31	370.44
392.534	391.44
392.759	386.44
392.984	370.44
393.208	371.44
393.433	384.44
393.658	385.44
393.882	398.44
394.107	386.44
394.331	382.44
394.556	402.44
394.78	380.44
395.005	365.44
395.229	400.44
395.454	400.44
395.678	417.44
395.903	392.44
396.127	368.44
396.352	382.44
396.576	379.44
396.801	386.44
397.025	377.44
397.249	401.44
397.474	404.44
397.698	388.44
397.922	396.44
398.147	411.44
398.371	386.44
398.595	436.44
398.82	446.44
399.044	453.44
399.268	500.44
399.492	594.44
399.717	617.44
399.941	571.44
400.165	538.44
400.389	508.44
400.613	485.44
400.837	466.44
401.062	444.44
401.286	433.44
401.51	443.44
401.734	441.44
401.958	435.44
402.182	437.44
402.406	442.44
402.63	452.44
402.854	448.44
403.078	472.44
403.302	498.44
403.526	498.44
403.75	459.44
403.974	498.44
404.198	493.44
404.422	513.44
404.645	499.44
404.869	494.44
405.093	493.44
405.317	469.44
405.541	487.44
405.765	484.44
405.988	471.44
406.212	472.44
406.436	466.44
406.66	495.44
406.883	495.44
407.107	521.44
407.331	574.44
407.555	562.44
407.778	546.44
408.002	537.44
408.226	525.44
408.449	505.44
408.673	490.44
408.896	485.44
409.12	476.44
409.344	496.44
409.567	475.44
409.791	506.44
410.014	484.44
410.238	486.44
410.461	488.44
410.685	474.44
410.908	457.44
411.132	474.44
411.355	463.44
411.578	475.44
411.802	473.44
412.025	475.44
412.249	478.44
412.472	470.44
412.695	456.44
412.919	436.44
413.142	420.44
413.365	450.44
413.589	436.44
413.812	447.44
414.035	453.44
414.258	464.44
414.482	470.44
414.705	468.44
414.928	460.44
415.151	441.44
415.374	460.44
415.597	440.44
415.821	435.44
416.044	431.44
416.267	437.44
416.49	455.44
416.713	431.44
416.936	459.44
417.159	447.44
417.382	440.44
417.605	449.44
417.828	451.44
418.051	439.44
418.274	466.44
418.497	449.44
418.72	437.44
418.943	457.44
419.166	470.44
419.389	485.44
419.611	487.44
419.834	452.44
420.057	465.44
420.28	447.44
420.503	449.44
420.726	429.44
420.948	443.44
421.171	416.44
421.394	440.44
421.617	453.44
421.839	459.44
422.062	450.44
422.285	446.44
422.507	452.44
422.73	447.44
422.953	443.44
423.175	427.44
423.398	442.44
423.621	443.44
423.843	467.44
424.066	472.44
424.288	472.44
424.511	474.44
424.733	467.44
424.956	440.44
425.178	449.44
425.401	445.44
425.623	439.44
425.846	425.44
426.068	423.44
426.291	432.44
426.513	418.44
426.735	427.44
426.958	419.44
427.18	400.44
427.402	414.44
427.625	415.44
427.847	412.44
428.069	403.44
428.292	418.44
428.514	419.44
428.736	409.44
428.958	406.44
429.181	382.44
429.403	408.44
429.625	406.44
429.847	396.44
430.069	410.44
430.292	403.44
430.514	390.44
430.736	407.44
430.958	404.44
431.18	418.44
431.402	403.44
431.624	402.44
431.846	408.44
432.068	404.44
432.29	407.44
432.512	406.44
432.734	389.44
432.956	404.44
433.178	420.44
433.4	420.44
433.622	427.44
433.844	424.44
434.066	417.44
434.287	400.44
434.509	419.44
434.731	425.44
434.953	457.44
435.175	461.44
435.397	445.44
435.618	440.44
435.84	420.44
436.062	431.44
436.284	383.44
436.505	406.44
436.727	404.44
436.949	408.44
437.17	404.44
437.392	391.44
437.614	408.44
437.835	384.44
438.057	390.44
438.278	390.44
438.5	404.44
438.721	403.44
438.943	392.44
439.165	404.44
439.386	403.44
439.608	417.44
439.829	423.44
440.05	432.44
440.272	419.44
440.493	461.44
440.715	438.44
440.936	419.44
441.158	443.44
441.379	433.44
441.6	470.44
441.822	455.44
442.043	466.44
442.264	442.44
442.486	457.44
442.707	472.44
442.928	458.44
443.149	456.44
443.371	465.44
443.592	466.44
443.813	462.44
444.034	442.44
444.255	484.44
444.476	498.44
444.698	520.44
444.919	528.44
445.14	598.44
445.361	529.44
445.582	487.44
445.803	442.44
446.024	426.44
446.245	452.44
446.466	446.44
446.687	416.44
446.908	407.44
447.129	414.44
447.35	392.44
447.571	415.44
447.792	401.44
448.013	404.44
448.234	407.44
448.455	403.44
448.675	401.44
448.896	377.44
449.117	394.44
449.338	403.44
449.559	392.44
449.779	364.44
450	376.44
450.221	381.44
450.442	390.44
450.662	362.44
450.883	406.44
451.104	418.44
451.324	383.44
451.545	400.44
451.766	389.44
451.986	391.44
452.207	383.44
452.428	391.44
452.648	372.44
452.869	389.44
453.089	382.44
453.31	373.44
453.53	359.44
453.751	380.44
453.971	371.44
454.192	387.44
454.412	376.44
454.633	360.44
454.853	354.44
455.073	358.44
455.294	344.44
455.514	368.44
455.734	369.44
455.955	355.44
456.175	361.44
456.395	357.44
456.616	352.44
456.836	342.44
457.056	366.44
457.276	367.44
457.497	363.44
457.717	371.44
457.937	352.44
458.157	375.44
458.377	366.44
458.598	372.44
458.818	362.44
459.038	386.44
459.258	386.44
459.478	430.44
459.698	438.44
459.918	447.44
460.138	464.44
460.358	436.44
460.578	454.44
460.798	474.44
461.018	488.44
461.238	488.44
461.458	483.44
461.678	480.44
461.898	464.44
462.118	480.44
462.338	491.44
462.558	515.44
462.777	508.44
462.997	570.44
463.217	591.44
463.437	584.44
463.657	571.44
463.876	510.44
464.096	551.44
464.316	536.44
464.536	520.44
464.755	516.44
464.975	515.44
465.195	494.44
465.414	446.44
465.634	436.44
465.854	446.44
466.073	423.44
466.293	430.44
466.512	419.44
466.732	398.44
466.951	402.44
467.171	402.44
467.391	399.44
467.61	395.44
467.829	396.44
468.049	397.44
468.268	393.44
468.488	376.44
468.707	367.44
468.927	383.44
469.146	374.44
469.365	389.44
469.585	389.44
469.804	407.44
470.023	392.44
470.243	403.44
470.462	422.44
470.681	406.44
470.901	385.44
471.12	423.44
471.339	395.44
471.558	380.44
471.777	389.44
471.997	391.44
472.216	396.44
472.435	366.44
472.654	367.44
472.873	379.44
473.092	368.44
473.311	382.44
473.53	378.44
473.749	392.44
473.968	379.44
474.187	373.44
474.406	366.44
474.625	381.44
474.844	367.44
475.063	368.44
475.282	375.44
475.501	382.44
475.72	389.44
475.939	370.44
476.158	369.44
476.377	390.44
476.596	378.44
476.814	385.44
477.033	383.44
477.252	394.44
477.471	397.44
477.69	402.44
477.908	423.44
478.127	423.44
478.346	417.44
478.564	419.44
478.783	433.44
479.002	460.44
479.22	448.44
479.439	458.44
479.658	454.44
479.876	450.44
480.095	447.44
480.313	457.44
480.532	478.44
480.751	457.44
480.969	453.44
481.188	419.44
481.406	424.44
481.624	426.44
481.843	416.44
482.061	419.44
482.28	412.44
482.498	419.44
482.717	429.44
482.935	414.44
483.153	414.44
483.372	411.44
483.59	419.44
483.808	434.44
484.027	402.44
484.245	422.44
484.463	429.44
484.681	447.44
484.9	440.44
485.118	428.44
485.336	434.44
485.554	427.44
485.772	414.44
485.99	421.44
486.209	424.44
486.427	431.44
486.645	414.44
486.863	430.44
487.081	419.44
487.299	427.44
487.517	437.44
487.735	422.44
487.953	435.44
488.171	442.44
488.389	435.44
488.607	434.44
488.825	425.44
489.043	448.44
489.261	446.44
489.479	394.44
489.696	430.44
489.914	420.44
490.132	427.44
490.35	424.44
490.568	449.44
490.786	453.44
491.003	438.44
491.221	443.44
491.439	449.44
491.657	444.44
491.874	430.44
492.092	441.44
492.31	444.44
492.527	448.44
492.745	464.44
492.963	473.44
493.18	442.44
493.398	461.44
493.615	444.44
493.833	455.44
494.05	434.44
494.268	434.44
494.485	463.44
494.703	459.44
494.92	442.44
495.138	438.44
495.355	472.44
495.573	466.44
495.79	455.44
496.008	458.44
496.225	450.44
496.442	484.44
496.66	495.44
496.877	489.44
497.094	491.44
497.312	478.44
497.529	505.44
497.746	512.44
497.963	540.44
498.181	522.44
498.398	552.44
498.615	562.44
498.832	594.44
499.049	652.44
499.267	714.44
499.484	750.44
499.701	823.44
499.918	902.44
500.135	1021.44
500.352	1092.44
500.569	1140.44
500.786	1135.44
501.003	1052.44
501.22	980.44
501.437	856.44
501.654	780.44
501.871	734.44
