Data from Fe(NO3)3@0.05M.TitratingCurve.Agarose3%dH2O.NegLispCup.LampEnergy10.LIBS07252019_HRD10591_16-47-25-336.txt Node
Date: Thu Jul 25 16:47:25 EDT 2019
User: cochatt
Spectrometer: HR+D1059
Trigger mode: 1
Integration Time (sec): 1.000000E-1
Scans to average: 1
Electric dark correction enabled: true
Nonlinearity correction enabled: false
Boxcar width: 0
XAxis mode: Wavelengths
Number of Pixels in Spectrum: 2048
>>>>>Begin Spectral Data<<<<<
223.165	-13.19
223.4	-13.19
223.635	-13.19
223.869	-21.19
224.104	-22.19
224.338	-28.19
224.573	-14.19
224.808	-16.19
225.042	-6.19
225.277	-7.19
225.511	1.81
225.746	-9.19
225.98	2.81
226.215	3.81
226.449	21.81
226.683	26.81
226.918	26.81
227.152	53.81
227.387	34.81
227.621	45.81
227.856	44.81
228.09	44.81
228.324	50.81
228.559	50.81
228.793	74.81
229.027	75.81
229.262	70.81
229.496	77.81
229.73	76.81
229.964	88.81
230.199	88.81
230.433	88.81
230.667	94.81
230.901	85.81
231.136	89.81
231.37	96.81
231.604	94.81
231.838	94.81
232.072	95.81
232.306	106.81
232.541	106.81
232.775	89.81
233.009	101.81
233.243	97.81
233.477	91.81
233.711	99.81
233.945	104.81
234.179	99.81
234.413	106.81
234.647	103.81
234.881	98.81
235.115	90.81
235.349	98.81
235.583	102.81
235.817	101.81
236.051	98.81
236.285	104.81
236.519	91.81
236.753	110.81
236.987	92.81
237.221	85.81
237.455	110.81
237.689	105.81
237.922	107.81
238.156	117.81
238.39	110.81
238.624	118.81
238.858	107.81
239.091	119.81
239.325	99.81
239.559	105.81
239.793	106.81
240.027	116.81
240.26	112.81
240.494	107.81
240.728	101.81
240.961	115.81
241.195	124.81
241.429	122.81
241.662	106.81
241.896	93.81
242.13	91.81
242.363	107.81
242.597	107.81
242.83	111.81
243.064	126.81
243.298	93.81
243.531	97.81
243.765	126.81
243.998	108.81
244.232	113.81
244.465	102.81
244.699	112.81
244.932	115.81
245.166	124.81
245.399	110.81
245.633	122.81
245.866	101.81
246.099	126.81
246.333	123.81
246.566	123.81
246.8	97.81
247.033	130.81
247.266	131.81
247.5	124.81
247.733	115.81
247.966	134.81
248.2	128.81
248.433	129.81
248.666	132.81
248.899	112.81
249.133	137.81
249.366	140.81
249.599	126.81
249.832	132.81
250.066	133.81
250.299	131.81
250.532	131.81
250.765	131.81
250.998	124.81
251.231	139.81
251.465	108.81
251.698	127.81
251.931	126.81
252.164	138.81
252.397	134.81
252.63	147.81
252.863	142.81
253.096	134.81
253.329	146.81
253.562	114.81
253.795	134.81
254.028	150.81
254.261	147.81
254.494	141.81
254.727	139.81
254.96	138.81
255.193	140.81
255.426	136.81
255.659	151.81
255.892	139.81
256.124	130.81
256.357	140.81
256.59	162.81
256.823	160.81
257.056	140.81
257.289	147.81
257.521	140.81
257.754	123.81
257.987	142.81
258.22	161.81
258.452	150.81
258.685	147.81
258.918	153.81
259.151	154.81
259.383	146.81
259.616	151.81
259.849	165.81
260.081	176.81
260.314	174.81
260.547	148.81
260.779	167.81
261.012	152.81
261.244	160.81
261.477	164.81
261.71	149.81
261.942	163.81
262.175	153.81
262.407	152.81
262.64	159.81
262.872	163.81
263.105	165.81
263.337	173.81
263.57	154.81
263.802	161.81
264.035	146.81
264.267	149.81
264.499	156.81
264.732	138.81
264.964	145.81
265.197	146.81
265.429	144.81
265.661	150.81
265.894	159.81
266.126	168.81
266.358	150.81
266.591	173.81
266.823	172.81
267.055	156.81
267.287	147.81
267.52	144.81
267.752	153.81
267.984	160.81
268.216	162.81
268.448	157.81
268.681	170.81
268.913	162.81
269.145	169.81
269.377	157.81
269.609	166.81
269.841	163.81
270.073	152.81
270.306	151.81
270.538	166.81
270.77	168.81
271.002	164.81
271.234	173.81
271.466	180.81
271.698	173.81
271.93	166.81
272.162	160.81
272.394	169.81
272.626	174.81
272.858	169.81
273.09	165.81
273.322	180.81
273.553	189.81
273.785	186.81
274.017	205.81
274.249	222.81
274.481	210.81
274.713	202.81
274.945	224.81
275.176	229.81
275.408	212.81
275.64	192.81
275.872	193.81
276.104	194.81
276.335	196.81
276.567	181.81
276.799	183.81
277.031	184.81
277.262	196.81
277.494	180.81
277.726	191.81
277.957	181.81
278.189	188.81
278.421	176.81
278.652	196.81
278.884	190.81
279.115	166.81
279.347	188.81
279.579	183.81
279.81	184.81
280.042	173.81
280.273	196.81
280.505	208.81
280.736	192.81
280.968	200.81
281.199	180.81
281.431	189.81
281.662	185.81
281.894	172.81
282.125	191.81
282.356	201.81
282.588	195.81
282.819	191.81
283.051	200.81
283.282	214.81
283.513	194.81
283.745	202.81
283.976	215.81
284.207	214.81
284.439	199.81
284.67	184.81
284.901	206.81
285.132	214.81
285.364	190.81
285.595	220.81
285.826	188.81
286.057	196.81
286.288	221.81
286.52	202.81
286.751	183.81
286.982	207.81
287.213	210.81
287.444	225.81
287.675	229.81
287.906	201.81
288.138	198.81
288.369	201.81
288.6	209.81
288.831	198.81
289.062	214.81
289.293	221.81
289.524	211.81
289.755	200.81
289.986	206.81
290.217	195.81
290.448	201.81
290.679	199.81
290.91	214.81
291.141	182.81
291.371	197.81
291.602	215.81
291.833	207.81
292.064	223.81
292.295	223.81
292.526	209.81
292.757	206.81
292.987	217.81
293.218	207.81
293.449	215.81
293.68	221.81
293.91	212.81
294.141	216.81
294.372	225.81
294.603	219.81
294.833	215.81
295.064	218.81
295.295	225.81
295.525	226.81
295.756	233.81
295.987	203.81
296.217	219.81
296.448	198.81
296.679	195.81
296.909	218.81
297.14	242.81
297.37	220.81
297.601	214.81
297.831	214.81
298.062	212.81
298.292	198.81
298.523	208.81
298.753	241.81
298.984	211.81
299.214	229.81
299.445	220.81
299.675	217.81
299.905	225.81
300.136	227.81
300.366	220.81
300.597	227.81
300.827	230.81
301.057	233.81
301.288	240.81
301.518	220.81
301.748	229.81
301.979	244.81
302.209	234.81
302.439	234.81
302.669	245.81
302.9	246.81
303.13	236.81
303.36	246.81
303.59	234.81
303.82	229.81
304.051	247.81
304.281	237.81
304.511	229.81
304.741	235.81
304.971	220.81
305.201	236.81
305.431	245.81
305.661	228.81
305.891	233.81
306.121	232.81
306.352	222.81
306.582	216.81
306.812	237.81
307.042	234.81
307.272	235.81
307.502	223.81
307.731	217.81
307.961	232.81
308.191	225.81
308.421	242.81
308.651	238.81
308.881	221.81
309.111	241.81
309.341	230.81
309.571	233.81
309.8	236.81
310.03	240.81
310.26	235.81
310.49	240.81
310.72	246.81
310.949	246.81
311.179	241.81
311.409	225.81
311.639	228.81
311.868	243.81
312.098	252.81
312.328	249.81
312.557	244.81
312.787	221.81
313.017	242.81
313.246	246.81
313.476	225.81
313.706	260.81
313.935	238.81
314.165	251.81
314.394	253.81
314.624	246.81
314.853	240.81
315.083	253.81
315.312	253.81
315.542	256.81
315.771	258.81
316.001	261.81
316.23	259.81
316.46	256.81
316.689	245.81
316.919	256.81
317.148	269.81
317.377	226.81
317.607	245.81
317.836	247.81
318.065	268.81
318.295	250.81
318.524	252.81
318.753	257.81
318.983	264.81
319.212	236.81
319.441	252.81
319.67	260.81
319.9	244.81
320.129	252.81
320.358	253.81
320.587	244.81
320.816	256.81
321.046	246.81
321.275	249.81
321.504	258.81
321.733	252.81
321.962	270.81
322.191	263.81
322.42	262.81
322.649	263.81
322.878	258.81
323.108	247.81
323.337	250.81
323.566	276.81
323.795	245.81
324.024	264.81
324.253	260.81
324.482	238.81
324.71	242.81
324.939	276.81
325.168	267.81
325.397	269.81
325.626	270.81
325.855	242.81
326.084	268.81
326.313	261.81
326.542	276.81
326.77	250.81
326.999	278.81
327.228	270.81
327.457	281.81
327.686	284.81
327.914	283.81
328.143	270.81
328.372	281.81
328.6	284.81
328.829	266.81
329.058	285.81
329.287	273.81
329.515	262.81
329.744	287.81
329.972	284.81
330.201	282.81
330.43	279.81
330.658	285.81
330.887	294.81
331.115	287.81
331.344	264.81
331.572	267.81
331.801	281.81
332.03	302.81
332.258	286.81
332.486	311.81
332.715	299.81
332.943	310.81
333.172	312.81
333.4	296.81
333.629	316.81
333.857	322.81
334.085	331.81
334.314	308.81
334.542	325.81
334.771	321.81
334.999	332.81
335.227	315.81
335.455	322.81
335.684	307.81
335.912	327.81
336.14	317.81
336.369	302.81
336.597	305.81
336.825	307.81
337.053	313.81
337.281	309.81
337.51	309.81
337.738	299.81
337.966	283.81
338.194	306.81
338.422	293.81
338.65	297.81
338.878	298.81
339.106	298.81
339.334	310.81
339.562	306.81
339.79	294.81
340.018	311.81
340.246	294.81
340.474	284.81
340.702	295.81
340.93	284.81
341.158	290.81
341.386	296.81
341.614	301.81
341.842	286.81
342.07	274.81
342.298	317.81
342.526	299.81
342.754	308.81
342.981	306.81
343.209	294.81
343.437	293.81
343.665	316.81
343.893	326.81
344.12	327.81
344.348	326.81
344.576	314.81
344.804	318.81
345.031	301.81
345.259	285.81
345.487	281.81
345.714	292.81
345.942	280.81
346.17	304.81
346.397	293.81
346.625	293.81
346.853	290.81
347.08	277.81
347.308	261.81
347.535	288.81
347.763	304.81
347.99	277.81
348.218	294.81
348.445	268.81
348.673	259.81
348.9	294.81
349.128	290.81
349.355	280.81
349.583	279.81
349.81	273.81
350.037	290.81
350.265	286.81
350.492	285.81
350.72	260.81
350.947	270.81
351.174	268.81
351.402	297.81
351.629	281.81
351.856	286.81
352.083	273.81
352.311	276.81
352.538	248.81
352.765	279.81
352.992	259.81
353.22	264.81
353.447	294.81
353.674	275.81
353.901	294.81
354.128	285.81
354.355	279.81
354.583	258.81
354.81	270.81
355.037	263.81
355.264	282.81
355.491	281.81
355.718	296.81
355.945	304.81
356.172	282.81
356.399	263.81
356.626	302.81
356.853	299.81
357.08	311.81
357.307	301.81
357.534	308.81
357.761	282.81
357.988	307.81
358.215	296.81
358.441	311.81
358.668	312.81
358.895	273.81
359.122	289.81
359.349	289.81
359.576	285.81
359.802	281.81
360.029	280.81
360.256	286.81
360.483	277.81
360.709	309.81
360.936	308.81
361.163	295.81
361.39	304.81
361.616	278.81
361.843	285.81
362.07	294.81
362.296	289.81
362.523	286.81
362.749	285.81
362.976	304.81
363.203	320.81
363.429	306.81
363.656	275.81
363.882	270.81
364.109	298.81
364.335	294.81
364.562	299.81
364.788	300.81
365.015	289.81
365.241	307.81
365.468	288.81
365.694	288.81
365.92	315.81
366.147	280.81
366.373	274.81
366.599	293.81
366.826	297.81
367.052	299.81
367.278	299.81
367.505	290.81
367.731	298.81
367.957	286.81
368.184	297.81
368.41	289.81
368.636	294.81
368.862	281.81
369.089	314.81
369.315	310.81
369.541	303.81
369.767	293.81
369.993	319.81
370.219	290.81
370.445	292.81
370.672	311.81
370.898	310.81
371.124	319.81
371.35	302.81
371.576	291.81
371.802	319.81
372.028	312.81
372.254	317.81
372.48	325.81
372.706	338.81
372.932	327.81
373.158	329.81
373.384	319.81
373.61	352.81
373.835	347.81
374.061	328.81
374.287	330.81
374.513	354.81
374.739	324.81
374.965	345.81
375.191	348.81
375.416	327.81
375.642	338.81
375.868	333.81
376.094	326.81
376.319	322.81
376.545	332.81
376.771	339.81
376.997	335.81
377.222	338.81
377.448	313.81
377.674	307.81
377.899	307.81
378.125	337.81
378.35	330.81
378.576	316.81
378.802	327.81
379.027	343.81
379.253	312.81
379.478	304.81
379.704	307.81
379.929	325.81
380.155	330.81
380.38	339.81
380.606	338.81
380.831	318.81
381.057	330.81
381.282	331.81
381.507	364.81
381.733	338.81
381.958	357.81
382.184	372.81
382.409	357.81
382.634	372.81
382.86	376.81
383.085	356.81
383.31	348.81
383.535	347.81
383.761	360.81
383.986	365.81
384.211	390.81
384.436	376.81
384.662	388.81
384.887	372.81
385.112	365.81
385.337	380.81
385.562	368.81
385.787	381.81
386.013	409.81
386.238	403.81
386.463	373.81
386.688	395.81
386.913	398.81
387.138	377.81
387.363	390.81
387.588	392.81
387.813	392.81
388.038	396.81
388.263	396.81
388.488	391.81
388.713	381.81
388.938	396.81
389.163	401.81
389.387	376.81
389.612	391.81
389.837	398.81
390.062	392.81
390.287	412.81
390.512	389.81
390.736	418.81
390.961	398.81
391.186	404.81
391.411	412.81
391.636	397.81
391.86	404.81
392.085	425.81
392.31	413.81
392.534	427.81
392.759	410.81
392.984	428.81
393.208	440.81
393.433	432.81
393.658	421.81
393.882	417.81
394.107	411.81
394.331	408.81
394.556	416.81
394.78	409.81
395.005	431.81
395.229	395.81
395.454	438.81
395.678	442.81
395.903	445.81
396.127	434.81
396.352	431.81
396.576	445.81
396.801	443.81
397.025	441.81
397.249	444.81
397.474	452.81
397.698	436.81
397.922	449.81
398.147	432.81
398.371	462.81
398.595	452.81
398.82	500.81
399.044	531.81
399.268	550.81
399.492	586.81
399.717	589.81
399.941	591.81
400.165	588.81
400.389	548.81
400.613	548.81
400.837	525.81
401.062	517.81
401.286	506.81
401.51	484.81
401.734	478.81
401.958	489.81
402.182	496.81
402.406	509.81
402.63	492.81
402.854	481.81
403.078	480.81
403.302	485.81
403.526	477.81
403.75	515.81
403.974	522.81
404.198	514.81
404.422	531.81
404.645	532.81
404.869	522.81
405.093	513.81
405.317	507.81
405.541	502.81
405.765	512.81
405.988	532.81
406.212	512.81
406.436	522.81
406.66	528.81
406.883	525.81
407.107	570.81
407.331	582.81
407.555	572.81
407.778	589.81
408.002	566.81
408.226	580.81
408.449	550.81
408.673	533.81
408.896	544.81
409.12	540.81
409.344	510.81
409.567	521.81
409.791	516.81
410.014	536.81
410.238	524.81
410.461	532.81
410.685	519.81
410.908	512.81
411.132	507.81
411.355	490.81
411.578	519.81
411.802	511.81
412.025	500.81
412.249	502.81
412.472	493.81
412.695	504.81
412.919	489.81
413.142	500.81
413.365	488.81
413.589	498.81
413.812	503.81
414.035	496.81
414.258	481.81
414.482	496.81
414.705	524.81
414.928	473.81
415.151	481.81
415.374	500.81
415.597	493.81
415.821	481.81
416.044	476.81
416.267	491.81
416.49	483.81
416.713	503.81
416.936	500.81
417.159	474.81
417.382	484.81
417.605	471.81
417.828	489.81
418.051	481.81
418.274	510.81
418.497	463.81
418.72	484.81
418.943	482.81
419.166	517.81
419.389	538.81
419.611	530.81
419.834	492.81
420.057	501.81
420.28	508.81
420.503	473.81
420.726	490.81
420.948	493.81
421.171	487.81
421.394	470.81
421.617	462.81
421.839	504.81
422.062	484.81
422.285	481.81
422.507	489.81
422.73	479.81
422.953	473.81
423.175	485.81
423.398	486.81
423.621	477.81
423.843	479.81
424.066	472.81
424.288	506.81
424.511	496.81
424.733	493.81
424.956	488.81
425.178	501.81
425.401	488.81
425.623	492.81
425.846	491.81
426.068	476.81
426.291	483.81
426.513	483.81
426.735	471.81
426.958	471.81
427.18	474.81
427.402	464.81
427.625	470.81
427.847	457.81
428.069	454.81
428.292	463.81
428.514	458.81
428.736	465.81
428.958	469.81
429.181	455.81
429.403	455.81
429.625	480.81
429.847	465.81
430.069	477.81
430.292	455.81
430.514	451.81
430.736	459.81
430.958	465.81
431.18	467.81
431.402	461.81
431.624	470.81
431.846	436.81
432.068	466.81
432.29	472.81
432.512	453.81
432.734	474.81
432.956	466.81
433.178	468.81
433.4	484.81
433.622	473.81
433.844	468.81
434.066	487.81
434.287	470.81
434.509	485.81
434.731	484.81
434.953	486.81
435.175	500.81
435.397	488.81
435.618	465.81
435.84	468.81
436.062	485.81
436.284	468.81
436.505	474.81
436.727	452.81
436.949	465.81
437.17	462.81
437.392	450.81
437.614	455.81
437.835	464.81
438.057	471.81
438.278	450.81
438.5	472.81
438.721	459.81
438.943	466.81
439.165	468.81
439.386	479.81
439.608	468.81
439.829	453.81
440.05	488.81
440.272	466.81
440.493	496.81
440.715	488.81
440.936	481.81
441.158	480.81
441.379	488.81
441.6	505.81
441.822	493.81
442.043	512.81
442.264	495.81
442.486	511.81
442.707	519.81
442.928	504.81
443.149	508.81
443.371	493.81
443.592	517.81
443.813	525.81
444.034	519.81
444.255	533.81
444.476	524.81
444.698	532.81
444.919	565.81
445.14	628.81
445.361	578.81
445.582	530.81
445.803	518.81
446.024	518.81
446.245	509.81
446.466	513.81
446.687	484.81
446.908	468.81
447.129	475.81
447.35	482.81
447.571	466.81
447.792	464.81
448.013	471.81
448.234	467.81
448.455	461.81
448.675	444.81
448.896	462.81
449.117	456.81
449.338	444.81
449.559	456.81
449.779	448.81
450	437.81
450.221	456.81
450.442	437.81
450.662	448.81
450.883	423.81
451.104	449.81
451.324	452.81
451.545	440.81
451.766	423.81
451.986	445.81
452.207	412.81
452.428	411.81
452.648	433.81
452.869	416.81
453.089	406.81
453.31	428.81
453.53	438.81
453.751	418.81
453.971	408.81
454.192	444.81
454.412	416.81
454.633	425.81
454.853	413.81
455.073	434.81
455.294	406.81
455.514	418.81
455.734	422.81
455.955	413.81
456.175	413.81
456.395	406.81
456.616	414.81
456.836	428.81
457.056	430.81
457.276	416.81
457.497	426.81
457.717	435.81
457.937	449.81
458.157	439.81
458.377	425.81
458.598	436.81
458.818	429.81
459.038	450.81
459.258	458.81
459.478	467.81
459.698	479.81
459.918	487.81
460.138	515.81
460.358	525.81
460.578	526.81
460.798	524.81
461.018	531.81
461.238	557.81
461.458	547.81
461.678	542.81
461.898	553.81
462.118	553.81
462.338	582.81
462.558	584.81
462.777	590.81
462.997	618.81
463.217	616.81
463.437	629.81
463.657	588.81
463.876	591.81
464.096	580.81
464.316	591.81
464.536	552.81
464.755	569.81
464.975	581.81
465.195	560.81
465.414	530.81
465.634	514.81
465.854	511.81
466.073	500.81
466.293	488.81
466.512	478.81
466.732	499.81
466.951	485.81
467.171	476.81
467.391	460.81
467.61	468.81
467.829	446.81
468.049	453.81
468.268	445.81
468.488	464.81
468.707	485.81
468.927	491.81
469.146	461.81
469.365	476.81
469.585	487.81
469.804	478.81
470.023	484.81
470.243	467.81
470.462	484.81
470.681	472.81
470.901	474.81
471.12	478.81
471.339	469.81
471.558	454.81
471.777	460.81
471.997	459.81
472.216	466.81
472.435	458.81
472.654	461.81
472.873	453.81
473.092	488.81
473.311	471.81
473.53	469.81
473.749	466.81
473.968	473.81
474.187	464.81
474.406	457.81
474.625	488.81
474.844	475.81
475.063	489.81
475.282	458.81
475.501	482.81
475.72	487.81
475.939	458.81
476.158	475.81
476.377	496.81
476.596	498.81
476.814	517.81
477.033	504.81
477.252	502.81
477.471	525.81
477.69	523.81
477.908	526.81
478.127	516.81
478.346	531.81
478.564	553.81
478.783	534.81
479.002	562.81
479.22	565.81
479.439	556.81
479.658	540.81
479.876	561.81
480.095	542.81
480.313	576.81
480.532	552.81
480.751	571.81
480.969	580.81
481.188	562.81
481.406	566.81
481.624	544.81
481.843	546.81
482.061	551.81
482.28	569.81
482.498	550.81
482.717	550.81
482.935	562.81
483.153	557.81
483.372	542.81
483.59	544.81
483.808	553.81
484.027	529.81
484.245	538.81
484.463	541.81
484.681	542.81
484.9	553.81
485.118	537.81
485.336	558.81
485.554	540.81
485.772	555.81
485.99	532.81
486.209	548.81
486.427	546.81
486.645	563.81
486.863	570.81
487.081	552.81
487.299	557.81
487.517	561.81
487.735	564.81
487.953	556.81
488.171	566.81
488.389	568.81
488.607	563.81
488.825	536.81
489.043	554.81
489.261	541.81
489.479	564.81
489.696	553.81
489.914	572.81
490.132	562.81
490.35	552.81
490.568	538.81
490.786	565.81
491.003	566.81
491.221	579.81
491.439	590.81
491.657	597.81
491.874	573.81
492.092	588.81
492.31	589.81
492.527	605.81
492.745	582.81
492.963	587.81
493.18	595.81
493.398	582.81
493.615	581.81
493.833	599.81
494.05	582.81
494.268	602.81
494.485	589.81
494.703	582.81
494.92	611.81
495.138	594.81
495.355	606.81
495.573	578.81
495.79	626.81
496.008	613.81
496.225	590.81
496.442	594.81
496.66	625.81
496.877	636.81
497.094	662.81
497.312	634.81
497.529	629.81
497.746	651.81
497.963	672.81
498.181	694.81
498.398	725.81
498.615	772.81
498.832	788.81
499.049	792.81
499.267	865.81
499.484	884.81
499.701	930.81
499.918	993.81
500.135	1041.81
500.352	1080.81
500.569	1105.81
500.786	1140.81
501.003	1094.81
501.22	1042.81
501.437	952.81
501.654	911.81
501.871	889.81
