Data from Fe(NO3)3@0.0125M.TitratingCurve.Agarose3%dH2O.NegLispCup.LampEnergy10.LIBS07252019_HRD10591_17-00-07-336.txt Node
Date: Thu Jul 25 17:00:07 EDT 2019
User: cochatt
Spectrometer: HR+D1059
Trigger mode: 1
Integration Time (sec): 1.000000E-1
Scans to average: 1
Electric dark correction enabled: true
Nonlinearity correction enabled: false
Boxcar width: 0
XAxis mode: Wavelengths
Number of Pixels in Spectrum: 2048
>>>>>Begin Spectral Data<<<<<
223.165	-23.56
223.4	-23.56
223.635	-23.56
223.869	-22.56
224.104	-18.56
224.338	-7.56
224.573	-3.56
224.808	-10.56
225.042	-10.56
225.277	-4.56
225.511	-25.56
225.746	9.44
225.98	5.44
226.215	16.44
226.449	10.44
226.683	32.44
226.918	27.44
227.152	25.44
227.387	31.44
227.621	43.44
227.856	64.44
228.09	45.44
228.324	51.44
228.559	64.44
228.793	68.44
229.027	80.44
229.262	80.44
229.496	82.44
229.73	71.44
229.964	98.44
230.199	105.44
230.433	101.44
230.667	89.44
230.901	98.44
231.136	96.44
231.37	93.44
231.604	99.44
231.838	101.44
232.072	104.44
232.306	113.44
232.541	99.44
232.775	92.44
233.009	92.44
233.243	99.44
233.477	98.44
233.711	121.44
233.945	98.44
234.179	100.44
234.413	108.44
234.647	110.44
234.881	105.44
235.115	116.44
235.349	117.44
235.583	106.44
235.817	104.44
236.051	111.44
236.285	118.44
236.519	105.44
236.753	120.44
236.987	88.44
237.221	95.44
237.455	103.44
237.689	113.44
237.922	101.44
238.156	119.44
238.39	110.44
238.624	111.44
238.858	102.44
239.091	118.44
239.325	117.44
239.559	115.44
239.793	107.44
240.027	122.44
240.26	125.44
240.494	125.44
240.728	109.44
240.961	133.44
241.195	112.44
241.429	124.44
241.662	107.44
241.896	111.44
242.13	117.44
242.363	123.44
242.597	97.44
242.83	119.44
243.064	118.44
243.298	132.44
243.531	120.44
243.765	129.44
243.998	113.44
244.232	121.44
244.465	118.44
244.699	123.44
244.932	126.44
245.166	128.44
245.399	126.44
245.633	125.44
245.866	126.44
246.099	132.44
246.333	139.44
246.566	124.44
246.8	133.44
247.033	120.44
247.266	140.44
247.5	133.44
247.733	135.44
247.966	147.44
248.2	142.44
248.433	141.44
248.666	149.44
248.899	150.44
249.133	141.44
249.366	136.44
249.599	135.44
249.832	159.44
250.066	151.44
250.299	148.44
250.532	141.44
250.765	139.44
250.998	146.44
251.231	127.44
251.465	127.44
251.698	126.44
251.931	121.44
252.164	145.44
252.397	146.44
252.63	149.44
252.863	166.44
253.096	155.44
253.329	150.44
253.562	164.44
253.795	165.44
254.028	164.44
254.261	151.44
254.494	163.44
254.727	145.44
254.96	138.44
255.193	164.44
255.426	165.44
255.659	163.44
255.892	150.44
256.124	159.44
256.357	152.44
256.59	151.44
256.823	151.44
257.056	147.44
257.289	160.44
257.521	161.44
257.754	158.44
257.987	150.44
258.22	172.44
258.452	151.44
258.685	163.44
258.918	167.44
259.151	166.44
259.383	170.44
259.616	154.44
259.849	175.44
260.081	184.44
260.314	193.44
260.547	195.44
260.779	169.44
261.012	165.44
261.244	176.44
261.477	175.44
261.71	183.44
261.942	170.44
262.175	172.44
262.407	164.44
262.64	179.44
262.872	175.44
263.105	185.44
263.337	190.44
263.57	178.44
263.802	173.44
264.035	172.44
264.267	173.44
264.499	171.44
264.732	173.44
264.964	167.44
265.197	165.44
265.429	158.44
265.661	159.44
265.894	177.44
266.126	160.44
266.358	175.44
266.591	181.44
266.823	179.44
267.055	184.44
267.287	187.44
267.52	164.44
267.752	169.44
267.984	182.44
268.216	171.44
268.448	172.44
268.681	183.44
268.913	169.44
269.145	167.44
269.377	190.44
269.609	164.44
269.841	179.44
270.073	187.44
270.306	181.44
270.538	168.44
270.77	173.44
271.002	204.44
271.234	191.44
271.466	196.44
271.698	185.44
271.93	181.44
272.162	209.44
272.394	198.44
272.626	207.44
272.858	190.44
273.09	195.44
273.322	203.44
273.553	200.44
273.785	197.44
274.017	196.44
274.249	238.44
274.481	250.44
274.713	233.44
274.945	269.44
275.176	250.44
275.408	240.44
275.64	216.44
275.872	230.44
276.104	220.44
276.335	203.44
276.567	200.44
276.799	211.44
277.031	203.44
277.262	219.44
277.494	212.44
277.726	216.44
277.957	198.44
278.189	205.44
278.421	202.44
278.652	211.44
278.884	213.44
279.115	207.44
279.347	222.44
279.579	223.44
279.81	232.44
280.042	211.44
280.273	209.44
280.505	216.44
280.736	216.44
280.968	213.44
281.199	220.44
281.431	194.44
281.662	221.44
281.894	209.44
282.125	229.44
282.356	217.44
282.588	217.44
282.819	230.44
283.051	211.44
283.282	230.44
283.513	239.44
283.745	232.44
283.976	231.44
284.207	219.44
284.439	241.44
284.67	221.44
284.901	238.44
285.132	243.44
285.364	231.44
285.595	227.44
285.826	223.44
286.057	224.44
286.288	242.44
286.52	228.44
286.751	243.44
286.982	220.44
287.213	236.44
287.444	246.44
287.675	253.44
287.906	249.44
288.138	244.44
288.369	222.44
288.6	236.44
288.831	240.44
289.062	244.44
289.293	247.44
289.524	244.44
289.755	241.44
289.986	229.44
290.217	235.44
290.448	248.44
290.679	259.44
290.91	234.44
291.141	243.44
291.371	238.44
291.602	250.44
291.833	235.44
292.064	250.44
292.295	251.44
292.526	248.44
292.757	246.44
292.987	263.44
293.218	269.44
293.449	255.44
293.68	252.44
293.91	239.44
294.141	239.44
294.372	244.44
294.603	266.44
294.833	233.44
295.064	281.44
295.295	258.44
295.525	263.44
295.756	254.44
295.987	231.44
296.217	243.44
296.448	265.44
296.679	255.44
296.909	272.44
297.14	273.44
297.37	272.44
297.601	268.44
297.831	271.44
298.062	271.44
298.292	271.44
298.523	285.44
298.753	290.44
298.984	275.44
299.214	270.44
299.445	281.44
299.675	271.44
299.905	278.44
300.136	268.44
300.366	279.44
300.597	259.44
300.827	272.44
301.057	281.44
301.288	290.44
301.518	275.44
301.748	283.44
301.979	290.44
302.209	293.44
302.439	291.44
302.669	283.44
302.9	286.44
303.13	280.44
303.36	284.44
303.59	289.44
303.82	279.44
304.051	299.44
304.281	294.44
304.511	311.44
304.741	292.44
304.971	297.44
305.201	299.44
305.431	307.44
305.661	294.44
305.891	311.44
306.121	306.44
306.352	280.44
306.582	259.44
306.812	298.44
307.042	284.44
307.272	294.44
307.502	280.44
307.731	299.44
307.961	300.44
308.191	281.44
308.421	295.44
308.651	293.44
308.881	281.44
309.111	298.44
309.341	301.44
309.571	289.44
309.8	288.44
310.03	298.44
310.26	284.44
310.49	295.44
310.72	291.44
310.949	311.44
311.179	303.44
311.409	291.44
311.639	294.44
311.868	310.44
312.098	303.44
312.328	299.44
312.557	319.44
312.787	311.44
313.017	305.44
313.246	311.44
313.476	306.44
313.706	316.44
313.935	327.44
314.165	312.44
314.394	304.44
314.624	308.44
314.853	307.44
315.083	307.44
315.312	304.44
315.542	321.44
315.771	323.44
316.001	323.44
316.23	337.44
316.46	308.44
316.689	328.44
316.919	333.44
317.148	347.44
317.377	347.44
317.607	325.44
317.836	327.44
318.065	331.44
318.295	331.44
318.524	307.44
318.753	299.44
318.983	319.44
319.212	312.44
319.441	344.44
319.67	350.44
319.9	326.44
320.129	330.44
320.358	331.44
320.587	313.44
320.816	348.44
321.046	334.44
321.275	350.44
321.504	330.44
321.733	329.44
321.962	335.44
322.191	320.44
322.42	341.44
322.649	341.44
322.878	339.44
323.108	341.44
323.337	344.44
323.566	337.44
323.795	331.44
324.024	335.44
324.253	342.44
324.482	366.44
324.71	327.44
324.939	334.44
325.168	344.44
325.397	341.44
325.626	359.44
325.855	330.44
326.084	358.44
326.313	364.44
326.542	344.44
326.77	335.44
326.999	359.44
327.228	352.44
327.457	343.44
327.686	352.44
327.914	365.44
328.143	349.44
328.372	366.44
328.6	345.44
328.829	359.44
329.058	355.44
329.287	346.44
329.515	376.44
329.744	356.44
329.972	351.44
330.201	367.44
330.43	372.44
330.658	368.44
330.887	371.44
331.115	371.44
331.344	366.44
331.572	377.44
331.801	359.44
332.03	365.44
332.258	385.44
332.486	385.44
332.715	384.44
332.943	385.44
333.172	376.44
333.4	410.44
333.629	377.44
333.857	391.44
334.085	401.44
334.314	387.44
334.542	393.44
334.771	380.44
334.999	392.44
335.227	394.44
335.455	383.44
335.684	397.44
335.912	398.44
336.14	386.44
336.369	398.44
336.597	377.44
336.825	377.44
337.053	382.44
337.281	402.44
337.51	379.44
337.738	393.44
337.966	379.44
338.194	382.44
338.422	403.44
338.65	384.44
338.878	391.44
339.106	401.44
339.334	383.44
339.562	387.44
339.79	379.44
340.018	381.44
340.246	369.44
340.474	373.44
340.702	383.44
340.93	383.44
341.158	377.44
341.386	374.44
341.614	395.44
341.842	376.44
342.07	373.44
342.298	384.44
342.526	384.44
342.754	384.44
342.981	397.44
343.209	381.44
343.437	397.44
343.665	398.44
343.893	410.44
344.12	405.44
344.348	397.44
344.576	414.44
344.804	385.44
345.031	401.44
345.259	371.44
345.487	368.44
345.714	373.44
345.942	380.44
346.17	368.44
346.397	395.44
346.625	371.44
346.853	384.44
347.08	373.44
347.308	392.44
347.535	408.44
347.763	373.44
347.99	364.44
348.218	384.44
348.445	380.44
348.673	373.44
348.9	385.44
349.128	381.44
349.355	380.44
349.583	364.44
349.81	387.44
350.037	374.44
350.265	379.44
350.492	381.44
350.72	359.44
350.947	379.44
351.174	391.44
351.402	376.44
351.629	377.44
351.856	361.44
352.083	371.44
352.311	368.44
352.538	363.44
352.765	371.44
352.992	385.44
353.22	384.44
353.447	368.44
353.674	380.44
353.901	375.44
354.128	375.44
354.355	363.44
354.583	362.44
354.81	375.44
355.037	392.44
355.264	378.44
355.491	365.44
355.718	362.44
355.945	375.44
356.172	400.44
356.399	371.44
356.626	381.44
356.853	385.44
357.08	392.44
357.307	395.44
357.534	371.44
357.761	394.44
357.988	382.44
358.215	395.44
358.441	407.44
358.668	371.44
358.895	375.44
359.122	378.44
359.349	376.44
359.576	376.44
359.802	372.44
360.029	359.44
360.256	366.44
360.483	367.44
360.709	407.44
360.936	399.44
361.163	385.44
361.39	376.44
361.616	376.44
361.843	383.44
362.07	395.44
362.296	382.44
362.523	390.44
362.749	393.44
362.976	388.44
363.203	402.44
363.429	381.44
363.656	392.44
363.882	388.44
364.109	373.44
364.335	396.44
364.562	388.44
364.788	395.44
365.015	392.44
365.241	398.44
365.468	397.44
365.694	399.44
365.92	408.44
366.147	381.44
366.373	407.44
366.599	390.44
366.826	384.44
367.052	405.44
367.278	394.44
367.505	390.44
367.731	406.44
367.957	402.44
368.184	409.44
368.41	411.44
368.636	397.44
368.862	393.44
369.089	419.44
369.315	399.44
369.541	409.44
369.767	393.44
369.993	386.44
370.219	401.44
370.445	396.44
370.672	421.44
370.898	412.44
371.124	420.44
371.35	433.44
371.576	421.44
371.802	421.44
372.028	428.44
372.254	423.44
372.48	437.44
372.706	411.44
372.932	422.44
373.158	417.44
373.384	416.44
373.61	425.44
373.835	430.44
374.061	435.44
374.287	419.44
374.513	420.44
374.739	452.44
374.965	429.44
375.191	449.44
375.416	442.44
375.642	437.44
375.868	455.44
376.094	447.44
376.319	425.44
376.545	412.44
376.771	423.44
376.997	429.44
377.222	437.44
377.448	432.44
377.674	410.44
377.899	425.44
378.125	413.44
378.35	407.44
378.576	405.44
378.802	428.44
379.027	405.44
379.253	411.44
379.478	401.44
379.704	426.44
379.929	397.44
380.155	419.44
380.38	426.44
380.606	424.44
380.831	409.44
381.057	415.44
381.282	411.44
381.507	447.44
381.733	412.44
381.958	439.44
382.184	443.44
382.409	445.44
382.634	432.44
382.86	448.44
383.085	432.44
383.31	424.44
383.535	431.44
383.761	441.44
383.986	433.44
384.211	446.44
384.436	446.44
384.662	469.44
384.887	464.44
385.112	447.44
385.337	425.44
385.562	459.44
385.787	463.44
386.013	470.44
386.238	445.44
386.463	457.44
386.688	470.44
386.913	442.44
387.138	456.44
387.363	472.44
387.588	476.44
387.813	468.44
388.038	468.44
388.263	463.44
388.488	479.44
388.713	453.44
388.938	467.44
389.163	472.44
389.387	457.44
389.612	463.44
389.837	461.44
390.062	464.44
390.287	461.44
390.512	461.44
390.736	468.44
390.961	467.44
391.186	476.44
391.411	489.44
391.636	480.44
391.86	511.44
392.085	489.44
392.31	490.44
392.534	477.44
392.759	464.44
392.984	472.44
393.208	504.44
393.433	571.44
393.658	540.44
393.882	487.44
394.107	470.44
394.331	477.44
394.556	473.44
394.78	504.44
395.005	472.44
395.229	508.44
395.454	510.44
395.678	519.44
395.903	494.44
396.127	478.44
396.352	474.44
396.576	502.44
396.801	507.44
397.025	555.44
397.249	518.44
397.474	507.44
397.698	502.44
397.922	500.44
398.147	525.44
398.371	519.44
398.595	528.44
398.82	521.44
399.044	541.44
399.268	552.44
399.492	571.44
399.717	589.44
399.941	583.44
400.165	571.44
400.389	567.44
400.613	542.44
400.837	533.44
401.062	532.44
401.286	555.44
401.51	536.44
401.734	529.44
401.958	529.44
402.182	535.44
402.406	526.44
402.63	506.44
402.854	538.44
403.078	529.44
403.302	547.44
403.526	530.44
403.75	551.44
403.974	524.44
404.198	524.44
404.422	534.44
404.645	537.44
404.869	550.44
405.093	550.44
405.317	565.44
405.541	559.44
405.765	556.44
405.988	541.44
406.212	559.44
406.436	571.44
406.66	594.44
406.883	579.44
407.107	605.44
407.331	578.44
407.555	581.44
407.778	591.44
408.002	588.44
408.226	582.44
408.449	585.44
408.673	583.44
408.896	591.44
409.12	564.44
409.344	572.44
409.567	556.44
409.791	580.44
410.014	563.44
410.238	579.44
410.461	575.44
410.685	581.44
410.908	554.44
411.132	555.44
411.355	544.44
411.578	556.44
411.802	539.44
412.025	544.44
412.249	545.44
412.472	555.44
412.695	565.44
412.919	533.44
413.142	547.44
413.365	557.44
413.589	551.44
413.812	528.44
414.035	534.44
414.258	554.44
414.482	547.44
414.705	532.44
414.928	525.44
415.151	535.44
415.374	541.44
415.597	532.44
415.821	532.44
416.044	497.44
416.267	508.44
416.49	525.44
416.713	524.44
416.936	559.44
417.159	515.44
417.382	504.44
417.605	510.44
417.828	530.44
418.051	525.44
418.274	541.44
418.497	529.44
418.72	530.44
418.943	522.44
419.166	555.44
419.389	557.44
419.611	553.44
419.834	556.44
420.057	514.44
420.28	527.44
420.503	525.44
420.726	517.44
420.948	519.44
421.171	516.44
421.394	541.44
421.617	524.44
421.839	529.44
422.062	539.44
422.285	502.44
422.507	549.44
422.73	519.44
422.953	528.44
423.175	489.44
423.398	523.44
423.621	517.44
423.843	510.44
424.066	521.44
424.288	519.44
424.511	519.44
424.733	515.44
424.956	503.44
425.178	512.44
425.401	518.44
425.623	544.44
425.846	496.44
426.068	502.44
426.291	491.44
426.513	503.44
426.735	488.44
426.958	510.44
427.18	512.44
427.402	495.44
427.625	509.44
427.847	497.44
428.069	506.44
428.292	517.44
428.514	516.44
428.736	511.44
428.958	501.44
429.181	494.44
429.403	487.44
429.625	492.44
429.847	493.44
430.069	515.44
430.292	491.44
430.514	476.44
430.736	510.44
430.958	523.44
431.18	502.44
431.402	515.44
431.624	511.44
431.846	472.44
432.068	510.44
432.29	513.44
432.512	500.44
432.734	507.44
432.956	520.44
433.178	519.44
433.4	509.44
433.622	517.44
433.844	507.44
434.066	518.44
434.287	504.44
434.509	525.44
434.731	532.44
434.953	526.44
435.175	506.44
435.397	546.44
435.618	528.44
435.84	510.44
436.062	510.44
436.284	509.44
436.505	495.44
436.727	504.44
436.949	507.44
437.17	503.44
437.392	503.44
437.614	503.44
437.835	495.44
438.057	500.44
438.278	495.44
438.5	489.44
438.721	504.44
438.943	491.44
439.165	471.44
439.386	506.44
439.608	508.44
439.829	492.44
440.05	491.44
440.272	495.44
440.493	496.44
440.715	498.44
440.936	517.44
441.158	526.44
441.379	494.44
441.6	537.44
441.822	523.44
442.043	528.44
442.264	511.44
442.486	494.44
442.707	523.44
442.928	520.44
443.149	514.44
443.371	520.44
443.592	503.44
443.813	515.44
444.034	515.44
444.255	532.44
444.476	535.44
444.698	544.44
444.919	513.44
445.14	611.44
445.361	569.44
445.582	511.44
445.803	517.44
446.024	524.44
446.245	503.44
446.466	519.44
446.687	491.44
446.908	509.44
447.129	507.44
447.35	489.44
447.571	484.44
447.792	480.44
448.013	483.44
448.234	482.44
448.455	471.44
448.675	475.44
448.896	496.44
449.117	472.44
449.338	483.44
449.559	473.44
449.779	488.44
450	471.44
450.221	471.44
450.442	476.44
450.662	456.44
450.883	462.44
451.104	463.44
451.324	481.44
451.545	463.44
451.766	470.44
451.986	475.44
452.207	455.44
452.428	460.44
452.648	481.44
452.869	468.44
453.089	454.44
453.31	468.44
453.53	466.44
453.751	446.44
453.971	459.44
454.192	472.44
454.412	457.44
454.633	442.44
454.853	455.44
455.073	450.44
455.294	452.44
455.514	456.44
455.734	447.44
455.955	471.44
456.175	453.44
456.395	454.44
456.616	461.44
456.836	460.44
457.056	455.44
457.276	462.44
457.497	492.44
457.717	466.44
457.937	472.44
458.157	458.44
458.377	458.44
458.598	476.44
458.818	478.44
459.038	471.44
459.258	504.44
459.478	494.44
459.698	499.44
459.918	508.44
460.138	485.44
460.358	534.44
460.578	521.44
460.798	541.44
461.018	532.44
461.238	532.44
461.458	544.44
461.678	536.44
461.898	542.44
462.118	543.44
462.338	557.44
462.558	554.44
462.777	581.44
462.997	567.44
463.217	571.44
463.437	580.44
463.657	574.44
463.876	559.44
464.096	587.44
464.316	555.44
464.536	555.44
464.755	568.44
464.975	543.44
465.195	564.44
465.414	526.44
465.634	527.44
465.854	513.44
466.073	509.44
466.293	506.44
466.512	502.44
466.732	514.44
466.951	505.44
467.171	511.44
467.391	510.44
467.61	488.44
467.829	523.44
468.049	519.44
468.268	515.44
468.488	499.44
468.707	508.44
468.927	522.44
469.146	510.44
469.365	517.44
469.585	511.44
469.804	497.44
470.023	514.44
470.243	499.44
470.462	522.44
470.681	518.44
470.901	512.44
471.12	511.44
471.339	523.44
471.558	510.44
471.777	512.44
471.997	522.44
472.216	520.44
472.435	503.44
472.654	488.44
472.873	518.44
473.092	515.44
473.311	513.44
473.53	516.44
473.749	515.44
473.968	518.44
474.187	525.44
474.406	507.44
474.625	544.44
474.844	516.44
475.063	513.44
475.282	537.44
475.501	547.44
475.72	518.44
475.939	547.44
476.158	557.44
476.377	528.44
476.596	565.44
476.814	572.44
477.033	547.44
477.252	550.44
477.471	547.44
477.69	569.44
477.908	589.44
478.127	591.44
478.346	559.44
478.564	576.44
478.783	592.44
479.002	591.44
479.22	613.44
479.439	624.44
479.658	596.44
479.876	603.44
480.095	589.44
480.313	612.44
480.532	612.44
480.751	625.44
480.969	604.44
481.188	607.44
481.406	618.44
481.624	609.44
481.843	600.44
482.061	632.44
482.28	605.44
482.498	608.44
482.717	612.44
482.935	616.44
483.153	614.44
483.372	629.44
483.59	622.44
483.808	603.44
484.027	632.44
484.245	631.44
484.463	644.44
484.681	649.44
484.9	651.44
485.118	646.44
485.336	629.44
485.554	623.44
485.772	630.44
485.99	647.44
486.209	629.44
486.427	661.44
486.645	640.44
486.863	622.44
487.081	640.44
487.299	635.44
487.517	655.44
487.735	642.44
487.953	655.44
488.171	647.44
488.389	624.44
488.607	631.44
488.825	650.44
489.043	639.44
489.261	641.44
489.479	669.44
489.696	643.44
489.914	623.44
490.132	639.44
490.35	641.44
490.568	652.44
490.786	645.44
491.003	635.44
491.221	629.44
491.439	654.44
491.657	648.44
491.874	664.44
492.092	666.44
492.31	669.44
492.527	700.44
492.745	694.44
492.963	680.44
493.18	648.44
493.398	662.44
493.615	650.44
493.833	663.44
494.05	665.44
494.268	656.44
494.485	658.44
494.703	682.44
494.92	651.44
495.138	686.44
495.355	681.44
495.573	668.44
495.79	683.44
496.008	677.44
496.225	700.44
496.442	708.44
496.66	694.44
496.877	710.44
497.094	694.44
497.312	704.44
497.529	714.44
497.746	713.44
497.963	723.44
498.181	752.44
498.398	771.44
498.615	767.44
498.832	785.44
499.049	797.44
499.267	811.44
499.484	824.44
499.701	875.44
499.918	933.44
500.135	940.44
500.352	943.44
500.569	946.44
500.786	990.44
501.003	959.44
501.22	945.44
501.437	905.44
501.654	848.44
501.871	831.44
