Data from Fe(NO3)3@0.1M.TitratingCurve.Agarose3%dH2O.NegLispCup.LampEnergy10.LIBS07252019_HRD10591_16-40-35-333.txt Node
Date: Thu Jul 25 16:40:35 EDT 2019
User: cochatt
Spectrometer: HR+D1059
Trigger mode: 1
Integration Time (sec): 1.000000E-1
Scans to average: 1
Electric dark correction enabled: true
Nonlinearity correction enabled: false
Boxcar width: 0
XAxis mode: Wavelengths
Number of Pixels in Spectrum: 2048
>>>>>Begin Spectral Data<<<<<
223.165	-16.06
223.4	-16.06
223.635	-16.06
223.869	-9.06
224.104	-9.06
224.338	-3.06
224.573	-9.06
224.808	-13.06
225.042	-18.06
225.277	-13.06
225.511	-3.06
225.746	-7.06
225.98	-2.06
226.215	18.94
226.449	9.94
226.683	12.94
226.918	25.94
227.152	34.94
227.387	35.94
227.621	41.94
227.856	52.94
228.09	48.94
228.324	53.94
228.559	59.94
228.793	61.94
229.027	61.94
229.262	87.94
229.496	84.94
229.73	64.94
229.964	90.94
230.199	85.94
230.433	94.94
230.667	98.94
230.901	105.94
231.136	89.94
231.37	90.94
231.604	99.94
231.838	85.94
232.072	98.94
232.306	94.94
232.541	101.94
232.775	105.94
233.009	97.94
233.243	104.94
233.477	97.94
233.711	109.94
233.945	107.94
234.179	104.94
234.413	104.94
234.647	100.94
234.881	96.94
235.115	109.94
235.349	104.94
235.583	91.94
235.817	107.94
236.051	92.94
236.285	93.94
236.519	102.94
236.753	107.94
236.987	106.94
237.221	102.94
237.455	101.94
237.689	94.94
237.922	105.94
238.156	87.94
238.39	99.94
238.624	101.94
238.858	102.94
239.091	92.94
239.325	99.94
239.559	100.94
239.793	97.94
240.027	108.94
240.26	93.94
240.494	102.94
240.728	99.94
240.961	117.94
241.195	119.94
241.429	112.94
241.662	112.94
241.896	114.94
242.13	96.94
242.363	98.94
242.597	103.94
242.83	110.94
243.064	100.94
243.298	107.94
243.531	124.94
243.765	120.94
243.998	112.94
244.232	123.94
244.465	126.94
244.699	117.94
244.932	125.94
245.166	119.94
245.399	112.94
245.633	116.94
245.866	117.94
246.099	115.94
246.333	114.94
246.566	114.94
246.8	121.94
247.033	118.94
247.266	118.94
247.5	114.94
247.733	123.94
247.966	132.94
248.2	122.94
248.433	120.94
248.666	136.94
248.899	116.94
249.133	123.94
249.366	128.94
249.599	119.94
249.832	117.94
250.066	134.94
250.299	120.94
250.532	126.94
250.765	128.94
250.998	120.94
251.231	105.94
251.465	124.94
251.698	134.94
251.931	138.94
252.164	120.94
252.397	135.94
252.63	119.94
252.863	133.94
253.096	118.94
253.329	136.94
253.562	136.94
253.795	134.94
254.028	124.94
254.261	131.94
254.494	132.94
254.727	130.94
254.96	123.94
255.193	140.94
255.426	141.94
255.659	131.94
255.892	127.94
256.124	135.94
256.357	133.94
256.59	128.94
256.823	134.94
257.056	128.94
257.289	145.94
257.521	144.94
257.754	137.94
257.987	118.94
258.22	148.94
258.452	133.94
258.685	137.94
258.918	136.94
259.151	133.94
259.383	140.94
259.616	132.94
259.849	139.94
260.081	125.94
260.314	157.94
260.547	142.94
260.779	139.94
261.012	138.94
261.244	142.94
261.477	148.94
261.71	148.94
261.942	138.94
262.175	144.94
262.407	154.94
262.64	147.94
262.872	150.94
263.105	139.94
263.337	163.94
263.57	153.94
263.802	146.94
264.035	162.94
264.267	156.94
264.499	146.94
264.732	155.94
264.964	151.94
265.197	152.94
265.429	151.94
265.661	158.94
265.894	136.94
266.126	156.94
266.358	165.94
266.591	143.94
266.823	147.94
267.055	162.94
267.287	164.94
267.52	151.94
267.752	150.94
267.984	168.94
268.216	156.94
268.448	162.94
268.681	164.94
268.913	150.94
269.145	174.94
269.377	167.94
269.609	154.94
269.841	154.94
270.073	162.94
270.306	161.94
270.538	157.94
270.77	153.94
271.002	153.94
271.234	171.94
271.466	178.94
271.698	168.94
271.93	187.94
272.162	176.94
272.394	160.94
272.626	166.94
272.858	167.94
273.09	156.94
273.322	176.94
273.553	158.94
273.785	169.94
274.017	160.94
274.249	190.94
274.481	182.94
274.713	188.94
274.945	181.94
275.176	178.94
275.408	169.94
275.64	188.94
275.872	172.94
276.104	166.94
276.335	169.94
276.567	173.94
276.799	172.94
277.031	161.94
277.262	185.94
277.494	182.94
277.726	180.94
277.957	176.94
278.189	184.94
278.421	180.94
278.652	177.94
278.884	167.94
279.115	186.94
279.347	191.94
279.579	168.94
279.81	190.94
280.042	178.94
280.273	182.94
280.505	177.94
280.736	180.94
280.968	192.94
281.199	189.94
281.431	184.94
281.662	191.94
281.894	198.94
282.125	187.94
282.356	203.94
282.588	190.94
282.819	184.94
283.051	196.94
283.282	181.94
283.513	207.94
283.745	182.94
283.976	177.94
284.207	209.94
284.439	177.94
284.67	181.94
284.901	185.94
285.132	186.94
285.364	178.94
285.595	204.94
285.826	201.94
286.057	199.94
286.288	204.94
286.52	189.94
286.751	188.94
286.982	212.94
287.213	194.94
287.444	193.94
287.675	196.94
287.906	179.94
288.138	202.94
288.369	206.94
288.6	217.94
288.831	198.94
289.062	221.94
289.293	205.94
289.524	202.94
289.755	216.94
289.986	197.94
290.217	214.94
290.448	205.94
290.679	204.94
290.91	208.94
291.141	203.94
291.371	206.94
291.602	211.94
291.833	195.94
292.064	212.94
292.295	205.94
292.526	202.94
292.757	204.94
292.987	218.94
293.218	230.94
293.449	211.94
293.68	214.94
293.91	211.94
294.141	199.94
294.372	205.94
294.603	216.94
294.833	217.94
295.064	221.94
295.295	204.94
295.525	208.94
295.756	203.94
295.987	208.94
296.217	231.94
296.448	221.94
296.679	221.94
296.909	220.94
297.14	191.94
297.37	222.94
297.601	217.94
297.831	213.94
298.062	220.94
298.292	222.94
298.523	241.94
298.753	221.94
298.984	206.94
299.214	220.94
299.445	233.94
299.675	221.94
299.905	227.94
300.136	231.94
300.366	240.94
300.597	216.94
300.827	219.94
301.057	226.94
301.288	229.94
301.518	234.94
301.748	243.94
301.979	244.94
302.209	230.94
302.439	245.94
302.669	218.94
302.9	236.94
303.13	242.94
303.36	231.94
303.59	228.94
303.82	243.94
304.051	224.94
304.281	237.94
304.511	218.94
304.741	228.94
304.971	231.94
305.201	229.94
305.431	222.94
305.661	230.94
305.891	231.94
306.121	225.94
306.352	241.94
306.582	227.94
306.812	238.94
307.042	241.94
307.272	236.94
307.502	211.94
307.731	225.94
307.961	225.94
308.191	238.94
308.421	249.94
308.651	223.94
308.881	225.94
309.111	245.94
309.341	220.94
309.571	225.94
309.8	235.94
310.03	230.94
310.26	244.94
310.49	226.94
310.72	245.94
310.949	233.94
311.179	244.94
311.409	240.94
311.639	228.94
311.868	218.94
312.098	240.94
312.328	250.94
312.557	240.94
312.787	243.94
313.017	241.94
313.246	250.94
313.476	235.94
313.706	235.94
313.935	236.94
314.165	244.94
314.394	247.94
314.624	259.94
314.853	252.94
315.083	241.94
315.312	242.94
315.542	262.94
315.771	242.94
316.001	246.94
316.23	256.94
316.46	256.94
316.689	247.94
316.919	244.94
317.148	242.94
317.377	234.94
317.607	248.94
317.836	267.94
318.065	263.94
318.295	249.94
318.524	230.94
318.753	259.94
318.983	260.94
319.212	232.94
319.441	233.94
319.67	248.94
319.9	247.94
320.129	258.94
320.358	251.94
320.587	261.94
320.816	246.94
321.046	246.94
321.275	255.94
321.504	244.94
321.733	241.94
321.962	248.94
322.191	268.94
322.42	245.94
322.649	246.94
322.878	264.94
323.108	246.94
323.337	260.94
323.566	267.94
323.795	274.94
324.024	245.94
324.253	252.94
324.482	254.94
324.71	265.94
324.939	270.94
325.168	258.94
325.397	269.94
325.626	263.94
325.855	261.94
326.084	275.94
326.313	266.94
326.542	268.94
326.77	267.94
326.999	270.94
327.228	266.94
327.457	256.94
327.686	263.94
327.914	270.94
328.143	264.94
328.372	265.94
328.6	260.94
328.829	260.94
329.058	280.94
329.287	250.94
329.515	264.94
329.744	275.94
329.972	282.94
330.201	274.94
330.43	259.94
330.658	284.94
330.887	295.94
331.115	277.94
331.344	278.94
331.572	289.94
331.801	291.94
332.03	286.94
332.258	292.94
332.486	319.94
332.715	314.94
332.943	309.94
333.172	326.94
333.4	316.94
333.629	339.94
333.857	306.94
334.085	331.94
334.314	322.94
334.542	330.94
334.771	322.94
334.999	318.94
335.227	345.94
335.455	312.94
335.684	311.94
335.912	335.94
336.14	330.94
336.369	304.94
336.597	317.94
336.825	312.94
337.053	306.94
337.281	301.94
337.51	301.94
337.738	299.94
337.966	312.94
338.194	299.94
338.422	293.94
338.65	297.94
338.878	283.94
339.106	298.94
339.334	295.94
339.562	285.94
339.79	285.94
340.018	297.94
340.246	278.94
340.474	280.94
340.702	306.94
340.93	295.94
341.158	286.94
341.386	288.94
341.614	286.94
341.842	289.94
342.07	273.94
342.298	289.94
342.526	282.94
342.754	304.94
342.981	288.94
343.209	285.94
343.437	310.94
343.665	318.94
343.893	310.94
344.12	336.94
344.348	332.94
344.576	312.94
344.804	316.94
345.031	285.94
345.259	289.94
345.487	284.94
345.714	287.94
345.942	284.94
346.17	273.94
346.397	265.94
346.625	269.94
346.853	258.94
347.08	266.94
347.308	271.94
347.535	287.94
347.763	288.94
347.99	269.94
348.218	284.94
348.445	272.94
348.673	271.94
348.9	270.94
349.128	271.94
349.355	281.94
349.583	274.94
349.81	274.94
350.037	281.94
350.265	282.94
350.492	257.94
350.72	272.94
350.947	279.94
351.174	271.94
351.402	277.94
351.629	270.94
351.856	275.94
352.083	261.94
352.311	286.94
352.538	275.94
352.765	280.94
352.992	265.94
353.22	272.94
353.447	277.94
353.674	269.94
353.901	276.94
354.128	275.94
354.355	261.94
354.583	278.94
354.81	269.94
355.037	266.94
355.264	266.94
355.491	269.94
355.718	266.94
355.945	269.94
356.172	266.94
356.399	282.94
356.626	276.94
356.853	278.94
357.08	268.94
357.307	276.94
357.534	273.94
357.761	291.94
357.988	302.94
358.215	282.94
358.441	278.94
358.668	278.94
358.895	280.94
359.122	283.94
359.349	279.94
359.576	276.94
359.802	274.94
360.029	292.94
360.256	274.94
360.483	268.94
360.709	277.94
360.936	279.94
361.163	291.94
361.39	265.94
361.616	260.94
361.843	285.94
362.07	281.94
362.296	284.94
362.523	292.94
362.749	281.94
362.976	287.94
363.203	273.94
363.429	271.94
363.656	268.94
363.882	251.94
364.109	281.94
364.335	285.94
364.562	261.94
364.788	270.94
365.015	287.94
365.241	286.94
365.468	280.94
365.694	284.94
365.92	288.94
366.147	304.94
366.373	277.94
366.599	268.94
366.826	276.94
367.052	294.94
367.278	274.94
367.505	265.94
367.731	278.94
367.957	282.94
368.184	295.94
368.41	290.94
368.636	285.94
368.862	293.94
369.089	283.94
369.315	295.94
369.541	291.94
369.767	283.94
369.993	268.94
370.219	284.94
370.445	277.94
370.672	299.94
370.898	322.94
371.124	291.94
371.35	295.94
371.576	297.94
371.802	297.94
372.028	311.94
372.254	315.94
372.48	313.94
372.706	297.94
372.932	304.94
373.158	310.94
373.384	319.94
373.61	297.94
373.835	291.94
374.061	315.94
374.287	314.94
374.513	319.94
374.739	326.94
374.965	339.94
375.191	336.94
375.416	321.94
375.642	296.94
375.868	319.94
376.094	306.94
376.319	309.94
376.545	303.94
376.771	311.94
376.997	286.94
377.222	306.94
377.448	299.94
377.674	309.94
377.899	293.94
378.125	293.94
378.35	289.94
378.576	311.94
378.802	296.94
379.027	273.94
379.253	298.94
379.478	315.94
379.704	298.94
379.929	314.94
380.155	310.94
380.38	308.94
380.606	314.94
380.831	295.94
381.057	316.94
381.282	316.94
381.507	329.94
381.733	308.94
381.958	319.94
382.184	313.94
382.409	338.94
382.634	321.94
382.86	335.94
383.085	330.94
383.31	335.94
383.535	327.94
383.761	341.94
383.986	336.94
384.211	338.94
384.436	340.94
384.662	339.94
384.887	340.94
385.112	357.94
385.337	353.94
385.562	330.94
385.787	338.94
386.013	361.94
386.238	362.94
386.463	347.94
386.688	363.94
386.913	345.94
387.138	341.94
387.363	336.94
387.588	341.94
387.813	342.94
388.038	343.94
388.263	345.94
388.488	353.94
388.713	346.94
388.938	340.94
389.163	341.94
389.387	347.94
389.612	337.94
389.837	360.94
390.062	341.94
390.287	349.94
390.512	330.94
390.736	363.94
390.961	354.94
391.186	363.94
391.411	359.94
391.636	373.94
391.86	372.94
392.085	384.94
392.31	385.94
392.534	389.94
392.759	376.94
392.984	370.94
393.208	374.94
393.433	353.94
393.658	348.94
393.882	344.94
394.107	350.94
394.331	377.94
394.556	365.94
394.78	392.94
395.005	380.94
395.229	369.94
395.454	378.94
395.678	382.94
395.903	386.94
396.127	406.94
396.352	363.94
396.576	371.94
396.801	381.94
397.025	382.94
397.249	373.94
397.474	381.94
397.698	404.94
397.922	392.94
398.147	390.94
398.371	387.94
398.595	414.94
398.82	436.94
399.044	452.94
399.268	500.94
399.492	555.94
399.717	576.94
399.941	529.94
400.165	511.94
400.389	478.94
400.613	453.94
400.837	428.94
401.062	426.94
401.286	427.94
401.51	425.94
401.734	411.94
401.958	434.94
402.182	432.94
402.406	436.94
402.63	424.94
402.854	432.94
403.078	438.94
403.302	437.94
403.526	476.94
403.75	460.94
403.974	465.94
404.198	474.94
404.422	476.94
404.645	456.94
404.869	446.94
405.093	461.94
405.317	468.94
405.541	454.94
405.765	457.94
405.988	476.94
406.212	463.94
406.436	498.94
406.66	485.94
406.883	476.94
407.107	503.94
407.331	504.94
407.555	522.94
407.778	499.94
408.002	493.94
408.226	499.94
408.449	483.94
408.673	486.94
408.896	470.94
409.12	475.94
409.344	473.94
409.567	476.94
409.791	477.94
410.014	461.94
410.238	480.94
410.461	481.94
410.685	457.94
410.908	463.94
411.132	472.94
411.355	437.94
411.578	444.94
411.802	428.94
412.025	445.94
412.249	442.94
412.472	432.94
412.695	458.94
412.919	418.94
413.142	419.94
413.365	428.94
413.589	435.94
413.812	421.94
414.035	422.94
414.258	445.94
414.482	438.94
414.705	456.94
414.928	449.94
415.151	440.94
415.374	428.94
415.597	420.94
415.821	408.94
416.044	411.94
416.267	431.94
416.49	423.94
416.713	412.94
416.936	428.94
417.159	436.94
417.382	430.94
417.605	421.94
417.828	424.94
418.051	428.94
418.274	438.94
418.497	429.94
418.72	442.94
418.943	453.94
419.166	446.94
419.389	467.94
419.611	461.94
419.834	452.94
420.057	430.94
420.28	428.94
420.503	420.94
420.726	432.94
420.948	438.94
421.171	434.94
421.394	409.94
421.617	419.94
421.839	417.94
422.062	409.94
422.285	423.94
422.507	428.94
422.73	437.94
422.953	423.94
423.175	438.94
423.398	416.94
423.621	440.94
423.843	430.94
424.066	434.94
424.288	449.94
424.511	470.94
424.733	438.94
424.956	430.94
425.178	427.94
425.401	421.94
425.623	420.94
425.846	410.94
426.068	408.94
426.291	414.94
426.513	396.94
426.735	422.94
426.958	413.94
427.18	403.94
427.402	393.94
427.625	390.94
427.847	380.94
428.069	375.94
428.292	412.94
428.514	409.94
428.736	385.94
428.958	368.94
429.181	382.94
429.403	390.94
429.625	386.94
429.847	377.94
430.069	398.94
430.292	374.94
430.514	390.94
430.736	407.94
430.958	381.94
431.18	401.94
431.402	384.94
431.624	389.94
431.846	386.94
432.068	379.94
432.29	373.94
432.512	398.94
432.734	406.94
432.956	392.94
433.178	382.94
433.4	405.94
433.622	413.94
433.844	394.94
434.066	407.94
434.287	386.94
434.509	412.94
434.731	403.94
434.953	412.94
435.175	423.94
435.397	425.94
435.618	414.94
435.84	401.94
436.062	403.94
436.284	409.94
436.505	408.94
436.727	416.94
436.949	399.94
437.17	372.94
437.392	396.94
437.614	389.94
437.835	365.94
438.057	376.94
438.278	391.94
438.5	399.94
438.721	389.94
438.943	397.94
439.165	377.94
439.386	399.94
439.608	403.94
439.829	397.94
440.05	407.94
440.272	390.94
440.493	410.94
440.715	406.94
440.936	408.94
441.158	410.94
441.379	436.94
441.6	437.94
441.822	442.94
442.043	458.94
442.264	451.94
442.486	436.94
442.707	436.94
442.928	414.94
443.149	449.94
443.371	436.94
443.592	457.94
443.813	440.94
444.034	449.94
444.255	442.94
444.476	483.94
444.698	475.94
444.919	526.94
445.14	599.94
445.361	501.94
445.582	444.94
445.803	436.94
446.024	428.94
446.245	422.94
446.466	427.94
446.687	421.94
446.908	404.94
447.129	411.94
447.35	417.94
447.571	406.94
447.792	381.94
448.013	387.94
448.234	390.94
448.455	389.94
448.675	379.94
448.896	399.94
449.117	377.94
449.338	370.94
449.559	385.94
449.779	382.94
450	388.94
450.221	370.94
450.442	368.94
450.662	381.94
450.883	362.94
451.104	396.94
451.324	371.94
451.545	361.94
451.766	376.94
451.986	382.94
452.207	374.94
452.428	376.94
452.648	347.94
452.869	377.94
453.089	380.94
453.31	358.94
453.53	360.94
453.751	357.94
453.971	349.94
454.192	348.94
454.412	370.94
454.633	356.94
454.853	340.94
455.073	337.94
455.294	359.94
455.514	357.94
455.734	330.94
455.955	354.94
456.175	364.94
456.395	380.94
456.616	360.94
456.836	354.94
457.056	361.94
457.276	341.94
457.497	362.94
457.717	356.94
457.937	357.94
458.157	355.94
458.377	366.94
458.598	353.94
458.818	380.94
459.038	378.94
459.258	379.94
459.478	404.94
459.698	420.94
459.918	435.94
460.138	429.94
460.358	458.94
460.578	432.94
460.798	452.94
461.018	459.94
461.238	435.94
461.458	457.94
461.678	457.94
461.898	465.94
462.118	474.94
462.338	469.94
462.558	489.94
462.777	501.94
462.997	526.94
463.217	568.94
463.437	562.94
463.657	523.94
463.876	509.94
464.096	501.94
464.316	543.94
464.536	495.94
464.755	514.94
464.975	467.94
465.195	445.94
465.414	426.94
465.634	423.94
465.854	415.94
466.073	411.94
466.293	399.94
466.512	389.94
466.732	388.94
466.951	389.94
467.171	391.94
467.391	389.94
467.61	394.94
467.829	392.94
468.049	398.94
468.268	381.94
468.488	388.94
468.707	363.94
468.927	387.94
469.146	370.94
469.365	394.94
469.585	379.94
469.804	413.94
470.023	394.94
470.243	395.94
470.462	398.94
470.681	398.94
470.901	378.94
471.12	404.94
471.339	402.94
471.558	380.94
471.777	379.94
471.997	384.94
472.216	362.94
472.435	382.94
472.654	369.94
472.873	391.94
473.092	368.94
473.311	369.94
473.53	378.94
473.749	373.94
473.968	371.94
474.187	374.94
474.406	361.94
474.625	370.94
474.844	360.94
475.063	370.94
475.282	373.94
475.501	369.94
475.72	380.94
475.939	377.94
476.158	391.94
476.377	379.94
476.596	376.94
476.814	389.94
477.033	393.94
477.252	371.94
477.471	397.94
477.69	408.94
477.908	411.94
478.127	425.94
478.346	413.94
478.564	411.94
478.783	422.94
479.002	411.94
479.22	444.94
479.439	440.94
479.658	426.94
479.876	420.94
480.095	431.94
480.313	445.94
480.532	463.94
480.751	454.94
480.969	426.94
481.188	418.94
481.406	431.94
481.624	419.94
481.843	404.94
482.061	404.94
482.28	399.94
482.498	399.94
482.717	405.94
482.935	398.94
483.153	390.94
483.372	407.94
483.59	408.94
483.808	393.94
484.027	397.94
484.245	412.94
484.463	406.94
484.681	413.94
484.9	413.94
485.118	427.94
485.336	400.94
485.554	394.94
485.772	403.94
485.99	422.94
486.209	400.94
486.427	413.94
486.645	413.94
486.863	421.94
487.081	434.94
487.299	433.94
487.517	405.94
487.735	425.94
487.953	432.94
488.171	412.94
488.389	430.94
488.607	435.94
488.825	421.94
489.043	405.94
489.261	409.94
489.479	415.94
489.696	422.94
489.914	420.94
490.132	419.94
490.35	438.94
490.568	436.94
490.786	441.94
491.003	428.94
491.221	427.94
491.439	425.94
491.657	425.94
491.874	427.94
492.092	421.94
492.31	434.94
492.527	443.94
492.745	438.94
492.963	452.94
493.18	450.94
493.398	449.94
493.615	436.94
493.833	427.94
494.05	448.94
494.268	443.94
494.485	434.94
494.703	456.94
494.92	451.94
495.138	441.94
495.355	455.94
495.573	440.94
495.79	432.94
496.008	436.94
496.225	456.94
496.442	476.94
496.66	465.94
496.877	462.94
497.094	474.94
497.312	489.94
497.529	488.94
497.746	498.94
497.963	512.94
498.181	536.94
498.398	537.94
498.615	571.94
498.832	582.94
499.049	614.94
499.267	665.94
499.484	718.94
499.701	778.94
499.918	854.94
500.135	960.94
500.352	1019.94
500.569	1033.94
500.786	1005.94
501.003	964.94
501.22	909.94
501.437	789.94
501.654	716.94
501.871	683.94
