Data from Fe(NO3)3@0.05M.TitratingCurve.Agarose3%dH2O.NegLispCup.LampEnergy10.LIBS07252019_HRD10591_16-47-03-333.txt Node
Date: Thu Jul 25 16:47:03 EDT 2019
User: cochatt
Spectrometer: HR+D1059
Trigger mode: 1
Integration Time (sec): 1.000000E-1
Scans to average: 1
Electric dark correction enabled: true
Nonlinearity correction enabled: false
Boxcar width: 0
XAxis mode: Wavelengths
Number of Pixels in Spectrum: 2048
>>>>>Begin Spectral Data<<<<<
223.165	-28.62
223.4	-28.62
223.635	-28.62
223.869	-9.62
224.104	-25.62
224.338	-25.62
224.573	-19.62
224.808	-8.62
225.042	-9.62
225.277	0.38
225.511	3.38
225.746	6.38
225.98	4.38
226.215	12.38
226.449	8.38
226.683	23.38
226.918	32.38
227.152	36.38
227.387	36.38
227.621	41.38
227.856	58.38
228.09	42.38
228.324	37.38
228.559	54.38
228.793	80.38
229.027	100.38
229.262	107.38
229.496	107.38
229.73	96.38
229.964	126.38
230.199	107.38
230.433	120.38
230.667	124.38
230.901	126.38
231.136	130.38
231.37	130.38
231.604	108.38
231.838	129.38
232.072	137.38
232.306	138.38
232.541	137.38
232.775	139.38
233.009	147.38
233.243	132.38
233.477	142.38
233.711	145.38
233.945	143.38
234.179	146.38
234.413	154.38
234.647	145.38
234.881	148.38
235.115	144.38
235.349	174.38
235.583	153.38
235.817	132.38
236.051	147.38
236.285	130.38
236.519	153.38
236.753	153.38
236.987	158.38
237.221	141.38
237.455	147.38
237.689	161.38
237.922	144.38
238.156	172.38
238.39	181.38
238.624	176.38
238.858	156.38
239.091	164.38
239.325	156.38
239.559	144.38
239.793	177.38
240.027	171.38
240.26	169.38
240.494	195.38
240.728	183.38
240.961	177.38
241.195	183.38
241.429	180.38
241.662	181.38
241.896	174.38
242.13	183.38
242.363	177.38
242.597	170.38
242.83	184.38
243.064	184.38
243.298	197.38
243.531	198.38
243.765	192.38
243.998	179.38
244.232	194.38
244.465	196.38
244.699	178.38
244.932	205.38
245.166	184.38
245.399	181.38
245.633	201.38
245.866	201.38
246.099	204.38
246.333	197.38
246.566	196.38
246.8	204.38
247.033	212.38
247.266	193.38
247.5	185.38
247.733	219.38
247.966	201.38
248.2	210.38
248.433	209.38
248.666	233.38
248.899	207.38
249.133	217.38
249.366	233.38
249.599	232.38
249.832	224.38
250.066	223.38
250.299	226.38
250.532	231.38
250.765	216.38
250.998	237.38
251.231	235.38
251.465	236.38
251.698	222.38
251.931	251.38
252.164	228.38
252.397	224.38
252.63	234.38
252.863	251.38
253.096	248.38
253.329	258.38
253.562	254.38
253.795	265.38
254.028	254.38
254.261	252.38
254.494	268.38
254.727	250.38
254.96	247.38
255.193	261.38
255.426	269.38
255.659	240.38
255.892	245.38
256.124	261.38
256.357	267.38
256.59	270.38
256.823	268.38
257.056	281.38
257.289	282.38
257.521	279.38
257.754	264.38
257.987	253.38
258.22	261.38
258.452	268.38
258.685	272.38
258.918	306.38
259.151	288.38
259.383	285.38
259.616	275.38
259.849	287.38
260.081	308.38
260.314	325.38
260.547	310.38
260.779	287.38
261.012	302.38
261.244	304.38
261.477	312.38
261.71	320.38
261.942	320.38
262.175	298.38
262.407	296.38
262.64	323.38
262.872	308.38
263.105	300.38
263.337	322.38
263.57	313.38
263.802	307.38
264.035	307.38
264.267	309.38
264.499	298.38
264.732	312.38
264.964	304.38
265.197	318.38
265.429	308.38
265.661	311.38
265.894	302.38
266.126	306.38
266.358	307.38
266.591	339.38
266.823	317.38
267.055	319.38
267.287	318.38
267.52	326.38
267.752	324.38
267.984	336.38
268.216	341.38
268.448	324.38
268.681	331.38
268.913	326.38
269.145	332.38
269.377	331.38
269.609	354.38
269.841	325.38
270.073	336.38
270.306	340.38
270.538	362.38
270.77	358.38
271.002	354.38
271.234	356.38
271.466	350.38
271.698	350.38
271.93	352.38
272.162	359.38
272.394	359.38
272.626	347.38
272.858	344.38
273.09	363.38
273.322	346.38
273.553	363.38
273.785	375.38
274.017	366.38
274.249	392.38
274.481	417.38
274.713	392.38
274.945	432.38
275.176	426.38
275.408	429.38
275.64	411.38
275.872	413.38
276.104	404.38
276.335	388.38
276.567	382.38
276.799	383.38
277.031	395.38
277.262	384.38
277.494	374.38
277.726	388.38
277.957	375.38
278.189	382.38
278.421	414.38
278.652	397.38
278.884	392.38
279.115	397.38
279.347	388.38
279.579	418.38
279.81	391.38
280.042	396.38
280.273	394.38
280.505	397.38
280.736	394.38
280.968	392.38
281.199	404.38
281.431	402.38
281.662	410.38
281.894	408.38
282.125	397.38
282.356	421.38
282.588	412.38
282.819	416.38
283.051	403.38
283.282	419.38
283.513	410.38
283.745	411.38
283.976	426.38
284.207	424.38
284.439	432.38
284.67	421.38
284.901	410.38
285.132	434.38
285.364	426.38
285.595	430.38
285.826	441.38
286.057	444.38
286.288	436.38
286.52	415.38
286.751	434.38
286.982	450.38
287.213	444.38
287.444	420.38
287.675	432.38
287.906	457.38
288.138	443.38
288.369	423.38
288.6	476.38
288.831	450.38
289.062	440.38
289.293	443.38
289.524	432.38
289.755	454.38
289.986	454.38
290.217	441.38
290.448	450.38
290.679	447.38
290.91	442.38
291.141	445.38
291.371	447.38
291.602	435.38
291.833	455.38
292.064	444.38
292.295	454.38
292.526	483.38
292.757	460.38
292.987	452.38
293.218	426.38
293.449	453.38
293.68	460.38
293.91	454.38
294.141	447.38
294.372	453.38
294.603	475.38
294.833	476.38
295.064	458.38
295.295	471.38
295.525	472.38
295.756	483.38
295.987	469.38
296.217	463.38
296.448	484.38
296.679	483.38
296.909	474.38
297.14	488.38
297.37	508.38
297.601	478.38
297.831	478.38
298.062	492.38
298.292	484.38
298.523	470.38
298.753	498.38
298.984	508.38
299.214	493.38
299.445	479.38
299.675	469.38
299.905	511.38
300.136	492.38
300.366	487.38
300.597	515.38
300.827	518.38
301.057	516.38
301.288	498.38
301.518	516.38
301.748	533.38
301.979	534.38
302.209	538.38
302.439	531.38
302.669	524.38
302.9	515.38
303.13	532.38
303.36	522.38
303.59	533.38
303.82	513.38
304.051	534.38
304.281	513.38
304.511	521.38
304.741	512.38
304.971	514.38
305.201	533.38
305.431	516.38
305.661	522.38
305.891	518.38
306.121	524.38
306.352	538.38
306.582	523.38
306.812	526.38
307.042	513.38
307.272	515.38
307.502	497.38
307.731	520.38
307.961	524.38
308.191	489.38
308.421	500.38
308.651	529.38
308.881	536.38
309.111	532.38
309.341	511.38
309.571	523.38
309.8	520.38
310.03	525.38
310.26	541.38
310.49	527.38
310.72	524.38
310.949	518.38
311.179	520.38
311.409	541.38
311.639	514.38
311.868	540.38
312.098	541.38
312.328	557.38
312.557	563.38
312.787	556.38
313.017	550.38
313.246	551.38
313.476	562.38
313.706	558.38
313.935	560.38
314.165	551.38
314.394	543.38
314.624	563.38
314.853	554.38
315.083	545.38
315.312	558.38
315.542	554.38
315.771	555.38
316.001	547.38
316.23	547.38
316.46	561.38
316.689	576.38
316.919	573.38
317.148	545.38
317.377	574.38
317.607	578.38
317.836	593.38
318.065	537.38
318.295	535.38
318.524	551.38
318.753	563.38
318.983	568.38
319.212	576.38
319.441	549.38
319.67	556.38
319.9	543.38
320.129	572.38
320.358	595.38
320.587	574.38
320.816	562.38
321.046	563.38
321.275	567.38
321.504	561.38
321.733	577.38
321.962	561.38
322.191	573.38
322.42	563.38
322.649	567.38
322.878	581.38
323.108	576.38
323.337	583.38
323.566	586.38
323.795	607.38
324.024	610.38
324.253	583.38
324.482	609.38
324.71	573.38
324.939	574.38
325.168	585.38
325.397	577.38
325.626	615.38
325.855	607.38
326.084	612.38
326.313	620.38
326.542	608.38
326.77	628.38
326.999	641.38
327.228	612.38
327.457	601.38
327.686	582.38
327.914	609.38
328.143	626.38
328.372	629.38
328.6	631.38
328.829	616.38
329.058	624.38
329.287	624.38
329.515	611.38
329.744	642.38
329.972	636.38
330.201	636.38
330.43	604.38
330.658	623.38
330.887	640.38
331.115	626.38
331.344	651.38
331.572	641.38
331.801	655.38
332.03	667.38
332.258	654.38
332.486	697.38
332.715	692.38
332.943	712.38
333.172	712.38
333.4	753.38
333.629	731.38
333.857	737.38
334.085	760.38
334.314	756.38
334.542	745.38
334.771	768.38
334.999	754.38
335.227	774.38
335.455	753.38
335.684	722.38
335.912	741.38
336.14	729.38
336.369	736.38
336.597	709.38
336.825	722.38
337.053	707.38
337.281	746.38
337.51	698.38
337.738	717.38
337.966	693.38
338.194	718.38
338.422	698.38
338.65	693.38
338.878	679.38
339.106	678.38
339.334	660.38
339.562	683.38
339.79	657.38
340.018	667.38
340.246	647.38
340.474	655.38
340.702	645.38
340.93	680.38
341.158	658.38
341.386	648.38
341.614	625.38
341.842	630.38
342.07	669.38
342.298	658.38
342.526	657.38
342.754	660.38
342.981	672.38
343.209	675.38
343.437	663.38
343.665	690.38
343.893	737.38
344.12	768.38
344.348	728.38
344.576	726.38
344.804	716.38
345.031	679.38
345.259	691.38
345.487	666.38
345.714	658.38
345.942	641.38
346.17	661.38
346.397	677.38
346.625	636.38
346.853	634.38
347.08	647.38
347.308	632.38
347.535	635.38
347.763	650.38
347.99	648.38
348.218	649.38
348.445	633.38
348.673	626.38
348.9	619.38
349.128	639.38
349.355	645.38
349.583	648.38
349.81	624.38
350.037	623.38
350.265	623.38
350.492	631.38
350.72	639.38
350.947	619.38
351.174	621.38
351.402	624.38
351.629	611.38
351.856	618.38
352.083	628.38
352.311	592.38
352.538	613.38
352.765	632.38
352.992	626.38
353.22	627.38
353.447	615.38
353.674	628.38
353.901	622.38
354.128	634.38
354.355	622.38
354.583	613.38
354.81	595.38
355.037	624.38
355.264	639.38
355.491	627.38
355.718	632.38
355.945	639.38
356.172	618.38
356.399	626.38
356.626	622.38
356.853	631.38
357.08	642.38
357.307	641.38
357.534	610.38
357.761	639.38
357.988	653.38
358.215	648.38
358.441	650.38
358.668	633.38
358.895	640.38
359.122	600.38
359.349	581.38
359.576	618.38
359.802	619.38
360.029	627.38
360.256	631.38
360.483	633.38
360.709	646.38
360.936	633.38
361.163	643.38
361.39	639.38
361.616	639.38
361.843	654.38
362.07	628.38
362.296	655.38
362.523	618.38
362.749	624.38
362.976	639.38
363.203	662.38
363.429	626.38
363.656	651.38
363.882	630.38
364.109	639.38
364.335	618.38
364.562	617.38
364.788	638.38
365.015	628.38
365.241	643.38
365.468	638.38
365.694	634.38
365.92	642.38
366.147	640.38
366.373	632.38
366.599	623.38
366.826	632.38
367.052	626.38
367.278	645.38
367.505	655.38
367.731	634.38
367.957	635.38
368.184	637.38
368.41	668.38
368.636	653.38
368.862	644.38
369.089	664.38
369.315	672.38
369.541	669.38
369.767	662.38
369.993	689.38
370.219	684.38
370.445	671.38
370.672	676.38
370.898	684.38
371.124	687.38
371.35	724.38
371.576	684.38
371.802	695.38
372.028	702.38
372.254	709.38
372.48	697.38
372.706	689.38
372.932	707.38
373.158	711.38
373.384	713.38
373.61	726.38
373.835	749.38
374.061	715.38
374.287	707.38
374.513	702.38
374.739	730.38
374.965	756.38
375.191	753.38
375.416	750.38
375.642	739.38
375.868	719.38
376.094	713.38
376.319	739.38
376.545	718.38
376.771	722.38
376.997	712.38
377.222	710.38
377.448	704.38
377.674	702.38
377.899	708.38
378.125	723.38
378.35	710.38
378.576	676.38
378.802	691.38
379.027	698.38
379.253	687.38
379.478	699.38
379.704	681.38
379.929	702.38
380.155	697.38
380.38	705.38
380.606	709.38
380.831	700.38
381.057	713.38
381.282	721.38
381.507	698.38
381.733	709.38
381.958	745.38
382.184	736.38
382.409	733.38
382.634	754.38
382.86	722.38
383.085	756.38
383.31	774.38
383.535	787.38
383.761	754.38
383.986	770.38
384.211	764.38
384.436	785.38
384.662	799.38
384.887	823.38
385.112	790.38
385.337	787.38
385.562	843.38
385.787	815.38
386.013	856.38
386.238	850.38
386.463	825.38
386.688	828.38
386.913	808.38
387.138	819.38
387.363	849.38
387.588	821.38
387.813	810.38
388.038	815.38
388.263	837.38
388.488	828.38
388.713	807.38
388.938	811.38
389.163	816.38
389.387	843.38
389.612	847.38
389.837	819.38
390.062	819.38
390.287	834.38
390.512	830.38
390.736	845.38
390.961	866.38
391.186	864.38
391.411	897.38
391.636	891.38
391.86	899.38
392.085	880.38
392.31	940.38
392.534	883.38
392.759	906.38
392.984	885.38
393.208	885.38
393.433	888.38
393.658	884.38
393.882	880.38
394.107	874.38
394.331	889.38
394.556	896.38
394.78	896.38
395.005	887.38
395.229	884.38
395.454	914.38
395.678	912.38
395.903	948.38
396.127	938.38
396.352	921.38
396.576	898.38
396.801	907.38
397.025	925.38
397.249	918.38
397.474	968.38
397.698	941.38
397.922	957.38
398.147	980.38
398.371	977.38
398.595	1017.38
398.82	1036.38
399.044	1083.38
399.268	1155.38
399.492	1219.38
399.717	1335.38
399.941	1347.38
400.165	1276.38
400.389	1217.38
400.613	1171.38
400.837	1105.38
401.062	1049.38
401.286	1094.38
401.51	1034.38
401.734	1062.38
401.958	1045.38
402.182	1063.38
402.406	1070.38
402.63	1058.38
402.854	1060.38
403.078	1081.38
403.302	1120.38
403.526	1088.38
403.75	1086.38
403.974	1099.38
404.198	1101.38
404.422	1095.38
404.645	1088.38
404.869	1134.38
405.093	1118.38
405.317	1089.38
405.541	1108.38
405.765	1096.38
405.988	1104.38
406.212	1139.38
406.436	1093.38
406.66	1142.38
406.883	1148.38
407.107	1190.38
407.331	1194.38
407.555	1241.38
407.778	1254.38
408.002	1267.38
408.226	1216.38
408.449	1232.38
408.673	1152.38
408.896	1170.38
409.12	1126.38
409.344	1164.38
409.567	1144.38
409.791	1148.38
410.014	1137.38
410.238	1145.38
410.461	1141.38
410.685	1131.38
410.908	1084.38
411.132	1083.38
411.355	1100.38
411.578	1115.38
411.802	1094.38
412.025	1070.38
412.249	1082.38
412.472	1114.38
412.695	1121.38
412.919	1077.38
413.142	1078.38
413.365	1076.38
413.589	1058.38
413.812	1043.38
414.035	1036.38
414.258	1036.38
414.482	1078.38
414.705	1074.38
414.928	1048.38
415.151	1052.38
415.374	1050.38
415.597	1028.38
415.821	1016.38
416.044	1009.38
416.267	1004.38
416.49	1007.38
416.713	1018.38
416.936	1027.38
417.159	1024.38
417.382	1005.38
417.605	992.38
417.828	1004.38
418.051	1011.38
418.274	996.38
418.497	1020.38
418.72	1039.38
418.943	1024.38
419.166	1065.38
419.389	1147.38
419.611	1110.38
419.834	1052.38
420.057	1064.38
420.28	1017.38
420.503	985.38
420.726	981.38
420.948	1002.38
421.171	995.38
421.394	1010.38
421.617	993.38
421.839	993.38
422.062	1013.38
422.285	987.38
422.507	1032.38
422.73	1016.38
422.953	1003.38
423.175	1010.38
423.398	1054.38
423.621	1034.38
423.843	1041.38
424.066	1036.38
424.288	1007.38
424.511	1012.38
424.733	1022.38
424.956	1015.38
425.178	1015.38
425.401	1009.38
425.623	999.38
425.846	975.38
426.068	961.38
426.291	984.38
426.513	1010.38
426.735	981.38
426.958	962.38
427.18	966.38
427.402	976.38
427.625	939.38
427.847	956.38
428.069	952.38
428.292	935.38
428.514	960.38
428.736	908.38
428.958	954.38
429.181	919.38
429.403	947.38
429.625	914.38
429.847	899.38
430.069	917.38
430.292	934.38
430.514	902.38
430.736	889.38
430.958	931.38
431.18	931.38
431.402	947.38
431.624	933.38
431.846	928.38
432.068	928.38
432.29	954.38
432.512	947.38
432.734	961.38
432.956	895.38
433.178	946.38
433.4	929.38
433.622	958.38
433.844	976.38
434.066	955.38
434.287	957.38
434.509	981.38
434.731	986.38
434.953	997.38
435.175	1027.38
435.397	1007.38
435.618	974.38
435.84	967.38
436.062	941.38
436.284	938.38
436.505	942.38
436.727	951.38
436.949	934.38
437.17	947.38
437.392	918.38
437.614	912.38
437.835	905.38
438.057	891.38
438.278	912.38
438.5	916.38
438.721	943.38
438.943	948.38
439.165	944.38
439.386	925.38
439.608	926.38
439.829	947.38
440.05	949.38
440.272	950.38
440.493	938.38
440.715	967.38
440.936	953.38
441.158	1012.38
441.379	982.38
441.6	1008.38
441.822	1007.38
442.043	1007.38
442.264	1001.38
442.486	990.38
442.707	970.38
442.928	1017.38
443.149	989.38
443.371	992.38
443.592	988.38
443.813	1004.38
444.034	1032.38
444.255	1038.38
444.476	1076.38
444.698	1099.38
444.919	1142.38
445.14	1182.38
445.361	1111.38
445.582	1030.38
445.803	1028.38
446.024	1020.38
446.245	969.38
446.466	998.38
446.687	977.38
446.908	931.38
447.129	925.38
447.35	923.38
447.571	934.38
447.792	906.38
448.013	902.38
448.234	867.38
448.455	895.38
448.675	887.38
448.896	895.38
449.117	853.38
449.338	875.38
449.559	871.38
449.779	862.38
450	858.38
450.221	876.38
450.442	874.38
450.662	867.38
450.883	877.38
451.104	874.38
451.324	869.38
451.545	866.38
451.766	874.38
451.986	866.38
452.207	864.38
452.428	835.38
452.648	858.38
452.869	854.38
453.089	826.38
453.31	843.38
453.53	843.38
453.751	841.38
453.971	836.38
454.192	810.38
454.412	816.38
454.633	836.38
454.853	835.38
455.073	827.38
455.294	815.38
455.514	832.38
455.734	830.38
455.955	819.38
456.175	831.38
456.395	856.38
456.616	803.38
456.836	827.38
457.056	825.38
457.276	841.38
457.497	842.38
457.717	812.38
457.937	830.38
458.157	842.38
458.377	859.38
458.598	840.38
458.818	899.38
459.038	876.38
459.258	924.38
459.478	935.38
459.698	951.38
459.918	974.38
460.138	1012.38
460.358	1015.38
460.578	1059.38
460.798	1061.38
461.018	1041.38
461.238	1064.38
461.458	1074.38
461.678	1048.38
461.898	1078.38
462.118	1100.38
462.338	1136.38
462.558	1156.38
462.777	1152.38
462.997	1239.38
463.217	1268.38
463.437	1317.38
463.657	1232.38
463.876	1190.38
464.096	1225.38
464.316	1205.38
464.536	1187.38
464.755	1162.38
464.975	1132.38
465.195	1108.38
465.414	1052.38
465.634	979.38
465.854	970.38
466.073	981.38
466.293	962.38
466.512	942.38
466.732	927.38
466.951	910.38
467.171	916.38
467.391	920.38
467.61	891.38
467.829	926.38
468.049	903.38
468.268	899.38
468.488	858.38
468.707	878.38
468.927	898.38
469.146	884.38
469.365	879.38
469.585	905.38
469.804	912.38
470.023	948.38
470.243	904.38
470.462	906.38
470.681	946.38
470.901	916.38
471.12	917.38
471.339	948.38
471.558	894.38
471.777	898.38
471.997	920.38
472.216	922.38
472.435	869.38
472.654	866.38
472.873	876.38
473.092	880.38
473.311	880.38
473.53	889.38
473.749	866.38
473.968	884.38
474.187	862.38
474.406	875.38
474.625	882.38
474.844	890.38
475.063	879.38
475.282	877.38
475.501	881.38
475.72	894.38
475.939	883.38
476.158	916.38
476.377	920.38
476.596	939.38
476.814	969.38
477.033	943.38
477.252	963.38
477.471	961.38
477.69	969.38
477.908	982.38
478.127	999.38
478.346	1028.38
478.564	1036.38
478.783	1034.38
479.002	1026.38
479.22	1075.38
479.439	1056.38
479.658	1074.38
479.876	1064.38
480.095	1096.38
480.313	1111.38
480.532	1085.38
480.751	1114.38
480.969	1050.38
481.188	1040.38
481.406	1028.38
481.624	1042.38
481.843	999.38
482.061	1018.38
482.28	1045.38
482.498	1048.38
482.717	992.38
482.935	1032.38
483.153	992.38
483.372	1008.38
483.59	1028.38
483.808	1017.38
484.027	1035.38
484.245	1024.38
484.463	1003.38
484.681	1040.38
484.9	1032.38
485.118	1034.38
485.336	1020.38
485.554	1007.38
485.772	1024.38
485.99	1016.38
486.209	1040.38
486.427	1027.38
486.645	1047.38
486.863	1051.38
487.081	1027.38
487.299	1048.38
487.517	1067.38
487.735	1066.38
487.953	1071.38
488.171	1070.38
488.389	1061.38
488.607	1036.38
488.825	1017.38
489.043	1034.38
489.261	1041.38
489.479	1043.38
489.696	1032.38
489.914	1059.38
490.132	1048.38
490.35	1037.38
490.568	1013.38
490.786	1050.38
491.003	1050.38
491.221	1061.38
491.439	1041.38
491.657	1078.38
491.874	1090.38
492.092	1089.38
492.31	1070.38
492.527	1124.38
492.745	1081.38
492.963	1091.38
493.18	1083.38
493.398	1082.38
493.615	1077.38
493.833	1108.38
494.05	1130.38
494.268	1100.38
494.485	1111.38
494.703	1095.38
494.92	1144.38
495.138	1113.38
495.355	1120.38
495.573	1132.38
495.79	1138.38
496.008	1140.38
496.225	1145.38
496.442	1157.38
496.66	1190.38
496.877	1189.38
497.094	1213.38
497.312	1236.38
497.529	1221.38
497.746	1216.38
497.963	1311.38
498.181	1348.38
