Data from Fe(NO3)3@0.05M.TitratingCurve.Agarose3%dH2O.NegLispCup.LampEnergy10.LIBS07252019_HRD10591_16-46-21-334.txt Node
Date: Thu Jul 25 16:46:21 EDT 2019
User: cochatt
Spectrometer: HR+D1059
Trigger mode: 1
Integration Time (sec): 1.000000E-1
Scans to average: 1
Electric dark correction enabled: true
Nonlinearity correction enabled: false
Boxcar width: 0
XAxis mode: Wavelengths
Number of Pixels in Spectrum: 2048
>>>>>Begin Spectral Data<<<<<
223.165	-14.56
223.4	-14.56
223.635	-14.56
223.869	-14.56
224.104	-15.56
224.338	-20.56
224.573	-24.56
224.808	-9.56
225.042	-0.56
225.277	-8.56
225.511	-8.56
225.746	14.44
225.98	10.44
226.215	16.44
226.449	32.44
226.683	13.44
226.918	11.44
227.152	18.44
227.387	40.44
227.621	32.44
227.856	45.44
228.09	47.44
228.324	56.44
228.559	59.44
228.793	84.44
229.027	131.44
229.262	138.44
229.496	158.44
229.73	143.44
229.964	185.44
230.199	165.44
230.433	184.44
230.667	181.44
230.901	170.44
231.136	168.44
231.37	174.44
231.604	189.44
231.838	199.44
232.072	189.44
232.306	193.44
232.541	201.44
232.775	204.44
233.009	217.44
233.243	216.44
233.477	220.44
233.711	197.44
233.945	201.44
234.179	224.44
234.413	224.44
234.647	232.44
234.881	261.44
235.115	230.44
235.349	226.44
235.583	230.44
235.817	240.44
236.051	223.44
236.285	240.44
236.519	267.44
236.753	248.44
236.987	248.44
237.221	247.44
237.455	265.44
237.689	257.44
237.922	269.44
238.156	283.44
238.39	292.44
238.624	324.44
238.858	312.44
239.091	269.44
239.325	288.44
239.559	280.44
239.793	301.44
240.027	345.44
240.26	318.44
240.494	315.44
240.728	324.44
240.961	333.44
241.195	329.44
241.429	337.44
241.662	330.44
241.896	305.44
242.13	309.44
242.363	308.44
242.597	286.44
242.83	328.44
243.064	315.44
243.298	333.44
243.531	335.44
243.765	350.44
243.998	341.44
244.232	346.44
244.465	331.44
244.699	334.44
244.932	357.44
245.166	356.44
245.399	353.44
245.633	346.44
245.866	340.44
246.099	372.44
246.333	361.44
246.566	380.44
246.8	364.44
247.033	358.44
247.266	368.44
247.5	375.44
247.733	387.44
247.966	388.44
248.2	390.44
248.433	383.44
248.666	418.44
248.899	400.44
249.133	396.44
249.366	429.44
249.599	452.44
249.832	437.44
250.066	422.44
250.299	438.44
250.532	440.44
250.765	433.44
250.998	399.44
251.231	420.44
251.465	419.44
251.698	439.44
251.931	433.44
252.164	439.44
252.397	469.44
252.63	481.44
252.863	494.44
253.096	508.44
253.329	510.44
253.562	471.44
253.795	516.44
254.028	536.44
254.261	539.44
254.494	511.44
254.727	489.44
254.96	493.44
255.193	505.44
255.426	493.44
255.659	493.44
255.892	480.44
256.124	485.44
256.357	503.44
256.59	548.44
256.823	510.44
257.056	490.44
257.289	484.44
257.521	493.44
257.754	477.44
257.987	491.44
258.22	509.44
258.452	513.44
258.685	555.44
258.918	566.44
259.151	548.44
259.383	525.44
259.616	558.44
259.849	582.44
260.081	692.44
260.314	732.44
260.547	611.44
260.779	577.44
261.012	627.44
261.244	631.44
261.477	636.44
261.71	610.44
261.942	593.44
262.175	573.44
262.407	589.44
262.64	575.44
262.872	635.44
263.105	653.44
263.337	672.44
263.57	638.44
263.802	592.44
264.035	578.44
264.267	589.44
264.499	557.44
264.732	586.44
264.964	570.44
265.197	582.44
265.429	582.44
265.661	578.44
265.894	580.44
266.126	582.44
266.358	604.44
266.591	602.44
266.823	619.44
267.055	613.44
267.287	613.44
267.52	597.44
267.752	589.44
267.984	595.44
268.216	627.44
268.448	597.44
268.681	606.44
268.913	626.44
269.145	631.44
269.377	632.44
269.609	658.44
269.841	632.44
270.073	640.44
270.306	648.44
270.538	638.44
270.77	640.44
271.002	648.44
271.234	691.44
271.466	658.44
271.698	680.44
271.93	678.44
272.162	668.44
272.394	666.44
272.626	715.44
272.858	696.44
273.09	723.44
273.322	706.44
273.553	714.44
273.785	733.44
274.017	803.44
274.249	871.44
274.481	842.44
274.713	868.44
274.945	964.44
275.176	957.44
275.408	879.44
275.64	872.44
275.872	864.44
276.104	803.44
276.335	737.44
276.567	736.44
276.799	731.44
277.031	773.44
277.262	768.44
277.494	725.44
277.726	724.44
277.957	737.44
278.189	736.44
278.421	748.44
278.652	758.44
278.884	738.44
279.115	726.44
279.347	747.44
279.579	762.44
279.81	763.44
280.042	776.44
280.273	753.44
280.505	741.44
280.736	744.44
280.968	758.44
281.199	750.44
281.431	801.44
281.662	794.44
281.894	782.44
282.125	779.44
282.356	781.44
282.588	780.44
282.819	795.44
283.051	791.44
283.282	795.44
283.513	806.44
283.745	808.44
283.976	805.44
284.207	808.44
284.439	847.44
284.67	833.44
284.901	820.44
285.132	841.44
285.364	830.44
285.595	801.44
285.826	820.44
286.057	818.44
286.288	809.44
286.52	826.44
286.751	813.44
286.982	857.44
287.213	844.44
287.444	855.44
287.675	829.44
287.906	849.44
288.138	858.44
288.369	837.44
288.6	860.44
288.831	838.44
289.062	858.44
289.293	867.44
289.524	855.44
289.755	863.44
289.986	845.44
290.217	829.44
290.448	867.44
290.679	890.44
290.91	874.44
291.141	866.44
291.371	841.44
291.602	834.44
291.833	859.44
292.064	864.44
292.295	851.44
292.526	892.44
292.757	873.44
292.987	882.44
293.218	855.44
293.449	888.44
293.68	896.44
293.91	857.44
294.141	874.44
294.372	867.44
294.603	880.44
294.833	888.44
295.064	906.44
295.295	875.44
295.525	894.44
295.756	900.44
295.987	893.44
296.217	876.44
296.448	898.44
296.679	933.44
296.909	918.44
297.14	913.44
297.37	919.44
297.601	936.44
297.831	919.44
298.062	912.44
298.292	898.44
298.523	931.44
298.753	968.44
298.984	937.44
299.214	926.44
299.445	948.44
299.675	923.44
299.905	927.44
300.136	930.44
300.366	958.44
300.597	939.44
300.827	965.44
301.057	974.44
301.288	967.44
301.518	950.44
301.748	952.44
301.979	955.44
302.209	1011.44
302.439	1012.44
302.669	1002.44
302.9	990.44
303.13	981.44
303.36	990.44
303.59	989.44
303.82	985.44
304.051	957.44
304.281	998.44
304.511	1008.44
304.741	1006.44
304.971	1015.44
305.201	984.44
305.431	981.44
305.661	1003.44
305.891	1011.44
306.121	999.44
306.352	1003.44
306.582	1009.44
306.812	982.44
307.042	991.44
307.272	1019.44
307.502	984.44
307.731	1014.44
307.961	1013.44
308.191	982.44
308.421	992.44
308.651	1025.44
308.881	981.44
309.111	1006.44
309.341	1005.44
309.571	1041.44
309.8	1047.44
310.03	986.44
310.26	1007.44
310.49	982.44
310.72	1000.44
310.949	1053.44
311.179	1026.44
311.409	1027.44
311.639	1042.44
311.868	1061.44
312.098	1058.44
312.328	1067.44
312.557	1038.44
312.787	1060.44
313.017	1036.44
313.246	1051.44
313.476	1036.44
313.706	1070.44
313.935	1075.44
314.165	1089.44
314.394	1089.44
314.624	1083.44
314.853	1084.44
315.083	1085.44
315.312	1108.44
315.542	1132.44
315.771	1105.44
316.001	1090.44
316.23	1111.44
316.46	1105.44
316.689	1092.44
316.919	1108.44
317.148	1117.44
317.377	1116.44
317.607	1095.44
317.836	1115.44
318.065	1100.44
318.295	1087.44
318.524	1103.44
318.753	1110.44
318.983	1123.44
319.212	1119.44
319.441	1110.44
319.67	1152.44
319.9	1122.44
320.129	1123.44
320.358	1098.44
320.587	1145.44
320.816	1102.44
321.046	1150.44
321.275	1149.44
321.504	1145.44
321.733	1123.44
321.962	1105.44
322.191	1144.44
322.42	1144.44
322.649	1158.44
322.878	1125.44
323.108	1127.44
323.337	1156.44
323.566	1141.44
323.795	1175.44
324.024	1157.44
324.253	1133.44
324.482	1121.44
324.71	1156.44
324.939	1173.44
325.168	1168.44
325.397	1164.44
325.626	1149.44
325.855	1165.44
326.084	1179.44
326.313	1220.44
326.542	1202.44
326.77	1206.44
326.999	1190.44
327.228	1196.44
327.457	1194.44
327.686	1179.44
327.914	1225.44
328.143	1194.44
328.372	1181.44
328.6	1188.44
328.829	1182.44
329.058	1186.44
329.287	1211.44
329.515	1205.44
329.744	1241.44
329.972	1224.44
330.201	1246.44
330.43	1239.44
330.658	1229.44
330.887	1266.44
331.115	1264.44
331.344	1261.44
331.572	1276.44
331.801	1274.44
332.03	1237.44
332.258	1284.44
332.486	1285.44
332.715	1285.44
332.943	1306.44
333.172	1322.44
333.4	1349.44
333.629	1344.44
333.857	1333.44
334.085	1375.44
334.314	1357.44
334.542	1388.44
334.771	1390.44
334.999	1386.44
335.227	1379.44
335.455	1402.44
335.684	1374.44
335.912	1381.44
336.14	1405.44
336.369	1384.44
336.597	1362.44
336.825	1368.44
337.053	1386.44
337.281	1384.44
337.51	1386.44
337.738	1348.44
337.966	1322.44
338.194	1346.44
338.422	1336.44
338.65	1341.44
338.878	1331.44
339.106	1314.44
339.334	1340.44
339.562	1315.44
339.79	1350.44
340.018	1331.44
340.246	1294.44
340.474	1303.44
340.702	1294.44
340.93	1298.44
341.158	1299.44
341.386	1299.44
341.614	1283.44
341.842	1281.44
342.07	1280.44
342.298	1310.44
342.526	1299.44
342.754	1281.44
342.981	1320.44
343.209	1292.44
343.437	1310.44
343.665	1352.44
343.893	1358.44
344.12	1410.44
344.348	1376.44
344.576	1381.44
344.804	1370.44
345.031	1296.44
345.259	1339.44
345.487	1318.44
345.714	1292.44
345.942	1269.44
346.17	1270.44
346.397	1240.44
346.625	1246.44
346.853	1260.44
347.08	1234.44
347.308	1247.44
347.535	1220.44
347.763	1232.44
347.99	1226.44
348.218	1234.44
348.445	1207.44
348.673	1197.44
348.9	1239.44
349.128	1258.44
349.355	1230.44
349.583	1268.44
349.81	1252.44
350.037	1245.44
350.265	1213.44
350.492	1216.44
350.72	1238.44
350.947	1230.44
351.174	1240.44
351.402	1216.44
351.629	1235.44
351.856	1266.44
352.083	1230.44
352.311	1212.44
352.538	1221.44
352.765	1208.44
352.992	1219.44
353.22	1195.44
353.447	1215.44
353.674	1207.44
353.901	1206.44
354.128	1201.44
354.355	1218.44
354.583	1235.44
354.81	1227.44
355.037	1216.44
355.264	1229.44
355.491	1248.44
355.718	1218.44
355.945	1255.44
356.172	1239.44
356.399	1243.44
356.626	1195.44
356.853	1256.44
357.08	1273.44
357.307	1282.44
357.534	1233.44
357.761	1231.44
357.988	1251.44
358.215	1271.44
358.441	1272.44
358.668	1247.44
358.895	1265.44
359.122	1233.44
359.349	1235.44
359.576	1210.44
359.802	1257.44
360.029	1225.44
360.256	1232.44
360.483	1244.44
360.709	1239.44
360.936	1258.44
361.163	1247.44
361.39	1233.44
361.616	1233.44
361.843	1257.44
362.07	1265.44
362.296	1268.44
362.523	1237.44
362.749	1273.44
362.976	1244.44
363.203	1273.44
363.429	1284.44
363.656	1265.44
363.882	1302.44
364.109	1253.44
364.335	1255.44
364.562	1234.44
364.788	1278.44
365.015	1280.44
365.241	1289.44
365.468	1258.44
365.694	1267.44
365.92	1260.44
366.147	1249.44
366.373	1296.44
366.599	1256.44
366.826	1237.44
367.052	1227.44
367.278	1294.44
367.505	1250.44
367.731	1300.44
367.957	1288.44
368.184	1299.44
368.41	1293.44
368.636	1288.44
368.862	1285.44
369.089	1299.44
369.315	1294.44
369.541	1303.44
369.767	1309.44
369.993	1334.44
370.219	1311.44
370.445	1334.44
370.672	1379.44
370.898	1336.44
371.124	1378.44
371.35	1332.44
371.576	1348.44
371.802	1341.44
372.028	1365.44
372.254	1358.44
372.48	1369.44
372.706	1370.44
372.932	1392.44
373.158	1384.44
373.384	1389.44
373.61	1425.44
373.835	1438.44
374.061	1415.44
374.287	1373.44
374.513	1411.44
374.739	1470.44
374.965	1471.44
375.191	1475.44
375.416	1401.44
375.642	1414.44
375.868	1402.44
376.094	1451.44
376.319	1406.44
376.545	1415.44
376.771	1405.44
376.997	1366.44
377.222	1357.44
377.448	1366.44
377.674	1374.44
377.899	1341.44
378.125	1353.44
378.35	1366.44
378.576	1350.44
378.802	1386.44
379.027	1362.44
379.253	1362.44
379.478	1346.44
379.704	1387.44
379.929	1371.44
380.155	1336.44
380.38	1354.44
380.606	1381.44
380.831	1388.44
381.057	1386.44
381.282	1381.44
381.507	1410.44
381.733	1414.44
381.958	1460.44
382.184	1483.44
382.409	1478.44
382.634	1494.44
382.86	1489.44
383.085	1433.44
383.31	1445.44
383.535	1465.44
383.761	1482.44
383.986	1469.44
384.211	1510.44
384.436	1499.44
384.662	1512.44
384.887	1509.44
385.112	1516.44
385.337	1528.44
385.562	1540.44
385.787	1544.44
386.013	1558.44
386.238	1573.44
386.463	1538.44
386.688	1603.44
386.913	1544.44
387.138	1578.44
387.363	1599.44
387.588	1570.44
387.813	1573.44
388.038	1618.44
388.263	1588.44
388.488	1576.44
388.713	1629.44
388.938	1600.44
389.163	1565.44
389.387	1595.44
389.612	1616.44
389.837	1627.44
390.062	1596.44
390.287	1627.44
390.512	1609.44
390.736	1625.44
390.961	1643.44
391.186	1620.44
391.411	1649.44
391.636	1679.44
391.86	1676.44
392.085	1678.44
392.31	1694.44
392.534	1686.44
392.759	1679.44
392.984	1665.44
393.208	1675.44
393.433	1698.44
393.658	1658.44
393.882	1651.44
394.107	1681.44
394.331	1688.44
394.556	1685.44
394.78	1659.44
395.005	1689.44
395.229	1699.44
395.454	1730.44
395.678	1701.44
395.903	1721.44
396.127	1746.44
396.352	1699.44
396.576	1703.44
396.801	1702.44
397.025	1772.44
397.249	1716.44
397.474	1762.44
397.698	1797.44
397.922	1802.44
398.147	1790.44
398.371	1820.44
398.595	1885.44
398.82	1893.44
399.044	1954.44
399.268	2012.44
399.492	2062.44
399.717	2164.44
399.941	2199.44
400.165	2153.44
400.389	2151.44
400.613	2076.44
400.837	1974.44
401.062	1973.44
401.286	1935.44
401.51	1910.44
401.734	1908.44
401.958	1897.44
402.182	1918.44
402.406	1874.44
402.63	1896.44
402.854	1919.44
403.078	1922.44
403.302	1926.44
403.526	1917.44
403.75	1912.44
403.974	1962.44
404.198	1933.44
404.422	1953.44
404.645	1949.44
404.869	1971.44
405.093	1950.44
405.317	1946.44
405.541	2001.44
405.765	2019.44
405.988	2002.44
406.212	1995.44
406.436	2045.44
406.66	2102.44
406.883	1996.44
407.107	2134.44
407.331	2182.44
407.555	2194.44
407.778	2173.44
408.002	2199.44
408.226	2158.44
408.449	2184.44
408.673	2112.44
408.896	2140.44
409.12	2090.44
409.344	2104.44
409.567	2034.44
409.791	2060.44
410.014	2033.44
410.238	2002.44
410.461	2000.44
410.685	2051.44
410.908	1992.44
411.132	2012.44
411.355	1979.44
411.578	1969.44
411.802	1952.44
412.025	1981.44
412.249	1995.44
412.472	1996.44
412.695	1962.44
412.919	1933.44
413.142	1937.44
413.365	1978.44
413.589	1956.44
413.812	1950.44
414.035	1897.44
414.258	1931.44
414.482	1930.44
414.705	1937.44
414.928	1906.44
415.151	1905.44
415.374	1893.44
415.597	1904.44
415.821	1883.44
416.044	1850.44
416.267	1853.44
416.49	1824.44
416.713	1864.44
416.936	1884.44
417.159	1844.44
417.382	1844.44
417.605	1849.44
417.828	1830.44
418.051	1863.44
418.274	1845.44
418.497	1797.44
418.72	1838.44
418.943	1819.44
419.166	1954.44
419.389	2042.44
419.611	1959.44
419.834	1947.44
420.057	1879.44
420.28	1876.44
420.503	1790.44
420.726	1817.44
420.948	1804.44
421.171	1790.44
421.394	1815.44
421.617	1847.44
421.839	1796.44
422.062	1811.44
422.285	1818.44
422.507	1845.44
422.73	1829.44
422.953	1792.44
423.175	1838.44
423.398	1809.44
423.621	1814.44
423.843	1849.44
424.066	1858.44
424.288	1819.44
424.511	1790.44
424.733	1795.44
424.956	1794.44
425.178	1801.44
425.401	1818.44
425.623	1830.44
425.846	1821.44
426.068	1822.44
426.291	1811.44
426.513	1779.44
426.735	1796.44
426.958	1833.44
427.18	1788.44
427.402	1797.44
427.625	1752.44
427.847	1704.44
428.069	1734.44
428.292	1740.44
428.514	1743.44
428.736	1760.44
428.958	1789.44
429.181	1736.44
429.403	1687.44
429.625	1761.44
429.847	1706.44
430.069	1765.44
430.292	1737.44
430.514	1698.44
430.736	1715.44
430.958	1783.44
431.18	1734.44
431.402	1730.44
431.624	1715.44
431.846	1746.44
432.068	1720.44
432.29	1777.44
432.512	1752.44
432.734	1817.44
432.956	1732.44
433.178	1780.44
433.4	1745.44
433.622	1763.44
433.844	1793.44
434.066	1740.44
434.287	1747.44
434.509	1789.44
434.731	1826.44
434.953	1827.44
435.175	1841.44
435.397	1851.44
435.618	1830.44
435.84	1785.44
436.062	1782.44
436.284	1733.44
436.505	1730.44
436.727	1740.44
436.949	1728.44
437.17	1718.44
437.392	1734.44
437.614	1725.44
437.835	1651.44
438.057	1683.44
438.278	1684.44
438.5	1717.44
438.721	1697.44
438.943	1712.44
439.165	1666.44
439.386	1660.44
439.608	1693.44
439.829	1693.44
440.05	1718.44
440.272	1720.44
440.493	1688.44
440.715	1759.44
440.936	1754.44
441.158	1756.44
441.379	1763.44
441.6	1766.44
441.822	1769.44
442.043	1783.44
442.264	1754.44
442.486	1740.44
442.707	1778.44
442.928	1796.44
443.149	1808.44
443.371	1786.44
443.592	1775.44
443.813	1797.44
444.034	1766.44
444.255	1827.44
444.476	1853.44
444.698	1892.44
444.919	1877.44
445.14	1965.44
445.361	1894.44
445.582	1805.44
445.803	1775.44
446.024	1768.44
446.245	1734.44
446.466	1739.44
446.687	1708.44
446.908	1720.44
447.129	1688.44
447.35	1652.44
447.571	1644.44
447.792	1670.44
448.013	1643.44
448.234	1642.44
448.455	1646.44
448.675	1628.44
448.896	1606.44
449.117	1573.44
449.338	1625.44
449.559	1593.44
449.779	1601.44
450	1571.44
450.221	1579.44
450.442	1597.44
450.662	1576.44
450.883	1549.44
451.104	1556.44
451.324	1532.44
451.545	1570.44
451.766	1550.44
451.986	1556.44
452.207	1552.44
452.428	1579.44
452.648	1544.44
452.869	1531.44
453.089	1557.44
453.31	1498.44
453.53	1475.44
453.751	1512.44
453.971	1509.44
454.192	1516.44
454.412	1508.44
454.633	1539.44
454.853	1515.44
455.073	1491.44
455.294	1530.44
455.514	1490.44
455.734	1505.44
455.955	1492.44
456.175	1510.44
456.395	1512.44
456.616	1501.44
456.836	1538.44
457.056	1524.44
457.276	1528.44
457.497	1550.44
457.717	1542.44
457.937	1560.44
458.157	1573.44
458.377	1579.44
458.598	1578.44
458.818	1608.44
459.038	1637.44
459.258	1611.44
459.478	1671.44
459.698	1712.44
459.918	1717.44
460.138	1732.44
460.358	1785.44
460.578	1794.44
460.798	1842.44
461.018	1827.44
461.238	1864.44
461.458	1832.44
461.678	1845.44
461.898	1877.44
462.118	1868.44
462.338	1948.44
462.558	1946.44
462.777	1990.44
462.997	2043.44
463.217	2056.44
463.437	2108.44
463.657	2062.44
463.876	2014.44
464.096	2021.44
464.316	2001.44
464.536	1994.44
464.755	1945.44
464.975	1958.44
465.195	1869.44
465.414	1845.44
465.634	1790.44
465.854	1820.44
466.073	1770.44
466.293	1755.44
466.512	1718.44
466.732	1720.44
466.951	1707.44
467.171	1707.44
467.391	1694.44
467.61	1701.44
467.829	1682.44
468.049	1658.44
468.268	1653.44
468.488	1664.44
468.707	1641.44
468.927	1705.44
469.146	1700.44
469.365	1671.44
469.585	1635.44
469.804	1710.44
470.023	1740.44
470.243	1693.44
470.462	1668.44
470.681	1701.44
470.901	1696.44
471.12	1654.44
471.339	1661.44
471.558	1708.44
471.777	1696.44
471.997	1693.44
472.216	1712.44
472.435	1745.44
472.654	1675.44
472.873	1639.44
473.092	1687.44
473.311	1689.44
473.53	1690.44
473.749	1679.44
473.968	1668.44
474.187	1688.44
474.406	1675.44
474.625	1691.44
474.844	1713.44
475.063	1738.44
475.282	1734.44
475.501	1737.44
475.72	1735.44
475.939	1737.44
476.158	1773.44
476.377	1835.44
476.596	1881.44
476.814	1956.44
477.033	1871.44
477.252	1834.44
477.471	1859.44
477.69	1856.44
477.908	1905.44
478.127	1939.44
478.346	1935.44
478.564	1945.44
478.783	1998.44
479.002	1998.44
479.22	2039.44
479.439	2108.44
479.658	2040.44
479.876	2025.44
480.095	2058.44
480.313	2082.44
480.532	2080.44
480.751	2075.44
480.969	2082.44
481.188	2137.44
481.406	2096.44
481.624	2132.44
481.843	2080.44
482.061	2055.44
482.28	2072.44
482.498	2104.44
482.717	2069.44
482.935	2061.44
483.153	2034.44
483.372	2044.44
483.59	2098.44
483.808	2084.44
484.027	2081.44
484.245	2039.44
484.463	2065.44
484.681	2104.44
484.9	2113.44
485.118	2110.44
485.336	2112.44
485.554	2078.44
485.772	2109.44
485.99	2110.44
486.209	2125.44
486.427	2148.44
486.645	2128.44
486.863	2127.44
487.081	2172.44
487.299	2160.44
487.517	2151.44
487.735	2103.44
487.953	2113.44
488.171	2116.44
488.389	2117.44
488.607	2116.44
488.825	2126.44
489.043	2127.44
489.261	2158.44
489.479	2133.44
489.696	2131.44
489.914	2119.44
490.132	2096.44
490.35	2089.44
