Data from Fe(NO3)3@0.05M.TitratingCurve.Agarose3%dH2O.NegLispCup.LampEnergy10.LIBS07252019_HRD10591_16-48-37-334.txt Node
Date: Thu Jul 25 16:48:37 EDT 2019
User: cochatt
Spectrometer: HR+D1059
Trigger mode: 1
Integration Time (sec): 1.000000E-1
Scans to average: 1
Electric dark correction enabled: true
Nonlinearity correction enabled: false
Boxcar width: 0
XAxis mode: Wavelengths
Number of Pixels in Spectrum: 2048
>>>>>Begin Spectral Data<<<<<
223.165	-18.81
223.4	-18.81
223.635	-18.81
223.869	-15.81
224.104	-9.81
224.338	-6.81
224.573	-28.81
224.808	-12.81
225.042	-15.81
225.277	5.19
225.511	-3.81
225.746	2.19
225.98	7.19
226.215	20.19
226.449	-0.81
226.683	30.19
226.918	26.19
227.152	22.19
227.387	38.19
227.621	17.19
227.856	47.19
228.09	44.19
228.324	45.19
228.559	57.19
228.793	51.19
229.027	77.19
229.262	72.19
229.496	75.19
229.73	80.19
229.964	76.19
230.199	85.19
230.433	83.19
230.667	81.19
230.901	85.19
231.136	96.19
231.37	96.19
231.604	93.19
231.838	89.19
232.072	94.19
232.306	89.19
232.541	84.19
232.775	84.19
233.009	82.19
233.243	100.19
233.477	84.19
233.711	82.19
233.945	90.19
234.179	103.19
234.413	99.19
234.647	90.19
234.881	86.19
235.115	91.19
235.349	83.19
235.583	74.19
235.817	77.19
236.051	78.19
236.285	91.19
236.519	88.19
236.753	88.19
236.987	98.19
237.221	92.19
237.455	86.19
237.689	85.19
237.922	89.19
238.156	94.19
238.39	99.19
238.624	80.19
238.858	98.19
239.091	84.19
239.325	81.19
239.559	88.19
239.793	97.19
240.027	90.19
240.26	99.19
240.494	87.19
240.728	73.19
240.961	90.19
241.195	98.19
241.429	100.19
241.662	88.19
241.896	101.19
242.13	101.19
242.363	87.19
242.597	93.19
242.83	85.19
243.064	87.19
243.298	88.19
243.531	91.19
243.765	91.19
243.998	87.19
244.232	94.19
244.465	91.19
244.699	98.19
244.932	99.19
245.166	98.19
245.399	102.19
245.633	84.19
245.866	105.19
246.099	95.19
246.333	111.19
246.566	93.19
246.8	104.19
247.033	90.19
247.266	90.19
247.5	89.19
247.733	77.19
247.966	89.19
248.2	104.19
248.433	89.19
248.666	93.19
248.899	109.19
249.133	105.19
249.366	108.19
249.599	99.19
249.832	100.19
250.066	97.19
250.299	93.19
250.532	99.19
250.765	103.19
250.998	106.19
251.231	99.19
251.465	104.19
251.698	98.19
251.931	105.19
252.164	97.19
252.397	113.19
252.63	98.19
252.863	108.19
253.096	117.19
253.329	108.19
253.562	93.19
253.795	122.19
254.028	100.19
254.261	117.19
254.494	107.19
254.727	105.19
254.96	97.19
255.193	101.19
255.426	100.19
255.659	100.19
255.892	104.19
256.124	100.19
256.357	104.19
256.59	109.19
256.823	114.19
257.056	95.19
257.289	119.19
257.521	112.19
257.754	114.19
257.987	115.19
258.22	99.19
258.452	113.19
258.685	124.19
258.918	116.19
259.151	102.19
259.383	110.19
259.616	106.19
259.849	92.19
260.081	123.19
260.314	119.19
260.547	104.19
260.779	117.19
261.012	124.19
261.244	102.19
261.477	117.19
261.71	123.19
261.942	121.19
262.175	114.19
262.407	115.19
262.64	107.19
262.872	113.19
263.105	119.19
263.337	117.19
263.57	119.19
263.802	115.19
264.035	90.19
264.267	124.19
264.499	119.19
264.732	117.19
264.964	116.19
265.197	111.19
265.429	119.19
265.661	121.19
265.894	120.19
266.126	121.19
266.358	96.19
266.591	115.19
266.823	113.19
267.055	123.19
267.287	117.19
267.52	115.19
267.752	102.19
267.984	117.19
268.216	104.19
268.448	133.19
268.681	113.19
268.913	102.19
269.145	120.19
269.377	108.19
269.609	118.19
269.841	117.19
270.073	129.19
270.306	136.19
270.538	120.19
270.77	122.19
271.002	120.19
271.234	127.19
271.466	105.19
271.698	116.19
271.93	129.19
272.162	121.19
272.394	130.19
272.626	122.19
272.858	132.19
273.09	129.19
273.322	125.19
273.553	113.19
273.785	121.19
274.017	122.19
274.249	120.19
274.481	129.19
274.713	139.19
274.945	139.19
275.176	135.19
275.408	120.19
275.64	126.19
275.872	128.19
276.104	126.19
276.335	127.19
276.567	122.19
276.799	127.19
277.031	131.19
277.262	127.19
277.494	123.19
277.726	119.19
277.957	131.19
278.189	119.19
278.421	116.19
278.652	125.19
278.884	135.19
279.115	121.19
279.347	118.19
279.579	128.19
279.81	129.19
280.042	135.19
280.273	131.19
280.505	116.19
280.736	135.19
280.968	114.19
281.199	124.19
281.431	132.19
281.662	137.19
281.894	138.19
282.125	132.19
282.356	111.19
282.588	123.19
282.819	115.19
283.051	142.19
283.282	135.19
283.513	131.19
283.745	130.19
283.976	128.19
284.207	126.19
284.439	141.19
284.67	132.19
284.901	125.19
285.132	124.19
285.364	118.19
285.595	140.19
285.826	119.19
286.057	136.19
286.288	113.19
286.52	130.19
286.751	125.19
286.982	125.19
287.213	130.19
287.444	137.19
287.675	135.19
287.906	124.19
288.138	124.19
288.369	130.19
288.6	129.19
288.831	133.19
289.062	151.19
289.293	137.19
289.524	123.19
289.755	147.19
289.986	132.19
290.217	131.19
290.448	140.19
290.679	141.19
290.91	137.19
291.141	132.19
291.371	144.19
291.602	141.19
291.833	127.19
292.064	133.19
292.295	131.19
292.526	131.19
292.757	137.19
292.987	136.19
293.218	135.19
293.449	137.19
293.68	167.19
293.91	142.19
294.141	142.19
294.372	123.19
294.603	133.19
294.833	135.19
295.064	138.19
295.295	141.19
295.525	149.19
295.756	139.19
295.987	143.19
296.217	149.19
296.448	155.19
296.679	136.19
296.909	135.19
297.14	133.19
297.37	142.19
297.601	133.19
297.831	136.19
298.062	141.19
298.292	141.19
298.523	140.19
298.753	127.19
298.984	136.19
299.214	130.19
299.445	143.19
299.675	139.19
299.905	146.19
300.136	145.19
300.366	137.19
300.597	143.19
300.827	152.19
301.057	140.19
301.288	147.19
301.518	143.19
301.748	146.19
301.979	138.19
302.209	135.19
302.439	164.19
302.669	149.19
302.9	144.19
303.13	141.19
303.36	149.19
303.59	151.19
303.82	149.19
304.051	160.19
304.281	144.19
304.511	148.19
304.741	152.19
304.971	141.19
305.201	152.19
305.431	160.19
305.661	147.19
305.891	127.19
306.121	151.19
306.352	155.19
306.582	129.19
306.812	157.19
307.042	135.19
307.272	136.19
307.502	135.19
307.731	141.19
307.961	145.19
308.191	155.19
308.421	147.19
308.651	135.19
308.881	140.19
309.111	152.19
309.341	139.19
309.571	159.19
309.8	148.19
310.03	142.19
310.26	133.19
310.49	130.19
310.72	158.19
310.949	152.19
311.179	160.19
311.409	148.19
311.639	147.19
311.868	153.19
312.098	147.19
312.328	151.19
312.557	146.19
312.787	154.19
313.017	140.19
313.246	152.19
313.476	153.19
313.706	140.19
313.935	146.19
314.165	162.19
314.394	153.19
314.624	143.19
314.853	157.19
315.083	169.19
315.312	146.19
315.542	147.19
315.771	157.19
316.001	156.19
316.23	139.19
316.46	170.19
316.689	159.19
316.919	150.19
317.148	161.19
317.377	146.19
317.607	156.19
317.836	145.19
318.065	148.19
318.295	140.19
318.524	154.19
318.753	149.19
318.983	143.19
319.212	139.19
319.441	151.19
319.67	155.19
319.9	154.19
320.129	169.19
320.358	168.19
320.587	155.19
320.816	165.19
321.046	153.19
321.275	161.19
321.504	160.19
321.733	164.19
321.962	155.19
322.191	155.19
322.42	172.19
322.649	143.19
322.878	174.19
323.108	167.19
323.337	149.19
323.566	151.19
323.795	154.19
324.024	151.19
324.253	162.19
324.482	152.19
324.71	135.19
324.939	167.19
325.168	168.19
325.397	143.19
325.626	155.19
325.855	173.19
326.084	158.19
326.313	165.19
326.542	153.19
326.77	145.19
326.999	162.19
327.228	164.19
327.457	159.19
327.686	164.19
327.914	155.19
328.143	162.19
328.372	170.19
328.6	155.19
328.829	168.19
329.058	172.19
329.287	164.19
329.515	167.19
329.744	159.19
329.972	151.19
330.201	164.19
330.43	167.19
330.658	171.19
330.887	169.19
331.115	169.19
331.344	157.19
331.572	173.19
331.801	168.19
332.03	152.19
332.258	173.19
332.486	153.19
332.715	171.19
332.943	184.19
333.172	204.19
333.4	184.19
333.629	181.19
333.857	181.19
334.085	192.19
334.314	185.19
334.542	181.19
334.771	207.19
334.999	178.19
335.227	177.19
335.455	163.19
335.684	172.19
335.912	177.19
336.14	209.19
336.369	176.19
336.597	179.19
336.825	183.19
337.053	179.19
337.281	161.19
337.51	168.19
337.738	162.19
337.966	161.19
338.194	162.19
338.422	164.19
338.65	181.19
338.878	179.19
339.106	168.19
339.334	177.19
339.562	162.19
339.79	150.19
340.018	159.19
340.246	170.19
340.474	163.19
340.702	157.19
340.93	183.19
341.158	169.19
341.386	169.19
341.614	176.19
341.842	155.19
342.07	158.19
342.298	175.19
342.526	155.19
342.754	166.19
342.981	167.19
343.209	154.19
343.437	173.19
343.665	170.19
343.893	172.19
344.12	188.19
344.348	170.19
344.576	163.19
344.804	178.19
345.031	173.19
345.259	163.19
345.487	173.19
345.714	182.19
345.942	171.19
346.17	155.19
346.397	147.19
346.625	163.19
346.853	141.19
347.08	155.19
347.308	168.19
347.535	166.19
347.763	178.19
347.99	149.19
348.218	151.19
348.445	153.19
348.673	157.19
348.9	167.19
349.128	150.19
349.355	168.19
349.583	159.19
349.81	148.19
350.037	158.19
350.265	179.19
350.492	154.19
350.72	166.19
350.947	146.19
351.174	159.19
351.402	165.19
351.629	160.19
351.856	169.19
352.083	159.19
352.311	178.19
352.538	159.19
352.765	164.19
352.992	153.19
353.22	157.19
353.447	163.19
353.674	164.19
353.901	164.19
354.128	160.19
354.355	160.19
354.583	176.19
354.81	162.19
355.037	164.19
355.264	167.19
355.491	156.19
355.718	160.19
355.945	166.19
356.172	167.19
356.399	164.19
356.626	163.19
356.853	146.19
357.08	181.19
357.307	178.19
357.534	172.19
357.761	154.19
357.988	157.19
358.215	168.19
358.441	184.19
358.668	161.19
358.895	156.19
359.122	156.19
359.349	164.19
359.576	165.19
359.802	135.19
360.029	166.19
360.256	150.19
360.483	159.19
360.709	173.19
360.936	164.19
361.163	167.19
361.39	163.19
361.616	162.19
361.843	148.19
362.07	156.19
362.296	163.19
362.523	161.19
362.749	159.19
362.976	177.19
363.203	155.19
363.429	165.19
363.656	170.19
363.882	151.19
364.109	149.19
364.335	162.19
364.562	169.19
364.788	156.19
365.015	158.19
365.241	159.19
365.468	168.19
365.694	159.19
365.92	147.19
366.147	165.19
366.373	152.19
366.599	152.19
366.826	169.19
367.052	161.19
367.278	156.19
367.505	167.19
367.731	164.19
367.957	155.19
368.184	168.19
368.41	171.19
368.636	174.19
368.862	155.19
369.089	167.19
369.315	173.19
369.541	171.19
369.767	167.19
369.993	158.19
370.219	163.19
370.445	166.19
370.672	167.19
370.898	176.19
371.124	169.19
371.35	167.19
371.576	170.19
371.802	164.19
372.028	186.19
372.254	165.19
372.48	177.19
372.706	164.19
372.932	183.19
373.158	189.19
373.384	175.19
373.61	192.19
373.835	181.19
374.061	194.19
374.287	177.19
374.513	175.19
374.739	184.19
374.965	191.19
375.191	188.19
375.416	185.19
375.642	181.19
375.868	167.19
376.094	177.19
376.319	171.19
376.545	180.19
376.771	184.19
376.997	181.19
377.222	175.19
377.448	168.19
377.674	188.19
377.899	165.19
378.125	173.19
378.35	167.19
378.576	176.19
378.802	174.19
379.027	169.19
379.253	179.19
379.478	161.19
379.704	187.19
379.929	172.19
380.155	177.19
380.38	172.19
380.606	170.19
380.831	171.19
381.057	192.19
381.282	185.19
381.507	167.19
381.733	183.19
381.958	199.19
382.184	184.19
382.409	203.19
382.634	196.19
382.86	200.19
383.085	189.19
383.31	192.19
383.535	190.19
383.761	179.19
383.986	188.19
384.211	206.19
384.436	215.19
384.662	210.19
384.887	202.19
385.112	207.19
385.337	187.19
385.562	201.19
385.787	201.19
386.013	212.19
386.238	210.19
386.463	221.19
386.688	203.19
386.913	210.19
387.138	207.19
387.363	204.19
387.588	205.19
387.813	219.19
388.038	223.19
388.263	205.19
388.488	200.19
388.713	205.19
388.938	218.19
389.163	201.19
389.387	208.19
389.612	216.19
389.837	215.19
390.062	205.19
390.287	207.19
390.512	202.19
390.736	213.19
390.961	203.19
391.186	231.19
391.411	229.19
391.636	223.19
391.86	212.19
392.085	221.19
392.31	230.19
392.534	225.19
392.759	214.19
392.984	218.19
393.208	220.19
393.433	219.19
393.658	231.19
393.882	215.19
394.107	228.19
394.331	213.19
394.556	228.19
394.78	208.19
395.005	226.19
395.229	232.19
395.454	244.19
395.678	235.19
395.903	229.19
396.127	223.19
396.352	219.19
396.576	221.19
396.801	213.19
397.025	237.19
397.249	228.19
397.474	219.19
397.698	227.19
397.922	228.19
398.147	227.19
398.371	234.19
398.595	241.19
398.82	247.19
399.044	248.19
399.268	288.19
399.492	318.19
399.717	335.19
399.941	328.19
400.165	309.19
400.389	287.19
400.613	279.19
400.837	261.19
401.062	261.19
401.286	252.19
401.51	250.19
401.734	243.19
401.958	268.19
402.182	271.19
402.406	271.19
402.63	260.19
402.854	270.19
403.078	271.19
403.302	270.19
403.526	276.19
403.75	295.19
403.974	289.19
404.198	282.19
404.422	289.19
404.645	267.19
404.869	255.19
405.093	286.19
405.317	271.19
405.541	298.19
405.765	273.19
405.988	280.19
406.212	288.19
406.436	286.19
406.66	269.19
406.883	264.19
407.107	310.19
407.331	298.19
407.555	291.19
407.778	329.19
408.002	307.19
408.226	308.19
408.449	297.19
408.673	289.19
408.896	297.19
409.12	276.19
409.344	283.19
409.567	290.19
409.791	284.19
410.014	295.19
410.238	287.19
410.461	301.19
410.685	287.19
410.908	276.19
411.132	259.19
411.355	298.19
411.578	275.19
411.802	273.19
412.025	270.19
412.249	262.19
412.472	281.19
412.695	266.19
412.919	275.19
413.142	273.19
413.365	283.19
413.589	255.19
413.812	282.19
414.035	269.19
414.258	281.19
414.482	266.19
414.705	270.19
414.928	272.19
415.151	265.19
415.374	258.19
415.597	270.19
415.821	256.19
416.044	283.19
416.267	260.19
416.49	261.19
416.713	274.19
416.936	265.19
417.159	267.19
417.382	254.19
417.605	262.19
417.828	279.19
418.051	264.19
418.274	265.19
418.497	277.19
418.72	285.19
418.943	262.19
419.166	288.19
419.389	299.19
419.611	282.19
419.834	292.19
420.057	281.19
420.28	266.19
420.503	273.19
420.726	268.19
420.948	279.19
421.171	259.19
421.394	287.19
421.617	277.19
421.839	276.19
422.062	281.19
422.285	240.19
422.507	281.19
422.73	280.19
422.953	283.19
423.175	261.19
423.398	274.19
423.621	279.19
423.843	287.19
424.066	283.19
424.288	283.19
424.511	282.19
424.733	287.19
424.956	265.19
425.178	272.19
425.401	271.19
425.623	267.19
425.846	266.19
426.068	276.19
426.291	265.19
426.513	258.19
426.735	266.19
426.958	264.19
427.18	256.19
427.402	266.19
427.625	256.19
427.847	244.19
428.069	255.19
428.292	251.19
428.514	261.19
428.736	265.19
428.958	260.19
429.181	252.19
429.403	261.19
429.625	256.19
429.847	259.19
430.069	260.19
430.292	247.19
430.514	247.19
430.736	264.19
430.958	248.19
431.18	259.19
431.402	261.19
431.624	259.19
431.846	242.19
432.068	268.19
432.29	250.19
432.512	269.19
432.734	255.19
432.956	257.19
433.178	269.19
433.4	237.19
433.622	274.19
433.844	261.19
434.066	266.19
434.287	245.19
434.509	276.19
434.731	284.19
434.953	273.19
435.175	282.19
435.397	291.19
435.618	266.19
435.84	260.19
436.062	249.19
436.284	255.19
436.505	262.19
436.727	281.19
436.949	267.19
437.17	255.19
437.392	269.19
437.614	236.19
437.835	261.19
438.057	240.19
438.278	250.19
438.5	266.19
438.721	264.19
438.943	247.19
439.165	251.19
439.386	253.19
439.608	264.19
439.829	264.19
440.05	277.19
440.272	265.19
440.493	281.19
440.715	267.19
440.936	265.19
441.158	271.19
441.379	273.19
441.6	296.19
441.822	290.19
442.043	276.19
442.264	287.19
442.486	274.19
442.707	279.19
442.928	280.19
443.149	270.19
443.371	292.19
443.592	296.19
443.813	301.19
444.034	284.19
444.255	309.19
444.476	319.19
444.698	319.19
444.919	321.19
445.14	434.19
445.361	353.19
445.582	303.19
445.803	270.19
446.024	301.19
446.245	279.19
446.466	277.19
446.687	274.19
446.908	275.19
447.129	268.19
447.35	279.19
447.571	265.19
447.792	267.19
448.013	245.19
448.234	256.19
448.455	242.19
448.675	265.19
448.896	268.19
449.117	263.19
449.338	251.19
449.559	262.19
449.779	261.19
450	247.19
450.221	264.19
450.442	269.19
450.662	274.19
450.883	263.19
451.104	252.19
451.324	233.19
451.545	268.19
451.766	243.19
451.986	260.19
452.207	253.19
452.428	247.19
452.648	244.19
452.869	247.19
453.089	236.19
453.31	247.19
453.53	256.19
453.751	241.19
453.971	240.19
454.192	225.19
454.412	247.19
454.633	235.19
454.853	253.19
455.073	261.19
455.294	249.19
455.514	250.19
455.734	243.19
455.955	251.19
456.175	213.19
456.395	239.19
456.616	243.19
456.836	253.19
457.056	251.19
457.276	228.19
457.497	245.19
457.717	237.19
457.937	225.19
458.157	250.19
458.377	223.19
458.598	245.19
458.818	251.19
459.038	253.19
459.258	248.19
459.478	274.19
459.698	279.19
459.918	255.19
460.138	269.19
460.358	298.19
460.578	277.19
460.798	281.19
461.018	328.19
461.238	305.19
461.458	283.19
461.678	289.19
461.898	304.19
462.118	311.19
462.338	304.19
462.558	324.19
462.777	316.19
462.997	339.19
463.217	351.19
463.437	346.19
463.657	339.19
463.876	337.19
464.096	345.19
464.316	333.19
464.536	350.19
464.755	319.19
464.975	303.19
465.195	277.19
465.414	303.19
465.634	274.19
465.854	281.19
466.073	286.19
466.293	267.19
466.512	282.19
466.732	266.19
466.951	269.19
467.171	261.19
467.391	256.19
467.61	270.19
467.829	250.19
468.049	277.19
468.268	258.19
468.488	256.19
468.707	245.19
468.927	254.19
469.146	262.19
469.365	269.19
469.585	274.19
469.804	258.19
470.023	253.19
470.243	273.19
470.462	285.19
470.681	263.19
470.901	265.19
471.12	280.19
471.339	268.19
471.558	262.19
471.777	274.19
471.997	272.19
472.216	247.19
472.435	249.19
472.654	265.19
472.873	251.19
473.092	240.19
473.311	245.19
473.53	256.19
473.749	259.19
473.968	249.19
474.187	258.19
474.406	230.19
474.625	239.19
474.844	262.19
475.063	260.19
475.282	251.19
475.501	243.19
475.72	258.19
475.939	262.19
476.158	259.19
476.377	268.19
476.596	239.19
476.814	268.19
477.033	264.19
477.252	265.19
477.471	252.19
477.69	275.19
477.908	274.19
478.127	293.19
478.346	283.19
478.564	307.19
478.783	275.19
479.002	317.19
479.22	311.19
479.439	302.19
479.658	297.19
479.876	280.19
480.095	286.19
480.313	313.19
480.532	317.19
480.751	295.19
480.969	280.19
481.188	285.19
481.406	277.19
481.624	269.19
481.843	292.19
482.061	272.19
482.28	260.19
482.498	258.19
482.717	265.19
482.935	269.19
483.153	280.19
483.372	293.19
483.59	273.19
483.808	291.19
484.027	272.19
484.245	259.19
484.463	293.19
484.681	289.19
484.9	275.19
485.118	275.19
485.336	277.19
485.554	291.19
485.772	276.19
485.99	283.19
486.209	278.19
486.427	273.19
486.645	272.19
486.863	283.19
487.081	280.19
487.299	282.19
487.517	279.19
487.735	273.19
487.953	290.19
488.171	289.19
488.389	282.19
488.607	273.19
488.825	283.19
489.043	278.19
489.261	273.19
489.479	293.19
489.696	282.19
489.914	282.19
490.132	294.19
490.35	304.19
490.568	297.19
490.786	279.19
491.003	277.19
491.221	300.19
491.439	295.19
491.657	305.19
491.874	314.19
492.092	303.19
492.31	320.19
492.527	312.19
492.745	285.19
492.963	307.19
493.18	305.19
493.398	300.19
493.615	299.19
493.833	317.19
494.05	322.19
494.268	288.19
494.485	301.19
494.703	307.19
494.92	305.19
495.138	309.19
495.355	316.19
495.573	301.19
495.79	303.19
496.008	321.19
496.225	299.19
496.442	301.19
496.66	314.19
496.877	313.19
497.094	320.19
497.312	323.19
497.529	314.19
497.746	317.19
497.963	327.19
498.181	339.19
498.398	338.19
498.615	357.19
498.832	380.19
499.049	416.19
499.267	435.19
499.484	444.19
499.701	490.19
499.918	531.19
500.135	569.19
500.352	610.19
500.569	653.19
500.786	626.19
501.003	596.19
501.22	556.19
501.437	522.19
501.654	478.19
501.871	442.19
502.088	412.19
502.305	387.19
502.522	375.19
502.739	375.19
