Data from Fe(NO3)3@0.05M.TitratingCurve.Agarose3%dH2O.NegLispCup.LampEnergy10.LIBS07252019_HRD10591_16-46-03-335.txt Node
Date: Thu Jul 25 16:46:03 EDT 2019
User: cochatt
Spectrometer: HR+D1059
Trigger mode: 1
Integration Time (sec): 1.000000E-1
Scans to average: 1
Electric dark correction enabled: true
Nonlinearity correction enabled: false
Boxcar width: 0
XAxis mode: Wavelengths
Number of Pixels in Spectrum: 2048
>>>>>Begin Spectral Data<<<<<
223.165	-20.62
223.4	-20.62
223.635	-20.62
223.869	-6.62
224.104	-22.62
224.338	-25.62
224.573	-14.62
224.808	-8.62
225.042	-0.62
225.277	2.38
225.511	-10.62
225.746	-2.62
225.98	20.38
226.215	9.38
226.449	-2.62
226.683	25.38
226.918	27.38
227.152	30.38
227.387	38.38
227.621	33.38
227.856	53.38
228.09	56.38
228.324	45.38
228.559	53.38
228.793	53.38
229.027	61.38
229.262	68.38
229.496	81.38
229.73	81.38
229.964	85.38
230.199	86.38
230.433	89.38
230.667	91.38
230.901	97.38
231.136	88.38
231.37	87.38
231.604	100.38
231.838	97.38
232.072	104.38
232.306	101.38
232.541	105.38
232.775	98.38
233.009	101.38
233.243	113.38
233.477	98.38
233.711	102.38
233.945	107.38
234.179	97.38
234.413	108.38
234.647	103.38
234.881	95.38
235.115	103.38
235.349	115.38
235.583	119.38
235.817	89.38
236.051	101.38
236.285	75.38
236.519	83.38
236.753	106.38
236.987	92.38
237.221	95.38
237.455	101.38
237.689	97.38
237.922	100.38
238.156	125.38
238.39	103.38
238.624	101.38
238.858	89.38
239.091	107.38
239.325	103.38
239.559	91.38
239.793	105.38
240.027	121.38
240.26	99.38
240.494	105.38
240.728	114.38
240.961	100.38
241.195	103.38
241.429	117.38
241.662	105.38
241.896	109.38
242.13	100.38
242.363	114.38
242.597	114.38
242.83	110.38
243.064	109.38
243.298	99.38
243.531	92.38
243.765	106.38
243.998	114.38
244.232	113.38
244.465	106.38
244.699	115.38
244.932	121.38
245.166	111.38
245.399	107.38
245.633	119.38
245.866	117.38
246.099	116.38
246.333	113.38
246.566	117.38
246.8	123.38
247.033	123.38
247.266	115.38
247.5	100.38
247.733	110.38
247.966	113.38
248.2	123.38
248.433	123.38
248.666	109.38
248.899	113.38
249.133	115.38
249.366	120.38
249.599	126.38
249.832	118.38
250.066	120.38
250.299	102.38
250.532	122.38
250.765	119.38
250.998	118.38
251.231	135.38
251.465	124.38
251.698	110.38
251.931	115.38
252.164	121.38
252.397	117.38
252.63	117.38
252.863	126.38
253.096	120.38
253.329	140.38
253.562	128.38
253.795	146.38
254.028	142.38
254.261	114.38
254.494	128.38
254.727	134.38
254.96	131.38
255.193	128.38
255.426	117.38
255.659	124.38
255.892	115.38
256.124	132.38
256.357	129.38
256.59	134.38
256.823	138.38
257.056	139.38
257.289	133.38
257.521	139.38
257.754	137.38
257.987	139.38
258.22	126.38
258.452	129.38
258.685	125.38
258.918	145.38
259.151	134.38
259.383	133.38
259.616	123.38
259.849	131.38
260.081	154.38
260.314	141.38
260.547	139.38
260.779	141.38
261.012	135.38
261.244	142.38
261.477	137.38
261.71	126.38
261.942	140.38
262.175	135.38
262.407	134.38
262.64	149.38
262.872	135.38
263.105	133.38
263.337	146.38
263.57	162.38
263.802	136.38
264.035	145.38
264.267	137.38
264.499	139.38
264.732	126.38
264.964	142.38
265.197	135.38
265.429	143.38
265.661	149.38
265.894	152.38
266.126	145.38
266.358	157.38
266.591	163.38
266.823	155.38
267.055	149.38
267.287	133.38
267.52	130.38
267.752	152.38
267.984	144.38
268.216	163.38
268.448	152.38
268.681	150.38
268.913	144.38
269.145	150.38
269.377	143.38
269.609	142.38
269.841	150.38
270.073	164.38
270.306	156.38
270.538	155.38
270.77	141.38
271.002	160.38
271.234	146.38
271.466	153.38
271.698	153.38
271.93	166.38
272.162	165.38
272.394	157.38
272.626	155.38
272.858	148.38
273.09	148.38
273.322	161.38
273.553	159.38
273.785	174.38
274.017	165.38
274.249	153.38
274.481	178.38
274.713	164.38
274.945	181.38
275.176	181.38
275.408	153.38
275.64	165.38
275.872	170.38
276.104	156.38
276.335	163.38
276.567	165.38
276.799	161.38
277.031	162.38
277.262	157.38
277.494	167.38
277.726	165.38
277.957	169.38
278.189	163.38
278.421	163.38
278.652	162.38
278.884	163.38
279.115	167.38
279.347	147.38
279.579	162.38
279.81	155.38
280.042	163.38
280.273	161.38
280.505	169.38
280.736	190.38
280.968	162.38
281.199	162.38
281.431	179.38
281.662	185.38
281.894	173.38
282.125	165.38
282.356	177.38
282.588	183.38
282.819	182.38
283.051	172.38
283.282	185.38
283.513	172.38
283.745	169.38
283.976	175.38
284.207	170.38
284.439	181.38
284.67	175.38
284.901	179.38
285.132	177.38
285.364	186.38
285.595	171.38
285.826	179.38
286.057	182.38
286.288	181.38
286.52	173.38
286.751	181.38
286.982	199.38
287.213	181.38
287.444	197.38
287.675	172.38
287.906	178.38
288.138	183.38
288.369	183.38
288.6	183.38
288.831	162.38
289.062	186.38
289.293	192.38
289.524	209.38
289.755	182.38
289.986	187.38
290.217	187.38
290.448	181.38
290.679	183.38
290.91	181.38
291.141	181.38
291.371	200.38
291.602	174.38
291.833	178.38
292.064	183.38
292.295	196.38
292.526	182.38
292.757	198.38
292.987	184.38
293.218	190.38
293.449	184.38
293.68	187.38
293.91	178.38
294.141	200.38
294.372	196.38
294.603	197.38
294.833	189.38
295.064	178.38
295.295	195.38
295.525	198.38
295.756	186.38
295.987	189.38
296.217	193.38
296.448	189.38
296.679	197.38
296.909	194.38
297.14	188.38
297.37	197.38
297.601	199.38
297.831	201.38
298.062	197.38
298.292	192.38
298.523	188.38
298.753	205.38
298.984	192.38
299.214	199.38
299.445	200.38
299.675	195.38
299.905	212.38
300.136	190.38
300.366	217.38
300.597	203.38
300.827	214.38
301.057	208.38
301.288	205.38
301.518	185.38
301.748	203.38
301.979	193.38
302.209	226.38
302.439	222.38
302.669	206.38
302.9	194.38
303.13	222.38
303.36	198.38
303.59	204.38
303.82	206.38
304.051	205.38
304.281	215.38
304.511	199.38
304.741	210.38
304.971	221.38
305.201	201.38
305.431	215.38
305.661	214.38
305.891	199.38
306.121	199.38
306.352	216.38
306.582	218.38
306.812	218.38
307.042	210.38
307.272	211.38
307.502	214.38
307.731	211.38
307.961	191.38
308.191	225.38
308.421	216.38
308.651	214.38
308.881	206.38
309.111	203.38
309.341	197.38
309.571	198.38
309.8	206.38
310.03	210.38
310.26	197.38
310.49	193.38
310.72	221.38
310.949	221.38
311.179	205.38
311.409	213.38
311.639	212.38
311.868	226.38
312.098	203.38
312.328	215.38
312.557	221.38
312.787	217.38
313.017	198.38
313.246	211.38
313.476	207.38
313.706	215.38
313.935	222.38
314.165	222.38
314.394	222.38
314.624	209.38
314.853	217.38
315.083	215.38
315.312	217.38
315.542	216.38
315.771	216.38
316.001	199.38
316.23	222.38
316.46	222.38
316.689	216.38
316.919	230.38
317.148	211.38
317.377	231.38
317.607	223.38
317.836	195.38
318.065	207.38
318.295	215.38
318.524	213.38
318.753	206.38
318.983	221.38
319.212	214.38
319.441	202.38
319.67	232.38
319.9	211.38
320.129	215.38
320.358	212.38
320.587	226.38
320.816	218.38
321.046	225.38
321.275	222.38
321.504	203.38
321.733	244.38
321.962	226.38
322.191	213.38
322.42	212.38
322.649	208.38
322.878	194.38
323.108	209.38
323.337	235.38
323.566	221.38
323.795	227.38
324.024	214.38
324.253	214.38
324.482	205.38
324.71	242.38
324.939	244.38
325.168	224.38
325.397	219.38
325.626	217.38
325.855	236.38
326.084	228.38
326.313	254.38
326.542	228.38
326.77	224.38
326.999	223.38
327.228	234.38
327.457	221.38
327.686	232.38
327.914	242.38
328.143	229.38
328.372	226.38
328.6	228.38
328.829	240.38
329.058	241.38
329.287	223.38
329.515	234.38
329.744	228.38
329.972	233.38
330.201	242.38
330.43	232.38
330.658	237.38
330.887	239.38
331.115	245.38
331.344	260.38
331.572	246.38
331.801	259.38
332.03	237.38
332.258	239.38
332.486	262.38
332.715	257.38
332.943	252.38
333.172	277.38
333.4	270.38
333.629	281.38
333.857	296.38
334.085	286.38
334.314	305.38
334.542	282.38
334.771	275.38
334.999	277.38
335.227	272.38
335.455	279.38
335.684	283.38
335.912	290.38
336.14	273.38
336.369	280.38
336.597	275.38
336.825	271.38
337.053	274.38
337.281	259.38
337.51	263.38
337.738	258.38
337.966	255.38
338.194	250.38
338.422	265.38
338.65	233.38
338.878	251.38
339.106	241.38
339.334	245.38
339.562	259.38
339.79	231.38
340.018	251.38
340.246	235.38
340.474	261.38
340.702	226.38
340.93	226.38
341.158	245.38
341.386	247.38
341.614	250.38
341.842	240.38
342.07	250.38
342.298	240.38
342.526	249.38
342.754	244.38
342.981	277.38
343.209	234.38
343.437	262.38
343.665	248.38
343.893	267.38
344.12	268.38
344.348	276.38
344.576	258.38
344.804	258.38
345.031	252.38
345.259	239.38
345.487	234.38
345.714	260.38
345.942	235.38
346.17	232.38
346.397	259.38
346.625	250.38
346.853	239.38
347.08	234.38
347.308	232.38
347.535	227.38
347.763	228.38
347.99	228.38
348.218	233.38
348.445	236.38
348.673	234.38
348.9	215.38
349.128	243.38
349.355	249.38
349.583	217.38
349.81	242.38
350.037	229.38
350.265	231.38
350.492	236.38
350.72	218.38
350.947	225.38
351.174	232.38
351.402	230.38
351.629	242.38
351.856	243.38
352.083	234.38
352.311	213.38
352.538	226.38
352.765	239.38
352.992	250.38
353.22	226.38
353.447	213.38
353.674	224.38
353.901	225.38
354.128	221.38
354.355	231.38
354.583	218.38
354.81	228.38
355.037	229.38
355.264	253.38
355.491	226.38
355.718	235.38
355.945	226.38
356.172	235.38
356.399	248.38
356.626	253.38
356.853	234.38
357.08	249.38
357.307	236.38
357.534	235.38
357.761	228.38
357.988	238.38
358.215	259.38
358.441	251.38
358.668	238.38
358.895	223.38
359.122	234.38
359.349	224.38
359.576	214.38
359.802	234.38
360.029	230.38
360.256	232.38
360.483	218.38
360.709	228.38
360.936	236.38
361.163	234.38
361.39	217.38
361.616	245.38
361.843	245.38
362.07	249.38
362.296	227.38
362.523	222.38
362.749	239.38
362.976	238.38
363.203	246.38
363.429	246.38
363.656	225.38
363.882	222.38
364.109	234.38
364.335	253.38
364.562	245.38
364.788	234.38
365.015	233.38
365.241	242.38
365.468	241.38
365.694	245.38
365.92	242.38
366.147	234.38
366.373	234.38
366.599	249.38
366.826	220.38
367.052	241.38
367.278	242.38
367.505	238.38
367.731	263.38
367.957	253.38
368.184	228.38
368.41	245.38
368.636	261.38
368.862	251.38
369.089	247.38
369.315	247.38
369.541	247.38
369.767	241.38
369.993	230.38
370.219	243.38
370.445	254.38
370.672	257.38
370.898	246.38
371.124	269.38
371.35	232.38
371.576	269.38
371.802	257.38
372.028	267.38
372.254	269.38
372.48	287.38
372.706	267.38
372.932	263.38
373.158	262.38
373.384	284.38
373.61	269.38
373.835	246.38
374.061	261.38
374.287	270.38
374.513	273.38
374.739	290.38
374.965	287.38
375.191	291.38
375.416	293.38
375.642	282.38
375.868	287.38
376.094	269.38
376.319	283.38
376.545	270.38
376.771	273.38
376.997	271.38
377.222	257.38
377.448	258.38
377.674	245.38
377.899	267.38
378.125	263.38
378.35	255.38
378.576	249.38
378.802	263.38
379.027	271.38
379.253	249.38
379.478	251.38
379.704	264.38
379.929	246.38
380.155	267.38
380.38	269.38
380.606	263.38
380.831	253.38
381.057	264.38
381.282	259.38
381.507	269.38
381.733	271.38
381.958	273.38
382.184	270.38
382.409	264.38
382.634	275.38
382.86	267.38
383.085	284.38
383.31	263.38
383.535	295.38
383.761	294.38
383.986	275.38
384.211	305.38
384.436	289.38
384.662	297.38
384.887	311.38
385.112	329.38
385.337	296.38
385.562	298.38
385.787	292.38
386.013	306.38
386.238	310.38
386.463	326.38
386.688	303.38
386.913	301.38
387.138	305.38
387.363	292.38
387.588	323.38
387.813	302.38
388.038	316.38
388.263	313.38
388.488	329.38
388.713	353.38
388.938	322.38
389.163	310.38
389.387	332.38
389.612	318.38
389.837	321.38
390.062	308.38
390.287	306.38
390.512	323.38
390.736	318.38
390.961	342.38
391.186	309.38
391.411	316.38
391.636	343.38
391.86	332.38
392.085	334.38
392.31	349.38
392.534	338.38
392.759	353.38
392.984	330.38
393.208	345.38
393.433	328.38
393.658	341.38
393.882	339.38
394.107	321.38
394.331	321.38
394.556	329.38
394.78	334.38
395.005	338.38
395.229	349.38
395.454	356.38
395.678	354.38
395.903	360.38
396.127	360.38
396.352	346.38
396.576	341.38
396.801	335.38
397.025	320.38
397.249	352.38
397.474	357.38
397.698	352.38
397.922	362.38
398.147	348.38
398.371	353.38
398.595	366.38
398.82	358.38
399.044	393.38
399.268	417.38
399.492	467.38
399.717	490.38
399.941	514.38
400.165	463.38
400.389	435.38
400.613	422.38
400.837	407.38
401.062	409.38
401.286	383.38
401.51	383.38
401.734	397.38
401.958	413.38
402.182	391.38
402.406	382.38
402.63	377.38
402.854	412.38
403.078	391.38
403.302	428.38
403.526	409.38
403.75	428.38
403.974	427.38
404.198	409.38
404.422	433.38
404.645	417.38
404.869	405.38
405.093	407.38
405.317	413.38
405.541	413.38
405.765	412.38
405.988	405.38
406.212	408.38
406.436	427.38
406.66	444.38
406.883	435.38
407.107	453.38
407.331	471.38
407.555	471.38
407.778	471.38
408.002	466.38
408.226	438.38
408.449	446.38
408.673	457.38
408.896	436.38
409.12	428.38
409.344	433.38
409.567	429.38
409.791	458.38
410.014	454.38
410.238	440.38
410.461	415.38
410.685	422.38
410.908	407.38
411.132	423.38
411.355	434.38
411.578	405.38
411.802	399.38
412.025	414.38
412.249	412.38
412.472	419.38
412.695	417.38
412.919	385.38
413.142	409.38
413.365	399.38
413.589	407.38
413.812	401.38
414.035	418.38
414.258	409.38
414.482	424.38
414.705	413.38
414.928	399.38
415.151	416.38
415.374	415.38
415.597	389.38
415.821	386.38
416.044	389.38
416.267	372.38
416.49	394.38
416.713	388.38
416.936	386.38
417.159	387.38
417.382	367.38
417.605	391.38
417.828	389.38
418.051	388.38
418.274	421.38
418.497	415.38
418.72	438.38
418.943	407.38
419.166	419.38
419.389	427.38
419.611	428.38
419.834	414.38
420.057	393.38
420.28	389.38
420.503	380.38
420.726	364.38
420.948	401.38
421.171	388.38
421.394	400.38
421.617	399.38
421.839	410.38
422.062	405.38
422.285	390.38
422.507	399.38
422.73	405.38
422.953	369.38
423.175	405.38
423.398	424.38
423.621	393.38
423.843	395.38
424.066	407.38
424.288	407.38
424.511	421.38
424.733	403.38
424.956	400.38
425.178	382.38
425.401	406.38
425.623	396.38
425.846	393.38
426.068	387.38
426.291	390.38
426.513	378.38
426.735	384.38
426.958	393.38
427.18	387.38
427.402	385.38
427.625	375.38
427.847	384.38
428.069	381.38
428.292	376.38
428.514	385.38
428.736	375.38
428.958	377.38
429.181	373.38
429.403	362.38
429.625	371.38
429.847	357.38
430.069	366.38
430.292	372.38
430.514	371.38
430.736	369.38
430.958	389.38
431.18	362.38
431.402	363.38
431.624	381.38
431.846	375.38
432.068	359.38
432.29	375.38
432.512	380.38
432.734	368.38
432.956	395.38
433.178	393.38
433.4	391.38
433.622	391.38
433.844	365.38
434.066	383.38
434.287	385.38
434.509	386.38
434.731	393.38
434.953	403.38
435.175	392.38
435.397	389.38
435.618	382.38
435.84	373.38
436.062	380.38
436.284	379.38
436.505	373.38
436.727	379.38
436.949	369.38
437.17	373.38
437.392	377.38
437.614	382.38
437.835	365.38
438.057	349.38
438.278	344.38
438.5	383.38
438.721	353.38
438.943	376.38
439.165	385.38
439.386	379.38
439.608	379.38
439.829	378.38
440.05	369.38
440.272	381.38
440.493	398.38
440.715	394.38
440.936	415.38
441.158	399.38
441.379	399.38
441.6	405.38
441.822	401.38
442.043	406.38
442.264	389.38
442.486	405.38
442.707	394.38
442.928	412.38
443.149	418.38
443.371	405.38
443.592	406.38
443.813	411.38
444.034	414.38
444.255	395.38
444.476	431.38
444.698	460.38
444.919	454.38
445.14	552.38
445.361	511.38
445.582	441.38
445.803	395.38
446.024	401.38
446.245	391.38
446.466	387.38
446.687	388.38
446.908	385.38
447.129	363.38
447.35	379.38
447.571	374.38
447.792	366.38
448.013	354.38
448.234	360.38
448.455	393.38
448.675	371.38
448.896	376.38
449.117	358.38
449.338	340.38
449.559	348.38
449.779	381.38
450	370.38
450.221	369.38
450.442	371.38
450.662	370.38
450.883	367.38
451.104	372.38
451.324	360.38
451.545	367.38
451.766	364.38
451.986	361.38
452.207	361.38
452.428	359.38
452.648	366.38
452.869	347.38
453.089	349.38
453.31	351.38
453.53	318.38
453.751	328.38
453.971	331.38
454.192	358.38
454.412	330.38
454.633	325.38
454.853	336.38
455.073	346.38
455.294	339.38
455.514	350.38
455.734	334.38
455.955	340.38
456.175	333.38
456.395	327.38
456.616	334.38
456.836	344.38
457.056	333.38
457.276	321.38
457.497	330.38
457.717	329.38
457.937	337.38
458.157	348.38
458.377	342.38
458.598	335.38
458.818	356.38
459.038	340.38
459.258	364.38
459.478	386.38
459.698	377.38
459.918	385.38
460.138	378.38
460.358	394.38
460.578	411.38
460.798	414.38
461.018	406.38
461.238	405.38
461.458	408.38
461.678	418.38
461.898	407.38
462.118	430.38
462.338	429.38
462.558	453.38
462.777	474.38
462.997	469.38
463.217	497.38
463.437	500.38
463.657	472.38
463.876	456.38
464.096	472.38
464.316	445.38
464.536	479.38
464.755	445.38
464.975	430.38
465.195	413.38
465.414	405.38
465.634	386.38
465.854	398.38
466.073	391.38
466.293	375.38
466.512	378.38
466.732	378.38
466.951	371.38
467.171	377.38
467.391	382.38
467.61	375.38
467.829	367.38
468.049	360.38
468.268	359.38
468.488	367.38
468.707	357.38
468.927	343.38
469.146	363.38
469.365	365.38
469.585	362.38
469.804	386.38
470.023	382.38
470.243	393.38
470.462	365.38
470.681	376.38
470.901	385.38
471.12	365.38
471.339	377.38
471.558	355.38
471.777	363.38
471.997	369.38
472.216	361.38
472.435	349.38
472.654	333.38
472.873	349.38
473.092	340.38
473.311	354.38
473.53	362.38
473.749	339.38
473.968	361.38
474.187	335.38
474.406	346.38
474.625	324.38
474.844	333.38
475.063	353.38
475.282	351.38
475.501	341.38
475.72	376.38
475.939	362.38
476.158	357.38
476.377	383.38
476.596	374.38
476.814	377.38
477.033	349.38
477.252	356.38
477.471	411.38
477.69	376.38
477.908	391.38
478.127	414.38
478.346	381.38
478.564	379.38
478.783	399.38
479.002	396.38
479.22	408.38
479.439	420.38
479.658	418.38
479.876	423.38
480.095	421.38
480.313	426.38
480.532	419.38
480.751	426.38
480.969	403.38
481.188	384.38
481.406	398.38
481.624	374.38
481.843	389.38
482.061	389.38
482.28	376.38
482.498	403.38
482.717	385.38
482.935	389.38
483.153	405.38
483.372	384.38
483.59	371.38
483.808	389.38
484.027	381.38
484.245	391.38
484.463	389.38
484.681	419.38
484.9	391.38
485.118	408.38
485.336	399.38
485.554	399.38
485.772	417.38
485.99	399.38
486.209	406.38
486.427	397.38
486.645	383.38
486.863	418.38
487.081	407.38
487.299	399.38
487.517	415.38
487.735	409.38
487.953	433.38
488.171	401.38
488.389	409.38
488.607	402.38
488.825	403.38
489.043	387.38
489.261	414.38
489.479	413.38
489.696	386.38
489.914	399.38
490.132	415.38
490.35	413.38
490.568	386.38
490.786	430.38
491.003	422.38
491.221	428.38
491.439	420.38
491.657	410.38
491.874	425.38
492.092	433.38
492.31	422.38
492.527	433.38
492.745	445.38
492.963	443.38
493.18	427.38
493.398	437.38
493.615	431.38
493.833	426.38
494.05	427.38
494.268	431.38
494.485	437.38
494.703	426.38
494.92	435.38
495.138	427.38
495.355	444.38
495.573	417.38
495.79	433.38
496.008	442.38
496.225	452.38
496.442	462.38
496.66	448.38
496.877	441.38
497.094	436.38
497.312	450.38
497.529	470.38
497.746	467.38
497.963	483.38
498.181	486.38
498.398	503.38
498.615	517.38
498.832	534.38
499.049	580.38
499.267	599.38
499.484	653.38
499.701	689.38
499.918	744.38
500.135	823.38
500.352	888.38
500.569	907.38
500.786	870.38
501.003	842.38
501.22	796.38
501.437	736.38
501.654	679.38
501.871	658.38
