Data from Fe(NO3)3@0.0125M.TitratingCurve.Agarose3%dH2O.NegLispCup.LampEnergy10.LIBS07252019_HRD10591_17-00-19-336.txt Node
Date: Thu Jul 25 17:00:19 EDT 2019
User: cochatt
Spectrometer: HR+D1059
Trigger mode: 1
Integration Time (sec): 1.000000E-1
Scans to average: 1
Electric dark correction enabled: true
Nonlinearity correction enabled: false
Boxcar width: 0
XAxis mode: Wavelengths
Number of Pixels in Spectrum: 2048
>>>>>Begin Spectral Data<<<<<
223.165	-23.38
223.4	-23.38
223.635	-23.38
223.869	-16.38
224.104	-7.38
224.338	0.62
224.573	-19.38
224.808	-22.38
225.042	-7.38
225.277	-3.38
225.511	-6.38
225.746	9.62
225.98	16.62
226.215	4.62
226.449	-6.38
226.683	21.62
226.918	24.62
227.152	34.62
227.387	40.62
227.621	41.62
227.856	54.62
228.09	64.62
228.324	49.62
228.559	62.62
228.793	64.62
229.027	74.62
229.262	105.62
229.496	109.62
229.73	93.62
229.964	91.62
230.199	92.62
230.433	100.62
230.667	93.62
230.901	96.62
231.136	98.62
231.37	107.62
231.604	121.62
231.838	125.62
232.072	105.62
232.306	122.62
232.541	109.62
232.775	108.62
233.009	115.62
233.243	124.62
233.477	127.62
233.711	123.62
233.945	114.62
234.179	118.62
234.413	111.62
234.647	110.62
234.881	125.62
235.115	113.62
235.349	117.62
235.583	124.62
235.817	117.62
236.051	109.62
236.285	122.62
236.519	112.62
236.753	114.62
236.987	109.62
237.221	107.62
237.455	125.62
237.689	117.62
237.922	136.62
238.156	114.62
238.39	120.62
238.624	122.62
238.858	124.62
239.091	123.62
239.325	114.62
239.559	127.62
239.793	138.62
240.027	137.62
240.26	132.62
240.494	126.62
240.728	122.62
240.961	129.62
241.195	128.62
241.429	126.62
241.662	127.62
241.896	145.62
242.13	145.62
242.363	121.62
242.597	128.62
242.83	147.62
243.064	134.62
243.298	145.62
243.531	142.62
243.765	123.62
243.998	133.62
244.232	134.62
244.465	137.62
244.699	128.62
244.932	139.62
245.166	140.62
245.399	134.62
245.633	137.62
245.866	144.62
246.099	146.62
246.333	143.62
246.566	146.62
246.8	134.62
247.033	136.62
247.266	120.62
247.5	133.62
247.733	160.62
247.966	145.62
248.2	141.62
248.433	158.62
248.666	156.62
248.899	156.62
249.133	148.62
249.366	157.62
249.599	154.62
249.832	159.62
250.066	158.62
250.299	143.62
250.532	158.62
250.765	142.62
250.998	138.62
251.231	136.62
251.465	164.62
251.698	160.62
251.931	162.62
252.164	165.62
252.397	144.62
252.63	155.62
252.863	177.62
253.096	183.62
253.329	169.62
253.562	166.62
253.795	170.62
254.028	165.62
254.261	166.62
254.494	175.62
254.727	186.62
254.96	164.62
255.193	168.62
255.426	158.62
255.659	182.62
255.892	160.62
256.124	168.62
256.357	171.62
256.59	172.62
256.823	169.62
257.056	172.62
257.289	170.62
257.521	182.62
257.754	175.62
257.987	183.62
258.22	188.62
258.452	180.62
258.685	187.62
258.918	186.62
259.151	177.62
259.383	189.62
259.616	183.62
259.849	200.62
260.081	209.62
260.314	210.62
260.547	193.62
260.779	176.62
261.012	190.62
261.244	205.62
261.477	215.62
261.71	188.62
261.942	182.62
262.175	188.62
262.407	204.62
262.64	203.62
262.872	216.62
263.105	183.62
263.337	198.62
263.57	204.62
263.802	200.62
264.035	196.62
264.267	204.62
264.499	210.62
264.732	192.62
264.964	200.62
265.197	203.62
265.429	202.62
265.661	184.62
265.894	196.62
266.126	213.62
266.358	200.62
266.591	204.62
266.823	206.62
267.055	209.62
267.287	197.62
267.52	201.62
267.752	200.62
267.984	209.62
268.216	190.62
268.448	210.62
268.681	222.62
268.913	220.62
269.145	216.62
269.377	234.62
269.609	217.62
269.841	206.62
270.073	216.62
270.306	215.62
270.538	199.62
270.77	205.62
271.002	203.62
271.234	217.62
271.466	221.62
271.698	242.62
271.93	240.62
272.162	223.62
272.394	234.62
272.626	219.62
272.858	227.62
273.09	227.62
273.322	222.62
273.553	231.62
273.785	231.62
274.017	224.62
274.249	245.62
274.481	241.62
274.713	245.62
274.945	271.62
275.176	258.62
275.408	254.62
275.64	241.62
275.872	241.62
276.104	260.62
276.335	245.62
276.567	241.62
276.799	238.62
277.031	267.62
277.262	247.62
277.494	232.62
277.726	225.62
277.957	242.62
278.189	251.62
278.421	226.62
278.652	235.62
278.884	239.62
279.115	244.62
279.347	240.62
279.579	245.62
279.81	269.62
280.042	250.62
280.273	272.62
280.505	269.62
280.736	244.62
280.968	278.62
281.199	252.62
281.431	256.62
281.662	241.62
281.894	253.62
282.125	262.62
282.356	251.62
282.588	258.62
282.819	260.62
283.051	273.62
283.282	253.62
283.513	247.62
283.745	259.62
283.976	279.62
284.207	287.62
284.439	265.62
284.67	268.62
284.901	279.62
285.132	272.62
285.364	272.62
285.595	270.62
285.826	261.62
286.057	289.62
286.288	262.62
286.52	262.62
286.751	252.62
286.982	288.62
287.213	272.62
287.444	288.62
287.675	302.62
287.906	280.62
288.138	266.62
288.369	284.62
288.6	275.62
288.831	293.62
289.062	291.62
289.293	269.62
289.524	278.62
289.755	295.62
289.986	295.62
290.217	299.62
290.448	293.62
290.679	289.62
290.91	287.62
291.141	293.62
291.371	292.62
291.602	292.62
291.833	319.62
292.064	293.62
292.295	269.62
292.526	293.62
292.757	292.62
292.987	269.62
293.218	302.62
293.449	280.62
293.68	288.62
293.91	302.62
294.141	293.62
294.372	274.62
294.603	308.62
294.833	284.62
295.064	298.62
295.295	293.62
295.525	300.62
295.756	302.62
295.987	286.62
296.217	303.62
296.448	278.62
296.679	325.62
296.909	297.62
297.14	306.62
297.37	310.62
297.601	298.62
297.831	298.62
298.062	328.62
298.292	303.62
298.523	322.62
298.753	327.62
298.984	310.62
299.214	307.62
299.445	320.62
299.675	311.62
299.905	325.62
300.136	304.62
300.366	312.62
300.597	300.62
300.827	324.62
301.057	316.62
301.288	319.62
301.518	334.62
301.748	334.62
301.979	335.62
302.209	336.62
302.439	349.62
302.669	335.62
302.9	343.62
303.13	325.62
303.36	349.62
303.59	329.62
303.82	337.62
304.051	347.62
304.281	323.62
304.511	312.62
304.741	337.62
304.971	334.62
305.201	335.62
305.431	318.62
305.661	330.62
305.891	324.62
306.121	349.62
306.352	326.62
306.582	336.62
306.812	336.62
307.042	336.62
307.272	330.62
307.502	343.62
307.731	331.62
307.961	328.62
308.191	336.62
308.421	345.62
308.651	336.62
308.881	329.62
309.111	342.62
309.341	347.62
309.571	330.62
309.8	354.62
310.03	357.62
310.26	341.62
310.49	329.62
310.72	345.62
310.949	332.62
311.179	334.62
311.409	352.62
311.639	337.62
311.868	341.62
312.098	357.62
312.328	331.62
312.557	342.62
312.787	353.62
313.017	362.62
313.246	348.62
313.476	344.62
313.706	358.62
313.935	351.62
314.165	363.62
314.394	363.62
314.624	338.62
314.853	366.62
315.083	364.62
315.312	357.62
315.542	376.62
315.771	370.62
316.001	381.62
316.23	358.62
316.46	366.62
316.689	358.62
316.919	360.62
317.148	374.62
317.377	386.62
317.607	359.62
317.836	369.62
318.065	365.62
318.295	366.62
318.524	374.62
318.753	360.62
318.983	374.62
319.212	366.62
319.441	363.62
319.67	372.62
319.9	390.62
320.129	375.62
320.358	361.62
320.587	368.62
320.816	376.62
321.046	364.62
321.275	382.62
321.504	396.62
321.733	371.62
321.962	384.62
322.191	377.62
322.42	377.62
322.649	389.62
322.878	378.62
323.108	379.62
323.337	380.62
323.566	383.62
323.795	373.62
324.024	380.62
324.253	400.62
324.482	374.62
324.71	392.62
324.939	369.62
325.168	406.62
325.397	394.62
325.626	402.62
325.855	403.62
326.084	402.62
326.313	391.62
326.542	405.62
326.77	382.62
326.999	407.62
327.228	401.62
327.457	397.62
327.686	391.62
327.914	414.62
328.143	408.62
328.372	414.62
328.6	393.62
328.829	406.62
329.058	400.62
329.287	396.62
329.515	413.62
329.744	404.62
329.972	377.62
330.201	401.62
330.43	396.62
330.658	411.62
330.887	421.62
331.115	390.62
331.344	398.62
331.572	425.62
331.801	411.62
332.03	439.62
332.258	422.62
332.486	446.62
332.715	430.62
332.943	433.62
333.172	442.62
333.4	456.62
333.629	466.62
333.857	476.62
334.085	465.62
334.314	476.62
334.542	457.62
334.771	456.62
334.999	462.62
335.227	476.62
335.455	460.62
335.684	491.62
335.912	479.62
336.14	459.62
336.369	455.62
336.597	464.62
336.825	472.62
337.053	479.62
337.281	470.62
337.51	442.62
337.738	460.62
337.966	448.62
338.194	445.62
338.422	438.62
338.65	449.62
338.878	442.62
339.106	439.62
339.334	446.62
339.562	412.62
339.79	436.62
340.018	438.62
340.246	445.62
340.474	441.62
340.702	426.62
340.93	452.62
341.158	452.62
341.386	421.62
341.614	421.62
341.842	438.62
342.07	440.62
342.298	414.62
342.526	415.62
342.754	434.62
342.981	452.62
343.209	457.62
343.437	432.62
343.665	456.62
343.893	456.62
344.12	487.62
344.348	455.62
344.576	439.62
344.804	446.62
345.031	435.62
345.259	446.62
345.487	449.62
345.714	429.62
345.942	438.62
346.17	420.62
346.397	431.62
346.625	438.62
346.853	418.62
347.08	428.62
347.308	431.62
347.535	410.62
347.763	441.62
347.99	423.62
348.218	418.62
348.445	400.62
348.673	426.62
348.9	395.62
349.128	422.62
349.355	417.62
349.583	419.62
349.81	418.62
350.037	431.62
350.265	420.62
350.492	420.62
350.72	419.62
350.947	411.62
351.174	414.62
351.402	408.62
351.629	388.62
351.856	407.62
352.083	404.62
352.311	417.62
352.538	413.62
352.765	402.62
352.992	420.62
353.22	409.62
353.447	416.62
353.674	415.62
353.901	407.62
354.128	413.62
354.355	394.62
354.583	391.62
354.81	414.62
355.037	411.62
355.264	409.62
355.491	439.62
355.718	417.62
355.945	427.62
356.172	424.62
356.399	427.62
356.626	414.62
356.853	424.62
357.08	410.62
357.307	428.62
357.534	413.62
357.761	431.62
357.988	441.62
358.215	440.62
358.441	436.62
358.668	415.62
358.895	431.62
359.122	440.62
359.349	442.62
359.576	434.62
359.802	421.62
360.029	408.62
360.256	411.62
360.483	438.62
360.709	429.62
360.936	418.62
361.163	424.62
361.39	426.62
361.616	445.62
361.843	432.62
362.07	417.62
362.296	429.62
362.523	428.62
362.749	429.62
362.976	434.62
363.203	445.62
363.429	396.62
363.656	418.62
363.882	434.62
364.109	429.62
364.335	409.62
364.562	426.62
364.788	433.62
365.015	424.62
365.241	424.62
365.468	441.62
365.694	396.62
365.92	416.62
366.147	431.62
366.373	412.62
366.599	425.62
366.826	428.62
367.052	423.62
367.278	458.62
367.505	430.62
367.731	415.62
367.957	432.62
368.184	464.62
368.41	429.62
368.636	456.62
368.862	446.62
369.089	430.62
369.315	440.62
369.541	449.62
369.767	454.62
369.993	428.62
370.219	449.62
370.445	446.62
370.672	464.62
370.898	465.62
371.124	440.62
371.35	464.62
371.576	460.62
371.802	443.62
372.028	460.62
372.254	472.62
372.48	449.62
372.706	456.62
372.932	474.62
373.158	452.62
373.384	463.62
373.61	475.62
373.835	476.62
374.061	475.62
374.287	489.62
374.513	477.62
374.739	488.62
374.965	503.62
375.191	492.62
375.416	502.62
375.642	485.62
375.868	478.62
376.094	491.62
376.319	474.62
376.545	454.62
376.771	495.62
376.997	457.62
377.222	460.62
377.448	430.62
377.674	458.62
377.899	460.62
378.125	446.62
378.35	458.62
378.576	462.62
378.802	464.62
379.027	481.62
379.253	502.62
379.478	482.62
379.704	456.62
379.929	456.62
380.155	475.62
380.38	484.62
380.606	472.62
380.831	463.62
381.057	467.62
381.282	449.62
381.507	465.62
381.733	473.62
381.958	460.62
382.184	492.62
382.409	490.62
382.634	486.62
382.86	486.62
383.085	480.62
383.31	490.62
383.535	488.62
383.761	493.62
383.986	496.62
384.211	493.62
384.436	501.62
384.662	514.62
384.887	518.62
385.112	511.62
385.337	520.62
385.562	527.62
385.787	510.62
386.013	535.62
386.238	528.62
386.463	517.62
386.688	534.62
386.913	521.62
387.138	509.62
387.363	538.62
387.588	545.62
387.813	525.62
388.038	527.62
388.263	506.62
388.488	537.62
388.713	544.62
388.938	534.62
389.163	518.62
389.387	531.62
389.612	528.62
389.837	541.62
390.062	533.62
390.287	542.62
390.512	527.62
390.736	554.62
390.961	543.62
391.186	546.62
391.411	540.62
391.636	558.62
391.86	565.62
392.085	533.62
392.31	572.62
392.534	579.62
392.759	570.62
392.984	578.62
393.208	581.62
393.433	598.62
393.658	597.62
393.882	560.62
394.107	570.62
394.331	565.62
394.556	559.62
394.78	555.62
395.005	555.62
395.229	548.62
395.454	568.62
395.678	581.62
395.903	573.62
396.127	564.62
396.352	593.62
396.576	584.62
396.801	593.62
397.025	584.62
397.249	589.62
397.474	580.62
397.698	586.62
397.922	574.62
398.147	592.62
398.371	602.62
398.595	621.62
398.82	624.62
399.044	654.62
399.268	659.62
399.492	709.62
399.717	719.62
399.941	734.62
400.165	679.62
400.389	678.62
400.613	679.62
400.837	638.62
401.062	626.62
401.286	620.62
401.51	635.62
401.734	650.62
401.958	641.62
402.182	640.62
402.406	611.62
402.63	608.62
402.854	631.62
403.078	644.62
403.302	632.62
403.526	639.62
403.75	641.62
403.974	687.62
404.198	658.62
404.422	666.62
404.645	656.62
404.869	646.62
405.093	628.62
405.317	619.62
405.541	656.62
405.765	656.62
405.988	646.62
406.212	653.62
406.436	669.62
406.66	657.62
406.883	672.62
407.107	679.62
407.331	718.62
407.555	712.62
407.778	721.62
408.002	720.62
408.226	702.62
408.449	695.62
408.673	688.62
408.896	689.62
409.12	668.62
409.344	690.62
409.567	664.62
409.791	662.62
410.014	667.62
410.238	680.62
410.461	694.62
410.685	664.62
410.908	658.62
411.132	666.62
411.355	657.62
411.578	650.62
411.802	656.62
412.025	643.62
412.249	646.62
412.472	664.62
412.695	628.62
412.919	616.62
413.142	623.62
413.365	653.62
413.589	644.62
413.812	628.62
414.035	641.62
414.258	669.62
414.482	641.62
414.705	639.62
414.928	620.62
415.151	640.62
415.374	654.62
415.597	628.62
415.821	610.62
416.044	605.62
416.267	606.62
416.49	598.62
416.713	604.62
416.936	597.62
417.159	631.62
417.382	609.62
417.605	616.62
417.828	613.62
418.051	619.62
418.274	621.62
418.497	599.62
418.72	613.62
418.943	606.62
419.166	640.62
419.389	671.62
419.611	654.62
419.834	642.62
420.057	617.62
420.28	609.62
420.503	561.62
420.726	583.62
420.948	597.62
421.171	628.62
421.394	606.62
421.617	576.62
421.839	585.62
422.062	602.62
422.285	604.62
422.507	630.62
422.73	621.62
422.953	604.62
423.175	615.62
423.398	610.62
423.621	604.62
423.843	590.62
424.066	617.62
424.288	612.62
424.511	605.62
424.733	598.62
424.956	599.62
425.178	606.62
425.401	601.62
425.623	613.62
425.846	616.62
426.068	631.62
426.291	612.62
426.513	584.62
426.735	586.62
426.958	606.62
427.18	614.62
427.402	580.62
427.625	578.62
427.847	589.62
428.069	588.62
428.292	573.62
428.514	593.62
428.736	577.62
428.958	576.62
429.181	573.62
429.403	575.62
429.625	568.62
429.847	590.62
430.069	573.62
430.292	580.62
430.514	578.62
430.736	581.62
430.958	587.62
431.18	584.62
431.402	580.62
431.624	577.62
431.846	591.62
432.068	577.62
432.29	588.62
432.512	574.62
432.734	572.62
432.956	593.62
433.178	603.62
433.4	552.62
433.622	595.62
433.844	598.62
434.066	596.62
434.287	575.62
434.509	607.62
434.731	605.62
434.953	605.62
435.175	597.62
435.397	622.62
435.618	582.62
435.84	590.62
436.062	584.62
436.284	587.62
436.505	581.62
436.727	587.62
436.949	580.62
437.17	592.62
437.392	561.62
437.614	587.62
437.835	560.62
438.057	566.62
438.278	564.62
438.5	557.62
438.721	566.62
438.943	570.62
439.165	574.62
439.386	551.62
439.608	590.62
439.829	585.62
440.05	572.62
440.272	578.62
440.493	594.62
440.715	576.62
440.936	583.62
441.158	570.62
441.379	580.62
441.6	600.62
441.822	606.62
442.043	613.62
442.264	589.62
442.486	588.62
442.707	605.62
442.928	571.62
443.149	599.62
443.371	585.62
443.592	572.62
443.813	595.62
444.034	616.62
444.255	615.62
444.476	607.62
444.698	661.62
444.919	626.62
445.14	706.62
445.361	657.62
445.582	615.62
445.803	604.62
446.024	586.62
446.245	569.62
446.466	586.62
446.687	577.62
446.908	561.62
447.129	577.62
447.35	580.62
447.571	554.62
447.792	559.62
448.013	588.62
448.234	536.62
448.455	548.62
448.675	547.62
448.896	560.62
449.117	539.62
449.338	547.62
449.559	543.62
449.779	536.62
450	519.62
450.221	513.62
450.442	538.62
450.662	540.62
450.883	518.62
451.104	552.62
451.324	556.62
451.545	540.62
451.766	544.62
451.986	542.62
452.207	523.62
452.428	542.62
452.648	526.62
452.869	505.62
453.089	528.62
453.31	538.62
453.53	528.62
453.751	527.62
453.971	520.62
454.192	529.62
454.412	501.62
454.633	524.62
454.853	509.62
455.073	508.62
455.294	517.62
455.514	515.62
455.734	522.62
455.955	476.62
456.175	524.62
456.395	516.62
456.616	536.62
456.836	509.62
457.056	517.62
457.276	508.62
457.497	531.62
457.717	515.62
457.937	515.62
458.157	535.62
458.377	538.62
458.598	535.62
458.818	566.62
459.038	566.62
459.258	558.62
459.478	564.62
459.698	584.62
459.918	590.62
460.138	585.62
460.358	631.62
460.578	610.62
460.798	623.62
461.018	628.62
461.238	618.62
461.458	631.62
461.678	641.62
461.898	648.62
462.118	630.62
462.338	644.62
462.558	659.62
462.777	664.62
462.997	689.62
463.217	713.62
463.437	708.62
463.657	683.62
463.876	681.62
464.096	689.62
464.316	695.62
464.536	676.62
464.755	672.62
464.975	643.62
465.195	622.62
465.414	632.62
465.634	608.62
465.854	598.62
466.073	590.62
466.293	594.62
466.512	593.62
466.732	582.62
466.951	554.62
467.171	576.62
467.391	581.62
467.61	576.62
467.829	575.62
468.049	577.62
468.268	532.62
468.488	564.62
468.707	558.62
468.927	552.62
469.146	555.62
469.365	542.62
469.585	554.62
469.804	581.62
470.023	578.62
470.243	575.62
470.462	588.62
470.681	577.62
470.901	577.62
471.12	561.62
471.339	571.62
471.558	560.62
471.777	571.62
471.997	577.62
472.216	554.62
472.435	576.62
472.654	570.62
472.873	584.62
473.092	579.62
473.311	562.62
473.53	599.62
473.749	568.62
473.968	570.62
474.187	566.62
474.406	571.62
474.625	590.62
474.844	553.62
475.063	571.62
475.282	594.62
475.501	573.62
475.72	591.62
475.939	581.62
476.158	592.62
476.377	607.62
476.596	592.62
476.814	602.62
477.033	609.62
477.252	628.62
477.471	640.62
477.69	642.62
477.908	656.62
478.127	641.62
478.346	641.62
478.564	652.62
478.783	627.62
479.002	674.62
479.22	676.62
479.439	683.62
479.658	676.62
479.876	657.62
480.095	664.62
480.313	640.62
480.532	682.62
480.751	696.62
480.969	661.62
481.188	682.62
481.406	680.62
481.624	686.62
481.843	653.62
482.061	638.62
482.28	653.62
482.498	687.62
482.717	672.62
482.935	652.62
483.153	668.62
483.372	638.62
483.59	663.62
483.808	664.62
484.027	670.62
484.245	695.62
484.463	676.62
484.681	679.62
484.9	663.62
485.118	684.62
485.336	664.62
485.554	670.62
485.772	680.62
485.99	680.62
486.209	646.62
486.427	688.62
486.645	692.62
486.863	671.62
487.081	670.62
487.299	685.62
487.517	711.62
487.735	700.62
487.953	688.62
488.171	672.62
488.389	677.62
488.607	672.62
488.825	678.62
489.043	683.62
489.261	700.62
489.479	670.62
489.696	670.62
489.914	692.62
490.132	681.62
490.35	703.62
490.568	709.62
490.786	688.62
491.003	694.62
491.221	678.62
491.439	706.62
491.657	704.62
491.874	688.62
492.092	707.62
492.31	726.62
492.527	718.62
492.745	677.62
492.963	718.62
493.18	724.62
493.398	692.62
493.615	695.62
493.833	717.62
494.05	719.62
494.268	720.62
494.485	732.62
494.703	722.62
494.92	710.62
495.138	729.62
495.355	744.62
495.573	743.62
495.79	762.62
496.008	735.62
496.225	712.62
496.442	767.62
496.66	742.62
496.877	778.62
497.094	759.62
497.312	798.62
497.529	800.62
497.746	818.62
497.963	821.62
498.181	825.62
498.398	873.62
498.615	876.62
498.832	904.62
499.049	945.62
499.267	972.62
499.484	999.62
499.701	1048.62
499.918	1105.62
500.135	1200.62
500.352	1276.62
500.569	1265.62
500.786	1261.62
501.003	1232.62
501.22	1194.62
501.437	1140.62
