Data from Fe(NO3)3@0.025M.TitratingCurve.Agarose3%dH2O.NegLispCup.LampEnergy10.LIBS07252019_HRD10591_16-54-20-335.txt Node
Date: Thu Jul 25 16:54:20 EDT 2019
User: cochatt
Spectrometer: HR+D1059
Trigger mode: 1
Integration Time (sec): 1.000000E-1
Scans to average: 1
Electric dark correction enabled: true
Nonlinearity correction enabled: false
Boxcar width: 0
XAxis mode: Wavelengths
Number of Pixels in Spectrum: 2048
>>>>>Begin Spectral Data<<<<<
223.165	-2.94
223.4	-2.94
223.635	-2.94
223.869	-13.94
224.104	-24.94
224.338	-5.94
224.573	-15.94
224.808	-21.94
225.042	-6.94
225.277	-1.94
225.511	0.06
225.746	9.06
225.98	2.06
226.215	12.06
226.449	12.06
226.683	8.06
226.918	21.06
227.152	30.06
227.387	35.06
227.621	36.06
227.856	43.06
228.09	47.06
228.324	42.06
228.559	61.06
228.793	67.06
229.027	94.06
229.262	85.06
229.496	75.06
229.73	98.06
229.964	96.06
230.199	88.06
230.433	111.06
230.667	129.06
230.901	124.06
231.136	128.06
231.37	124.06
231.604	109.06
231.838	115.06
232.072	112.06
232.306	117.06
232.541	127.06
232.775	121.06
233.009	118.06
233.243	120.06
233.477	113.06
233.711	122.06
233.945	119.06
234.179	123.06
234.413	129.06
234.647	126.06
234.881	130.06
235.115	122.06
235.349	126.06
235.583	123.06
235.817	121.06
236.051	116.06
236.285	119.06
236.519	128.06
236.753	103.06
236.987	113.06
237.221	130.06
237.455	139.06
237.689	138.06
237.922	139.06
238.156	135.06
238.39	142.06
238.624	158.06
238.858	148.06
239.091	132.06
239.325	148.06
239.559	128.06
239.793	138.06
240.027	148.06
240.26	162.06
240.494	146.06
240.728	138.06
240.961	159.06
241.195	166.06
241.429	145.06
241.662	134.06
241.896	150.06
242.13	150.06
242.363	150.06
242.597	141.06
242.83	131.06
243.064	130.06
243.298	149.06
243.531	160.06
243.765	143.06
243.998	153.06
244.232	150.06
244.465	164.06
244.699	162.06
244.932	169.06
245.166	164.06
245.399	160.06
245.633	151.06
245.866	160.06
246.099	167.06
246.333	174.06
246.566	170.06
246.8	160.06
247.033	174.06
247.266	155.06
247.5	170.06
247.733	179.06
247.966	157.06
248.2	165.06
248.433	186.06
248.666	192.06
248.899	174.06
249.133	184.06
249.366	174.06
249.599	199.06
249.832	199.06
250.066	189.06
250.299	182.06
250.532	163.06
250.765	162.06
250.998	166.06
251.231	183.06
251.465	184.06
251.698	197.06
251.931	209.06
252.164	194.06
252.397	187.06
252.63	209.06
252.863	192.06
253.096	204.06
253.329	212.06
253.562	208.06
253.795	213.06
254.028	212.06
254.261	203.06
254.494	209.06
254.727	198.06
254.96	203.06
255.193	199.06
255.426	195.06
255.659	192.06
255.892	223.06
256.124	198.06
256.357	198.06
256.59	226.06
256.823	206.06
257.056	221.06
257.289	228.06
257.521	228.06
257.754	199.06
257.987	217.06
258.22	204.06
258.452	219.06
258.685	207.06
258.918	227.06
259.151	220.06
259.383	220.06
259.616	207.06
259.849	251.06
260.081	262.06
260.314	270.06
260.547	223.06
260.779	216.06
261.012	232.06
261.244	233.06
261.477	233.06
261.71	239.06
261.942	222.06
262.175	228.06
262.407	236.06
262.64	246.06
262.872	233.06
263.105	266.06
263.337	262.06
263.57	258.06
263.802	225.06
264.035	220.06
264.267	228.06
264.499	226.06
264.732	243.06
264.964	223.06
265.197	232.06
265.429	249.06
265.661	225.06
265.894	242.06
266.126	234.06
266.358	250.06
266.591	259.06
266.823	234.06
267.055	239.06
267.287	234.06
267.52	226.06
267.752	236.06
267.984	251.06
268.216	250.06
268.448	257.06
268.681	250.06
268.913	246.06
269.145	259.06
269.377	263.06
269.609	253.06
269.841	251.06
270.073	248.06
270.306	261.06
270.538	246.06
270.77	246.06
271.002	278.06
271.234	265.06
271.466	259.06
271.698	267.06
271.93	260.06
272.162	282.06
272.394	257.06
272.626	267.06
272.858	281.06
273.09	270.06
273.322	264.06
273.553	264.06
273.785	290.06
274.017	285.06
274.249	311.06
274.481	335.06
274.713	306.06
274.945	331.06
275.176	343.06
275.408	324.06
275.64	313.06
275.872	307.06
276.104	289.06
276.335	273.06
276.567	305.06
276.799	289.06
277.031	288.06
277.262	281.06
277.494	282.06
277.726	290.06
277.957	291.06
278.189	302.06
278.421	300.06
278.652	315.06
278.884	288.06
279.115	299.06
279.347	273.06
279.579	300.06
279.81	302.06
280.042	292.06
280.273	298.06
280.505	292.06
280.736	299.06
280.968	298.06
281.199	282.06
281.431	304.06
281.662	311.06
281.894	302.06
282.125	300.06
282.356	287.06
282.588	310.06
282.819	306.06
283.051	284.06
283.282	304.06
283.513	303.06
283.745	321.06
283.976	311.06
284.207	317.06
284.439	306.06
284.67	316.06
284.901	326.06
285.132	330.06
285.364	339.06
285.595	314.06
285.826	320.06
286.057	330.06
286.288	318.06
286.52	326.06
286.751	303.06
286.982	334.06
287.213	331.06
287.444	310.06
287.675	327.06
287.906	320.06
288.138	334.06
288.369	339.06
288.6	336.06
288.831	322.06
289.062	321.06
289.293	321.06
289.524	332.06
289.755	338.06
289.986	326.06
290.217	322.06
290.448	326.06
290.679	330.06
290.91	334.06
291.141	327.06
291.371	348.06
291.602	333.06
291.833	339.06
292.064	330.06
292.295	334.06
292.526	342.06
292.757	334.06
292.987	339.06
293.218	325.06
293.449	329.06
293.68	346.06
293.91	335.06
294.141	335.06
294.372	344.06
294.603	339.06
294.833	347.06
295.064	343.06
295.295	350.06
295.525	336.06
295.756	329.06
295.987	343.06
296.217	350.06
296.448	342.06
296.679	359.06
296.909	340.06
297.14	342.06
297.37	360.06
297.601	336.06
297.831	348.06
298.062	359.06
298.292	333.06
298.523	379.06
298.753	363.06
298.984	389.06
299.214	358.06
299.445	357.06
299.675	336.06
299.905	350.06
300.136	370.06
300.366	359.06
300.597	350.06
300.827	363.06
301.057	374.06
301.288	368.06
301.518	365.06
301.748	379.06
301.979	386.06
302.209	384.06
302.439	391.06
302.669	370.06
302.9	384.06
303.13	375.06
303.36	391.06
303.59	373.06
303.82	390.06
304.051	368.06
304.281	392.06
304.511	378.06
304.741	374.06
304.971	367.06
305.201	381.06
305.431	392.06
305.661	390.06
305.891	396.06
306.121	378.06
306.352	372.06
306.582	405.06
306.812	372.06
307.042	371.06
307.272	378.06
307.502	391.06
307.731	379.06
307.961	383.06
308.191	390.06
308.421	376.06
308.651	382.06
308.881	378.06
309.111	389.06
309.341	372.06
309.571	404.06
309.8	396.06
310.03	392.06
310.26	400.06
310.49	384.06
310.72	393.06
310.949	412.06
311.179	384.06
311.409	385.06
311.639	390.06
311.868	414.06
312.098	403.06
312.328	407.06
312.557	408.06
312.787	403.06
313.017	408.06
313.246	395.06
313.476	405.06
313.706	414.06
313.935	416.06
314.165	412.06
314.394	391.06
314.624	395.06
314.853	424.06
315.083	410.06
315.312	418.06
315.542	410.06
315.771	414.06
316.001	433.06
316.23	409.06
316.46	410.06
316.689	410.06
316.919	422.06
317.148	407.06
317.377	417.06
317.607	423.06
317.836	407.06
318.065	420.06
318.295	424.06
318.524	419.06
318.753	396.06
318.983	422.06
319.212	426.06
319.441	411.06
319.67	427.06
319.9	424.06
320.129	418.06
320.358	398.06
320.587	416.06
320.816	402.06
321.046	419.06
321.275	406.06
321.504	416.06
321.733	427.06
321.962	426.06
322.191	440.06
322.42	430.06
322.649	430.06
322.878	419.06
323.108	439.06
323.337	436.06
323.566	427.06
323.795	424.06
324.024	446.06
324.253	438.06
324.482	440.06
324.71	455.06
324.939	428.06
325.168	451.06
325.397	461.06
325.626	433.06
325.855	443.06
326.084	442.06
326.313	471.06
326.542	459.06
326.77	456.06
326.999	440.06
327.228	466.06
327.457	439.06
327.686	461.06
327.914	435.06
328.143	465.06
328.372	434.06
328.6	454.06
328.829	465.06
329.058	444.06
329.287	473.06
329.515	457.06
329.744	464.06
329.972	452.06
330.201	477.06
330.43	458.06
330.658	468.06
330.887	470.06
331.115	487.06
331.344	480.06
331.572	482.06
331.801	471.06
332.03	496.06
332.258	507.06
332.486	476.06
332.715	474.06
332.943	503.06
333.172	509.06
333.4	516.06
333.629	498.06
333.857	520.06
334.085	538.06
334.314	538.06
334.542	525.06
334.771	538.06
334.999	533.06
335.227	527.06
335.455	540.06
335.684	528.06
335.912	548.06
336.14	530.06
336.369	546.06
336.597	510.06
336.825	506.06
337.053	538.06
337.281	539.06
337.51	512.06
337.738	522.06
337.966	512.06
338.194	499.06
338.422	483.06
338.65	494.06
338.878	501.06
339.106	484.06
339.334	481.06
339.562	543.06
339.79	498.06
340.018	473.06
340.246	494.06
340.474	476.06
340.702	494.06
340.93	476.06
341.158	482.06
341.386	498.06
341.614	483.06
341.842	474.06
342.07	478.06
342.298	465.06
342.526	489.06
342.754	484.06
342.981	478.06
343.209	508.06
343.437	505.06
343.665	516.06
343.893	529.06
344.12	528.06
344.348	541.06
344.576	519.06
344.804	523.06
345.031	498.06
345.259	524.06
345.487	483.06
345.714	500.06
345.942	470.06
346.17	464.06
346.397	491.06
346.625	491.06
346.853	468.06
347.08	471.06
347.308	466.06
347.535	463.06
347.763	488.06
347.99	440.06
348.218	483.06
348.445	473.06
348.673	460.06
348.9	473.06
349.128	471.06
349.355	487.06
349.583	478.06
349.81	460.06
350.037	461.06
350.265	460.06
350.492	473.06
350.72	466.06
350.947	488.06
351.174	453.06
351.402	450.06
351.629	473.06
351.856	459.06
352.083	485.06
352.311	441.06
352.538	445.06
352.765	454.06
352.992	466.06
353.22	426.06
353.447	448.06
353.674	456.06
353.901	467.06
354.128	464.06
354.355	446.06
354.583	454.06
354.81	461.06
355.037	454.06
355.264	450.06
355.491	466.06
355.718	475.06
355.945	473.06
356.172	457.06
356.399	460.06
356.626	457.06
356.853	477.06
357.08	462.06
357.307	486.06
357.534	476.06
357.761	481.06
357.988	478.06
358.215	466.06
358.441	465.06
358.668	454.06
358.895	466.06
359.122	472.06
359.349	458.06
359.576	459.06
359.802	463.06
360.029	461.06
360.256	456.06
360.483	466.06
360.709	479.06
360.936	500.06
361.163	478.06
361.39	454.06
361.616	458.06
361.843	460.06
362.07	481.06
362.296	470.06
362.523	473.06
362.749	468.06
362.976	492.06
363.203	466.06
363.429	476.06
363.656	488.06
363.882	485.06
364.109	463.06
364.335	479.06
364.562	479.06
364.788	478.06
365.015	484.06
365.241	478.06
365.468	483.06
365.694	475.06
365.92	467.06
366.147	475.06
366.373	500.06
366.599	480.06
366.826	463.06
367.052	474.06
367.278	450.06
367.505	478.06
367.731	474.06
367.957	487.06
368.184	480.06
368.41	490.06
368.636	481.06
368.862	490.06
369.089	492.06
369.315	503.06
369.541	480.06
369.767	500.06
369.993	485.06
370.219	498.06
370.445	488.06
370.672	507.06
370.898	493.06
371.124	515.06
371.35	508.06
371.576	508.06
371.802	512.06
372.028	504.06
372.254	518.06
372.48	507.06
372.706	512.06
372.932	518.06
373.158	520.06
373.384	543.06
373.61	532.06
373.835	529.06
374.061	504.06
374.287	513.06
374.513	515.06
374.739	522.06
374.965	528.06
375.191	547.06
375.416	553.06
375.642	527.06
375.868	530.06
376.094	524.06
376.319	522.06
376.545	519.06
376.771	526.06
376.997	501.06
377.222	501.06
377.448	487.06
377.674	516.06
377.899	494.06
378.125	485.06
378.35	502.06
378.576	499.06
378.802	479.06
379.027	512.06
379.253	522.06
379.478	498.06
379.704	503.06
379.929	527.06
380.155	488.06
380.38	498.06
380.606	521.06
380.831	496.06
381.057	508.06
381.282	491.06
381.507	490.06
381.733	515.06
381.958	530.06
382.184	530.06
382.409	536.06
382.634	534.06
382.86	532.06
383.085	523.06
383.31	503.06
383.535	529.06
383.761	517.06
383.986	536.06
384.211	548.06
384.436	547.06
384.662	560.06
384.887	574.06
385.112	552.06
385.337	558.06
385.562	561.06
385.787	563.06
386.013	585.06
386.238	591.06
386.463	584.06
386.688	593.06
386.913	562.06
387.138	550.06
387.363	590.06
387.588	575.06
387.813	578.06
388.038	590.06
388.263	600.06
388.488	573.06
388.713	579.06
388.938	575.06
389.163	586.06
389.387	571.06
389.612	593.06
389.837	575.06
390.062	584.06
390.287	574.06
390.512	572.06
390.736	559.06
390.961	606.06
391.186	594.06
391.411	608.06
391.636	614.06
391.86	626.06
392.085	619.06
392.31	624.06
392.534	610.06
392.759	640.06
392.984	632.06
393.208	596.06
393.433	622.06
393.658	578.06
393.882	610.06
394.107	592.06
394.331	624.06
394.556	625.06
394.78	624.06
395.005	635.06
395.229	630.06
395.454	630.06
395.678	622.06
395.903	602.06
396.127	638.06
396.352	622.06
396.576	646.06
396.801	604.06
397.025	632.06
397.249	675.06
397.474	642.06
397.698	613.06
397.922	660.06
398.147	666.06
398.371	666.06
398.595	667.06
398.82	730.06
399.044	730.06
399.268	759.06
399.492	793.06
399.717	796.06
399.941	835.06
400.165	809.06
400.389	766.06
400.613	787.06
400.837	742.06
401.062	731.06
401.286	694.06
401.51	698.06
401.734	698.06
401.958	725.06
402.182	696.06
402.406	678.06
402.63	702.06
402.854	723.06
403.078	696.06
403.302	687.06
403.526	705.06
403.75	724.06
403.974	734.06
404.198	746.06
404.422	730.06
404.645	715.06
404.869	725.06
405.093	719.06
405.317	726.06
405.541	723.06
405.765	719.06
405.988	714.06
406.212	755.06
406.436	741.06
406.66	740.06
406.883	750.06
407.107	772.06
407.331	800.06
407.555	805.06
407.778	826.06
408.002	781.06
408.226	792.06
408.449	788.06
408.673	760.06
408.896	774.06
409.12	746.06
409.344	770.06
409.567	740.06
409.791	745.06
410.014	733.06
410.238	715.06
410.461	730.06
410.685	739.06
410.908	734.06
411.132	731.06
411.355	727.06
411.578	745.06
411.802	733.06
412.025	716.06
412.249	710.06
412.472	723.06
412.695	732.06
412.919	706.06
413.142	722.06
413.365	713.06
413.589	704.06
413.812	690.06
414.035	691.06
414.258	715.06
414.482	671.06
414.705	683.06
414.928	727.06
415.151	696.06
415.374	718.06
415.597	679.06
415.821	696.06
416.044	678.06
416.267	670.06
416.49	644.06
416.713	669.06
416.936	683.06
417.159	666.06
417.382	683.06
417.605	664.06
417.828	659.06
418.051	666.06
418.274	676.06
418.497	649.06
418.72	664.06
418.943	675.06
419.166	696.06
419.389	742.06
419.611	717.06
419.834	704.06
420.057	668.06
420.28	665.06
420.503	646.06
420.726	656.06
420.948	656.06
421.171	671.06
421.394	651.06
421.617	677.06
421.839	656.06
422.062	639.06
422.285	634.06
422.507	644.06
422.73	662.06
422.953	678.06
423.175	639.06
423.398	664.06
423.621	671.06
423.843	659.06
424.066	649.06
424.288	637.06
424.511	638.06
424.733	654.06
424.956	640.06
425.178	640.06
425.401	681.06
425.623	645.06
425.846	637.06
426.068	639.06
426.291	650.06
426.513	646.06
426.735	627.06
426.958	629.06
427.18	642.06
427.402	642.06
427.625	668.06
427.847	639.06
428.069	622.06
428.292	613.06
428.514	618.06
428.736	622.06
428.958	625.06
429.181	639.06
429.403	608.06
429.625	630.06
429.847	610.06
430.069	603.06
430.292	618.06
430.514	601.06
430.736	601.06
430.958	629.06
431.18	634.06
431.402	644.06
431.624	619.06
431.846	631.06
432.068	618.06
432.29	597.06
432.512	616.06
432.734	615.06
432.956	634.06
433.178	622.06
433.4	634.06
433.622	646.06
433.844	617.06
434.066	610.06
434.287	632.06
434.509	642.06
434.731	627.06
434.953	646.06
435.175	648.06
435.397	674.06
435.618	655.06
435.84	650.06
436.062	611.06
436.284	612.06
436.505	619.06
436.727	607.06
436.949	602.06
437.17	612.06
437.392	612.06
437.614	595.06
437.835	587.06
438.057	582.06
438.278	590.06
438.5	612.06
438.721	603.06
438.943	622.06
439.165	599.06
439.386	587.06
439.608	593.06
439.829	595.06
440.05	602.06
440.272	594.06
440.493	627.06
440.715	608.06
440.936	610.06
441.158	629.06
441.379	659.06
441.6	631.06
441.822	641.06
442.043	636.06
442.264	650.06
442.486	646.06
442.707	644.06
442.928	650.06
443.149	642.06
443.371	633.06
443.592	644.06
443.813	658.06
444.034	660.06
444.255	665.06
444.476	649.06
444.698	677.06
444.919	690.06
445.14	818.06
445.361	709.06
445.582	674.06
445.803	650.06
446.024	649.06
446.245	607.06
446.466	618.06
446.687	600.06
446.908	637.06
447.129	608.06
447.35	602.06
447.571	603.06
447.792	569.06
448.013	598.06
448.234	584.06
448.455	558.06
448.675	556.06
448.896	560.06
449.117	575.06
449.338	580.06
449.559	564.06
449.779	555.06
450	548.06
450.221	560.06
450.442	563.06
450.662	555.06
450.883	552.06
451.104	553.06
451.324	566.06
451.545	553.06
451.766	558.06
451.986	540.06
452.207	564.06
452.428	564.06
452.648	553.06
452.869	535.06
453.089	545.06
453.31	555.06
453.53	542.06
453.751	552.06
453.971	547.06
454.192	571.06
454.412	544.06
454.633	527.06
454.853	545.06
455.073	548.06
455.294	535.06
455.514	538.06
455.734	554.06
455.955	533.06
456.175	524.06
456.395	540.06
456.616	535.06
456.836	559.06
457.056	537.06
457.276	524.06
457.497	558.06
457.717	538.06
457.937	571.06
458.157	563.06
458.377	556.06
458.598	569.06
458.818	592.06
459.038	584.06
459.258	599.06
459.478	596.06
459.698	637.06
459.918	636.06
460.138	627.06
460.358	650.06
460.578	648.06
460.798	664.06
461.018	645.06
461.238	680.06
461.458	670.06
461.678	680.06
461.898	670.06
462.118	678.06
462.338	709.06
462.558	701.06
462.777	725.06
462.997	735.06
463.217	757.06
463.437	767.06
463.657	733.06
463.876	726.06
464.096	730.06
464.316	731.06
464.536	720.06
464.755	695.06
464.975	676.06
465.195	676.06
465.414	679.06
465.634	645.06
465.854	646.06
466.073	647.06
466.293	598.06
466.512	615.06
466.732	607.06
466.951	589.06
467.171	614.06
467.391	600.06
467.61	602.06
467.829	612.06
468.049	598.06
468.268	551.06
468.488	593.06
468.707	592.06
468.927	579.06
469.146	587.06
469.365	587.06
469.585	581.06
469.804	596.06
470.023	597.06
470.243	588.06
470.462	589.06
470.681	590.06
470.901	591.06
471.12	595.06
471.339	581.06
471.558	596.06
471.777	601.06
471.997	627.06
472.216	584.06
472.435	605.06
472.654	572.06
472.873	586.06
473.092	598.06
473.311	566.06
473.53	590.06
473.749	576.06
473.968	586.06
474.187	611.06
474.406	587.06
474.625	592.06
474.844	586.06
475.063	614.06
475.282	611.06
475.501	601.06
475.72	607.06
475.939	608.06
476.158	615.06
476.377	599.06
476.596	627.06
476.814	640.06
477.033	616.06
477.252	614.06
477.471	656.06
477.69	644.06
477.908	655.06
478.127	674.06
478.346	664.06
478.564	679.06
478.783	677.06
479.002	675.06
479.22	704.06
479.439	722.06
479.658	692.06
479.876	706.06
480.095	721.06
480.313	726.06
480.532	717.06
480.751	700.06
480.969	688.06
481.188	703.06
481.406	726.06
481.624	707.06
481.843	671.06
482.061	677.06
482.28	712.06
482.498	699.06
482.717	711.06
482.935	696.06
483.153	681.06
483.372	690.06
483.59	700.06
483.808	677.06
484.027	688.06
484.245	698.06
484.463	681.06
484.681	707.06
484.9	712.06
485.118	699.06
485.336	694.06
485.554	714.06
485.772	724.06
485.99	693.06
486.209	683.06
486.427	721.06
486.645	708.06
486.863	697.06
487.081	708.06
487.299	707.06
487.517	731.06
487.735	730.06
487.953	701.06
488.171	707.06
488.389	698.06
488.607	696.06
488.825	720.06
489.043	694.06
489.261	712.06
489.479	692.06
489.696	718.06
489.914	687.06
490.132	692.06
490.35	716.06
490.568	726.06
490.786	709.06
491.003	719.06
491.221	711.06
491.439	718.06
491.657	704.06
491.874	746.06
492.092	729.06
492.31	727.06
492.527	729.06
492.745	735.06
492.963	733.06
493.18	722.06
493.398	715.06
493.615	747.06
493.833	733.06
494.05	720.06
494.268	743.06
494.485	754.06
494.703	737.06
494.92	727.06
495.138	745.06
495.355	767.06
495.573	766.06
495.79	733.06
496.008	752.06
496.225	772.06
496.442	768.06
496.66	768.06
496.877	802.06
497.094	824.06
497.312	832.06
497.529	831.06
497.746	866.06
497.963	874.06
498.181	898.06
498.398	919.06
498.615	929.06
498.832	970.06
499.049	1003.06
499.267	1021.06
499.484	1086.06
499.701	1126.06
499.918	1191.06
500.135	1232.06
500.352	1334.06
500.569	1304.06
500.786	1359.06
501.003	1308.06
501.22	1268.06
501.437	1207.06
