Data from Fe(NO3)3@0.025M.TitratingCurve.Agarose3%dH2O.NegLispCup.LampEnergy10.LIBS07252019_HRD10591_16-55-14-336.txt Node
Date: Thu Jul 25 16:55:14 EDT 2019
User: cochatt
Spectrometer: HR+D1059
Trigger mode: 1
Integration Time (sec): 1.000000E-1
Scans to average: 1
Electric dark correction enabled: true
Nonlinearity correction enabled: false
Boxcar width: 0
XAxis mode: Wavelengths
Number of Pixels in Spectrum: 2048
>>>>>Begin Spectral Data<<<<<
223.165	-21.75
223.4	-21.75
223.635	-21.75
223.869	-31.75
224.104	-7.75
224.338	-2.75
224.573	-4.75
224.808	-16.75
225.042	-11.75
225.277	-19.75
225.511	-4.75
225.746	-1.75
225.98	0.25
226.215	15.25
226.449	26.25
226.683	32.25
226.918	34.25
227.152	15.25
227.387	24.25
227.621	26.25
227.856	30.25
228.09	50.25
228.324	49.25
228.559	49.25
228.793	63.25
229.027	77.25
229.262	68.25
229.496	82.25
229.73	78.25
229.964	80.25
230.199	61.25
230.433	91.25
230.667	90.25
230.901	90.25
231.136	86.25
231.37	86.25
231.604	68.25
231.838	83.25
232.072	79.25
232.306	91.25
232.541	81.25
232.775	90.25
233.009	98.25
233.243	89.25
233.477	83.25
233.711	88.25
233.945	98.25
234.179	88.25
234.413	101.25
234.647	97.25
234.881	89.25
235.115	93.25
235.349	81.25
235.583	78.25
235.817	94.25
236.051	98.25
236.285	91.25
236.519	97.25
236.753	86.25
236.987	76.25
237.221	81.25
237.455	97.25
237.689	91.25
237.922	85.25
238.156	69.25
238.39	87.25
238.624	91.25
238.858	93.25
239.091	94.25
239.325	89.25
239.559	89.25
239.793	95.25
240.027	84.25
240.26	95.25
240.494	97.25
240.728	93.25
240.961	96.25
241.195	76.25
241.429	90.25
241.662	96.25
241.896	97.25
242.13	101.25
242.363	95.25
242.597	91.25
242.83	104.25
243.064	96.25
243.298	98.25
243.531	101.25
243.765	87.25
243.998	94.25
244.232	90.25
244.465	92.25
244.699	111.25
244.932	97.25
245.166	92.25
245.399	107.25
245.633	91.25
245.866	103.25
246.099	111.25
246.333	103.25
246.566	100.25
246.8	103.25
247.033	88.25
247.266	103.25
247.5	93.25
247.733	114.25
247.966	98.25
248.2	99.25
248.433	84.25
248.666	107.25
248.899	105.25
249.133	107.25
249.366	93.25
249.599	105.25
249.832	101.25
250.066	105.25
250.299	112.25
250.532	98.25
250.765	94.25
250.998	94.25
251.231	104.25
251.465	104.25
251.698	107.25
251.931	108.25
252.164	102.25
252.397	112.25
252.63	115.25
252.863	103.25
253.096	104.25
253.329	116.25
253.562	112.25
253.795	111.25
254.028	97.25
254.261	98.25
254.494	112.25
254.727	117.25
254.96	109.25
255.193	97.25
255.426	110.25
255.659	112.25
255.892	121.25
256.124	121.25
256.357	111.25
256.59	113.25
256.823	110.25
257.056	108.25
257.289	115.25
257.521	122.25
257.754	120.25
257.987	112.25
258.22	125.25
258.452	125.25
258.685	120.25
258.918	118.25
259.151	108.25
259.383	119.25
259.616	125.25
259.849	103.25
260.081	123.25
260.314	144.25
260.547	113.25
260.779	120.25
261.012	113.25
261.244	105.25
261.477	123.25
261.71	131.25
261.942	131.25
262.175	107.25
262.407	119.25
262.64	116.25
262.872	143.25
263.105	128.25
263.337	136.25
263.57	125.25
263.802	138.25
264.035	127.25
264.267	123.25
264.499	135.25
264.732	131.25
264.964	128.25
265.197	135.25
265.429	132.25
265.661	135.25
265.894	130.25
266.126	120.25
266.358	116.25
266.591	131.25
266.823	112.25
267.055	144.25
267.287	143.25
267.52	140.25
267.752	131.25
267.984	120.25
268.216	132.25
268.448	139.25
268.681	146.25
268.913	134.25
269.145	138.25
269.377	149.25
269.609	134.25
269.841	143.25
270.073	140.25
270.306	137.25
270.538	133.25
270.77	141.25
271.002	131.25
271.234	137.25
271.466	141.25
271.698	137.25
271.93	133.25
272.162	151.25
272.394	139.25
272.626	134.25
272.858	146.25
273.09	137.25
273.322	147.25
273.553	137.25
273.785	147.25
274.017	145.25
274.249	149.25
274.481	157.25
274.713	159.25
274.945	131.25
275.176	142.25
275.408	148.25
275.64	147.25
275.872	152.25
276.104	151.25
276.335	155.25
276.567	149.25
276.799	130.25
277.031	148.25
277.262	154.25
277.494	150.25
277.726	141.25
277.957	150.25
278.189	149.25
278.421	138.25
278.652	147.25
278.884	137.25
279.115	150.25
279.347	152.25
279.579	164.25
279.81	165.25
280.042	173.25
280.273	151.25
280.505	152.25
280.736	149.25
280.968	157.25
281.199	171.25
281.431	153.25
281.662	157.25
281.894	153.25
282.125	156.25
282.356	163.25
282.588	152.25
282.819	177.25
283.051	147.25
283.282	176.25
283.513	173.25
283.745	167.25
283.976	167.25
284.207	166.25
284.439	158.25
284.67	158.25
284.901	177.25
285.132	159.25
285.364	157.25
285.595	142.25
285.826	151.25
286.057	172.25
286.288	177.25
286.52	163.25
286.751	151.25
286.982	160.25
287.213	171.25
287.444	173.25
287.675	155.25
287.906	192.25
288.138	171.25
288.369	167.25
288.6	179.25
288.831	152.25
289.062	187.25
289.293	177.25
289.524	180.25
289.755	178.25
289.986	168.25
290.217	168.25
290.448	181.25
290.679	165.25
290.91	189.25
291.141	179.25
291.371	180.25
291.602	190.25
291.833	175.25
292.064	180.25
292.295	167.25
292.526	175.25
292.757	182.25
292.987	174.25
293.218	168.25
293.449	190.25
293.68	192.25
293.91	181.25
294.141	176.25
294.372	181.25
294.603	181.25
294.833	176.25
295.064	183.25
295.295	180.25
295.525	163.25
295.756	184.25
295.987	179.25
296.217	179.25
296.448	184.25
296.679	193.25
296.909	209.25
297.14	189.25
297.37	200.25
297.601	192.25
297.831	192.25
298.062	195.25
298.292	191.25
298.523	199.25
298.753	182.25
298.984	186.25
299.214	182.25
299.445	195.25
299.675	206.25
299.905	216.25
300.136	181.25
300.366	200.25
300.597	193.25
300.827	197.25
301.057	177.25
301.288	188.25
301.518	212.25
301.748	207.25
301.979	193.25
302.209	190.25
302.439	215.25
302.669	200.25
302.9	204.25
303.13	215.25
303.36	204.25
303.59	212.25
303.82	196.25
304.051	194.25
304.281	201.25
304.511	206.25
304.741	203.25
304.971	204.25
305.201	212.25
305.431	201.25
305.661	206.25
305.891	207.25
306.121	206.25
306.352	215.25
306.582	202.25
306.812	204.25
307.042	202.25
307.272	200.25
307.502	219.25
307.731	201.25
307.961	215.25
308.191	194.25
308.421	187.25
308.651	211.25
308.881	196.25
309.111	215.25
309.341	219.25
309.571	217.25
309.8	204.25
310.03	208.25
310.26	210.25
310.49	218.25
310.72	208.25
310.949	206.25
311.179	209.25
311.409	213.25
311.639	219.25
311.868	212.25
312.098	215.25
312.328	219.25
312.557	205.25
312.787	219.25
313.017	231.25
313.246	223.25
313.476	215.25
313.706	214.25
313.935	214.25
314.165	222.25
314.394	211.25
314.624	225.25
314.853	212.25
315.083	214.25
315.312	225.25
315.542	209.25
315.771	219.25
316.001	228.25
316.23	228.25
316.46	223.25
316.689	212.25
316.919	228.25
317.148	241.25
317.377	227.25
317.607	217.25
317.836	227.25
318.065	220.25
318.295	221.25
318.524	232.25
318.753	230.25
318.983	229.25
319.212	227.25
319.441	237.25
319.67	225.25
319.9	226.25
320.129	236.25
320.358	235.25
320.587	232.25
320.816	213.25
321.046	232.25
321.275	246.25
321.504	236.25
321.733	232.25
321.962	243.25
322.191	230.25
322.42	243.25
322.649	248.25
322.878	233.25
323.108	220.25
323.337	225.25
323.566	240.25
323.795	225.25
324.024	247.25
324.253	230.25
324.482	241.25
324.71	248.25
324.939	226.25
325.168	233.25
325.397	261.25
325.626	216.25
325.855	239.25
326.084	240.25
326.313	255.25
326.542	258.25
326.77	235.25
326.999	230.25
327.228	224.25
327.457	241.25
327.686	245.25
327.914	225.25
328.143	249.25
328.372	255.25
328.6	264.25
328.829	256.25
329.058	248.25
329.287	260.25
329.515	252.25
329.744	263.25
329.972	259.25
330.201	258.25
330.43	255.25
330.658	266.25
330.887	262.25
331.115	269.25
331.344	263.25
331.572	269.25
331.801	261.25
332.03	243.25
332.258	259.25
332.486	265.25
332.715	273.25
332.943	284.25
333.172	289.25
333.4	286.25
333.629	266.25
333.857	305.25
334.085	295.25
334.314	304.25
334.542	295.25
334.771	298.25
334.999	294.25
335.227	270.25
335.455	286.25
335.684	301.25
335.912	294.25
336.14	285.25
336.369	307.25
336.597	292.25
336.825	293.25
337.053	273.25
337.281	289.25
337.51	291.25
337.738	301.25
337.966	284.25
338.194	268.25
338.422	274.25
338.65	283.25
338.878	267.25
339.106	283.25
339.334	260.25
339.562	273.25
339.79	285.25
340.018	268.25
340.246	277.25
340.474	263.25
340.702	263.25
340.93	264.25
341.158	279.25
341.386	291.25
341.614	273.25
341.842	269.25
342.07	268.25
342.298	271.25
342.526	273.25
342.754	271.25
342.981	268.25
343.209	284.25
343.437	285.25
343.665	287.25
343.893	318.25
344.12	288.25
344.348	301.25
344.576	281.25
344.804	283.25
345.031	256.25
345.259	276.25
345.487	264.25
345.714	265.25
345.942	258.25
346.17	283.25
346.397	263.25
346.625	272.25
346.853	268.25
347.08	259.25
347.308	245.25
347.535	269.25
347.763	263.25
347.99	253.25
348.218	263.25
348.445	251.25
348.673	257.25
348.9	252.25
349.128	249.25
349.355	258.25
349.583	269.25
349.81	254.25
350.037	270.25
350.265	267.25
350.492	259.25
350.72	265.25
350.947	263.25
351.174	243.25
351.402	251.25
351.629	255.25
351.856	239.25
352.083	268.25
352.311	265.25
352.538	273.25
352.765	260.25
352.992	264.25
353.22	266.25
353.447	257.25
353.674	270.25
353.901	272.25
354.128	258.25
354.355	260.25
354.583	263.25
354.81	259.25
355.037	254.25
355.264	259.25
355.491	256.25
355.718	255.25
355.945	271.25
356.172	275.25
356.399	256.25
356.626	263.25
356.853	254.25
357.08	261.25
357.307	257.25
357.534	249.25
357.761	259.25
357.988	262.25
358.215	263.25
358.441	259.25
358.668	246.25
358.895	254.25
359.122	261.25
359.349	271.25
359.576	258.25
359.802	266.25
360.029	273.25
360.256	274.25
360.483	260.25
360.709	272.25
360.936	277.25
361.163	266.25
361.39	249.25
361.616	259.25
361.843	276.25
362.07	265.25
362.296	275.25
362.523	276.25
362.749	264.25
362.976	262.25
363.203	273.25
363.429	275.25
363.656	262.25
363.882	259.25
364.109	255.25
364.335	253.25
364.562	280.25
364.788	269.25
365.015	274.25
365.241	278.25
365.468	276.25
365.694	283.25
365.92	278.25
366.147	271.25
366.373	275.25
366.599	280.25
366.826	282.25
367.052	273.25
367.278	293.25
367.505	282.25
367.731	274.25
367.957	261.25
368.184	269.25
368.41	286.25
368.636	302.25
368.862	281.25
369.089	277.25
369.315	284.25
369.541	270.25
369.767	260.25
369.993	264.25
370.219	258.25
370.445	267.25
370.672	271.25
370.898	290.25
371.124	284.25
371.35	268.25
371.576	273.25
371.802	285.25
372.028	287.25
372.254	277.25
372.48	289.25
372.706	287.25
372.932	288.25
373.158	286.25
373.384	300.25
373.61	291.25
373.835	294.25
374.061	302.25
374.287	299.25
374.513	297.25
374.739	292.25
374.965	307.25
375.191	310.25
375.416	301.25
375.642	315.25
375.868	303.25
376.094	293.25
376.319	288.25
376.545	291.25
376.771	302.25
376.997	292.25
377.222	291.25
377.448	271.25
377.674	287.25
377.899	294.25
378.125	278.25
378.35	284.25
378.576	276.25
378.802	292.25
379.027	280.25
379.253	289.25
379.478	283.25
379.704	286.25
379.929	291.25
380.155	299.25
380.38	317.25
380.606	305.25
380.831	286.25
381.057	296.25
381.282	304.25
381.507	312.25
381.733	308.25
381.958	308.25
382.184	293.25
382.409	294.25
382.634	312.25
382.86	284.25
383.085	306.25
383.31	307.25
383.535	308.25
383.761	326.25
383.986	313.25
384.211	320.25
384.436	324.25
384.662	319.25
384.887	319.25
385.112	328.25
385.337	327.25
385.562	325.25
385.787	327.25
386.013	328.25
386.238	317.25
386.463	337.25
386.688	355.25
386.913	331.25
387.138	329.25
387.363	340.25
387.588	341.25
387.813	345.25
388.038	325.25
388.263	344.25
388.488	318.25
388.713	357.25
388.938	331.25
389.163	347.25
389.387	348.25
389.612	319.25
389.837	334.25
390.062	342.25
390.287	344.25
390.512	339.25
390.736	360.25
390.961	359.25
391.186	338.25
391.411	336.25
391.636	337.25
391.86	353.25
392.085	345.25
392.31	359.25
392.534	382.25
392.759	344.25
392.984	365.25
393.208	330.25
393.433	371.25
393.658	344.25
393.882	341.25
394.107	333.25
394.331	349.25
394.556	344.25
394.78	354.25
395.005	371.25
395.229	346.25
395.454	365.25
395.678	365.25
395.903	353.25
396.127	371.25
396.352	353.25
396.576	368.25
396.801	381.25
397.025	385.25
397.249	377.25
397.474	386.25
397.698	366.25
397.922	387.25
398.147	372.25
398.371	395.25
398.595	404.25
398.82	412.25
399.044	425.25
399.268	437.25
399.492	469.25
399.717	461.25
399.941	468.25
400.165	464.25
400.389	449.25
400.613	467.25
400.837	428.25
401.062	396.25
401.286	427.25
401.51	408.25
401.734	403.25
401.958	405.25
402.182	412.25
402.406	388.25
402.63	390.25
402.854	391.25
403.078	396.25
403.302	395.25
403.526	400.25
403.75	402.25
403.974	386.25
404.198	427.25
404.422	402.25
404.645	411.25
404.869	396.25
405.093	395.25
405.317	403.25
405.541	421.25
405.765	399.25
405.988	383.25
406.212	400.25
406.436	424.25
406.66	428.25
406.883	437.25
407.107	446.25
407.331	434.25
407.555	462.25
407.778	448.25
408.002	452.25
408.226	434.25
408.449	440.25
408.673	418.25
408.896	424.25
409.12	432.25
409.344	440.25
409.567	411.25
409.791	413.25
410.014	413.25
410.238	416.25
410.461	422.25
410.685	419.25
410.908	419.25
411.132	431.25
411.355	404.25
411.578	413.25
411.802	410.25
412.025	414.25
412.249	416.25
412.472	403.25
412.695	397.25
412.919	405.25
413.142	402.25
413.365	401.25
413.589	396.25
413.812	390.25
414.035	391.25
414.258	409.25
414.482	387.25
414.705	406.25
414.928	400.25
415.151	398.25
415.374	400.25
415.597	392.25
415.821	379.25
416.044	391.25
416.267	400.25
416.49	395.25
416.713	371.25
416.936	381.25
417.159	380.25
417.382	368.25
417.605	370.25
417.828	408.25
418.051	408.25
418.274	401.25
418.497	381.25
418.72	371.25
418.943	386.25
419.166	412.25
419.389	429.25
419.611	415.25
419.834	406.25
420.057	406.25
420.28	383.25
420.503	375.25
420.726	370.25
420.948	382.25
421.171	383.25
421.394	369.25
421.617	382.25
421.839	412.25
422.062	379.25
422.285	372.25
422.507	393.25
422.73	364.25
422.953	360.25
423.175	372.25
423.398	383.25
423.621	398.25
423.843	384.25
424.066	401.25
424.288	401.25
424.511	370.25
424.733	379.25
424.956	363.25
425.178	397.25
425.401	379.25
425.623	385.25
425.846	372.25
426.068	372.25
426.291	357.25
426.513	373.25
426.735	367.25
426.958	383.25
427.18	350.25
427.402	353.25
427.625	358.25
427.847	370.25
428.069	367.25
428.292	355.25
428.514	352.25
428.736	370.25
428.958	348.25
429.181	357.25
429.403	367.25
429.625	347.25
429.847	369.25
430.069	366.25
430.292	352.25
430.514	341.25
430.736	355.25
430.958	375.25
431.18	369.25
431.402	340.25
431.624	375.25
431.846	377.25
432.068	359.25
432.29	364.25
432.512	371.25
432.734	352.25
432.956	363.25
433.178	375.25
433.4	357.25
433.622	362.25
433.844	360.25
434.066	366.25
434.287	334.25
434.509	379.25
434.731	380.25
434.953	391.25
435.175	368.25
435.397	377.25
435.618	368.25
435.84	369.25
436.062	369.25
436.284	354.25
436.505	344.25
436.727	355.25
436.949	354.25
437.17	364.25
437.392	357.25
437.614	358.25
437.835	352.25
438.057	342.25
438.278	327.25
438.5	346.25
438.721	356.25
438.943	341.25
439.165	350.25
439.386	373.25
439.608	359.25
439.829	362.25
440.05	367.25
440.272	363.25
440.493	340.25
440.715	339.25
440.936	350.25
441.158	349.25
441.379	365.25
441.6	372.25
441.822	372.25
442.043	387.25
442.264	368.25
442.486	363.25
442.707	360.25
442.928	350.25
443.149	373.25
443.371	367.25
443.592	384.25
443.813	372.25
444.034	377.25
444.255	388.25
444.476	384.25
444.698	412.25
444.919	367.25
445.14	461.25
445.361	420.25
445.582	368.25
445.803	377.25
446.024	368.25
446.245	367.25
446.466	372.25
446.687	340.25
446.908	351.25
447.129	348.25
447.35	349.25
447.571	339.25
447.792	348.25
448.013	328.25
448.234	335.25
448.455	336.25
448.675	318.25
448.896	326.25
449.117	338.25
449.338	342.25
449.559	336.25
449.779	347.25
450	332.25
450.221	333.25
450.442	314.25
450.662	344.25
450.883	319.25
451.104	315.25
451.324	318.25
451.545	320.25
451.766	331.25
451.986	320.25
452.207	322.25
452.428	325.25
452.648	324.25
452.869	325.25
453.089	317.25
453.31	312.25
453.53	331.25
453.751	326.25
453.971	324.25
454.192	329.25
454.412	310.25
454.633	339.25
454.853	303.25
455.073	311.25
455.294	309.25
455.514	316.25
455.734	326.25
455.955	304.25
456.175	306.25
456.395	299.25
456.616	316.25
456.836	311.25
457.056	331.25
457.276	326.25
457.497	324.25
457.717	329.25
457.937	344.25
458.157	336.25
458.377	320.25
458.598	355.25
458.818	345.25
459.038	339.25
459.258	354.25
459.478	367.25
459.698	352.25
459.918	360.25
460.138	389.25
460.358	387.25
460.578	367.25
460.798	394.25
461.018	391.25
461.238	405.25
461.458	393.25
461.678	401.25
461.898	390.25
462.118	409.25
462.338	405.25
462.558	420.25
462.777	412.25
462.997	420.25
463.217	453.25
463.437	436.25
463.657	447.25
463.876	427.25
464.096	430.25
464.316	419.25
464.536	409.25
464.755	437.25
464.975	421.25
465.195	407.25
465.414	411.25
465.634	392.25
465.854	368.25
466.073	379.25
466.293	362.25
466.512	364.25
466.732	348.25
466.951	359.25
467.171	358.25
467.391	370.25
467.61	333.25
467.829	346.25
468.049	356.25
468.268	340.25
468.488	353.25
468.707	331.25
468.927	335.25
469.146	337.25
469.365	362.25
469.585	336.25
469.804	354.25
470.023	370.25
470.243	347.25
470.462	353.25
470.681	359.25
470.901	344.25
471.12	367.25
471.339	357.25
471.558	340.25
471.777	353.25
471.997	353.25
472.216	366.25
472.435	352.25
472.654	347.25
472.873	350.25
473.092	367.25
473.311	359.25
473.53	340.25
473.749	333.25
473.968	356.25
474.187	353.25
474.406	353.25
474.625	345.25
474.844	356.25
475.063	352.25
475.282	366.25
475.501	359.25
475.72	363.25
475.939	356.25
476.158	362.25
476.377	371.25
476.596	383.25
476.814	370.25
477.033	376.25
477.252	387.25
477.471	377.25
477.69	388.25
477.908	388.25
478.127	396.25
478.346	408.25
478.564	417.25
478.783	411.25
479.002	389.25
479.22	397.25
479.439	421.25
479.658	435.25
479.876	400.25
480.095	397.25
480.313	424.25
480.532	406.25
480.751	432.25
480.969	405.25
481.188	421.25
481.406	406.25
481.624	403.25
481.843	413.25
482.061	398.25
482.28	429.25
482.498	421.25
482.717	412.25
482.935	416.25
483.153	412.25
483.372	395.25
483.59	431.25
483.808	418.25
484.027	409.25
484.245	398.25
484.463	411.25
484.681	424.25
484.9	398.25
485.118	419.25
485.336	424.25
485.554	410.25
485.772	391.25
485.99	415.25
486.209	431.25
486.427	403.25
486.645	408.25
486.863	411.25
487.081	401.25
487.299	404.25
487.517	404.25
487.735	433.25
487.953	441.25
488.171	417.25
488.389	442.25
488.607	407.25
488.825	411.25
489.043	415.25
489.261	432.25
489.479	420.25
489.696	402.25
489.914	412.25
490.132	394.25
490.35	423.25
490.568	415.25
490.786	397.25
491.003	425.25
491.221	421.25
491.439	399.25
491.657	440.25
491.874	415.25
492.092	430.25
492.31	436.25
492.527	448.25
492.745	413.25
492.963	430.25
493.18	409.25
493.398	427.25
493.615	431.25
493.833	420.25
494.05	446.25
494.268	431.25
494.485	426.25
494.703	436.25
494.92	446.25
495.138	456.25
495.355	447.25
495.573	441.25
495.79	445.25
496.008	452.25
496.225	469.25
496.442	453.25
496.66	467.25
496.877	473.25
497.094	485.25
497.312	490.25
497.529	482.25
497.746	516.25
497.963	521.25
498.181	526.25
498.398	548.25
498.615	568.25
498.832	572.25
499.049	603.25
499.267	615.25
499.484	663.25
499.701	672.25
499.918	708.25
500.135	749.25
500.352	763.25
500.569	762.25
500.786	782.25
501.003	774.25
501.22	721.25
501.437	693.25
501.654	651.25
501.871	637.25
502.088	613.25
502.305	604.25
502.522	566.25
