Data from Fe(NO3)3@0.1M.TitratingCurve.Agarose3%dH2O.NegLispCup.LampEnergy10.LIBS07252019_HRD10591_16-39-20-332.txt Node
Date: Thu Jul 25 16:39:20 EDT 2019
User: cochatt
Spectrometer: HR+D1059
Trigger mode: 1
Integration Time (sec): 1.000000E-1
Scans to average: 1
Electric dark correction enabled: true
Nonlinearity correction enabled: false
Boxcar width: 0
XAxis mode: Wavelengths
Number of Pixels in Spectrum: 2048
>>>>>Begin Spectral Data<<<<<
223.165	-3.19
223.4	-3.19
223.635	-3.19
223.869	-16.19
224.104	-14.19
224.338	-14.19
224.573	-18.19
224.808	-27.19
225.042	-3.19
225.277	-9.19
225.511	-7.19
225.746	0.81
225.98	9.81
226.215	9.81
226.449	17.81
226.683	13.81
226.918	33.81
227.152	26.81
227.387	33.81
227.621	28.81
227.856	36.81
228.09	32.81
228.324	25.81
228.559	52.81
228.793	48.81
229.027	75.81
229.262	71.81
229.496	63.81
229.73	85.81
229.964	91.81
230.199	97.81
230.433	68.81
230.667	107.81
230.901	96.81
231.136	86.81
231.37	86.81
231.604	85.81
231.838	97.81
232.072	96.81
232.306	100.81
232.541	89.81
232.775	101.81
233.009	93.81
233.243	99.81
233.477	106.81
233.711	102.81
233.945	106.81
234.179	101.81
234.413	105.81
234.647	110.81
234.881	88.81
235.115	108.81
235.349	100.81
235.583	88.81
235.817	99.81
236.051	99.81
236.285	97.81
236.519	91.81
236.753	110.81
236.987	95.81
237.221	98.81
237.455	120.81
237.689	108.81
237.922	110.81
238.156	97.81
238.39	114.81
238.624	104.81
238.858	104.81
239.091	106.81
239.325	96.81
239.559	96.81
239.793	97.81
240.027	114.81
240.26	108.81
240.494	111.81
240.728	105.81
240.961	106.81
241.195	110.81
241.429	118.81
241.662	123.81
241.896	120.81
242.13	110.81
242.363	119.81
242.597	118.81
242.83	113.81
243.064	116.81
243.298	111.81
243.531	102.81
243.765	122.81
243.998	117.81
244.232	114.81
244.465	106.81
244.699	120.81
244.932	124.81
245.166	121.81
245.399	129.81
245.633	119.81
245.866	125.81
246.099	132.81
246.333	117.81
246.566	106.81
246.8	106.81
247.033	125.81
247.266	121.81
247.5	128.81
247.733	128.81
247.966	129.81
248.2	135.81
248.433	129.81
248.666	114.81
248.899	125.81
249.133	129.81
249.366	117.81
249.599	128.81
249.832	142.81
250.066	132.81
250.299	126.81
250.532	137.81
250.765	133.81
250.998	135.81
251.231	128.81
251.465	127.81
251.698	131.81
251.931	141.81
252.164	137.81
252.397	134.81
252.63	144.81
252.863	152.81
253.096	129.81
253.329	134.81
253.562	138.81
253.795	147.81
254.028	156.81
254.261	139.81
254.494	149.81
254.727	138.81
254.96	132.81
255.193	125.81
255.426	130.81
255.659	145.81
255.892	146.81
256.124	143.81
256.357	143.81
256.59	153.81
256.823	139.81
257.056	151.81
257.289	146.81
257.521	148.81
257.754	152.81
257.987	135.81
258.22	168.81
258.452	140.81
258.685	144.81
258.918	142.81
259.151	152.81
259.383	165.81
259.616	152.81
259.849	161.81
260.081	164.81
260.314	153.81
260.547	159.81
260.779	146.81
261.012	168.81
261.244	162.81
261.477	156.81
261.71	154.81
261.942	166.81
262.175	149.81
262.407	175.81
262.64	172.81
262.872	164.81
263.105	165.81
263.337	158.81
263.57	149.81
263.802	143.81
264.035	174.81
264.267	165.81
264.499	165.81
264.732	160.81
264.964	174.81
265.197	169.81
265.429	166.81
265.661	170.81
265.894	170.81
266.126	174.81
266.358	156.81
266.591	158.81
266.823	170.81
267.055	175.81
267.287	157.81
267.52	174.81
267.752	177.81
267.984	176.81
268.216	159.81
268.448	176.81
268.681	166.81
268.913	181.81
269.145	150.81
269.377	187.81
269.609	169.81
269.841	198.81
270.073	194.81
270.306	178.81
270.538	173.81
270.77	175.81
271.002	187.81
271.234	210.81
271.466	166.81
271.698	172.81
271.93	180.81
272.162	177.81
272.394	180.81
272.626	185.81
272.858	207.81
273.09	190.81
273.322	192.81
273.553	189.81
273.785	193.81
274.017	195.81
274.249	200.81
274.481	184.81
274.713	193.81
274.945	182.81
275.176	189.81
275.408	178.81
275.64	185.81
275.872	198.81
276.104	189.81
276.335	193.81
276.567	203.81
276.799	200.81
277.031	198.81
277.262	200.81
277.494	208.81
277.726	203.81
277.957	202.81
278.189	204.81
278.421	200.81
278.652	210.81
278.884	200.81
279.115	210.81
279.347	203.81
279.579	221.81
279.81	197.81
280.042	201.81
280.273	209.81
280.505	205.81
280.736	214.81
280.968	209.81
281.199	208.81
281.431	209.81
281.662	216.81
281.894	200.81
282.125	191.81
282.356	209.81
282.588	214.81
282.819	212.81
283.051	215.81
283.282	205.81
283.513	218.81
283.745	216.81
283.976	212.81
284.207	221.81
284.439	233.81
284.67	226.81
284.901	232.81
285.132	226.81
285.364	212.81
285.595	232.81
285.826	220.81
286.057	212.81
286.288	213.81
286.52	229.81
286.751	219.81
286.982	215.81
287.213	220.81
287.444	214.81
287.675	230.81
287.906	226.81
288.138	233.81
288.369	224.81
288.6	231.81
288.831	209.81
289.062	213.81
289.293	240.81
289.524	223.81
289.755	233.81
289.986	221.81
290.217	221.81
290.448	226.81
290.679	226.81
290.91	243.81
291.141	225.81
291.371	244.81
291.602	237.81
291.833	231.81
292.064	219.81
292.295	228.81
292.526	252.81
292.757	217.81
292.987	239.81
293.218	230.81
293.449	237.81
293.68	227.81
293.91	220.81
294.141	237.81
294.372	210.81
294.603	235.81
294.833	239.81
295.064	251.81
295.295	246.81
295.525	218.81
295.756	229.81
295.987	261.81
296.217	248.81
296.448	252.81
296.679	259.81
296.909	260.81
297.14	225.81
297.37	270.81
297.601	270.81
297.831	234.81
298.062	246.81
298.292	260.81
298.523	252.81
298.753	254.81
298.984	257.81
299.214	255.81
299.445	253.81
299.675	247.81
299.905	254.81
300.136	236.81
300.366	259.81
300.597	266.81
300.827	278.81
301.057	275.81
301.288	260.81
301.518	280.81
301.748	260.81
301.979	252.81
302.209	267.81
302.439	266.81
302.669	247.81
302.9	266.81
303.13	269.81
303.36	272.81
303.59	262.81
303.82	265.81
304.051	274.81
304.281	270.81
304.511	260.81
304.741	259.81
304.971	272.81
305.201	256.81
305.431	260.81
305.661	257.81
305.891	256.81
306.121	261.81
306.352	249.81
306.582	253.81
306.812	248.81
307.042	273.81
307.272	276.81
307.502	248.81
307.731	272.81
307.961	265.81
308.191	260.81
308.421	255.81
308.651	260.81
308.881	264.81
309.111	270.81
309.341	253.81
309.571	259.81
309.8	246.81
310.03	259.81
310.26	249.81
310.49	259.81
310.72	265.81
310.949	278.81
311.179	256.81
311.409	257.81
311.639	260.81
311.868	288.81
312.098	272.81
312.328	256.81
312.557	280.81
312.787	276.81
313.017	285.81
313.246	274.81
313.476	275.81
313.706	280.81
313.935	293.81
314.165	284.81
314.394	287.81
314.624	278.81
314.853	265.81
315.083	284.81
315.312	268.81
315.542	294.81
315.771	288.81
316.001	292.81
316.23	278.81
316.46	277.81
316.689	287.81
316.919	271.81
317.148	271.81
317.377	282.81
317.607	273.81
317.836	264.81
318.065	266.81
318.295	284.81
318.524	278.81
318.753	261.81
318.983	266.81
319.212	282.81
319.441	273.81
319.67	273.81
319.9	272.81
320.129	278.81
320.358	276.81
320.587	294.81
320.816	271.81
321.046	292.81
321.275	293.81
321.504	282.81
321.733	276.81
321.962	262.81
322.191	290.81
322.42	281.81
322.649	283.81
322.878	293.81
323.108	287.81
323.337	286.81
323.566	298.81
323.795	280.81
324.024	289.81
324.253	308.81
324.482	298.81
324.71	294.81
324.939	277.81
325.168	293.81
325.397	277.81
325.626	295.81
325.855	296.81
326.084	293.81
326.313	296.81
326.542	311.81
326.77	311.81
326.999	295.81
327.228	300.81
327.457	310.81
327.686	308.81
327.914	313.81
328.143	311.81
328.372	304.81
328.6	311.81
328.829	306.81
329.058	288.81
329.287	315.81
329.515	295.81
329.744	308.81
329.972	303.81
330.201	315.81
330.43	308.81
330.658	306.81
330.887	301.81
331.115	326.81
331.344	328.81
331.572	322.81
331.801	337.81
332.03	326.81
332.258	336.81
332.486	353.81
332.715	345.81
332.943	366.81
333.172	368.81
333.4	388.81
333.629	385.81
333.857	392.81
334.085	381.81
334.314	373.81
334.542	384.81
334.771	376.81
334.999	372.81
335.227	370.81
335.455	366.81
335.684	360.81
335.912	357.81
336.14	358.81
336.369	370.81
336.597	364.81
336.825	358.81
337.053	358.81
337.281	348.81
337.51	350.81
337.738	337.81
337.966	355.81
338.194	334.81
338.422	334.81
338.65	328.81
338.878	318.81
339.106	328.81
339.334	329.81
339.562	324.81
339.79	337.81
340.018	317.81
340.246	303.81
340.474	324.81
340.702	331.81
340.93	306.81
341.158	325.81
341.386	320.81
341.614	319.81
341.842	315.81
342.07	316.81
342.298	317.81
342.526	328.81
342.754	319.81
342.981	325.81
343.209	321.81
343.437	343.81
343.665	366.81
343.893	376.81
344.12	402.81
344.348	369.81
344.576	365.81
344.804	346.81
345.031	331.81
345.259	327.81
345.487	321.81
345.714	302.81
345.942	323.81
346.17	327.81
346.397	302.81
346.625	340.81
346.853	311.81
347.08	310.81
347.308	323.81
347.535	313.81
347.763	318.81
347.99	321.81
348.218	311.81
348.445	324.81
348.673	314.81
348.9	306.81
349.128	313.81
349.355	318.81
349.583	305.81
349.81	299.81
350.037	277.81
350.265	312.81
350.492	321.81
350.72	294.81
350.947	287.81
351.174	307.81
351.402	300.81
351.629	311.81
351.856	322.81
352.083	316.81
352.311	306.81
352.538	302.81
352.765	289.81
352.992	294.81
353.22	301.81
353.447	304.81
353.674	302.81
353.901	306.81
354.128	291.81
354.355	306.81
354.583	296.81
354.81	307.81
355.037	304.81
355.264	302.81
355.491	314.81
355.718	302.81
355.945	308.81
356.172	290.81
356.399	306.81
356.626	304.81
356.853	300.81
357.08	314.81
357.307	318.81
357.534	312.81
357.761	314.81
357.988	315.81
358.215	316.81
358.441	312.81
358.668	296.81
358.895	310.81
359.122	318.81
359.349	308.81
359.576	316.81
359.802	300.81
360.029	301.81
360.256	291.81
360.483	297.81
360.709	294.81
360.936	326.81
361.163	310.81
361.39	322.81
361.616	322.81
361.843	309.81
362.07	302.81
362.296	303.81
362.523	311.81
362.749	315.81
362.976	315.81
363.203	314.81
363.429	296.81
363.656	300.81
363.882	313.81
364.109	296.81
364.335	290.81
364.562	312.81
364.788	298.81
365.015	316.81
365.241	295.81
365.468	289.81
365.694	294.81
365.92	305.81
366.147	300.81
366.373	307.81
366.599	300.81
366.826	300.81
367.052	305.81
367.278	306.81
367.505	328.81
367.731	296.81
367.957	309.81
368.184	316.81
368.41	329.81
368.636	308.81
368.862	334.81
369.089	347.81
369.315	330.81
369.541	309.81
369.767	331.81
369.993	321.81
370.219	314.81
370.445	342.81
370.672	344.81
370.898	330.81
371.124	354.81
371.35	337.81
371.576	344.81
371.802	342.81
372.028	346.81
372.254	343.81
372.48	344.81
372.706	336.81
372.932	336.81
373.158	357.81
373.384	364.81
373.61	341.81
373.835	350.81
374.061	333.81
374.287	337.81
374.513	349.81
374.739	350.81
374.965	381.81
375.191	379.81
375.416	364.81
375.642	368.81
375.868	363.81
376.094	348.81
376.319	363.81
376.545	339.81
376.771	337.81
376.997	360.81
377.222	336.81
377.448	312.81
377.674	325.81
377.899	331.81
378.125	351.81
378.35	345.81
378.576	350.81
378.802	338.81
379.027	338.81
379.253	337.81
379.478	353.81
379.704	321.81
379.929	336.81
380.155	328.81
380.38	343.81
380.606	345.81
380.831	349.81
381.057	329.81
381.282	337.81
381.507	337.81
381.733	349.81
381.958	343.81
382.184	349.81
382.409	346.81
382.634	382.81
382.86	359.81
383.085	364.81
383.31	378.81
383.535	373.81
383.761	385.81
383.986	400.81
384.211	374.81
384.436	417.81
384.662	414.81
384.887	407.81
385.112	399.81
385.337	409.81
385.562	392.81
385.787	422.81
386.013	406.81
386.238	403.81
386.463	409.81
386.688	401.81
386.913	388.81
387.138	396.81
387.363	394.81
387.588	402.81
387.813	401.81
388.038	401.81
388.263	397.81
388.488	412.81
388.713	410.81
388.938	397.81
389.163	388.81
389.387	415.81
389.612	395.81
389.837	408.81
390.062	402.81
390.287	392.81
390.512	392.81
390.736	416.81
390.961	433.81
391.186	420.81
391.411	432.81
391.636	426.81
391.86	465.81
392.085	442.81
392.31	455.81
392.534	442.81
392.759	456.81
392.984	422.81
393.208	450.81
393.433	404.81
393.658	411.81
393.882	415.81
394.107	416.81
394.331	437.81
394.556	434.81
394.78	429.81
395.005	435.81
395.229	449.81
395.454	448.81
395.678	468.81
395.903	457.81
396.127	440.81
396.352	432.81
396.576	441.81
396.801	419.81
397.025	445.81
397.249	456.81
397.474	460.81
397.698	461.81
397.922	466.81
398.147	456.81
398.371	478.81
398.595	479.81
398.82	477.81
399.044	547.81
399.268	606.81
399.492	655.81
399.717	713.81
399.941	704.81
400.165	653.81
400.389	596.81
400.613	566.81
400.837	553.81
401.062	509.81
401.286	509.81
401.51	513.81
401.734	496.81
401.958	484.81
402.182	535.81
402.406	515.81
402.63	532.81
402.854	532.81
403.078	533.81
403.302	549.81
403.526	552.81
403.75	569.81
403.974	580.81
404.198	585.81
404.422	593.81
404.645	553.81
404.869	562.81
405.093	560.81
405.317	551.81
405.541	558.81
405.765	559.81
405.988	540.81
406.212	568.81
406.436	557.81
406.66	560.81
406.883	605.81
407.107	607.81
407.331	646.81
407.555	636.81
407.778	638.81
408.002	612.81
408.226	580.81
408.449	584.81
408.673	566.81
408.896	560.81
409.12	576.81
409.344	550.81
409.567	554.81
409.791	604.81
410.014	580.81
410.238	584.81
410.461	563.81
410.685	559.81
410.908	540.81
411.132	560.81
411.355	541.81
411.578	541.81
411.802	522.81
412.025	541.81
412.249	544.81
412.472	546.81
412.695	521.81
412.919	522.81
413.142	508.81
413.365	494.81
413.589	506.81
413.812	514.81
414.035	523.81
414.258	524.81
414.482	517.81
414.705	530.81
414.928	514.81
415.151	501.81
415.374	523.81
415.597	506.81
415.821	522.81
416.044	520.81
416.267	515.81
416.49	512.81
416.713	505.81
416.936	486.81
417.159	517.81
417.382	523.81
417.605	531.81
417.828	525.81
418.051	523.81
418.274	500.81
418.497	509.81
418.72	529.81
418.943	535.81
419.166	549.81
419.389	563.81
419.611	588.81
419.834	540.81
420.057	530.81
420.28	510.81
420.503	498.81
420.726	488.81
420.948	508.81
421.171	498.81
421.394	521.81
421.617	498.81
421.839	515.81
422.062	501.81
422.285	513.81
422.507	498.81
422.73	524.81
422.953	523.81
423.175	511.81
423.398	549.81
423.621	541.81
423.843	564.81
424.066	534.81
424.288	557.81
424.511	545.81
424.733	514.81
424.956	522.81
425.178	523.81
425.401	513.81
425.623	529.81
425.846	480.81
426.068	487.81
426.291	508.81
426.513	498.81
426.735	489.81
426.958	476.81
427.18	470.81
427.402	483.81
427.625	471.81
427.847	467.81
428.069	459.81
428.292	478.81
428.514	459.81
428.736	457.81
428.958	469.81
429.181	445.81
429.403	449.81
429.625	473.81
429.847	485.81
430.069	456.81
430.292	450.81
430.514	448.81
430.736	440.81
430.958	443.81
431.18	438.81
431.402	465.81
431.624	458.81
431.846	461.81
432.068	464.81
432.29	454.81
432.512	446.81
432.734	470.81
432.956	453.81
433.178	466.81
433.4	481.81
433.622	483.81
433.844	506.81
434.066	479.81
434.287	480.81
434.509	469.81
434.731	504.81
434.953	504.81
435.175	525.81
435.397	508.81
435.618	510.81
435.84	507.81
436.062	471.81
436.284	442.81
436.505	445.81
436.727	477.81
436.949	455.81
437.17	487.81
437.392	464.81
437.614	463.81
437.835	452.81
438.057	458.81
438.278	452.81
438.5	456.81
438.721	478.81
438.943	472.81
439.165	458.81
439.386	472.81
439.608	475.81
439.829	471.81
440.05	474.81
440.272	473.81
440.493	487.81
440.715	479.81
440.936	498.81
441.158	520.81
441.379	508.81
441.6	532.81
441.822	546.81
442.043	517.81
442.264	510.81
442.486	506.81
442.707	530.81
442.928	522.81
443.149	530.81
443.371	544.81
443.592	514.81
443.813	529.81
444.034	547.81
444.255	548.81
444.476	573.81
444.698	599.81
444.919	622.81
445.14	732.81
445.361	624.81
445.582	518.81
445.803	510.81
446.024	509.81
446.245	486.81
446.466	517.81
446.687	496.81
446.908	483.81
447.129	469.81
447.35	470.81
447.571	481.81
447.792	454.81
448.013	424.81
448.234	468.81
448.455	458.81
448.675	449.81
448.896	446.81
449.117	420.81
449.338	453.81
449.559	444.81
449.779	443.81
450	436.81
450.221	446.81
450.442	424.81
450.662	465.81
450.883	440.81
451.104	447.81
451.324	442.81
451.545	451.81
451.766	449.81
451.986	437.81
452.207	458.81
452.428	445.81
452.648	448.81
452.869	442.81
453.089	419.81
453.31	447.81
453.53	423.81
453.751	423.81
453.971	441.81
454.192	411.81
454.412	404.81
454.633	427.81
454.853	432.81
455.073	423.81
455.294	412.81
455.514	409.81
455.734	417.81
455.955	386.81
456.175	413.81
456.395	401.81
456.616	401.81
456.836	418.81
457.056	417.81
457.276	409.81
457.497	416.81
457.717	390.81
457.937	424.81
458.157	404.81
458.377	417.81
458.598	415.81
458.818	440.81
459.038	448.81
459.258	463.81
459.478	478.81
459.698	482.81
459.918	489.81
460.138	508.81
460.358	519.81
460.578	525.81
460.798	542.81
461.018	558.81
461.238	528.81
461.458	556.81
461.678	545.81
461.898	536.81
462.118	549.81
462.338	575.81
462.558	597.81
462.777	624.81
462.997	631.81
463.217	690.81
463.437	701.81
463.657	636.81
463.876	622.81
464.096	601.81
464.316	613.81
464.536	615.81
464.755	601.81
464.975	569.81
465.195	553.81
465.414	524.81
465.634	512.81
465.854	501.81
466.073	493.81
466.293	480.81
466.512	476.81
466.732	458.81
466.951	455.81
467.171	444.81
467.391	461.81
467.61	454.81
467.829	441.81
468.049	450.81
468.268	445.81
468.488	438.81
468.707	445.81
468.927	434.81
469.146	429.81
469.365	438.81
469.585	463.81
469.804	449.81
470.023	463.81
470.243	473.81
470.462	456.81
470.681	472.81
470.901	452.81
471.12	469.81
471.339	460.81
471.558	424.81
471.777	439.81
471.997	446.81
472.216	430.81
472.435	434.81
472.654	417.81
472.873	431.81
473.092	413.81
473.311	430.81
473.53	413.81
473.749	416.81
473.968	433.81
474.187	437.81
474.406	430.81
474.625	423.81
474.844	448.81
475.063	424.81
475.282	416.81
475.501	424.81
475.72	413.81
475.939	430.81
476.158	432.81
476.377	445.81
476.596	434.81
476.814	452.81
477.033	467.81
477.252	446.81
477.471	462.81
477.69	463.81
477.908	481.81
478.127	501.81
478.346	502.81
478.564	493.81
478.783	519.81
479.002	496.81
479.22	512.81
479.439	509.81
479.658	512.81
479.876	511.81
480.095	537.81
480.313	534.81
480.532	538.81
480.751	531.81
480.969	506.81
481.188	529.81
481.406	488.81
481.624	503.81
481.843	467.81
482.061	457.81
482.28	458.81
482.498	481.81
482.717	463.81
482.935	457.81
483.153	464.81
483.372	483.81
483.59	484.81
483.808	465.81
484.027	476.81
484.245	488.81
484.463	487.81
484.681	503.81
484.9	479.81
485.118	477.81
485.336	471.81
485.554	508.81
485.772	477.81
485.99	501.81
486.209	498.81
486.427	469.81
486.645	476.81
486.863	496.81
487.081	490.81
487.299	483.81
487.517	479.81
487.735	506.81
487.953	500.81
488.171	492.81
488.389	488.81
488.607	504.81
488.825	480.81
489.043	495.81
489.261	497.81
489.479	507.81
489.696	511.81
489.914	486.81
490.132	477.81
490.35	493.81
490.568	520.81
490.786	501.81
491.003	516.81
491.221	520.81
491.439	505.81
491.657	517.81
491.874	514.81
492.092	524.81
492.31	508.81
492.527	511.81
492.745	479.81
492.963	501.81
493.18	514.81
493.398	522.81
493.615	516.81
493.833	540.81
494.05	538.81
494.268	550.81
494.485	513.81
494.703	536.81
494.92	526.81
495.138	516.81
495.355	531.81
495.573	537.81
495.79	500.81
496.008	540.81
496.225	531.81
496.442	542.81
496.66	531.81
496.877	564.81
497.094	555.81
497.312	564.81
497.529	592.81
497.746	615.81
497.963	614.81
498.181	637.81
498.398	651.81
498.615	682.81
498.832	709.81
499.049	796.81
499.267	804.81
499.484	901.81
499.701	968.81
499.918	1058.81
500.135	1198.81
500.352	1315.81
500.569	1369.81
500.786	1350.81
501.003	1249.81
501.22	1166.81
501.437	1022.81
501.654	933.81
501.871	874.81
