Data from Fe(NO3)3@0.1M.TitratingCurve.Agarose3%dH2O.NegLispCup.LampEnergy10.LIBS07252019_HRD10591_16-38-21-331.txt Node
Date: Thu Jul 25 16:38:21 EDT 2019
User: cochatt
Spectrometer: HR+D1059
Trigger mode: 1
Integration Time (sec): 1.000000E-1
Scans to average: 1
Electric dark correction enabled: true
Nonlinearity correction enabled: false
Boxcar width: 0
XAxis mode: Wavelengths
Number of Pixels in Spectrum: 2048
>>>>>Begin Spectral Data<<<<<
223.165	-20.06
223.4	-20.06
223.635	-20.06
223.869	-10.06
224.104	-18.06
224.338	-11.06
224.573	-12.06
224.808	-22.06
225.042	-13.06
225.277	-15.06
225.511	-1.06
225.746	-0.06
225.98	12.94
226.215	19.94
226.449	11.94
226.683	12.94
226.918	42.94
227.152	21.94
227.387	30.94
227.621	34.94
227.856	43.94
228.09	35.94
228.324	53.94
228.559	54.94
228.793	53.94
229.027	85.94
229.262	72.94
229.496	74.94
229.73	75.94
229.964	86.94
230.199	96.94
230.433	103.94
230.667	93.94
230.901	87.94
231.136	95.94
231.37	99.94
231.604	113.94
231.838	111.94
232.072	93.94
232.306	98.94
232.541	110.94
232.775	85.94
233.009	98.94
233.243	102.94
233.477	103.94
233.711	82.94
233.945	104.94
234.179	93.94
234.413	85.94
234.647	103.94
234.881	98.94
235.115	108.94
235.349	89.94
235.583	95.94
235.817	102.94
236.051	101.94
236.285	105.94
236.519	94.94
236.753	86.94
236.987	98.94
237.221	108.94
237.455	106.94
237.689	103.94
237.922	92.94
238.156	120.94
238.39	111.94
238.624	112.94
238.858	121.94
239.091	111.94
239.325	96.94
239.559	106.94
239.793	118.94
240.027	122.94
240.26	104.94
240.494	119.94
240.728	120.94
240.961	105.94
241.195	115.94
241.429	126.94
241.662	112.94
241.896	106.94
242.13	121.94
242.363	111.94
242.597	129.94
242.83	117.94
243.064	113.94
243.298	118.94
243.531	126.94
243.765	125.94
243.998	114.94
244.232	115.94
244.465	111.94
244.699	121.94
244.932	144.94
245.166	118.94
245.399	117.94
245.633	118.94
245.866	129.94
246.099	141.94
246.333	126.94
246.566	128.94
246.8	131.94
247.033	126.94
247.266	118.94
247.5	128.94
247.733	142.94
247.966	132.94
248.2	126.94
248.433	118.94
248.666	127.94
248.899	123.94
249.133	142.94
249.366	146.94
249.599	116.94
249.832	116.94
250.066	140.94
250.299	110.94
250.532	137.94
250.765	141.94
250.998	135.94
251.231	136.94
251.465	139.94
251.698	143.94
251.931	150.94
252.164	153.94
252.397	139.94
252.63	144.94
252.863	141.94
253.096	156.94
253.329	148.94
253.562	149.94
253.795	138.94
254.028	142.94
254.261	140.94
254.494	144.94
254.727	159.94
254.96	159.94
255.193	145.94
255.426	142.94
255.659	163.94
255.892	156.94
256.124	141.94
256.357	152.94
256.59	162.94
256.823	148.94
257.056	148.94
257.289	158.94
257.521	142.94
257.754	147.94
257.987	139.94
258.22	133.94
258.452	146.94
258.685	150.94
258.918	160.94
259.151	165.94
259.383	163.94
259.616	148.94
259.849	176.94
260.081	175.94
260.314	159.94
260.547	164.94
260.779	165.94
261.012	166.94
261.244	164.94
261.477	153.94
261.71	162.94
261.942	159.94
262.175	172.94
262.407	164.94
262.64	160.94
262.872	158.94
263.105	177.94
263.337	159.94
263.57	163.94
263.802	170.94
264.035	171.94
264.267	152.94
264.499	155.94
264.732	165.94
264.964	159.94
265.197	170.94
265.429	170.94
265.661	165.94
265.894	176.94
266.126	188.94
266.358	189.94
266.591	172.94
266.823	190.94
267.055	172.94
267.287	170.94
267.52	171.94
267.752	176.94
267.984	167.94
268.216	178.94
268.448	174.94
268.681	168.94
268.913	176.94
269.145	178.94
269.377	194.94
269.609	179.94
269.841	197.94
270.073	182.94
270.306	176.94
270.538	185.94
270.77	171.94
271.002	184.94
271.234	172.94
271.466	196.94
271.698	193.94
271.93	186.94
272.162	183.94
272.394	186.94
272.626	195.94
272.858	190.94
273.09	200.94
273.322	186.94
273.553	180.94
273.785	171.94
274.017	182.94
274.249	198.94
274.481	198.94
274.713	193.94
274.945	198.94
275.176	200.94
275.408	203.94
275.64	213.94
275.872	227.94
276.104	199.94
276.335	195.94
276.567	192.94
276.799	201.94
277.031	200.94
277.262	203.94
277.494	209.94
277.726	208.94
277.957	194.94
278.189	212.94
278.421	216.94
278.652	197.94
278.884	220.94
279.115	201.94
279.347	198.94
279.579	209.94
279.81	213.94
280.042	199.94
280.273	219.94
280.505	200.94
280.736	217.94
280.968	200.94
281.199	211.94
281.431	202.94
281.662	208.94
281.894	218.94
282.125	201.94
282.356	202.94
282.588	226.94
282.819	218.94
283.051	215.94
283.282	215.94
283.513	222.94
283.745	209.94
283.976	198.94
284.207	215.94
284.439	230.94
284.67	220.94
284.901	219.94
285.132	239.94
285.364	217.94
285.595	226.94
285.826	231.94
286.057	229.94
286.288	233.94
286.52	240.94
286.751	227.94
286.982	224.94
287.213	235.94
287.444	221.94
287.675	243.94
287.906	242.94
288.138	231.94
288.369	227.94
288.6	239.94
288.831	208.94
289.062	235.94
289.293	227.94
289.524	240.94
289.755	241.94
289.986	238.94
290.217	242.94
290.448	231.94
290.679	228.94
290.91	237.94
291.141	246.94
291.371	241.94
291.602	240.94
291.833	254.94
292.064	238.94
292.295	221.94
292.526	240.94
292.757	257.94
292.987	248.94
293.218	231.94
293.449	245.94
293.68	233.94
293.91	246.94
294.141	223.94
294.372	248.94
294.603	262.94
294.833	232.94
295.064	237.94
295.295	242.94
295.525	219.94
295.756	248.94
295.987	255.94
296.217	235.94
296.448	240.94
296.679	260.94
296.909	247.94
297.14	261.94
297.37	237.94
297.601	248.94
297.831	235.94
298.062	245.94
298.292	261.94
298.523	245.94
298.753	238.94
298.984	267.94
299.214	239.94
299.445	262.94
299.675	244.94
299.905	245.94
300.136	242.94
300.366	259.94
300.597	256.94
300.827	246.94
301.057	259.94
301.288	273.94
301.518	247.94
301.748	271.94
301.979	267.94
302.209	266.94
302.439	276.94
302.669	270.94
302.9	260.94
303.13	262.94
303.36	274.94
303.59	256.94
303.82	276.94
304.051	266.94
304.281	280.94
304.511	274.94
304.741	272.94
304.971	274.94
305.201	263.94
305.431	262.94
305.661	255.94
305.891	256.94
306.121	266.94
306.352	287.94
306.582	278.94
306.812	264.94
307.042	260.94
307.272	263.94
307.502	274.94
307.731	269.94
307.961	261.94
308.191	264.94
308.421	270.94
308.651	272.94
308.881	272.94
309.111	267.94
309.341	264.94
309.571	241.94
309.8	256.94
310.03	255.94
310.26	251.94
310.49	254.94
310.72	266.94
310.949	261.94
311.179	254.94
311.409	265.94
311.639	259.94
311.868	258.94
312.098	274.94
312.328	264.94
312.557	275.94
312.787	298.94
313.017	276.94
313.246	295.94
313.476	255.94
313.706	278.94
313.935	267.94
314.165	282.94
314.394	270.94
314.624	277.94
314.853	278.94
315.083	262.94
315.312	274.94
315.542	263.94
315.771	272.94
316.001	287.94
316.23	260.94
316.46	278.94
316.689	288.94
316.919	271.94
317.148	275.94
317.377	267.94
317.607	267.94
317.836	271.94
318.065	278.94
318.295	280.94
318.524	280.94
318.753	289.94
318.983	274.94
319.212	285.94
319.441	281.94
319.67	292.94
319.9	284.94
320.129	269.94
320.358	277.94
320.587	268.94
320.816	278.94
321.046	284.94
321.275	292.94
321.504	269.94
321.733	267.94
321.962	292.94
322.191	284.94
322.42	304.94
322.649	286.94
322.878	292.94
323.108	294.94
323.337	296.94
323.566	281.94
323.795	288.94
324.024	288.94
324.253	290.94
324.482	282.94
324.71	289.94
324.939	304.94
325.168	279.94
325.397	298.94
325.626	306.94
325.855	297.94
326.084	302.94
326.313	299.94
326.542	298.94
326.77	312.94
326.999	299.94
327.228	318.94
327.457	290.94
327.686	303.94
327.914	302.94
328.143	326.94
328.372	311.94
328.6	309.94
328.829	299.94
329.058	290.94
329.287	286.94
329.515	304.94
329.744	321.94
329.972	299.94
330.201	296.94
330.43	321.94
330.658	328.94
330.887	318.94
331.115	318.94
331.344	310.94
331.572	339.94
331.801	329.94
332.03	315.94
332.258	311.94
332.486	344.94
332.715	331.94
332.943	344.94
333.172	354.94
333.4	377.94
333.629	358.94
333.857	361.94
334.085	382.94
334.314	371.94
334.542	366.94
334.771	362.94
334.999	352.94
335.227	342.94
335.455	348.94
335.684	352.94
335.912	349.94
336.14	359.94
336.369	344.94
336.597	345.94
336.825	337.94
337.053	352.94
337.281	324.94
337.51	344.94
337.738	336.94
337.966	344.94
338.194	337.94
338.422	337.94
338.65	324.94
338.878	340.94
339.106	329.94
339.334	315.94
339.562	312.94
339.79	326.94
340.018	312.94
340.246	314.94
340.474	315.94
340.702	312.94
340.93	319.94
341.158	314.94
341.386	313.94
341.614	310.94
341.842	298.94
342.07	309.94
342.298	313.94
342.526	314.94
342.754	326.94
342.981	322.94
343.209	341.94
343.437	336.94
343.665	344.94
343.893	346.94
344.12	358.94
344.348	356.94
344.576	322.94
344.804	331.94
345.031	343.94
345.259	322.94
345.487	295.94
345.714	326.94
345.942	304.94
346.17	314.94
346.397	314.94
346.625	319.94
346.853	280.94
347.08	320.94
347.308	307.94
347.535	310.94
347.763	304.94
347.99	314.94
348.218	293.94
348.445	309.94
348.673	294.94
348.9	310.94
349.128	310.94
349.355	289.94
349.583	310.94
349.81	292.94
350.037	314.94
350.265	302.94
350.492	319.94
350.72	310.94
350.947	292.94
351.174	300.94
351.402	301.94
351.629	290.94
351.856	286.94
352.083	302.94
352.311	313.94
352.538	278.94
352.765	281.94
352.992	308.94
353.22	306.94
353.447	308.94
353.674	282.94
353.901	299.94
354.128	305.94
354.355	298.94
354.583	304.94
354.81	311.94
355.037	312.94
355.264	297.94
355.491	313.94
355.718	315.94
355.945	321.94
356.172	302.94
356.399	304.94
356.626	324.94
356.853	324.94
357.08	320.94
357.307	310.94
357.534	302.94
357.761	322.94
357.988	320.94
358.215	298.94
358.441	305.94
358.668	297.94
358.895	304.94
359.122	306.94
359.349	304.94
359.576	318.94
359.802	299.94
360.029	295.94
360.256	303.94
360.483	303.94
360.709	321.94
360.936	304.94
361.163	292.94
361.39	312.94
361.616	295.94
361.843	311.94
362.07	296.94
362.296	299.94
362.523	298.94
362.749	323.94
362.976	310.94
363.203	300.94
363.429	313.94
363.656	308.94
363.882	316.94
364.109	319.94
364.335	295.94
364.562	294.94
364.788	320.94
365.015	304.94
365.241	314.94
365.468	305.94
365.694	302.94
365.92	312.94
366.147	292.94
366.373	314.94
366.599	311.94
366.826	310.94
367.052	290.94
367.278	310.94
367.505	324.94
367.731	306.94
367.957	303.94
368.184	307.94
368.41	321.94
368.636	310.94
368.862	306.94
369.089	322.94
369.315	321.94
369.541	323.94
369.767	312.94
369.993	326.94
370.219	319.94
370.445	323.94
370.672	323.94
370.898	326.94
371.124	324.94
371.35	328.94
371.576	331.94
371.802	337.94
372.028	329.94
372.254	340.94
372.48	331.94
372.706	341.94
372.932	335.94
373.158	345.94
373.384	328.94
373.61	338.94
373.835	344.94
374.061	337.94
374.287	336.94
374.513	336.94
374.739	339.94
374.965	350.94
375.191	358.94
375.416	355.94
375.642	357.94
375.868	343.94
376.094	340.94
376.319	333.94
376.545	326.94
376.771	338.94
376.997	339.94
377.222	344.94
377.448	342.94
377.674	335.94
377.899	324.94
378.125	345.94
378.35	334.94
378.576	347.94
378.802	336.94
379.027	343.94
379.253	347.94
379.478	331.94
379.704	311.94
379.929	329.94
380.155	333.94
380.38	330.94
380.606	320.94
380.831	340.94
381.057	326.94
381.282	340.94
381.507	341.94
381.733	337.94
381.958	332.94
382.184	353.94
382.409	351.94
382.634	374.94
382.86	357.94
383.085	361.94
383.31	351.94
383.535	366.94
383.761	371.94
383.986	370.94
384.211	360.94
384.436	372.94
384.662	368.94
384.887	405.94
385.112	374.94
385.337	390.94
385.562	408.94
385.787	387.94
386.013	386.94
386.238	407.94
386.463	419.94
386.688	396.94
386.913	392.94
387.138	399.94
387.363	409.94
387.588	371.94
387.813	380.94
388.038	390.94
388.263	388.94
388.488	400.94
388.713	392.94
388.938	383.94
389.163	409.94
389.387	400.94
389.612	387.94
389.837	398.94
390.062	407.94
390.287	404.94
390.512	401.94
390.736	384.94
390.961	414.94
391.186	403.94
391.411	423.94
391.636	415.94
391.86	422.94
392.085	427.94
392.31	426.94
392.534	416.94
392.759	444.94
392.984	410.94
393.208	416.94
393.433	421.94
393.658	410.94
393.882	427.94
394.107	410.94
394.331	412.94
394.556	424.94
394.78	430.94
395.005	422.94
395.229	448.94
395.454	435.94
395.678	434.94
395.903	437.94
396.127	455.94
396.352	438.94
396.576	423.94
396.801	420.94
397.025	425.94
397.249	435.94
397.474	441.94
397.698	434.94
397.922	442.94
398.147	472.94
398.371	481.94
398.595	483.94
398.82	486.94
399.044	512.94
399.268	556.94
399.492	596.94
399.717	665.94
399.941	662.94
400.165	623.94
400.389	579.94
400.613	532.94
400.837	530.94
401.062	484.94
401.286	494.94
401.51	496.94
401.734	504.94
401.958	501.94
402.182	507.94
402.406	481.94
402.63	493.94
402.854	504.94
403.078	514.94
403.302	527.94
403.526	530.94
403.75	523.94
403.974	551.94
404.198	530.94
404.422	552.94
404.645	540.94
404.869	529.94
405.093	543.94
405.317	524.94
405.541	516.94
405.765	522.94
405.988	514.94
406.212	501.94
406.436	524.94
406.66	547.94
406.883	559.94
407.107	581.94
407.331	560.94
407.555	579.94
407.778	607.94
408.002	576.94
408.226	572.94
408.449	559.94
408.673	548.94
408.896	560.94
409.12	556.94
409.344	547.94
409.567	515.94
409.791	539.94
410.014	544.94
410.238	543.94
410.461	530.94
410.685	532.94
410.908	547.94
411.132	509.94
411.355	497.94
411.578	524.94
411.802	531.94
412.025	527.94
412.249	527.94
412.472	528.94
412.695	495.94
412.919	463.94
413.142	473.94
413.365	508.94
413.589	495.94
413.812	483.94
414.035	482.94
414.258	480.94
414.482	506.94
414.705	508.94
414.928	518.94
415.151	521.94
415.374	516.94
415.597	510.94
415.821	485.94
416.044	460.94
416.267	496.94
416.49	475.94
416.713	495.94
416.936	474.94
417.159	480.94
417.382	484.94
417.605	498.94
417.828	475.94
418.051	484.94
418.274	480.94
418.497	484.94
418.72	474.94
418.943	490.94
419.166	503.94
419.389	541.94
419.611	529.94
419.834	487.94
420.057	516.94
420.28	487.94
420.503	488.94
420.726	470.94
420.948	470.94
421.171	475.94
421.394	494.94
421.617	473.94
421.839	500.94
422.062	484.94
422.285	501.94
422.507	508.94
422.73	470.94
422.953	471.94
423.175	507.94
423.398	518.94
423.621	488.94
423.843	518.94
424.066	485.94
424.288	500.94
424.511	502.94
424.733	487.94
424.956	505.94
425.178	490.94
425.401	479.94
425.623	504.94
425.846	478.94
426.068	469.94
426.291	460.94
426.513	486.94
426.735	465.94
426.958	443.94
427.18	450.94
427.402	452.94
427.625	459.94
427.847	458.94
428.069	428.94
428.292	437.94
428.514	473.94
428.736	427.94
428.958	418.94
429.181	428.94
429.403	435.94
429.625	413.94
429.847	436.94
430.069	423.94
430.292	432.94
430.514	411.94
430.736	447.94
430.958	417.94
431.18	423.94
431.402	440.94
431.624	439.94
431.846	439.94
432.068	430.94
432.29	442.94
432.512	442.94
432.734	443.94
432.956	437.94
433.178	444.94
433.4	450.94
433.622	444.94
433.844	457.94
434.066	439.94
434.287	460.94
434.509	458.94
434.731	455.94
434.953	489.94
435.175	464.94
435.397	480.94
435.618	468.94
435.84	467.94
436.062	451.94
436.284	430.94
436.505	424.94
436.727	433.94
436.949	449.94
437.17	450.94
437.392	433.94
437.614	444.94
437.835	428.94
438.057	421.94
438.278	431.94
438.5	410.94
438.721	443.94
438.943	418.94
439.165	437.94
439.386	464.94
439.608	429.94
439.829	442.94
440.05	428.94
440.272	433.94
440.493	446.94
440.715	453.94
440.936	439.94
441.158	459.94
441.379	465.94
441.6	464.94
441.822	496.94
442.043	490.94
442.264	462.94
442.486	478.94
442.707	483.94
442.928	483.94
443.149	455.94
443.371	462.94
443.592	490.94
443.813	465.94
444.034	481.94
444.255	510.94
444.476	544.94
444.698	523.94
444.919	537.94
445.14	670.94
445.361	568.94
445.582	482.94
445.803	467.94
446.024	458.94
446.245	440.94
446.466	447.94
446.687	434.94
446.908	452.94
447.129	441.94
447.35	438.94
447.571	444.94
447.792	431.94
448.013	422.94
448.234	420.94
448.455	417.94
448.675	426.94
448.896	418.94
449.117	399.94
449.338	407.94
449.559	432.94
449.779	394.94
450	418.94
450.221	422.94
450.442	397.94
450.662	398.94
450.883	423.94
451.104	420.94
451.324	395.94
451.545	407.94
451.766	400.94
451.986	417.94
452.207	423.94
452.428	431.94
452.648	411.94
452.869	418.94
453.089	410.94
453.31	393.94
453.53	400.94
453.751	384.94
453.971	386.94
454.192	400.94
454.412	385.94
454.633	384.94
454.853	380.94
455.073	379.94
455.294	379.94
455.514	395.94
455.734	388.94
455.955	397.94
456.175	395.94
456.395	386.94
456.616	384.94
456.836	387.94
457.056	384.94
457.276	370.94
457.497	375.94
457.717	375.94
457.937	398.94
458.157	382.94
458.377	390.94
458.598	411.94
458.818	394.94
459.038	415.94
459.258	421.94
459.478	424.94
459.698	439.94
459.918	454.94
460.138	474.94
460.358	478.94
460.578	503.94
460.798	503.94
461.018	490.94
461.238	507.94
461.458	491.94
461.678	482.94
461.898	502.94
462.118	523.94
462.338	526.94
462.558	539.94
462.777	537.94
462.997	587.94
463.217	615.94
463.437	636.94
463.657	572.94
463.876	580.94
464.096	576.94
464.316	548.94
464.536	569.94
464.755	538.94
464.975	512.94
465.195	510.94
465.414	485.94
465.634	471.94
465.854	446.94
466.073	465.94
466.293	453.94
466.512	460.94
466.732	442.94
466.951	432.94
467.171	447.94
467.391	419.94
467.61	434.94
467.829	424.94
468.049	413.94
468.268	406.94
468.488	418.94
468.707	414.94
468.927	408.94
469.146	408.94
469.365	430.94
469.585	416.94
469.804	422.94
470.023	417.94
470.243	436.94
470.462	418.94
470.681	412.94
470.901	424.94
471.12	432.94
471.339	416.94
471.558	414.94
471.777	421.94
471.997	419.94
472.216	407.94
472.435	392.94
472.654	405.94
472.873	398.94
473.092	415.94
473.311	414.94
473.53	410.94
473.749	394.94
473.968	410.94
474.187	409.94
474.406	383.94
474.625	403.94
474.844	380.94
475.063	436.94
475.282	409.94
475.501	413.94
475.72	428.94
475.939	413.94
476.158	418.94
476.377	416.94
476.596	428.94
476.814	424.94
477.033	425.94
477.252	427.94
477.471	451.94
477.69	438.94
477.908	459.94
478.127	449.94
478.346	461.94
478.564	457.94
478.783	485.94
479.002	473.94
479.22	491.94
479.439	510.94
479.658	492.94
479.876	495.94
480.095	472.94
480.313	503.94
480.532	530.94
480.751	525.94
480.969	483.94
481.188	479.94
481.406	478.94
481.624	452.94
481.843	459.94
482.061	436.94
482.28	470.94
482.498	463.94
482.717	452.94
482.935	469.94
483.153	475.94
483.372	454.94
483.59	454.94
483.808	470.94
484.027	456.94
484.245	437.94
484.463	452.94
484.681	481.94
484.9	464.94
485.118	478.94
485.336	467.94
485.554	491.94
485.772	482.94
485.99	466.94
486.209	479.94
486.427	480.94
486.645	477.94
486.863	441.94
487.081	478.94
487.299	460.94
487.517	471.94
487.735	487.94
487.953	466.94
488.171	468.94
488.389	478.94
488.607	469.94
488.825	465.94
489.043	474.94
489.261	478.94
489.479	469.94
489.696	469.94
489.914	496.94
490.132	473.94
490.35	457.94
490.568	470.94
490.786	489.94
491.003	490.94
491.221	482.94
491.439	495.94
491.657	469.94
491.874	468.94
492.092	486.94
492.31	472.94
492.527	480.94
492.745	480.94
492.963	524.94
493.18	512.94
493.398	499.94
493.615	498.94
493.833	498.94
494.05	502.94
494.268	483.94
494.485	514.94
494.703	510.94
494.92	521.94
495.138	513.94
495.355	516.94
495.573	516.94
495.79	500.94
496.008	509.94
496.225	492.94
496.442	508.94
496.66	550.94
496.877	541.94
497.094	549.94
497.312	562.94
497.529	556.94
497.746	553.94
497.963	572.94
498.181	574.94
498.398	629.94
498.615	691.94
498.832	683.94
499.049	721.94
499.267	771.94
499.484	810.94
499.701	884.94
499.918	944.94
500.135	1037.94
500.352	1162.94
500.569	1182.94
500.786	1190.94
501.003	1143.94
501.22	1010.94
501.437	934.94
501.654	860.94
501.871	835.94
