Data from Fe(NO3)3@0.05M.TitratingCurve.Agarose3%dH2O.NegLispCup.LampEnergy10.LIBS07252019_HRD10591_16-45-41-334.txt Node
Date: Thu Jul 25 16:45:41 EDT 2019
User: cochatt
Spectrometer: HR+D1059
Trigger mode: 1
Integration Time (sec): 1.000000E-1
Scans to average: 1
Electric dark correction enabled: true
Nonlinearity correction enabled: false
Boxcar width: 0
XAxis mode: Wavelengths
Number of Pixels in Spectrum: 2048
>>>>>Begin Spectral Data<<<<<
223.165	-13.06
223.4	-13.06
223.635	-13.06
223.869	-12.06
224.104	-17.06
224.338	-21.06
224.573	-9.06
224.808	-11.06
225.042	-20.06
225.277	-5.06
225.511	-7.06
225.746	1.94
225.98	4.94
226.215	11.94
226.449	10.94
226.683	22.94
226.918	32.94
227.152	29.94
227.387	35.94
227.621	50.94
227.856	40.94
228.09	55.94
228.324	47.94
228.559	63.94
228.793	79.94
229.027	127.94
229.262	120.94
229.496	131.94
229.73	141.94
229.964	149.94
230.199	164.94
230.433	155.94
230.667	156.94
230.901	155.94
231.136	170.94
231.37	166.94
231.604	143.94
231.838	160.94
232.072	158.94
232.306	164.94
232.541	162.94
232.775	167.94
233.009	170.94
233.243	185.94
233.477	192.94
233.711	180.94
233.945	193.94
234.179	194.94
234.413	195.94
234.647	202.94
234.881	213.94
235.115	196.94
235.349	217.94
235.583	199.94
235.817	189.94
236.051	185.94
236.285	202.94
236.519	223.94
236.753	218.94
236.987	218.94
237.221	193.94
237.455	204.94
237.689	220.94
237.922	214.94
238.156	231.94
238.39	268.94
238.624	295.94
238.858	273.94
239.091	246.94
239.325	235.94
239.559	250.94
239.793	274.94
240.027	313.94
240.26	268.94
240.494	263.94
240.728	281.94
240.961	305.94
241.195	274.94
241.429	283.94
241.662	274.94
241.896	268.94
242.13	280.94
242.363	243.94
242.597	236.94
242.83	266.94
243.064	266.94
243.298	263.94
243.531	286.94
243.765	282.94
243.998	296.94
244.232	283.94
244.465	288.94
244.699	272.94
244.932	302.94
245.166	299.94
245.399	268.94
245.633	280.94
245.866	283.94
246.099	299.94
246.333	305.94
246.566	306.94
246.8	315.94
247.033	345.94
247.266	303.94
247.5	319.94
247.733	326.94
247.966	310.94
248.2	316.94
248.433	341.94
248.666	357.94
248.899	340.94
249.133	360.94
249.366	361.94
249.599	385.94
249.832	389.94
250.066	351.94
250.299	352.94
250.532	360.94
250.765	345.94
250.998	326.94
251.231	347.94
251.465	352.94
251.698	379.94
251.931	344.94
252.164	364.94
252.397	377.94
252.63	397.94
252.863	418.94
253.096	428.94
253.329	417.94
253.562	426.94
253.795	432.94
254.028	440.94
254.261	465.94
254.494	430.94
254.727	384.94
254.96	415.94
255.193	420.94
255.426	419.94
255.659	383.94
255.892	391.94
256.124	391.94
256.357	382.94
256.59	454.94
256.823	433.94
257.056	415.94
257.289	396.94
257.521	402.94
257.754	418.94
257.987	438.94
258.22	409.94
258.452	414.94
258.685	448.94
258.918	486.94
259.151	446.94
259.383	452.94
259.616	463.94
259.849	496.94
260.081	606.94
260.314	663.94
260.547	535.94
260.779	471.94
261.012	533.94
261.244	544.94
261.477	524.94
261.71	522.94
261.942	500.94
262.175	475.94
262.407	466.94
262.64	462.94
262.872	508.94
263.105	554.94
263.337	583.94
263.57	568.94
263.802	471.94
264.035	456.94
264.267	418.94
264.499	432.94
264.732	434.94
264.964	446.94
265.197	446.94
265.429	443.94
265.661	443.94
265.894	451.94
266.126	466.94
266.358	435.94
266.591	460.94
266.823	490.94
267.055	471.94
267.287	482.94
267.52	469.94
267.752	458.94
267.984	459.94
268.216	467.94
268.448	475.94
268.681	467.94
268.913	468.94
269.145	475.94
269.377	472.94
269.609	496.94
269.841	499.94
270.073	490.94
270.306	491.94
270.538	489.94
270.77	497.94
271.002	522.94
271.234	497.94
271.466	527.94
271.698	527.94
271.93	552.94
272.162	535.94
272.394	536.94
272.626	544.94
272.858	551.94
273.09	568.94
273.322	564.94
273.553	569.94
273.785	588.94
274.017	630.94
274.249	701.94
274.481	696.94
274.713	733.94
274.945	827.94
275.176	871.94
275.408	766.94
275.64	723.94
275.872	742.94
276.104	678.94
276.335	586.94
276.567	580.94
276.799	598.94
277.031	586.94
277.262	572.94
277.494	564.94
277.726	577.94
277.957	576.94
278.189	595.94
278.421	579.94
278.652	588.94
278.884	584.94
279.115	577.94
279.347	579.94
279.579	573.94
279.81	588.94
280.042	570.94
280.273	584.94
280.505	572.94
280.736	579.94
280.968	571.94
281.199	581.94
281.431	573.94
281.662	592.94
281.894	574.94
282.125	583.94
282.356	619.94
282.588	592.94
282.819	605.94
283.051	614.94
283.282	602.94
283.513	596.94
283.745	618.94
283.976	646.94
284.207	610.94
284.439	626.94
284.67	630.94
284.901	622.94
285.132	632.94
285.364	624.94
285.595	619.94
285.826	640.94
286.057	640.94
286.288	607.94
286.52	626.94
286.751	660.94
286.982	642.94
287.213	666.94
287.444	640.94
287.675	659.94
287.906	673.94
288.138	635.94
288.369	641.94
288.6	651.94
288.831	651.94
289.062	632.94
289.293	638.94
289.524	642.94
289.755	619.94
289.986	653.94
290.217	650.94
290.448	645.94
290.679	645.94
290.91	656.94
291.141	648.94
291.371	634.94
291.602	638.94
291.833	660.94
292.064	662.94
292.295	619.94
292.526	648.94
292.757	638.94
292.987	664.94
293.218	638.94
293.449	667.94
293.68	638.94
293.91	681.94
294.141	655.94
294.372	679.94
294.603	674.94
294.833	673.94
295.064	708.94
295.295	684.94
295.525	676.94
295.756	669.94
295.987	663.94
296.217	678.94
296.448	673.94
296.679	681.94
296.909	694.94
297.14	675.94
297.37	690.94
297.601	672.94
297.831	692.94
298.062	729.94
298.292	691.94
298.523	736.94
298.753	733.94
298.984	703.94
299.214	704.94
299.445	709.94
299.675	687.94
299.905	706.94
300.136	727.94
300.366	732.94
300.597	705.94
300.827	725.94
301.057	727.94
301.288	745.94
301.518	745.94
301.748	735.94
301.979	765.94
302.209	760.94
302.439	776.94
302.669	740.94
302.9	743.94
303.13	718.94
303.36	740.94
303.59	753.94
303.82	740.94
304.051	751.94
304.281	771.94
304.511	747.94
304.741	737.94
304.971	746.94
305.201	762.94
305.431	760.94
305.661	768.94
305.891	768.94
306.121	778.94
306.352	763.94
306.582	753.94
306.812	762.94
307.042	743.94
307.272	745.94
307.502	736.94
307.731	752.94
307.961	736.94
308.191	754.94
308.421	770.94
308.651	736.94
308.881	742.94
309.111	776.94
309.341	767.94
309.571	759.94
309.8	756.94
310.03	783.94
310.26	766.94
310.49	767.94
310.72	773.94
310.949	762.94
311.179	770.94
311.409	785.94
311.639	784.94
311.868	738.94
312.098	778.94
312.328	757.94
312.557	777.94
312.787	794.94
313.017	773.94
313.246	827.94
313.476	809.94
313.706	808.94
313.935	810.94
314.165	803.94
314.394	834.94
314.624	800.94
314.853	801.94
315.083	789.94
315.312	827.94
315.542	825.94
315.771	795.94
316.001	804.94
316.23	817.94
316.46	819.94
316.689	814.94
316.919	804.94
317.148	820.94
317.377	844.94
317.607	828.94
317.836	803.94
318.065	830.94
318.295	841.94
318.524	820.94
318.753	818.94
318.983	814.94
319.212	806.94
319.441	844.94
319.67	819.94
319.9	819.94
320.129	840.94
320.358	831.94
320.587	823.94
320.816	846.94
321.046	832.94
321.275	831.94
321.504	891.94
321.733	869.94
321.962	855.94
322.191	830.94
322.42	861.94
322.649	851.94
322.878	866.94
323.108	851.94
323.337	888.94
323.566	875.94
323.795	848.94
324.024	881.94
324.253	867.94
324.482	852.94
324.71	887.94
324.939	871.94
325.168	893.94
325.397	858.94
325.626	884.94
325.855	871.94
326.084	891.94
326.313	888.94
326.542	901.94
326.77	884.94
326.999	894.94
327.228	867.94
327.457	896.94
327.686	906.94
327.914	884.94
328.143	915.94
328.372	865.94
328.6	889.94
328.829	878.94
329.058	888.94
329.287	881.94
329.515	910.94
329.744	930.94
329.972	891.94
330.201	920.94
330.43	897.94
330.658	906.94
330.887	900.94
331.115	931.94
331.344	948.94
331.572	940.94
331.801	950.94
332.03	950.94
332.258	933.94
332.486	952.94
332.715	966.94
332.943	988.94
333.172	1007.94
333.4	990.94
333.629	1006.94
333.857	1055.94
334.085	1054.94
334.314	1042.94
334.542	1037.94
334.771	1030.94
334.999	1010.94
335.227	994.94
335.455	1011.94
335.684	1043.94
335.912	1035.94
336.14	1019.94
336.369	1027.94
336.597	1016.94
336.825	1010.94
337.053	1005.94
337.281	1023.94
337.51	987.94
337.738	990.94
337.966	987.94
338.194	1016.94
338.422	996.94
338.65	981.94
338.878	980.94
339.106	968.94
339.334	985.94
339.562	993.94
339.79	967.94
340.018	986.94
340.246	978.94
340.474	980.94
340.702	976.94
340.93	991.94
341.158	974.94
341.386	975.94
341.614	966.94
341.842	978.94
342.07	956.94
342.298	948.94
342.526	956.94
342.754	956.94
342.981	946.94
343.209	976.94
343.437	981.94
343.665	999.94
343.893	1027.94
344.12	1061.94
344.348	1056.94
344.576	1042.94
344.804	994.94
345.031	998.94
345.259	975.94
345.487	982.94
345.714	950.94
345.942	952.94
346.17	965.94
346.397	968.94
346.625	937.94
346.853	926.94
347.08	912.94
347.308	926.94
347.535	956.94
347.763	938.94
347.99	927.94
348.218	920.94
348.445	901.94
348.673	899.94
348.9	912.94
349.128	909.94
349.355	906.94
349.583	954.94
349.81	921.94
350.037	915.94
350.265	872.94
350.492	906.94
350.72	937.94
350.947	931.94
351.174	899.94
351.402	889.94
351.629	895.94
351.856	902.94
352.083	901.94
352.311	904.94
352.538	881.94
352.765	900.94
352.992	909.94
353.22	930.94
353.447	900.94
353.674	915.94
353.901	922.94
354.128	943.94
354.355	895.94
354.583	874.94
354.81	890.94
355.037	921.94
355.264	904.94
355.491	904.94
355.718	937.94
355.945	908.94
356.172	940.94
356.399	935.94
356.626	934.94
356.853	962.94
357.08	974.94
357.307	964.94
357.534	979.94
357.761	916.94
357.988	924.94
358.215	968.94
358.441	980.94
358.668	935.94
358.895	939.94
359.122	909.94
359.349	911.94
359.576	904.94
359.802	919.94
360.029	919.94
360.256	915.94
360.483	916.94
360.709	976.94
360.936	966.94
361.163	937.94
361.39	939.94
361.616	935.94
361.843	938.94
362.07	957.94
362.296	959.94
362.523	947.94
362.749	906.94
362.976	957.94
363.203	955.94
363.429	952.94
363.656	951.94
363.882	936.94
364.109	944.94
364.335	929.94
364.562	918.94
364.788	952.94
365.015	971.94
365.241	942.94
365.468	951.94
365.694	929.94
365.92	919.94
366.147	947.94
366.373	933.94
366.599	957.94
366.826	937.94
367.052	958.94
367.278	947.94
367.505	934.94
367.731	961.94
367.957	947.94
368.184	999.94
368.41	978.94
368.636	958.94
368.862	992.94
369.089	969.94
369.315	961.94
369.541	961.94
369.767	996.94
369.993	961.94
370.219	995.94
370.445	977.94
370.672	1014.94
370.898	1000.94
371.124	1040.94
371.35	1053.94
371.576	1016.94
371.802	1027.94
372.028	1043.94
372.254	1088.94
372.48	1060.94
372.706	1017.94
372.932	1041.94
373.158	1038.94
373.384	1065.94
373.61	1094.94
373.835	1130.94
374.061	1056.94
374.287	1044.94
374.513	1087.94
374.739	1090.94
374.965	1137.94
375.191	1111.94
375.416	1091.94
375.642	1037.94
375.868	1072.94
376.094	1078.94
376.319	1052.94
376.545	1086.94
376.771	1060.94
376.997	1046.94
377.222	1022.94
377.448	1021.94
377.674	983.94
377.899	986.94
378.125	1003.94
378.35	1008.94
378.576	1028.94
378.802	1024.94
379.027	1049.94
379.253	1042.94
379.478	1014.94
379.704	1012.94
379.929	1018.94
380.155	1032.94
380.38	1019.94
380.606	1048.94
380.831	1011.94
381.057	1068.94
381.282	1088.94
381.507	1056.94
381.733	1099.94
381.958	1108.94
382.184	1102.94
382.409	1106.94
382.634	1103.94
382.86	1115.94
383.085	1104.94
383.31	1113.94
383.535	1114.94
383.761	1082.94
383.986	1124.94
384.211	1137.94
384.436	1139.94
384.662	1159.94
384.887	1120.94
385.112	1123.94
385.337	1145.94
385.562	1158.94
385.787	1174.94
386.013	1204.94
386.238	1206.94
386.463	1170.94
386.688	1168.94
386.913	1182.94
387.138	1200.94
387.363	1205.94
387.588	1200.94
387.813	1218.94
388.038	1193.94
388.263	1206.94
388.488	1208.94
388.713	1220.94
388.938	1229.94
389.163	1184.94
389.387	1208.94
389.612	1190.94
389.837	1180.94
390.062	1211.94
390.287	1228.94
390.512	1232.94
390.736	1235.94
390.961	1241.94
391.186	1220.94
391.411	1244.94
391.636	1242.94
391.86	1257.94
392.085	1257.94
392.31	1278.94
392.534	1270.94
392.759	1268.94
392.984	1266.94
393.208	1244.94
393.433	1280.94
393.658	1272.94
393.882	1241.94
394.107	1255.94
394.331	1258.94
394.556	1258.94
394.78	1258.94
395.005	1283.94
395.229	1260.94
395.454	1262.94
395.678	1299.94
395.903	1287.94
396.127	1315.94
396.352	1282.94
396.576	1296.94
396.801	1278.94
397.025	1346.94
397.249	1304.94
397.474	1356.94
397.698	1316.94
397.922	1356.94
398.147	1356.94
398.371	1376.94
398.595	1379.94
398.82	1386.94
399.044	1463.94
399.268	1518.94
399.492	1570.94
399.717	1608.94
399.941	1673.94
400.165	1616.94
400.389	1604.94
400.613	1574.94
400.837	1510.94
401.062	1458.94
401.286	1453.94
401.51	1452.94
401.734	1437.94
401.958	1428.94
402.182	1481.94
402.406	1446.94
402.63	1417.94
402.854	1440.94
403.078	1441.94
403.302	1456.94
403.526	1469.94
403.75	1444.94
403.974	1454.94
404.198	1458.94
404.422	1480.94
404.645	1478.94
404.869	1489.94
405.093	1444.94
405.317	1464.94
405.541	1467.94
405.765	1496.94
405.988	1512.94
406.212	1510.94
406.436	1545.94
406.66	1586.94
406.883	1556.94
407.107	1582.94
407.331	1638.94
407.555	1655.94
407.778	1639.94
408.002	1652.94
408.226	1643.94
408.449	1626.94
408.673	1573.94
408.896	1569.94
409.12	1586.94
409.344	1539.94
409.567	1525.94
409.791	1548.94
410.014	1502.94
410.238	1522.94
410.461	1521.94
410.685	1530.94
410.908	1495.94
411.132	1488.94
411.355	1460.94
411.578	1478.94
411.802	1452.94
412.025	1524.94
412.249	1512.94
412.472	1489.94
412.695	1473.94
412.919	1458.94
413.142	1462.94
413.365	1476.94
413.589	1470.94
413.812	1455.94
414.035	1456.94
414.258	1437.94
414.482	1420.94
414.705	1497.94
414.928	1422.94
415.151	1450.94
415.374	1434.94
415.597	1455.94
415.821	1430.94
416.044	1404.94
416.267	1410.94
416.49	1427.94
416.713	1409.94
416.936	1410.94
417.159	1375.94
417.382	1423.94
417.605	1387.94
417.828	1370.94
418.051	1400.94
418.274	1421.94
418.497	1382.94
418.72	1406.94
418.943	1395.94
419.166	1441.94
419.389	1561.94
419.611	1528.94
419.834	1481.94
420.057	1450.94
420.28	1394.94
420.503	1377.94
420.726	1355.94
420.948	1356.94
421.171	1351.94
421.394	1345.94
421.617	1371.94
421.839	1382.94
422.062	1378.94
422.285	1361.94
422.507	1378.94
422.73	1365.94
422.953	1381.94
423.175	1401.94
423.398	1409.94
423.621	1389.94
423.843	1387.94
424.066	1383.94
424.288	1386.94
424.511	1377.94
424.733	1376.94
424.956	1358.94
425.178	1378.94
425.401	1395.94
425.623	1370.94
425.846	1378.94
426.068	1354.94
426.291	1385.94
426.513	1391.94
426.735	1365.94
426.958	1349.94
427.18	1364.94
427.402	1361.94
427.625	1367.94
427.847	1306.94
428.069	1306.94
428.292	1379.94
428.514	1326.94
428.736	1338.94
428.958	1336.94
429.181	1305.94
429.403	1327.94
429.625	1326.94
429.847	1288.94
430.069	1323.94
430.292	1339.94
430.514	1299.94
430.736	1337.94
430.958	1346.94
431.18	1335.94
431.402	1327.94
431.624	1292.94
431.846	1304.94
432.068	1322.94
432.29	1337.94
432.512	1282.94
432.734	1361.94
432.956	1332.94
433.178	1352.94
433.4	1346.94
433.622	1366.94
433.844	1371.94
434.066	1352.94
434.287	1334.94
434.509	1347.94
434.731	1359.94
434.953	1402.94
435.175	1400.94
435.397	1399.94
435.618	1374.94
435.84	1389.94
436.062	1339.94
436.284	1359.94
436.505	1333.94
436.727	1331.94
436.949	1303.94
437.17	1321.94
437.392	1291.94
437.614	1295.94
437.835	1275.94
438.057	1277.94
438.278	1284.94
438.5	1317.94
438.721	1328.94
438.943	1298.94
439.165	1283.94
439.386	1296.94
439.608	1315.94
439.829	1315.94
440.05	1301.94
440.272	1279.94
440.493	1318.94
440.715	1332.94
440.936	1348.94
441.158	1347.94
441.379	1352.94
441.6	1412.94
441.822	1390.94
442.043	1388.94
442.264	1390.94
442.486	1366.94
442.707	1357.94
442.928	1379.94
443.149	1390.94
443.371	1376.94
443.592	1377.94
443.813	1352.94
444.034	1370.94
444.255	1402.94
444.476	1413.94
444.698	1442.94
444.919	1470.94
445.14	1507.94
445.361	1487.94
445.582	1400.94
445.803	1364.94
446.024	1335.94
446.245	1324.94
446.466	1338.94
446.687	1303.94
446.908	1294.94
447.129	1291.94
447.35	1308.94
447.571	1280.94
447.792	1275.94
448.013	1271.94
448.234	1244.94
448.455	1251.94
448.675	1262.94
448.896	1208.94
449.117	1219.94
449.338	1234.94
449.559	1210.94
449.779	1204.94
450	1231.94
450.221	1218.94
450.442	1191.94
450.662	1188.94
450.883	1219.94
451.104	1242.94
451.324	1178.94
451.545	1176.94
451.766	1219.94
451.986	1191.94
452.207	1183.94
452.428	1183.94
452.648	1172.94
452.869	1165.94
453.089	1178.94
453.31	1152.94
453.53	1170.94
453.751	1154.94
453.971	1162.94
454.192	1141.94
454.412	1155.94
454.633	1153.94
454.853	1184.94
455.073	1139.94
455.294	1136.94
455.514	1154.94
455.734	1185.94
455.955	1138.94
456.175	1127.94
456.395	1150.94
456.616	1164.94
456.836	1154.94
457.056	1161.94
457.276	1160.94
457.497	1172.94
457.717	1188.94
457.937	1155.94
458.157	1185.94
458.377	1194.94
458.598	1228.94
458.818	1223.94
459.038	1264.94
459.258	1255.94
459.478	1294.94
459.698	1320.94
459.918	1305.94
460.138	1338.94
460.358	1384.94
460.578	1377.94
460.798	1412.94
461.018	1410.94
461.238	1423.94
461.458	1429.94
461.678	1413.94
461.898	1460.94
462.118	1410.94
462.338	1452.94
462.558	1534.94
462.777	1532.94
462.997	1570.94
463.217	1576.94
463.437	1579.94
463.657	1575.94
463.876	1554.94
464.096	1558.94
464.316	1530.94
464.536	1505.94
464.755	1510.94
464.975	1484.94
465.195	1431.94
465.414	1422.94
465.634	1369.94
465.854	1386.94
466.073	1372.94
466.293	1355.94
466.512	1324.94
466.732	1335.94
466.951	1347.94
467.171	1265.94
467.391	1289.94
467.61	1282.94
467.829	1284.94
468.049	1323.94
468.268	1257.94
468.488	1272.94
468.707	1288.94
468.927	1303.94
469.146	1310.94
469.365	1254.94
469.585	1269.94
469.804	1327.94
470.023	1336.94
470.243	1304.94
470.462	1317.94
470.681	1299.94
470.901	1288.94
471.12	1304.94
471.339	1303.94
471.558	1262.94
471.777	1292.94
471.997	1314.94
472.216	1332.94
472.435	1292.94
472.654	1266.94
472.873	1289.94
473.092	1286.94
473.311	1293.94
473.53	1293.94
473.749	1283.94
473.968	1272.94
474.187	1294.94
474.406	1271.94
474.625	1291.94
474.844	1343.94
475.063	1338.94
475.282	1329.94
475.501	1343.94
475.72	1303.94
475.939	1354.94
476.158	1406.94
476.377	1395.94
476.596	1477.94
476.814	1512.94
477.033	1408.94
477.252	1403.94
477.471	1412.94
477.69	1401.94
477.908	1472.94
478.127	1490.94
478.346	1478.94
478.564	1460.94
478.783	1484.94
479.002	1527.94
479.22	1583.94
479.439	1658.94
479.658	1583.94
479.876	1537.94
480.095	1563.94
480.313	1576.94
480.532	1556.94
480.751	1585.94
480.969	1569.94
481.188	1652.94
481.406	1632.94
481.624	1571.94
481.843	1541.94
482.061	1608.94
482.28	1588.94
482.498	1613.94
482.717	1568.94
482.935	1562.94
483.153	1563.94
483.372	1540.94
483.59	1572.94
483.808	1543.94
484.027	1574.94
484.245	1575.94
484.463	1594.94
484.681	1592.94
484.9	1595.94
485.118	1575.94
485.336	1572.94
485.554	1590.94
485.772	1563.94
485.99	1565.94
486.209	1607.94
486.427	1624.94
486.645	1597.94
486.863	1614.94
487.081	1615.94
487.299	1641.94
487.517	1598.94
487.735	1563.94
487.953	1602.94
488.171	1608.94
488.389	1595.94
488.607	1601.94
488.825	1576.94
489.043	1595.94
489.261	1632.94
489.479	1612.94
489.696	1569.94
489.914	1563.94
490.132	1610.94
490.35	1602.94
490.568	1585.94
490.786	1604.94
491.003	1603.94
491.221	1631.94
491.439	1617.94
491.657	1591.94
491.874	1612.94
492.092	1628.94
492.31	1669.94
492.527	1652.94
492.745	1651.94
492.963	1643.94
493.18	1638.94
493.398	1637.94
493.615	1647.94
