Data from Fe(NO3)3@0.0125M.TitratingCurve.Agarose3%dH2O.NegLispCup.LampEnergy10.LIBS07252019_HRD10591_16-58-30-335.txt Node
Date: Thu Jul 25 16:58:30 EDT 2019
User: cochatt
Spectrometer: HR+D1059
Trigger mode: 1
Integration Time (sec): 1.000000E-1
Scans to average: 1
Electric dark correction enabled: true
Nonlinearity correction enabled: false
Boxcar width: 0
XAxis mode: Wavelengths
Number of Pixels in Spectrum: 2048
>>>>>Begin Spectral Data<<<<<
223.165	-24.12
223.4	-24.12
223.635	-24.12
223.869	-22.12
224.104	-24.12
224.338	-22.12
224.573	-9.12
224.808	-11.12
225.042	-13.12
225.277	-1.12
225.511	-10.12
225.746	7.88
225.98	-0.12
226.215	23.88
226.449	16.88
226.683	27.88
226.918	35.88
227.152	24.88
227.387	36.88
227.621	23.88
227.856	42.88
228.09	39.88
228.324	35.88
228.559	53.88
228.793	60.88
229.027	83.88
229.262	87.88
229.496	101.88
229.73	105.88
229.964	105.88
230.199	97.88
230.433	111.88
230.667	111.88
230.901	94.88
231.136	103.88
231.37	112.88
231.604	108.88
231.838	101.88
232.072	109.88
232.306	118.88
232.541	112.88
232.775	114.88
233.009	116.88
233.243	131.88
233.477	130.88
233.711	128.88
233.945	125.88
234.179	115.88
234.413	117.88
234.647	124.88
234.881	120.88
235.115	118.88
235.349	120.88
235.583	117.88
235.817	120.88
236.051	132.88
236.285	116.88
236.519	115.88
236.753	121.88
236.987	121.88
237.221	125.88
237.455	127.88
237.689	127.88
237.922	128.88
238.156	126.88
238.39	135.88
238.624	138.88
238.858	123.88
239.091	142.88
239.325	124.88
239.559	127.88
239.793	136.88
240.027	127.88
240.26	132.88
240.494	133.88
240.728	126.88
240.961	146.88
241.195	138.88
241.429	152.88
241.662	147.88
241.896	127.88
242.13	141.88
242.363	133.88
242.597	140.88
242.83	158.88
243.064	151.88
243.298	141.88
243.531	133.88
243.765	144.88
243.998	133.88
244.232	152.88
244.465	140.88
244.699	135.88
244.932	147.88
245.166	163.88
245.399	179.88
245.633	151.88
245.866	151.88
246.099	153.88
246.333	171.88
246.566	143.88
246.8	162.88
247.033	158.88
247.266	171.88
247.5	156.88
247.733	186.88
247.966	158.88
248.2	183.88
248.433	151.88
248.666	166.88
248.899	151.88
249.133	178.88
249.366	179.88
249.599	187.88
249.832	173.88
250.066	180.88
250.299	172.88
250.532	173.88
250.765	170.88
250.998	171.88
251.231	185.88
251.465	186.88
251.698	181.88
251.931	175.88
252.164	181.88
252.397	197.88
252.63	181.88
252.863	180.88
253.096	179.88
253.329	189.88
253.562	183.88
253.795	200.88
254.028	189.88
254.261	219.88
254.494	189.88
254.727	204.88
254.96	191.88
255.193	192.88
255.426	201.88
255.659	190.88
255.892	202.88
256.124	216.88
256.357	197.88
256.59	203.88
256.823	197.88
257.056	207.88
257.289	220.88
257.521	217.88
257.754	207.88
257.987	214.88
258.22	213.88
258.452	229.88
258.685	201.88
258.918	207.88
259.151	215.88
259.383	217.88
259.616	217.88
259.849	222.88
260.081	209.88
260.314	226.88
260.547	214.88
260.779	215.88
261.012	227.88
261.244	235.88
261.477	241.88
261.71	220.88
261.942	230.88
262.175	240.88
262.407	241.88
262.64	243.88
262.872	222.88
263.105	225.88
263.337	238.88
263.57	260.88
263.802	241.88
264.035	246.88
264.267	230.88
264.499	261.88
264.732	246.88
264.964	227.88
265.197	237.88
265.429	241.88
265.661	237.88
265.894	247.88
266.126	256.88
266.358	270.88
266.591	253.88
266.823	250.88
267.055	260.88
267.287	252.88
267.52	260.88
267.752	266.88
267.984	259.88
268.216	253.88
268.448	268.88
268.681	265.88
268.913	264.88
269.145	281.88
269.377	255.88
269.609	262.88
269.841	274.88
270.073	281.88
270.306	285.88
270.538	285.88
270.77	271.88
271.002	281.88
271.234	267.88
271.466	287.88
271.698	290.88
271.93	294.88
272.162	289.88
272.394	266.88
272.626	285.88
272.858	284.88
273.09	274.88
273.322	301.88
273.553	305.88
273.785	316.88
274.017	292.88
274.249	291.88
274.481	287.88
274.713	313.88
274.945	311.88
275.176	302.88
275.408	311.88
275.64	310.88
275.872	315.88
276.104	307.88
276.335	309.88
276.567	301.88
276.799	320.88
277.031	307.88
277.262	310.88
277.494	315.88
277.726	301.88
277.957	355.88
278.189	322.88
278.421	318.88
278.652	326.88
278.884	320.88
279.115	336.88
279.347	324.88
279.579	344.88
279.81	325.88
280.042	348.88
280.273	335.88
280.505	332.88
280.736	345.88
280.968	337.88
281.199	325.88
281.431	337.88
281.662	342.88
281.894	365.88
282.125	348.88
282.356	344.88
282.588	326.88
282.819	355.88
283.051	344.88
283.282	347.88
283.513	344.88
283.745	372.88
283.976	355.88
284.207	358.88
284.439	369.88
284.67	360.88
284.901	372.88
285.132	351.88
285.364	395.88
285.595	351.88
285.826	369.88
286.057	365.88
286.288	363.88
286.52	372.88
286.751	360.88
286.982	373.88
287.213	363.88
287.444	376.88
287.675	375.88
287.906	390.88
288.138	385.88
288.369	376.88
288.6	385.88
288.831	384.88
289.062	371.88
289.293	375.88
289.524	390.88
289.755	381.88
289.986	372.88
290.217	389.88
290.448	381.88
290.679	387.88
290.91	393.88
291.141	407.88
291.371	392.88
291.602	412.88
291.833	378.88
292.064	385.88
292.295	377.88
292.526	392.88
292.757	387.88
292.987	402.88
293.218	399.88
293.449	395.88
293.68	393.88
293.91	388.88
294.141	399.88
294.372	402.88
294.603	403.88
294.833	405.88
295.064	414.88
295.295	398.88
295.525	407.88
295.756	407.88
295.987	399.88
296.217	408.88
296.448	398.88
296.679	391.88
296.909	417.88
297.14	433.88
297.37	419.88
297.601	425.88
297.831	409.88
298.062	442.88
298.292	450.88
298.523	423.88
298.753	422.88
298.984	429.88
299.214	435.88
299.445	432.88
299.675	416.88
299.905	427.88
300.136	440.88
300.366	437.88
300.597	451.88
300.827	430.88
301.057	431.88
301.288	441.88
301.518	445.88
301.748	442.88
301.979	423.88
302.209	445.88
302.439	432.88
302.669	437.88
302.9	446.88
303.13	465.88
303.36	460.88
303.59	443.88
303.82	458.88
304.051	488.88
304.281	482.88
304.511	439.88
304.741	474.88
304.971	446.88
305.201	473.88
305.431	454.88
305.661	460.88
305.891	468.88
306.121	459.88
306.352	457.88
306.582	485.88
306.812	469.88
307.042	460.88
307.272	460.88
307.502	464.88
307.731	483.88
307.961	467.88
308.191	462.88
308.421	456.88
308.651	459.88
308.881	459.88
309.111	454.88
309.341	455.88
309.571	472.88
309.8	481.88
310.03	484.88
310.26	493.88
310.49	469.88
310.72	476.88
310.949	487.88
311.179	480.88
311.409	484.88
311.639	496.88
311.868	493.88
312.098	488.88
312.328	503.88
312.557	474.88
312.787	489.88
313.017	495.88
313.246	517.88
313.476	477.88
313.706	497.88
313.935	494.88
314.165	516.88
314.394	504.88
314.624	504.88
314.853	517.88
315.083	511.88
315.312	520.88
315.542	509.88
315.771	507.88
316.001	531.88
316.23	523.88
316.46	527.88
316.689	516.88
316.919	533.88
317.148	535.88
317.377	519.88
317.607	528.88
317.836	514.88
318.065	537.88
318.295	523.88
318.524	517.88
318.753	532.88
318.983	516.88
319.212	524.88
319.441	537.88
319.67	537.88
319.9	520.88
320.129	557.88
320.358	537.88
320.587	533.88
320.816	540.88
321.046	542.88
321.275	552.88
321.504	555.88
321.733	559.88
321.962	544.88
322.191	534.88
322.42	545.88
322.649	545.88
322.878	539.88
323.108	557.88
323.337	544.88
323.566	563.88
323.795	545.88
324.024	543.88
324.253	565.88
324.482	553.88
324.71	550.88
324.939	582.88
325.168	586.88
325.397	576.88
325.626	568.88
325.855	567.88
326.084	585.88
326.313	565.88
326.542	566.88
326.77	575.88
326.999	576.88
327.228	571.88
327.457	578.88
327.686	565.88
327.914	580.88
328.143	590.88
328.372	563.88
328.6	597.88
328.829	556.88
329.058	585.88
329.287	587.88
329.515	584.88
329.744	600.88
329.972	590.88
330.201	597.88
330.43	583.88
330.658	577.88
330.887	574.88
331.115	607.88
331.344	603.88
331.572	594.88
331.801	588.88
332.03	620.88
332.258	605.88
332.486	604.88
332.715	599.88
332.943	615.88
333.172	631.88
333.4	596.88
333.629	634.88
333.857	615.88
334.085	644.88
334.314	644.88
334.542	631.88
334.771	629.88
334.999	637.88
335.227	640.88
335.455	629.88
335.684	630.88
335.912	630.88
336.14	652.88
336.369	643.88
336.597	631.88
336.825	642.88
337.053	655.88
337.281	645.88
337.51	634.88
337.738	666.88
337.966	634.88
338.194	653.88
338.422	649.88
338.65	647.88
338.878	619.88
339.106	629.88
339.334	645.88
339.562	635.88
339.79	653.88
340.018	607.88
340.246	632.88
340.474	639.88
340.702	624.88
340.93	639.88
341.158	618.88
341.386	628.88
341.614	633.88
341.842	634.88
342.07	626.88
342.298	629.88
342.526	626.88
342.754	641.88
342.981	620.88
343.209	633.88
343.437	624.88
343.665	630.88
343.893	641.88
344.12	654.88
344.348	645.88
344.576	647.88
344.804	637.88
345.031	633.88
345.259	613.88
345.487	629.88
345.714	633.88
345.942	622.88
346.17	625.88
346.397	626.88
346.625	626.88
346.853	630.88
347.08	616.88
347.308	623.88
347.535	623.88
347.763	612.88
347.99	573.88
348.218	631.88
348.445	634.88
348.673	587.88
348.9	602.88
349.128	593.88
349.355	599.88
349.583	614.88
349.81	604.88
350.037	612.88
350.265	586.88
350.492	597.88
350.72	607.88
350.947	598.88
351.174	589.88
351.402	606.88
351.629	616.88
351.856	614.88
352.083	600.88
352.311	619.88
352.538	593.88
352.765	588.88
352.992	566.88
353.22	612.88
353.447	610.88
353.674	604.88
353.901	593.88
354.128	611.88
354.355	609.88
354.583	598.88
354.81	588.88
355.037	615.88
355.264	625.88
355.491	589.88
355.718	604.88
355.945	630.88
356.172	593.88
356.399	594.88
356.626	621.88
356.853	608.88
357.08	596.88
357.307	602.88
357.534	580.88
357.761	580.88
357.988	609.88
358.215	623.88
358.441	603.88
358.668	599.88
358.895	589.88
359.122	624.88
359.349	584.88
359.576	599.88
359.802	604.88
360.029	595.88
360.256	586.88
360.483	596.88
360.709	607.88
360.936	621.88
361.163	622.88
361.39	604.88
361.616	585.88
361.843	604.88
362.07	611.88
362.296	600.88
362.523	615.88
362.749	621.88
362.976	614.88
363.203	634.88
363.429	604.88
363.656	622.88
363.882	595.88
364.109	629.88
364.335	614.88
364.562	619.88
364.788	627.88
365.015	622.88
365.241	615.88
365.468	603.88
365.694	604.88
365.92	605.88
366.147	617.88
366.373	612.88
366.599	619.88
366.826	621.88
367.052	631.88
367.278	630.88
367.505	622.88
367.731	631.88
367.957	642.88
368.184	633.88
368.41	624.88
368.636	631.88
368.862	639.88
369.089	619.88
369.315	635.88
369.541	637.88
369.767	639.88
369.993	653.88
370.219	651.88
370.445	640.88
370.672	643.88
370.898	644.88
371.124	650.88
371.35	663.88
371.576	644.88
371.802	635.88
372.028	642.88
372.254	675.88
372.48	639.88
372.706	653.88
372.932	659.88
373.158	668.88
373.384	671.88
373.61	676.88
373.835	674.88
374.061	650.88
374.287	664.88
374.513	653.88
374.739	649.88
374.965	637.88
375.191	659.88
375.416	675.88
375.642	666.88
375.868	665.88
376.094	648.88
376.319	656.88
376.545	672.88
376.771	659.88
376.997	651.88
377.222	668.88
377.448	659.88
377.674	662.88
377.899	640.88
378.125	603.88
378.35	635.88
378.576	658.88
378.802	663.88
379.027	645.88
379.253	651.88
379.478	655.88
379.704	638.88
379.929	657.88
380.155	657.88
380.38	630.88
380.606	658.88
380.831	645.88
381.057	670.88
381.282	644.88
381.507	643.88
381.733	669.88
381.958	650.88
382.184	671.88
382.409	680.88
382.634	667.88
382.86	675.88
383.085	667.88
383.31	655.88
383.535	699.88
383.761	679.88
383.986	675.88
384.211	685.88
384.436	685.88
384.662	702.88
384.887	683.88
385.112	702.88
385.337	699.88
385.562	676.88
385.787	688.88
386.013	734.88
386.238	732.88
386.463	689.88
386.688	704.88
386.913	709.88
387.138	685.88
387.363	727.88
387.588	705.88
387.813	720.88
388.038	738.88
388.263	710.88
388.488	727.88
388.713	699.88
388.938	719.88
389.163	718.88
389.387	740.88
389.612	727.88
389.837	735.88
390.062	723.88
390.287	729.88
390.512	734.88
390.736	727.88
390.961	702.88
391.186	720.88
391.411	743.88
391.636	736.88
391.86	754.88
392.085	726.88
392.31	736.88
392.534	738.88
392.759	755.88
392.984	760.88
393.208	765.88
393.433	722.88
393.658	755.88
393.882	733.88
394.107	741.88
394.331	744.88
394.556	739.88
394.78	734.88
395.005	767.88
395.229	739.88
395.454	742.88
395.678	763.88
395.903	740.88
396.127	729.88
396.352	751.88
396.576	753.88
396.801	757.88
397.025	755.88
397.249	773.88
397.474	769.88
397.698	770.88
397.922	779.88
398.147	779.88
398.371	792.88
398.595	769.88
398.82	791.88
399.044	797.88
399.268	813.88
399.492	837.88
399.717	861.88
399.941	846.88
400.165	840.88
400.389	841.88
400.613	809.88
400.837	841.88
401.062	812.88
401.286	815.88
401.51	820.88
401.734	803.88
401.958	795.88
402.182	839.88
402.406	809.88
402.63	815.88
402.854	813.88
403.078	836.88
403.302	797.88
403.526	811.88
403.75	842.88
403.974	814.88
404.198	788.88
404.422	812.88
404.645	824.88
404.869	819.88
405.093	831.88
405.317	830.88
405.541	841.88
405.765	866.88
405.988	862.88
406.212	835.88
406.436	845.88
406.66	875.88
406.883	881.88
407.107	861.88
407.331	867.88
407.555	933.88
407.778	865.88
408.002	886.88
408.226	861.88
408.449	903.88
408.673	842.88
408.896	877.88
409.12	896.88
409.344	893.88
409.567	855.88
409.791	852.88
410.014	897.88
410.238	853.88
410.461	875.88
410.685	832.88
410.908	839.88
411.132	861.88
411.355	820.88
411.578	817.88
411.802	836.88
412.025	841.88
412.249	833.88
412.472	844.88
412.695	800.88
412.919	823.88
413.142	813.88
413.365	822.88
413.589	863.88
413.812	815.88
414.035	827.88
414.258	825.88
414.482	805.88
414.705	801.88
414.928	808.88
415.151	808.88
415.374	786.88
415.597	818.88
415.821	780.88
416.044	798.88
416.267	798.88
416.49	784.88
416.713	795.88
416.936	827.88
417.159	765.88
417.382	793.88
417.605	759.88
417.828	798.88
418.051	783.88
418.274	766.88
418.497	756.88
418.72	763.88
418.943	776.88
419.166	789.88
419.389	872.88
419.611	833.88
419.834	828.88
420.057	811.88
420.28	771.88
420.503	742.88
420.726	767.88
420.948	800.88
421.171	767.88
421.394	731.88
421.617	747.88
421.839	775.88
422.062	762.88
422.285	727.88
422.507	753.88
422.73	749.88
422.953	761.88
423.175	737.88
423.398	758.88
423.621	775.88
423.843	777.88
424.066	750.88
424.288	747.88
424.511	777.88
424.733	737.88
424.956	743.88
425.178	772.88
425.401	774.88
425.623	761.88
425.846	758.88
426.068	763.88
426.291	728.88
426.513	726.88
426.735	727.88
426.958	749.88
427.18	735.88
427.402	745.88
427.625	743.88
427.847	753.88
428.069	755.88
428.292	759.88
428.514	733.88
428.736	747.88
428.958	777.88
429.181	737.88
429.403	744.88
429.625	725.88
429.847	705.88
430.069	723.88
430.292	745.88
430.514	737.88
430.736	744.88
430.958	759.88
431.18	732.88
431.402	737.88
431.624	732.88
431.846	745.88
432.068	719.88
432.29	738.88
432.512	742.88
432.734	765.88
432.956	743.88
433.178	747.88
433.4	734.88
433.622	776.88
433.844	773.88
434.066	748.88
434.287	750.88
434.509	760.88
434.731	748.88
434.953	725.88
435.175	735.88
435.397	736.88
435.618	763.88
435.84	749.88
436.062	740.88
436.284	739.88
436.505	720.88
436.727	738.88
436.949	739.88
437.17	740.88
437.392	736.88
437.614	709.88
437.835	716.88
438.057	713.88
438.278	715.88
438.5	714.88
438.721	727.88
438.943	743.88
439.165	717.88
439.386	726.88
439.608	745.88
439.829	728.88
440.05	737.88
440.272	725.88
440.493	697.88
440.715	737.88
440.936	751.88
441.158	721.88
441.379	716.88
441.6	737.88
441.822	747.88
442.043	733.88
442.264	743.88
442.486	725.88
442.707	761.88
442.928	747.88
443.149	739.88
443.371	733.88
443.592	731.88
443.813	713.88
444.034	719.88
444.255	722.88
444.476	747.88
444.698	743.88
444.919	734.88
445.14	820.88
445.361	770.88
445.582	743.88
445.803	724.88
446.024	737.88
446.245	753.88
446.466	718.88
446.687	721.88
446.908	760.88
447.129	717.88
447.35	668.88
447.571	695.88
447.792	677.88
448.013	714.88
448.234	696.88
448.455	708.88
448.675	703.88
448.896	673.88
449.117	685.88
449.338	687.88
449.559	688.88
449.779	671.88
450	687.88
450.221	692.88
450.442	688.88
450.662	685.88
450.883	683.88
451.104	676.88
451.324	675.88
451.545	671.88
451.766	661.88
451.986	658.88
452.207	649.88
452.428	689.88
452.648	686.88
452.869	656.88
453.089	657.88
453.31	681.88
453.53	673.88
453.751	671.88
453.971	679.88
454.192	672.88
454.412	657.88
454.633	660.88
454.853	649.88
455.073	649.88
455.294	654.88
455.514	651.88
455.734	667.88
455.955	636.88
456.175	648.88
456.395	644.88
456.616	669.88
456.836	670.88
457.056	657.88
457.276	664.88
457.497	673.88
457.717	691.88
457.937	673.88
458.157	689.88
458.377	654.88
458.598	659.88
458.818	708.88
459.038	669.88
459.258	691.88
459.478	705.88
459.698	695.88
459.918	700.88
460.138	719.88
460.358	701.88
460.578	728.88
460.798	726.88
461.018	754.88
461.238	743.88
461.458	747.88
461.678	749.88
461.898	772.88
462.118	781.88
462.338	759.88
462.558	767.88
462.777	761.88
462.997	776.88
463.217	804.88
463.437	783.88
463.657	790.88
463.876	821.88
464.096	766.88
464.316	782.88
464.536	776.88
464.755	763.88
464.975	788.88
465.195	785.88
465.414	757.88
465.634	740.88
465.854	711.88
466.073	705.88
466.293	693.88
466.512	726.88
466.732	709.88
466.951	710.88
467.171	708.88
467.391	717.88
467.61	748.88
467.829	712.88
468.049	696.88
468.268	710.88
468.488	703.88
468.707	692.88
468.927	706.88
469.146	722.88
469.365	721.88
469.585	693.88
469.804	702.88
470.023	727.88
470.243	703.88
470.462	706.88
470.681	705.88
470.901	716.88
471.12	695.88
471.339	691.88
471.558	715.88
471.777	713.88
471.997	701.88
472.216	701.88
472.435	712.88
472.654	732.88
472.873	718.88
473.092	716.88
473.311	705.88
473.53	739.88
473.749	738.88
473.968	725.88
474.187	750.88
474.406	703.88
474.625	708.88
474.844	720.88
475.063	739.88
475.282	739.88
475.501	745.88
475.72	757.88
475.939	765.88
476.158	725.88
476.377	765.88
476.596	753.88
476.814	739.88
477.033	773.88
477.252	774.88
477.471	745.88
477.69	783.88
477.908	774.88
478.127	807.88
478.346	777.88
478.564	794.88
478.783	832.88
479.002	831.88
479.22	797.88
479.439	827.88
479.658	823.88
479.876	817.88
480.095	821.88
480.313	834.88
480.532	842.88
480.751	840.88
480.969	815.88
481.188	839.88
481.406	868.88
481.624	856.88
481.843	820.88
482.061	860.88
482.28	860.88
482.498	841.88
482.717	828.88
482.935	838.88
483.153	836.88
483.372	844.88
483.59	883.88
483.808	854.88
484.027	837.88
484.245	831.88
484.463	856.88
484.681	880.88
484.9	878.88
485.118	856.88
485.336	869.88
485.554	853.88
485.772	872.88
485.99	858.88
486.209	867.88
486.427	882.88
486.645	887.88
486.863	877.88
487.081	864.88
487.299	885.88
487.517	872.88
487.735	894.88
487.953	896.88
488.171	866.88
488.389	867.88
488.607	887.88
488.825	869.88
489.043	882.88
489.261	912.88
489.479	872.88
489.696	854.88
489.914	880.88
490.132	877.88
490.35	887.88
490.568	889.88
490.786	884.88
491.003	865.88
491.221	885.88
491.439	895.88
491.657	909.88
491.874	933.88
492.092	905.88
492.31	933.88
492.527	894.88
492.745	923.88
492.963	896.88
493.18	928.88
493.398	907.88
493.615	888.88
493.833	915.88
494.05	909.88
494.268	920.88
494.485	919.88
494.703	919.88
494.92	903.88
495.138	918.88
495.355	960.88
495.573	941.88
495.79	952.88
496.008	970.88
496.225	929.88
496.442	937.88
496.66	947.88
496.877	956.88
497.094	982.88
497.312	977.88
497.529	988.88
497.746	977.88
497.963	997.88
498.181	1011.88
498.398	1039.88
498.615	1043.88
498.832	1073.88
499.049	1080.88
499.267	1103.88
499.484	1111.88
499.701	1127.88
499.918	1169.88
500.135	1197.88
500.352	1224.88
500.569	1231.88
500.786	1211.88
501.003	1239.88
501.22	1193.88
501.437	1179.88
