Data from Fe(NO3)3@0.025M.TitratingCurve.Agarose3%dH2O.NegLispCup.LampEnergy10.LIBS07252019_HRD10591_16-55-55-335.txt Node
Date: Thu Jul 25 16:55:55 EDT 2019
User: cochatt
Spectrometer: HR+D1059
Trigger mode: 1
Integration Time (sec): 1.000000E-1
Scans to average: 1
Electric dark correction enabled: true
Nonlinearity correction enabled: false
Boxcar width: 0
XAxis mode: Wavelengths
Number of Pixels in Spectrum: 2048
>>>>>Begin Spectral Data<<<<<
223.165	-28.25
223.4	-28.25
223.635	-28.25
223.869	-14.25
224.104	-30.25
224.338	-4.25
224.573	-20.25
224.808	-15.25
225.042	-10.25
225.277	-2.25
225.511	2.75
225.746	2.75
225.98	10.75
226.215	16.75
226.449	9.75
226.683	12.75
226.918	33.75
227.152	35.75
227.387	27.75
227.621	20.75
227.856	35.75
228.09	47.75
228.324	46.75
228.559	61.75
228.793	62.75
229.027	60.75
229.262	72.75
229.496	82.75
229.73	95.75
229.964	81.75
230.199	74.75
230.433	68.75
230.667	82.75
230.901	84.75
231.136	94.75
231.37	92.75
231.604	86.75
231.838	83.75
232.072	87.75
232.306	95.75
232.541	81.75
232.775	97.75
233.009	90.75
233.243	97.75
233.477	96.75
233.711	77.75
233.945	86.75
234.179	85.75
234.413	89.75
234.647	79.75
234.881	84.75
235.115	98.75
235.349	83.75
235.583	91.75
235.817	83.75
236.051	97.75
236.285	97.75
236.519	89.75
236.753	83.75
236.987	84.75
237.221	101.75
237.455	94.75
237.689	88.75
237.922	106.75
238.156	95.75
238.39	79.75
238.624	95.75
238.858	93.75
239.091	90.75
239.325	91.75
239.559	95.75
239.793	87.75
240.027	82.75
240.26	97.75
240.494	104.75
240.728	115.75
240.961	89.75
241.195	90.75
241.429	94.75
241.662	85.75
241.896	99.75
242.13	93.75
242.363	90.75
242.597	105.75
242.83	86.75
243.064	101.75
243.298	102.75
243.531	93.75
243.765	102.75
243.998	114.75
244.232	96.75
244.465	113.75
244.699	96.75
244.932	104.75
245.166	100.75
245.399	99.75
245.633	109.75
245.866	106.75
246.099	95.75
246.333	106.75
246.566	109.75
246.8	99.75
247.033	104.75
247.266	95.75
247.5	103.75
247.733	88.75
247.966	109.75
248.2	106.75
248.433	116.75
248.666	100.75
248.899	102.75
249.133	90.75
249.366	103.75
249.599	117.75
249.832	99.75
250.066	105.75
250.299	83.75
250.532	125.75
250.765	104.75
250.998	102.75
251.231	101.75
251.465	91.75
251.698	113.75
251.931	111.75
252.164	107.75
252.397	101.75
252.63	112.75
252.863	115.75
253.096	113.75
253.329	113.75
253.562	99.75
253.795	117.75
254.028	127.75
254.261	111.75
254.494	105.75
254.727	109.75
254.96	111.75
255.193	106.75
255.426	111.75
255.659	111.75
255.892	116.75
256.124	128.75
256.357	106.75
256.59	113.75
256.823	118.75
257.056	130.75
257.289	87.75
257.521	119.75
257.754	105.75
257.987	120.75
258.22	121.75
258.452	122.75
258.685	109.75
258.918	121.75
259.151	119.75
259.383	103.75
259.616	127.75
259.849	114.75
260.081	120.75
260.314	127.75
260.547	125.75
260.779	125.75
261.012	116.75
261.244	117.75
261.477	122.75
261.71	128.75
261.942	114.75
262.175	125.75
262.407	120.75
262.64	127.75
262.872	135.75
263.105	127.75
263.337	138.75
263.57	121.75
263.802	127.75
264.035	132.75
264.267	119.75
264.499	117.75
264.732	117.75
264.964	121.75
265.197	119.75
265.429	129.75
265.661	134.75
265.894	127.75
266.126	122.75
266.358	148.75
266.591	129.75
266.823	131.75
267.055	136.75
267.287	121.75
267.52	134.75
267.752	114.75
267.984	130.75
268.216	147.75
268.448	143.75
268.681	117.75
268.913	134.75
269.145	135.75
269.377	133.75
269.609	141.75
269.841	139.75
270.073	130.75
270.306	131.75
270.538	133.75
270.77	133.75
271.002	136.75
271.234	131.75
271.466	128.75
271.698	152.75
271.93	128.75
272.162	139.75
272.394	146.75
272.626	128.75
272.858	134.75
273.09	139.75
273.322	146.75
273.553	136.75
273.785	143.75
274.017	146.75
274.249	153.75
274.481	145.75
274.713	131.75
274.945	151.75
275.176	145.75
275.408	150.75
275.64	137.75
275.872	127.75
276.104	151.75
276.335	139.75
276.567	146.75
276.799	147.75
277.031	142.75
277.262	146.75
277.494	140.75
277.726	153.75
277.957	146.75
278.189	137.75
278.421	147.75
278.652	156.75
278.884	164.75
279.115	149.75
279.347	158.75
279.579	147.75
279.81	147.75
280.042	135.75
280.273	150.75
280.505	141.75
280.736	152.75
280.968	168.75
281.199	152.75
281.431	157.75
281.662	153.75
281.894	133.75
282.125	150.75
282.356	158.75
282.588	148.75
282.819	154.75
283.051	152.75
283.282	158.75
283.513	160.75
283.745	150.75
283.976	149.75
284.207	158.75
284.439	155.75
284.67	154.75
284.901	148.75
285.132	169.75
285.364	188.75
285.595	159.75
285.826	160.75
286.057	162.75
286.288	167.75
286.52	162.75
286.751	160.75
286.982	154.75
287.213	174.75
287.444	167.75
287.675	149.75
287.906	152.75
288.138	160.75
288.369	173.75
288.6	166.75
288.831	169.75
289.062	167.75
289.293	177.75
289.524	158.75
289.755	180.75
289.986	169.75
290.217	164.75
290.448	169.75
290.679	174.75
290.91	169.75
291.141	173.75
291.371	186.75
291.602	170.75
291.833	173.75
292.064	172.75
292.295	173.75
292.526	179.75
292.757	181.75
292.987	168.75
293.218	183.75
293.449	159.75
293.68	168.75
293.91	185.75
294.141	181.75
294.372	169.75
294.603	177.75
294.833	179.75
295.064	179.75
295.295	156.75
295.525	186.75
295.756	189.75
295.987	180.75
296.217	175.75
296.448	188.75
296.679	170.75
296.909	178.75
297.14	176.75
297.37	182.75
297.601	183.75
297.831	167.75
298.062	176.75
298.292	188.75
298.523	182.75
298.753	184.75
298.984	185.75
299.214	181.75
299.445	181.75
299.675	185.75
299.905	191.75
300.136	180.75
300.366	189.75
300.597	174.75
300.827	181.75
301.057	202.75
301.288	181.75
301.518	177.75
301.748	168.75
301.979	166.75
302.209	195.75
302.439	195.75
302.669	177.75
302.9	172.75
303.13	188.75
303.36	193.75
303.59	188.75
303.82	205.75
304.051	206.75
304.281	206.75
304.511	192.75
304.741	205.75
304.971	198.75
305.201	182.75
305.431	194.75
305.661	211.75
305.891	184.75
306.121	186.75
306.352	189.75
306.582	201.75
306.812	194.75
307.042	194.75
307.272	187.75
307.502	181.75
307.731	204.75
307.961	200.75
308.191	183.75
308.421	196.75
308.651	197.75
308.881	197.75
309.111	186.75
309.341	175.75
309.571	211.75
309.8	214.75
310.03	205.75
310.26	206.75
310.49	215.75
310.72	203.75
310.949	199.75
311.179	190.75
311.409	207.75
311.639	191.75
311.868	187.75
312.098	205.75
312.328	210.75
312.557	205.75
312.787	208.75
313.017	220.75
313.246	206.75
313.476	213.75
313.706	211.75
313.935	201.75
314.165	203.75
314.394	216.75
314.624	203.75
314.853	196.75
315.083	201.75
315.312	188.75
315.542	216.75
315.771	210.75
316.001	197.75
316.23	205.75
316.46	213.75
316.689	206.75
316.919	219.75
317.148	200.75
317.377	227.75
317.607	209.75
317.836	216.75
318.065	201.75
318.295	210.75
318.524	213.75
318.753	208.75
318.983	230.75
319.212	211.75
319.441	206.75
319.67	221.75
319.9	213.75
320.129	219.75
320.358	198.75
320.587	204.75
320.816	213.75
321.046	213.75
321.275	222.75
321.504	200.75
321.733	216.75
321.962	210.75
322.191	225.75
322.42	208.75
322.649	227.75
322.878	200.75
323.108	210.75
323.337	222.75
323.566	212.75
323.795	231.75
324.024	231.75
324.253	226.75
324.482	206.75
324.71	218.75
324.939	223.75
325.168	229.75
325.397	221.75
325.626	237.75
325.855	231.75
326.084	238.75
326.313	225.75
326.542	214.75
326.77	230.75
326.999	232.75
327.228	224.75
327.457	230.75
327.686	223.75
327.914	222.75
328.143	235.75
328.372	220.75
328.6	224.75
328.829	221.75
329.058	199.75
329.287	228.75
329.515	221.75
329.744	232.75
329.972	242.75
330.201	227.75
330.43	239.75
330.658	241.75
330.887	239.75
331.115	228.75
331.344	229.75
331.572	265.75
331.801	243.75
332.03	253.75
332.258	246.75
332.486	224.75
332.715	259.75
332.943	257.75
333.172	242.75
333.4	259.75
333.629	264.75
333.857	272.75
334.085	275.75
334.314	271.75
334.542	258.75
334.771	263.75
334.999	271.75
335.227	253.75
335.455	266.75
335.684	273.75
335.912	267.75
336.14	257.75
336.369	281.75
336.597	279.75
336.825	261.75
337.053	265.75
337.281	274.75
337.51	257.75
337.738	268.75
337.966	262.75
338.194	270.75
338.422	256.75
338.65	258.75
338.878	270.75
339.106	254.75
339.334	265.75
339.562	242.75
339.79	259.75
340.018	244.75
340.246	240.75
340.474	243.75
340.702	256.75
340.93	221.75
341.158	237.75
341.386	234.75
341.614	246.75
341.842	244.75
342.07	251.75
342.298	223.75
342.526	240.75
342.754	253.75
342.981	240.75
343.209	253.75
343.437	275.75
343.665	272.75
343.893	267.75
344.12	288.75
344.348	270.75
344.576	264.75
344.804	268.75
345.031	262.75
345.259	238.75
345.487	234.75
345.714	252.75
345.942	260.75
346.17	252.75
346.397	241.75
346.625	237.75
346.853	250.75
347.08	225.75
347.308	244.75
347.535	233.75
347.763	249.75
347.99	243.75
348.218	255.75
348.445	222.75
348.673	258.75
348.9	233.75
349.128	246.75
349.355	249.75
349.583	229.75
349.81	230.75
350.037	227.75
350.265	224.75
350.492	229.75
350.72	225.75
350.947	250.75
351.174	221.75
351.402	246.75
351.629	228.75
351.856	249.75
352.083	235.75
352.311	248.75
352.538	257.75
352.765	247.75
352.992	239.75
353.22	232.75
353.447	217.75
353.674	227.75
353.901	242.75
354.128	229.75
354.355	229.75
354.583	229.75
354.81	219.75
355.037	252.75
355.264	243.75
355.491	237.75
355.718	231.75
355.945	228.75
356.172	223.75
356.399	244.75
356.626	249.75
356.853	236.75
357.08	266.75
357.307	232.75
357.534	247.75
357.761	251.75
357.988	227.75
358.215	245.75
358.441	232.75
358.668	237.75
358.895	239.75
359.122	243.75
359.349	243.75
359.576	224.75
359.802	242.75
360.029	243.75
360.256	240.75
360.483	264.75
360.709	233.75
360.936	237.75
361.163	254.75
361.39	238.75
361.616	255.75
361.843	242.75
362.07	241.75
362.296	261.75
362.523	263.75
362.749	241.75
362.976	249.75
363.203	255.75
363.429	249.75
363.656	238.75
363.882	244.75
364.109	235.75
364.335	235.75
364.562	240.75
364.788	250.75
365.015	245.75
365.241	253.75
365.468	238.75
365.694	245.75
365.92	239.75
366.147	240.75
366.373	245.75
366.599	247.75
366.826	247.75
367.052	244.75
367.278	248.75
367.505	240.75
367.731	250.75
367.957	253.75
368.184	243.75
368.41	235.75
368.636	261.75
368.862	253.75
369.089	246.75
369.315	247.75
369.541	264.75
369.767	237.75
369.993	246.75
370.219	242.75
370.445	265.75
370.672	283.75
370.898	248.75
371.124	269.75
371.35	266.75
371.576	266.75
371.802	253.75
372.028	293.75
372.254	270.75
372.48	253.75
372.706	269.75
372.932	266.75
373.158	271.75
373.384	271.75
373.61	267.75
373.835	265.75
374.061	258.75
374.287	279.75
374.513	278.75
374.739	275.75
374.965	265.75
375.191	271.75
375.416	262.75
375.642	278.75
375.868	271.75
376.094	277.75
376.319	266.75
376.545	247.75
376.771	269.75
376.997	264.75
377.222	244.75
377.448	260.75
377.674	273.75
377.899	257.75
378.125	266.75
378.35	269.75
378.576	253.75
378.802	250.75
379.027	276.75
379.253	264.75
379.478	267.75
379.704	278.75
379.929	274.75
380.155	254.75
380.38	276.75
380.606	267.75
380.831	265.75
381.057	278.75
381.282	251.75
381.507	275.75
381.733	265.75
381.958	283.75
382.184	265.75
382.409	264.75
382.634	277.75
382.86	258.75
383.085	271.75
383.31	274.75
383.535	277.75
383.761	276.75
383.986	293.75
384.211	278.75
384.436	279.75
384.662	294.75
384.887	302.75
385.112	283.75
385.337	286.75
385.562	306.75
385.787	294.75
386.013	290.75
386.238	273.75
386.463	297.75
386.688	288.75
386.913	291.75
387.138	291.75
387.363	289.75
387.588	298.75
387.813	298.75
388.038	305.75
388.263	293.75
388.488	307.75
388.713	295.75
388.938	287.75
389.163	293.75
389.387	294.75
389.612	276.75
389.837	301.75
390.062	302.75
390.287	286.75
390.512	297.75
390.736	305.75
390.961	312.75
391.186	313.75
391.411	319.75
391.636	306.75
391.86	305.75
392.085	333.75
392.31	329.75
392.534	308.75
392.759	291.75
392.984	298.75
393.208	306.75
393.433	325.75
393.658	323.75
393.882	329.75
394.107	295.75
394.331	313.75
394.556	314.75
394.78	323.75
395.005	318.75
395.229	307.75
395.454	327.75
395.678	311.75
395.903	326.75
396.127	315.75
396.352	329.75
396.576	326.75
396.801	340.75
397.025	316.75
397.249	327.75
397.474	315.75
397.698	345.75
397.922	333.75
398.147	330.75
398.371	326.75
398.595	331.75
398.82	351.75
399.044	363.75
399.268	381.75
399.492	392.75
399.717	422.75
399.941	444.75
400.165	418.75
400.389	410.75
400.613	395.75
400.837	377.75
401.062	369.75
401.286	356.75
401.51	387.75
401.734	352.75
401.958	367.75
402.182	340.75
402.406	339.75
402.63	357.75
402.854	350.75
403.078	341.75
403.302	330.75
403.526	344.75
403.75	356.75
403.974	371.75
404.198	371.75
404.422	361.75
404.645	365.75
404.869	362.75
405.093	374.75
405.317	360.75
405.541	368.75
405.765	365.75
405.988	375.75
406.212	367.75
406.436	366.75
406.66	375.75
406.883	387.75
407.107	385.75
407.331	405.75
407.555	413.75
407.778	401.75
408.002	377.75
408.226	373.75
408.449	386.75
408.673	381.75
408.896	383.75
409.12	365.75
409.344	365.75
409.567	368.75
409.791	357.75
410.014	383.75
410.238	376.75
410.461	379.75
410.685	352.75
410.908	350.75
411.132	369.75
411.355	353.75
411.578	352.75
411.802	352.75
412.025	343.75
412.249	359.75
412.472	326.75
412.695	337.75
412.919	356.75
413.142	353.75
413.365	343.75
413.589	359.75
413.812	348.75
414.035	345.75
414.258	346.75
414.482	359.75
414.705	344.75
414.928	348.75
415.151	343.75
415.374	341.75
415.597	342.75
415.821	356.75
416.044	345.75
416.267	335.75
416.49	355.75
416.713	348.75
416.936	326.75
417.159	331.75
417.382	333.75
417.605	355.75
417.828	319.75
418.051	337.75
418.274	366.75
418.497	333.75
418.72	353.75
418.943	341.75
419.166	355.75
419.389	363.75
419.611	356.75
419.834	357.75
420.057	337.75
420.28	322.75
420.503	346.75
420.726	330.75
420.948	329.75
421.171	360.75
421.394	330.75
421.617	338.75
421.839	346.75
422.062	342.75
422.285	338.75
422.507	335.75
422.73	337.75
422.953	351.75
423.175	348.75
423.398	353.75
423.621	343.75
423.843	344.75
424.066	345.75
424.288	329.75
424.511	345.75
424.733	333.75
424.956	342.75
425.178	330.75
425.401	322.75
425.623	326.75
425.846	321.75
426.068	309.75
426.291	315.75
426.513	339.75
426.735	322.75
426.958	328.75
427.18	340.75
427.402	325.75
427.625	304.75
427.847	301.75
428.069	324.75
428.292	317.75
428.514	317.75
428.736	310.75
428.958	309.75
429.181	326.75
429.403	309.75
429.625	316.75
429.847	309.75
430.069	301.75
430.292	303.75
430.514	304.75
430.736	306.75
430.958	309.75
431.18	313.75
431.402	312.75
431.624	297.75
431.846	305.75
432.068	307.75
432.29	322.75
432.512	318.75
432.734	320.75
432.956	332.75
433.178	319.75
433.4	322.75
433.622	329.75
433.844	322.75
434.066	338.75
434.287	318.75
434.509	321.75
434.731	331.75
434.953	336.75
435.175	331.75
435.397	321.75
435.618	322.75
435.84	318.75
436.062	312.75
436.284	312.75
436.505	305.75
436.727	324.75
436.949	289.75
437.17	307.75
437.392	317.75
437.614	305.75
437.835	295.75
438.057	296.75
438.278	301.75
438.5	318.75
438.721	302.75
438.943	304.75
439.165	295.75
439.386	306.75
439.608	311.75
439.829	297.75
440.05	307.75
440.272	294.75
440.493	333.75
440.715	319.75
440.936	327.75
441.158	318.75
441.379	310.75
441.6	326.75
441.822	319.75
442.043	339.75
442.264	329.75
442.486	328.75
442.707	344.75
442.928	298.75
443.149	326.75
443.371	342.75
443.592	338.75
443.813	326.75
444.034	324.75
444.255	334.75
444.476	354.75
444.698	360.75
444.919	362.75
445.14	413.75
445.361	353.75
445.582	373.75
445.803	329.75
446.024	329.75
446.245	324.75
446.466	319.75
446.687	309.75
446.908	334.75
447.129	310.75
447.35	315.75
447.571	334.75
447.792	305.75
448.013	279.75
448.234	291.75
448.455	280.75
448.675	276.75
448.896	272.75
449.117	312.75
449.338	275.75
449.559	314.75
449.779	270.75
450	269.75
450.221	282.75
450.442	290.75
450.662	290.75
450.883	292.75
451.104	296.75
451.324	283.75
451.545	307.75
451.766	288.75
451.986	276.75
452.207	287.75
452.428	285.75
452.648	292.75
452.869	290.75
453.089	290.75
453.31	275.75
453.53	276.75
453.751	256.75
453.971	279.75
454.192	293.75
454.412	275.75
454.633	265.75
454.853	263.75
455.073	292.75
455.294	278.75
455.514	278.75
455.734	269.75
455.955	266.75
456.175	284.75
456.395	259.75
456.616	276.75
456.836	275.75
457.056	282.75
457.276	287.75
457.497	292.75
457.717	277.75
457.937	273.75
458.157	286.75
458.377	306.75
458.598	303.75
458.818	297.75
459.038	315.75
459.258	301.75
459.478	299.75
459.698	321.75
459.918	321.75
460.138	325.75
460.358	327.75
460.578	326.75
460.798	357.75
461.018	325.75
461.238	330.75
461.458	349.75
461.678	345.75
461.898	359.75
462.118	340.75
462.338	351.75
462.558	371.75
462.777	377.75
462.997	383.75
463.217	386.75
463.437	394.75
463.657	389.75
463.876	395.75
464.096	378.75
464.316	373.75
464.536	374.75
464.755	358.75
464.975	362.75
465.195	351.75
465.414	332.75
465.634	332.75
465.854	320.75
466.073	319.75
466.293	328.75
466.512	302.75
466.732	295.75
466.951	329.75
467.171	303.75
467.391	306.75
467.61	303.75
467.829	295.75
468.049	298.75
468.268	308.75
468.488	307.75
468.707	306.75
468.927	309.75
469.146	292.75
469.365	297.75
469.585	291.75
469.804	315.75
470.023	308.75
470.243	309.75
470.462	311.75
470.681	315.75
470.901	321.75
471.12	307.75
471.339	306.75
471.558	296.75
471.777	288.75
471.997	292.75
472.216	302.75
472.435	283.75
472.654	285.75
472.873	293.75
473.092	312.75
473.311	291.75
473.53	292.75
473.749	312.75
473.968	294.75
474.187	314.75
474.406	301.75
474.625	305.75
474.844	301.75
475.063	282.75
475.282	306.75
475.501	305.75
475.72	321.75
475.939	316.75
476.158	322.75
476.377	304.75
476.596	293.75
476.814	321.75
477.033	318.75
477.252	334.75
477.471	338.75
477.69	337.75
477.908	332.75
478.127	346.75
478.346	350.75
478.564	339.75
478.783	337.75
479.002	354.75
479.22	356.75
479.439	345.75
479.658	359.75
479.876	371.75
480.095	371.75
480.313	354.75
480.532	377.75
480.751	376.75
480.969	369.75
481.188	358.75
481.406	331.75
481.624	326.75
481.843	357.75
482.061	345.75
482.28	357.75
482.498	367.75
482.717	356.75
482.935	355.75
483.153	343.75
483.372	349.75
483.59	370.75
483.808	337.75
484.027	347.75
484.245	343.75
484.463	343.75
484.681	341.75
484.9	354.75
485.118	362.75
485.336	369.75
485.554	345.75
485.772	344.75
485.99	354.75
486.209	361.75
486.427	339.75
486.645	358.75
486.863	352.75
487.081	342.75
487.299	352.75
487.517	342.75
487.735	342.75
487.953	351.75
488.171	354.75
488.389	368.75
488.607	355.75
488.825	365.75
489.043	356.75
489.261	346.75
489.479	365.75
489.696	352.75
489.914	341.75
490.132	370.75
490.35	372.75
490.568	370.75
490.786	377.75
491.003	360.75
491.221	368.75
491.439	362.75
491.657	365.75
491.874	360.75
492.092	354.75
492.31	381.75
492.527	359.75
492.745	372.75
492.963	367.75
493.18	373.75
493.398	376.75
493.615	373.75
493.833	375.75
494.05	378.75
494.268	385.75
494.485	378.75
494.703	373.75
494.92	401.75
495.138	381.75
495.355	393.75
495.573	403.75
495.79	374.75
496.008	377.75
496.225	369.75
496.442	391.75
496.66	393.75
496.877	393.75
497.094	409.75
497.312	417.75
497.529	411.75
497.746	429.75
497.963	405.75
498.181	437.75
498.398	446.75
498.615	480.75
498.832	488.75
499.049	529.75
499.267	552.75
499.484	570.75
499.701	599.75
499.918	619.75
500.135	643.75
500.352	685.75
500.569	687.75
500.786	675.75
501.003	678.75
501.22	650.75
501.437	619.75
501.654	557.75
501.871	541.75
502.088	523.75
502.305	503.75
502.522	479.75
