Data from Fe(NO3)3@0.05M.TitratingCurve.Agarose3%dH2O.NegLispCup.LampEnergy10.LIBS07252019_HRD10591_16-48-27-334.txt Node
Date: Thu Jul 25 16:48:27 EDT 2019
User: cochatt
Spectrometer: HR+D1059
Trigger mode: 1
Integration Time (sec): 1.000000E-1
Scans to average: 1
Electric dark correction enabled: true
Nonlinearity correction enabled: false
Boxcar width: 0
XAxis mode: Wavelengths
Number of Pixels in Spectrum: 2048
>>>>>Begin Spectral Data<<<<<
223.165	-15.44
223.4	-15.44
223.635	-15.44
223.869	-7.44
224.104	-25.44
224.338	-19.44
224.573	-25.44
224.808	-26.44
225.042	-8.44
225.277	-3.44
225.511	7.56
225.746	9.56
225.98	2.56
226.215	7.56
226.449	19.56
226.683	21.56
226.918	32.56
227.152	30.56
227.387	29.56
227.621	33.56
227.856	51.56
228.09	46.56
228.324	44.56
228.559	54.56
228.793	57.56
229.027	86.56
229.262	87.56
229.496	83.56
229.73	86.56
229.964	94.56
230.199	85.56
230.433	93.56
230.667	78.56
230.901	85.56
231.136	101.56
231.37	108.56
231.604	99.56
231.838	105.56
232.072	115.56
232.306	99.56
232.541	100.56
232.775	121.56
233.009	84.56
233.243	102.56
233.477	98.56
233.711	102.56
233.945	97.56
234.179	101.56
234.413	97.56
234.647	134.56
234.881	108.56
235.115	95.56
235.349	101.56
235.583	93.56
235.817	109.56
236.051	109.56
236.285	100.56
236.519	97.56
236.753	108.56
236.987	111.56
237.221	108.56
237.455	113.56
237.689	109.56
237.922	110.56
238.156	102.56
238.39	111.56
238.624	108.56
238.858	113.56
239.091	114.56
239.325	105.56
239.559	115.56
239.793	121.56
240.027	115.56
240.26	107.56
240.494	113.56
240.728	110.56
240.961	106.56
241.195	116.56
241.429	108.56
241.662	117.56
241.896	113.56
242.13	131.56
242.363	115.56
242.597	113.56
242.83	110.56
243.064	119.56
243.298	99.56
243.531	124.56
243.765	125.56
243.998	120.56
244.232	122.56
244.465	114.56
244.699	127.56
244.932	120.56
245.166	124.56
245.399	123.56
245.633	116.56
245.866	105.56
246.099	121.56
246.333	120.56
246.566	136.56
246.8	110.56
247.033	109.56
247.266	124.56
247.5	131.56
247.733	149.56
247.966	128.56
248.2	122.56
248.433	125.56
248.666	129.56
248.899	140.56
249.133	137.56
249.366	140.56
249.599	120.56
249.832	131.56
250.066	142.56
250.299	130.56
250.532	133.56
250.765	141.56
250.998	134.56
251.231	138.56
251.465	123.56
251.698	158.56
251.931	137.56
252.164	139.56
252.397	135.56
252.63	140.56
252.863	143.56
253.096	135.56
253.329	156.56
253.562	133.56
253.795	155.56
254.028	149.56
254.261	140.56
254.494	152.56
254.727	162.56
254.96	139.56
255.193	149.56
255.426	138.56
255.659	149.56
255.892	144.56
256.124	155.56
256.357	154.56
256.59	160.56
256.823	150.56
257.056	155.56
257.289	153.56
257.521	159.56
257.754	162.56
257.987	160.56
258.22	157.56
258.452	144.56
258.685	152.56
258.918	151.56
259.151	152.56
259.383	156.56
259.616	155.56
259.849	157.56
260.081	163.56
260.314	163.56
260.547	161.56
260.779	180.56
261.012	161.56
261.244	153.56
261.477	166.56
261.71	151.56
261.942	158.56
262.175	159.56
262.407	178.56
262.64	153.56
262.872	157.56
263.105	170.56
263.337	187.56
263.57	178.56
263.802	159.56
264.035	157.56
264.267	148.56
264.499	164.56
264.732	174.56
264.964	169.56
265.197	163.56
265.429	161.56
265.661	169.56
265.894	170.56
266.126	161.56
266.358	164.56
266.591	169.56
266.823	169.56
267.055	172.56
267.287	181.56
267.52	175.56
267.752	186.56
267.984	175.56
268.216	153.56
268.448	174.56
268.681	179.56
268.913	181.56
269.145	177.56
269.377	180.56
269.609	180.56
269.841	185.56
270.073	171.56
270.306	169.56
270.538	173.56
270.77	168.56
271.002	194.56
271.234	171.56
271.466	175.56
271.698	171.56
271.93	188.56
272.162	185.56
272.394	185.56
272.626	179.56
272.858	185.56
273.09	187.56
273.322	187.56
273.553	186.56
273.785	194.56
274.017	187.56
274.249	201.56
274.481	185.56
274.713	186.56
274.945	193.56
275.176	208.56
275.408	193.56
275.64	207.56
275.872	191.56
276.104	199.56
276.335	203.56
276.567	185.56
276.799	193.56
277.031	199.56
277.262	208.56
277.494	195.56
277.726	189.56
277.957	197.56
278.189	178.56
278.421	177.56
278.652	191.56
278.884	189.56
279.115	205.56
279.347	184.56
279.579	195.56
279.81	211.56
280.042	206.56
280.273	182.56
280.505	209.56
280.736	191.56
280.968	203.56
281.199	195.56
281.431	220.56
281.662	207.56
281.894	220.56
282.125	219.56
282.356	215.56
282.588	220.56
282.819	209.56
283.051	199.56
283.282	213.56
283.513	214.56
283.745	225.56
283.976	220.56
284.207	230.56
284.439	230.56
284.67	213.56
284.901	223.56
285.132	214.56
285.364	232.56
285.595	215.56
285.826	229.56
286.057	241.56
286.288	211.56
286.52	214.56
286.751	229.56
286.982	213.56
287.213	216.56
287.444	246.56
287.675	222.56
287.906	230.56
288.138	222.56
288.369	215.56
288.6	237.56
288.831	221.56
289.062	221.56
289.293	233.56
289.524	201.56
289.755	245.56
289.986	219.56
290.217	226.56
290.448	217.56
290.679	221.56
290.91	234.56
291.141	233.56
291.371	213.56
291.602	222.56
291.833	243.56
292.064	233.56
292.295	238.56
292.526	242.56
292.757	226.56
292.987	225.56
293.218	225.56
293.449	218.56
293.68	223.56
293.91	220.56
294.141	227.56
294.372	239.56
294.603	226.56
294.833	239.56
295.064	231.56
295.295	246.56
295.525	223.56
295.756	241.56
295.987	236.56
296.217	241.56
296.448	229.56
296.679	237.56
296.909	244.56
297.14	230.56
297.37	247.56
297.601	251.56
297.831	242.56
298.062	245.56
298.292	248.56
298.523	277.56
298.753	265.56
298.984	250.56
299.214	250.56
299.445	229.56
299.675	238.56
299.905	245.56
300.136	257.56
300.366	253.56
300.597	259.56
300.827	257.56
301.057	255.56
301.288	255.56
301.518	258.56
301.748	251.56
301.979	288.56
302.209	269.56
302.439	263.56
302.669	256.56
302.9	253.56
303.13	261.56
303.36	265.56
303.59	267.56
303.82	253.56
304.051	261.56
304.281	255.56
304.511	277.56
304.741	269.56
304.971	241.56
305.201	246.56
305.431	267.56
305.661	256.56
305.891	271.56
306.121	261.56
306.352	268.56
306.582	235.56
306.812	251.56
307.042	267.56
307.272	263.56
307.502	244.56
307.731	248.56
307.961	263.56
308.191	225.56
308.421	247.56
308.651	262.56
308.881	261.56
309.111	235.56
309.341	257.56
309.571	250.56
309.8	261.56
310.03	236.56
310.26	262.56
310.49	246.56
310.72	259.56
310.949	270.56
311.179	244.56
311.409	239.56
311.639	267.56
311.868	237.56
312.098	252.56
312.328	265.56
312.557	270.56
312.787	245.56
313.017	272.56
313.246	275.56
313.476	272.56
313.706	256.56
313.935	294.56
314.165	266.56
314.394	270.56
314.624	267.56
314.853	278.56
315.083	287.56
315.312	283.56
315.542	265.56
315.771	269.56
316.001	267.56
316.23	271.56
316.46	265.56
316.689	261.56
316.919	284.56
317.148	266.56
317.377	266.56
317.607	277.56
317.836	274.56
318.065	262.56
318.295	272.56
318.524	270.56
318.753	253.56
318.983	261.56
319.212	275.56
319.441	275.56
319.67	260.56
319.9	279.56
320.129	262.56
320.358	280.56
320.587	279.56
320.816	267.56
321.046	272.56
321.275	266.56
321.504	274.56
321.733	267.56
321.962	285.56
322.191	285.56
322.42	257.56
322.649	269.56
322.878	290.56
323.108	280.56
323.337	271.56
323.566	281.56
323.795	270.56
324.024	270.56
324.253	265.56
324.482	278.56
324.71	291.56
324.939	282.56
325.168	289.56
325.397	279.56
325.626	289.56
325.855	285.56
326.084	292.56
326.313	289.56
326.542	283.56
326.77	307.56
326.999	294.56
327.228	282.56
327.457	289.56
327.686	294.56
327.914	277.56
328.143	282.56
328.372	296.56
328.6	286.56
328.829	286.56
329.058	291.56
329.287	289.56
329.515	284.56
329.744	284.56
329.972	287.56
330.201	278.56
330.43	300.56
330.658	282.56
330.887	287.56
331.115	301.56
331.344	301.56
331.572	301.56
331.801	305.56
332.03	317.56
332.258	317.56
332.486	333.56
332.715	326.56
332.943	339.56
333.172	339.56
333.4	361.56
333.629	374.56
333.857	366.56
334.085	366.56
334.314	366.56
334.542	374.56
334.771	365.56
334.999	364.56
335.227	361.56
335.455	345.56
335.684	336.56
335.912	344.56
336.14	357.56
336.369	333.56
336.597	360.56
336.825	340.56
337.053	360.56
337.281	351.56
337.51	340.56
337.738	331.56
337.966	330.56
338.194	317.56
338.422	332.56
338.65	310.56
338.878	325.56
339.106	313.56
339.334	333.56
339.562	314.56
339.79	314.56
340.018	311.56
340.246	311.56
340.474	310.56
340.702	317.56
340.93	313.56
341.158	311.56
341.386	307.56
341.614	297.56
341.842	313.56
342.07	292.56
342.298	297.56
342.526	292.56
342.754	298.56
342.981	309.56
343.209	309.56
343.437	343.56
343.665	339.56
343.893	346.56
344.12	355.56
344.348	351.56
344.576	324.56
344.804	311.56
345.031	331.56
345.259	316.56
345.487	330.56
345.714	297.56
345.942	302.56
346.17	319.56
346.397	298.56
346.625	307.56
346.853	307.56
347.08	291.56
347.308	303.56
347.535	292.56
347.763	300.56
347.99	294.56
348.218	290.56
348.445	283.56
348.673	300.56
348.9	290.56
349.128	302.56
349.355	281.56
349.583	281.56
349.81	289.56
350.037	294.56
350.265	292.56
350.492	286.56
350.72	287.56
350.947	282.56
351.174	282.56
351.402	306.56
351.629	284.56
351.856	289.56
352.083	284.56
352.311	289.56
352.538	287.56
352.765	298.56
352.992	278.56
353.22	302.56
353.447	278.56
353.674	298.56
353.901	295.56
354.128	284.56
354.355	292.56
354.583	300.56
354.81	281.56
355.037	285.56
355.264	298.56
355.491	287.56
355.718	298.56
355.945	295.56
356.172	283.56
356.399	291.56
356.626	293.56
356.853	308.56
357.08	292.56
357.307	289.56
357.534	294.56
357.761	316.56
357.988	292.56
358.215	300.56
358.441	298.56
358.668	300.56
358.895	289.56
359.122	299.56
359.349	301.56
359.576	297.56
359.802	282.56
360.029	282.56
360.256	290.56
360.483	289.56
360.709	293.56
360.936	302.56
361.163	299.56
361.39	290.56
361.616	296.56
361.843	278.56
362.07	306.56
362.296	290.56
362.523	309.56
362.749	297.56
362.976	292.56
363.203	297.56
363.429	290.56
363.656	299.56
363.882	287.56
364.109	288.56
364.335	283.56
364.562	285.56
364.788	297.56
365.015	297.56
365.241	282.56
365.468	294.56
365.694	302.56
365.92	301.56
366.147	289.56
366.373	286.56
366.599	304.56
366.826	289.56
367.052	291.56
367.278	291.56
367.505	292.56
367.731	302.56
367.957	294.56
368.184	290.56
368.41	300.56
368.636	295.56
368.862	301.56
369.089	300.56
369.315	315.56
369.541	316.56
369.767	297.56
369.993	300.56
370.219	321.56
370.445	318.56
370.672	326.56
370.898	310.56
371.124	306.56
371.35	331.56
371.576	311.56
371.802	331.56
372.028	318.56
372.254	328.56
372.48	333.56
372.706	324.56
372.932	340.56
373.158	320.56
373.384	334.56
373.61	324.56
373.835	353.56
374.061	329.56
374.287	326.56
374.513	339.56
374.739	348.56
374.965	357.56
375.191	379.56
375.416	357.56
375.642	320.56
375.868	350.56
376.094	333.56
376.319	327.56
376.545	337.56
376.771	349.56
376.997	344.56
377.222	334.56
377.448	319.56
377.674	306.56
377.899	305.56
378.125	337.56
378.35	344.56
378.576	316.56
378.802	316.56
379.027	316.56
379.253	317.56
379.478	321.56
379.704	324.56
379.929	322.56
380.155	328.56
380.38	335.56
380.606	313.56
380.831	342.56
381.057	325.56
381.282	330.56
381.507	338.56
381.733	330.56
381.958	320.56
382.184	330.56
382.409	340.56
382.634	361.56
382.86	335.56
383.085	345.56
383.31	337.56
383.535	350.56
383.761	349.56
383.986	372.56
384.211	354.56
384.436	365.56
384.662	377.56
384.887	358.56
385.112	382.56
385.337	359.56
385.562	394.56
385.787	387.56
386.013	408.56
386.238	378.56
386.463	399.56
386.688	402.56
386.913	383.56
387.138	377.56
387.363	371.56
387.588	390.56
387.813	383.56
388.038	389.56
388.263	407.56
388.488	390.56
388.713	392.56
388.938	386.56
389.163	382.56
389.387	391.56
389.612	389.56
389.837	378.56
390.062	377.56
390.287	369.56
390.512	387.56
390.736	380.56
390.961	389.56
391.186	395.56
391.411	409.56
391.636	420.56
391.86	438.56
392.085	424.56
392.31	431.56
392.534	414.56
392.759	418.56
392.984	410.56
393.208	405.56
393.433	405.56
393.658	415.56
393.882	393.56
394.107	420.56
394.331	415.56
394.556	412.56
394.78	400.56
395.005	416.56
395.229	444.56
395.454	426.56
395.678	428.56
395.903	428.56
396.127	434.56
396.352	425.56
396.576	411.56
396.801	413.56
397.025	420.56
397.249	416.56
397.474	427.56
397.698	438.56
397.922	438.56
398.147	414.56
398.371	439.56
398.595	459.56
398.82	459.56
399.044	498.56
399.268	509.56
399.492	596.56
399.717	626.56
399.941	627.56
400.165	586.56
400.389	533.56
400.613	518.56
400.837	501.56
401.062	495.56
401.286	489.56
401.51	482.56
401.734	478.56
401.958	486.56
402.182	474.56
402.406	478.56
402.63	467.56
402.854	488.56
403.078	496.56
403.302	509.56
403.526	537.56
403.75	529.56
403.974	533.56
404.198	537.56
404.422	520.56
404.645	517.56
404.869	505.56
405.093	509.56
405.317	523.56
405.541	519.56
405.765	486.56
405.988	509.56
406.212	501.56
406.436	495.56
406.66	537.56
406.883	537.56
407.107	582.56
407.331	589.56
407.555	601.56
407.778	588.56
408.002	563.56
408.226	572.56
408.449	553.56
408.673	549.56
408.896	534.56
409.12	546.56
409.344	539.56
409.567	551.56
409.791	542.56
410.014	539.56
410.238	521.56
410.461	531.56
410.685	512.56
410.908	532.56
411.132	514.56
411.355	511.56
411.578	510.56
411.802	505.56
412.025	501.56
412.249	490.56
412.472	520.56
412.695	517.56
412.919	511.56
413.142	493.56
413.365	480.56
413.589	486.56
413.812	494.56
414.035	472.56
414.258	480.56
414.482	494.56
414.705	497.56
414.928	509.56
415.151	493.56
415.374	479.56
415.597	488.56
415.821	481.56
416.044	475.56
416.267	471.56
416.49	473.56
416.713	478.56
416.936	474.56
417.159	457.56
417.382	470.56
417.605	472.56
417.828	445.56
418.051	490.56
418.274	462.56
418.497	471.56
418.72	497.56
418.943	493.56
419.166	495.56
419.389	572.56
419.611	516.56
419.834	491.56
420.057	473.56
420.28	484.56
420.503	476.56
420.726	492.56
420.948	473.56
421.171	461.56
421.394	498.56
421.617	499.56
421.839	487.56
422.062	504.56
422.285	475.56
422.507	489.56
422.73	486.56
422.953	487.56
423.175	499.56
423.398	515.56
423.621	502.56
423.843	491.56
424.066	495.56
424.288	500.56
424.511	494.56
424.733	478.56
424.956	470.56
425.178	487.56
425.401	487.56
425.623	462.56
425.846	464.56
426.068	445.56
426.291	434.56
426.513	461.56
426.735	456.56
426.958	457.56
427.18	442.56
427.402	460.56
427.625	457.56
427.847	441.56
428.069	428.56
428.292	446.56
428.514	439.56
428.736	455.56
428.958	454.56
429.181	441.56
429.403	452.56
429.625	430.56
429.847	435.56
430.069	435.56
430.292	449.56
430.514	431.56
430.736	435.56
430.958	443.56
431.18	440.56
431.402	425.56
431.624	422.56
431.846	449.56
432.068	429.56
432.29	443.56
432.512	435.56
432.734	447.56
432.956	438.56
433.178	447.56
433.4	453.56
433.622	447.56
433.844	429.56
434.066	448.56
434.287	440.56
434.509	449.56
434.731	445.56
434.953	495.56
435.175	490.56
435.397	488.56
435.618	444.56
435.84	455.56
436.062	449.56
436.284	469.56
436.505	449.56
436.727	435.56
436.949	442.56
437.17	447.56
437.392	433.56
437.614	421.56
437.835	421.56
438.057	432.56
438.278	433.56
438.5	429.56
438.721	442.56
438.943	423.56
439.165	443.56
439.386	439.56
439.608	429.56
439.829	421.56
440.05	461.56
440.272	453.56
440.493	459.56
440.715	462.56
440.936	461.56
441.158	478.56
441.379	476.56
441.6	497.56
441.822	491.56
442.043	484.56
442.264	493.56
442.486	475.56
442.707	498.56
442.928	490.56
443.149	497.56
443.371	486.56
443.592	478.56
443.813	475.56
444.034	491.56
444.255	524.56
444.476	519.56
444.698	525.56
444.919	535.56
445.14	674.56
445.361	557.56
445.582	513.56
445.803	486.56
446.024	496.56
446.245	468.56
446.466	464.56
446.687	465.56
446.908	475.56
447.129	437.56
447.35	447.56
447.571	434.56
447.792	433.56
448.013	436.56
448.234	443.56
448.455	423.56
448.675	426.56
448.896	431.56
449.117	415.56
449.338	438.56
449.559	419.56
449.779	415.56
450	417.56
450.221	416.56
450.442	405.56
450.662	413.56
450.883	426.56
451.104	431.56
451.324	430.56
451.545	406.56
451.766	423.56
451.986	406.56
452.207	415.56
452.428	433.56
452.648	413.56
452.869	398.56
453.089	413.56
453.31	414.56
453.53	409.56
453.751	387.56
453.971	390.56
454.192	399.56
454.412	416.56
454.633	404.56
454.853	387.56
455.073	397.56
455.294	386.56
455.514	397.56
455.734	375.56
455.955	385.56
456.175	406.56
456.395	406.56
456.616	404.56
456.836	394.56
457.056	382.56
457.276	388.56
457.497	385.56
457.717	393.56
457.937	382.56
458.157	399.56
458.377	413.56
458.598	421.56
458.818	393.56
459.038	405.56
459.258	412.56
459.478	431.56
459.698	462.56
459.918	466.56
460.138	488.56
460.358	503.56
460.578	491.56
460.798	513.56
461.018	479.56
461.238	510.56
461.458	484.56
461.678	495.56
461.898	506.56
462.118	521.56
462.338	531.56
462.558	535.56
462.777	576.56
462.997	611.56
463.217	617.56
463.437	613.56
463.657	584.56
463.876	579.56
464.096	562.56
464.316	551.56
464.536	561.56
464.755	545.56
464.975	506.56
465.195	492.56
465.414	499.56
465.634	477.56
465.854	458.56
466.073	446.56
466.293	449.56
466.512	445.56
466.732	436.56
466.951	445.56
467.171	435.56
467.391	433.56
467.61	429.56
467.829	427.56
468.049	428.56
468.268	430.56
468.488	425.56
468.707	413.56
468.927	410.56
469.146	399.56
469.365	444.56
469.585	438.56
469.804	446.56
470.023	441.56
470.243	442.56
470.462	434.56
470.681	423.56
470.901	438.56
471.12	435.56
471.339	453.56
471.558	414.56
471.777	397.56
471.997	435.56
472.216	426.56
472.435	421.56
472.654	415.56
472.873	394.56
473.092	429.56
473.311	390.56
473.53	394.56
473.749	413.56
473.968	393.56
474.187	389.56
474.406	413.56
474.625	417.56
474.844	405.56
475.063	393.56
475.282	405.56
475.501	407.56
475.72	428.56
475.939	404.56
476.158	417.56
476.377	425.56
476.596	422.56
476.814	441.56
477.033	408.56
477.252	422.56
477.471	454.56
477.69	453.56
477.908	464.56
478.127	466.56
478.346	450.56
478.564	473.56
478.783	477.56
479.002	491.56
479.22	484.56
479.439	479.56
479.658	463.56
479.876	487.56
480.095	507.56
480.313	499.56
480.532	498.56
480.751	482.56
480.969	498.56
481.188	481.56
481.406	467.56
481.624	471.56
481.843	455.56
482.061	457.56
482.28	447.56
482.498	445.56
482.717	460.56
482.935	463.56
483.153	469.56
483.372	481.56
483.59	442.56
483.808	456.56
484.027	448.56
484.245	463.56
484.463	453.56
484.681	471.56
484.9	485.56
485.118	484.56
485.336	468.56
485.554	461.56
485.772	451.56
485.99	460.56
486.209	456.56
486.427	454.56
486.645	465.56
486.863	464.56
487.081	461.56
487.299	479.56
487.517	486.56
487.735	483.56
487.953	495.56
488.171	470.56
488.389	491.56
488.607	465.56
488.825	458.56
489.043	463.56
489.261	466.56
489.479	468.56
489.696	468.56
489.914	483.56
490.132	452.56
490.35	463.56
490.568	487.56
490.786	476.56
491.003	483.56
491.221	478.56
491.439	467.56
491.657	488.56
491.874	499.56
492.092	500.56
492.31	490.56
492.527	526.56
492.745	502.56
492.963	510.56
493.18	500.56
493.398	470.56
493.615	492.56
493.833	480.56
494.05	483.56
494.268	473.56
494.485	485.56
494.703	490.56
494.92	495.56
495.138	500.56
495.355	491.56
495.573	501.56
495.79	521.56
496.008	518.56
496.225	515.56
496.442	511.56
496.66	503.56
496.877	546.56
497.094	535.56
497.312	532.56
497.529	555.56
497.746	550.56
497.963	548.56
498.181	582.56
498.398	618.56
498.615	642.56
498.832	701.56
499.049	712.56
499.267	767.56
499.484	823.56
499.701	929.56
499.918	955.56
500.135	1061.56
500.352	1146.56
500.569	1217.56
500.786	1175.56
501.003	1175.56
501.22	1031.56
501.437	922.56
501.654	861.56
501.871	803.56
