Data from Fe(NO3)3@0.025M.TitratingCurve.Agarose3%dH2O.NegLispCup.LampEnergy10.LIBS07252019_HRD10591_16-54-42-335.txt Node
Date: Thu Jul 25 16:54:42 EDT 2019
User: cochatt
Spectrometer: HR+D1059
Trigger mode: 1
Integration Time (sec): 1.000000E-1
Scans to average: 1
Electric dark correction enabled: true
Nonlinearity correction enabled: false
Boxcar width: 0
XAxis mode: Wavelengths
Number of Pixels in Spectrum: 2048
>>>>>Begin Spectral Data<<<<<
223.165	-13.69
223.4	-13.69
223.635	-13.69
223.869	-26.69
224.104	-12.69
224.338	-17.69
224.573	-13.69
224.808	-7.69
225.042	-10.69
225.277	-11.69
225.511	7.31
225.746	17.31
225.98	4.31
226.215	6.31
226.449	17.31
226.683	18.31
226.918	19.31
227.152	24.31
227.387	26.31
227.621	35.31
227.856	43.31
228.09	47.31
228.324	51.31
228.559	52.31
228.793	49.31
229.027	96.31
229.262	77.31
229.496	66.31
229.73	92.31
229.964	102.31
230.199	85.31
230.433	82.31
230.667	99.31
230.901	78.31
231.136	105.31
231.37	90.31
231.604	94.31
231.838	98.31
232.072	103.31
232.306	112.31
232.541	97.31
232.775	102.31
233.009	104.31
233.243	102.31
233.477	117.31
233.711	109.31
233.945	111.31
234.179	108.31
234.413	103.31
234.647	110.31
234.881	114.31
235.115	100.31
235.349	109.31
235.583	104.31
235.817	107.31
236.051	111.31
236.285	116.31
236.519	117.31
236.753	102.31
236.987	99.31
237.221	104.31
237.455	109.31
237.689	125.31
237.922	126.31
238.156	117.31
238.39	121.31
238.624	130.31
238.858	102.31
239.091	121.31
239.325	122.31
239.559	125.31
239.793	112.31
240.027	121.31
240.26	115.31
240.494	117.31
240.728	118.31
240.961	123.31
241.195	110.31
241.429	120.31
241.662	127.31
241.896	120.31
242.13	120.31
242.363	118.31
242.597	114.31
242.83	119.31
243.064	117.31
243.298	126.31
243.531	123.31
243.765	119.31
243.998	123.31
244.232	133.31
244.465	133.31
244.699	123.31
244.932	121.31
245.166	133.31
245.399	127.31
245.633	125.31
245.866	129.31
246.099	132.31
246.333	122.31
246.566	125.31
246.8	149.31
247.033	141.31
247.266	120.31
247.5	141.31
247.733	145.31
247.966	134.31
248.2	146.31
248.433	139.31
248.666	136.31
248.899	149.31
249.133	150.31
249.366	142.31
249.599	148.31
249.832	128.31
250.066	149.31
250.299	149.31
250.532	140.31
250.765	143.31
250.998	158.31
251.231	149.31
251.465	145.31
251.698	151.31
251.931	146.31
252.164	139.31
252.397	147.31
252.63	154.31
252.863	145.31
253.096	143.31
253.329	170.31
253.562	146.31
253.795	160.31
254.028	154.31
254.261	161.31
254.494	162.31
254.727	162.31
254.96	161.31
255.193	173.31
255.426	170.31
255.659	171.31
255.892	174.31
256.124	165.31
256.357	178.31
256.59	154.31
256.823	167.31
257.056	176.31
257.289	170.31
257.521	171.31
257.754	147.31
257.987	158.31
258.22	174.31
258.452	177.31
258.685	171.31
258.918	173.31
259.151	177.31
259.383	182.31
259.616	168.31
259.849	164.31
260.081	188.31
260.314	179.31
260.547	182.31
260.779	189.31
261.012	192.31
261.244	187.31
261.477	168.31
261.71	188.31
261.942	178.31
262.175	185.31
262.407	167.31
262.64	173.31
262.872	189.31
263.105	187.31
263.337	190.31
263.57	196.31
263.802	193.31
264.035	191.31
264.267	191.31
264.499	191.31
264.732	199.31
264.964	181.31
265.197	196.31
265.429	178.31
265.661	189.31
265.894	175.31
266.126	201.31
266.358	198.31
266.591	183.31
266.823	190.31
267.055	206.31
267.287	188.31
267.52	207.31
267.752	177.31
267.984	193.31
268.216	191.31
268.448	195.31
268.681	213.31
268.913	210.31
269.145	210.31
269.377	206.31
269.609	194.31
269.841	216.31
270.073	199.31
270.306	226.31
270.538	198.31
270.77	198.31
271.002	206.31
271.234	205.31
271.466	214.31
271.698	209.31
271.93	209.31
272.162	201.31
272.394	221.31
272.626	214.31
272.858	203.31
273.09	229.31
273.322	214.31
273.553	215.31
273.785	216.31
274.017	206.31
274.249	224.31
274.481	226.31
274.713	216.31
274.945	233.31
275.176	226.31
275.408	221.31
275.64	226.31
275.872	242.31
276.104	229.31
276.335	218.31
276.567	237.31
276.799	234.31
277.031	223.31
277.262	231.31
277.494	233.31
277.726	220.31
277.957	229.31
278.189	238.31
278.421	224.31
278.652	235.31
278.884	247.31
279.115	238.31
279.347	240.31
279.579	227.31
279.81	234.31
280.042	227.31
280.273	224.31
280.505	237.31
280.736	239.31
280.968	244.31
281.199	263.31
281.431	257.31
281.662	260.31
281.894	252.31
282.125	259.31
282.356	244.31
282.588	240.31
282.819	238.31
283.051	250.31
283.282	238.31
283.513	261.31
283.745	260.31
283.976	254.31
284.207	275.31
284.439	272.31
284.67	266.31
284.901	264.31
285.132	281.31
285.364	261.31
285.595	251.31
285.826	263.31
286.057	242.31
286.288	250.31
286.52	258.31
286.751	261.31
286.982	275.31
287.213	253.31
287.444	264.31
287.675	255.31
287.906	273.31
288.138	273.31
288.369	267.31
288.6	258.31
288.831	263.31
289.062	273.31
289.293	253.31
289.524	278.31
289.755	268.31
289.986	279.31
290.217	259.31
290.448	267.31
290.679	280.31
290.91	277.31
291.141	294.31
291.371	271.31
291.602	282.31
291.833	254.31
292.064	270.31
292.295	267.31
292.526	271.31
292.757	277.31
292.987	280.31
293.218	279.31
293.449	266.31
293.68	281.31
293.91	269.31
294.141	264.31
294.372	265.31
294.603	266.31
294.833	269.31
295.064	279.31
295.295	275.31
295.525	266.31
295.756	262.31
295.987	274.31
296.217	293.31
296.448	286.31
296.679	284.31
296.909	285.31
297.14	290.31
297.37	295.31
297.601	305.31
297.831	286.31
298.062	305.31
298.292	302.31
298.523	311.31
298.753	319.31
298.984	303.31
299.214	295.31
299.445	306.31
299.675	305.31
299.905	295.31
300.136	315.31
300.366	302.31
300.597	295.31
300.827	324.31
301.057	309.31
301.288	315.31
301.518	314.31
301.748	305.31
301.979	312.31
302.209	330.31
302.439	329.31
302.669	301.31
302.9	310.31
303.13	305.31
303.36	305.31
303.59	303.31
303.82	318.31
304.051	307.31
304.281	305.31
304.511	313.31
304.741	318.31
304.971	312.31
305.201	326.31
305.431	324.31
305.661	312.31
305.891	313.31
306.121	306.31
306.352	310.31
306.582	322.31
306.812	329.31
307.042	314.31
307.272	313.31
307.502	316.31
307.731	314.31
307.961	324.31
308.191	321.31
308.421	310.31
308.651	326.31
308.881	325.31
309.111	326.31
309.341	319.31
309.571	322.31
309.8	319.31
310.03	307.31
310.26	311.31
310.49	310.31
310.72	315.31
310.949	330.31
311.179	320.31
311.409	333.31
311.639	324.31
311.868	326.31
312.098	336.31
312.328	353.31
312.557	335.31
312.787	347.31
313.017	325.31
313.246	349.31
313.476	338.31
313.706	361.31
313.935	354.31
314.165	322.31
314.394	337.31
314.624	358.31
314.853	343.31
315.083	340.31
315.312	343.31
315.542	339.31
315.771	343.31
316.001	338.31
316.23	339.31
316.46	344.31
316.689	328.31
316.919	340.31
317.148	338.31
317.377	340.31
317.607	342.31
317.836	330.31
318.065	352.31
318.295	358.31
318.524	356.31
318.753	340.31
318.983	329.31
319.212	349.31
319.441	351.31
319.67	336.31
319.9	358.31
320.129	338.31
320.358	344.31
320.587	343.31
320.816	334.31
321.046	350.31
321.275	344.31
321.504	354.31
321.733	363.31
321.962	341.31
322.191	339.31
322.42	344.31
322.649	350.31
322.878	363.31
323.108	356.31
323.337	373.31
323.566	367.31
323.795	368.31
324.024	363.31
324.253	343.31
324.482	346.31
324.71	357.31
324.939	361.31
325.168	386.31
325.397	353.31
325.626	372.31
325.855	357.31
326.084	389.31
326.313	358.31
326.542	374.31
326.77	389.31
326.999	358.31
327.228	369.31
327.457	386.31
327.686	373.31
327.914	360.31
328.143	383.31
328.372	391.31
328.6	382.31
328.829	365.31
329.058	361.31
329.287	377.31
329.515	397.31
329.744	381.31
329.972	377.31
330.201	400.31
330.43	390.31
330.658	373.31
330.887	379.31
331.115	386.31
331.344	391.31
331.572	385.31
331.801	415.31
332.03	418.31
332.258	433.31
332.486	406.31
332.715	429.31
332.943	424.31
333.172	441.31
333.4	449.31
333.629	441.31
333.857	455.31
334.085	458.31
334.314	469.31
334.542	447.31
334.771	452.31
334.999	449.31
335.227	434.31
335.455	445.31
335.684	442.31
335.912	469.31
336.14	458.31
336.369	442.31
336.597	455.31
336.825	439.31
337.053	416.31
337.281	432.31
337.51	424.31
337.738	411.31
337.966	405.31
338.194	427.31
338.422	427.31
338.65	415.31
338.878	410.31
339.106	413.31
339.334	412.31
339.562	432.31
339.79	401.31
340.018	390.31
340.246	407.31
340.474	401.31
340.702	384.31
340.93	387.31
341.158	417.31
341.386	403.31
341.614	401.31
341.842	389.31
342.07	416.31
342.298	401.31
342.526	404.31
342.754	409.31
342.981	407.31
343.209	419.31
343.437	422.31
343.665	407.31
343.893	460.31
344.12	457.31
344.348	449.31
344.576	437.31
344.804	415.31
345.031	391.31
345.259	425.31
345.487	421.31
345.714	434.31
345.942	394.31
346.17	396.31
346.397	373.31
346.625	394.31
346.853	387.31
347.08	399.31
347.308	398.31
347.535	379.31
347.763	377.31
347.99	388.31
348.218	394.31
348.445	382.31
348.673	367.31
348.9	375.31
349.128	403.31
349.355	383.31
349.583	405.31
349.81	400.31
350.037	404.31
350.265	388.31
350.492	376.31
350.72	374.31
350.947	391.31
351.174	381.31
351.402	381.31
351.629	379.31
351.856	385.31
352.083	377.31
352.311	376.31
352.538	393.31
352.765	378.31
352.992	383.31
353.22	360.31
353.447	385.31
353.674	374.31
353.901	373.31
354.128	356.31
354.355	372.31
354.583	385.31
354.81	365.31
355.037	391.31
355.264	389.31
355.491	398.31
355.718	391.31
355.945	394.31
356.172	395.31
356.399	385.31
356.626	403.31
356.853	378.31
357.08	398.31
357.307	400.31
357.534	379.31
357.761	365.31
357.988	384.31
358.215	386.31
358.441	377.31
358.668	383.31
358.895	383.31
359.122	381.31
359.349	382.31
359.576	393.31
359.802	385.31
360.029	389.31
360.256	386.31
360.483	361.31
360.709	381.31
360.936	373.31
361.163	389.31
361.39	387.31
361.616	392.31
361.843	376.31
362.07	390.31
362.296	393.31
362.523	394.31
362.749	397.31
362.976	394.31
363.203	396.31
363.429	393.31
363.656	390.31
363.882	393.31
364.109	403.31
364.335	365.31
364.562	393.31
364.788	403.31
365.015	385.31
365.241	387.31
365.468	390.31
365.694	390.31
365.92	402.31
366.147	392.31
366.373	388.31
366.599	370.31
366.826	385.31
367.052	383.31
367.278	381.31
367.505	409.31
367.731	401.31
367.957	376.31
368.184	399.31
368.41	387.31
368.636	391.31
368.862	384.31
369.089	399.31
369.315	382.31
369.541	400.31
369.767	407.31
369.993	422.31
370.219	406.31
370.445	413.31
370.672	420.31
370.898	405.31
371.124	412.31
371.35	416.31
371.576	439.31
371.802	422.31
372.028	424.31
372.254	433.31
372.48	423.31
372.706	419.31
372.932	431.31
373.158	453.31
373.384	433.31
373.61	437.31
373.835	424.31
374.061	427.31
374.287	413.31
374.513	422.31
374.739	455.31
374.965	437.31
375.191	475.31
375.416	458.31
375.642	442.31
375.868	418.31
376.094	441.31
376.319	425.31
376.545	435.31
376.771	417.31
376.997	429.31
377.222	422.31
377.448	399.31
377.674	426.31
377.899	409.31
378.125	412.31
378.35	439.31
378.576	398.31
378.802	431.31
379.027	432.31
379.253	406.31
379.478	423.31
379.704	422.31
379.929	400.31
380.155	408.31
380.38	418.31
380.606	418.31
380.831	402.31
381.057	431.31
381.282	423.31
381.507	426.31
381.733	412.31
381.958	430.31
382.184	437.31
382.409	431.31
382.634	434.31
382.86	438.31
383.085	463.31
383.31	455.31
383.535	445.31
383.761	445.31
383.986	463.31
384.211	450.31
384.436	466.31
384.662	451.31
384.887	480.31
385.112	497.31
385.337	482.31
385.562	461.31
385.787	489.31
386.013	489.31
386.238	483.31
386.463	491.31
386.688	505.31
386.913	493.31
387.138	489.31
387.363	497.31
387.588	489.31
387.813	482.31
388.038	491.31
388.263	479.31
388.488	484.31
388.713	478.31
388.938	494.31
389.163	480.31
389.387	488.31
389.612	468.31
389.837	478.31
390.062	461.31
390.287	488.31
390.512	497.31
390.736	495.31
390.961	523.31
391.186	496.31
391.411	525.31
391.636	542.31
391.86	527.31
392.085	542.31
392.31	516.31
392.534	514.31
392.759	540.31
392.984	529.31
393.208	509.31
393.433	507.31
393.658	519.31
393.882	520.31
394.107	506.31
394.331	535.31
394.556	523.31
394.78	516.31
395.005	498.31
395.229	520.31
395.454	541.31
395.678	535.31
395.903	534.31
396.127	545.31
396.352	545.31
396.576	507.31
396.801	513.31
397.025	535.31
397.249	534.31
397.474	536.31
397.698	554.31
397.922	568.31
398.147	547.31
398.371	564.31
398.595	597.31
398.82	599.31
399.044	616.31
399.268	653.31
399.492	713.31
399.717	725.31
399.941	763.31
400.165	712.31
400.389	680.31
400.613	657.31
400.837	632.31
401.062	614.31
401.286	613.31
401.51	572.31
401.734	583.31
401.958	576.31
402.182	591.31
402.406	589.31
402.63	611.31
402.854	601.31
403.078	616.31
403.302	622.31
403.526	639.31
403.75	649.31
403.974	627.31
404.198	617.31
404.422	633.31
404.645	631.31
404.869	600.31
405.093	631.31
405.317	615.31
405.541	634.31
405.765	621.31
405.988	600.31
406.212	603.31
406.436	620.31
406.66	649.31
406.883	637.31
407.107	681.31
407.331	671.31
407.555	697.31
407.778	707.31
408.002	681.31
408.226	690.31
408.449	676.31
408.673	639.31
408.896	634.31
409.12	622.31
409.344	642.31
409.567	627.31
409.791	647.31
410.014	635.31
410.238	614.31
410.461	623.31
410.685	621.31
410.908	593.31
411.132	605.31
411.355	578.31
411.578	607.31
411.802	598.31
412.025	614.31
412.249	585.31
412.472	612.31
412.695	626.31
412.919	579.31
413.142	587.31
413.365	590.31
413.589	603.31
413.812	598.31
414.035	595.31
414.258	587.31
414.482	591.31
414.705	593.31
414.928	584.31
415.151	605.31
415.374	577.31
415.597	584.31
415.821	558.31
416.044	574.31
416.267	576.31
416.49	559.31
416.713	563.31
416.936	572.31
417.159	550.31
417.382	554.31
417.605	552.31
417.828	561.31
418.051	569.31
418.274	570.31
418.497	565.31
418.72	582.31
418.943	574.31
419.166	589.31
419.389	637.31
419.611	593.31
419.834	612.31
420.057	606.31
420.28	565.31
420.503	560.31
420.726	558.31
420.948	549.31
421.171	541.31
421.394	573.31
421.617	553.31
421.839	573.31
422.062	563.31
422.285	539.31
422.507	558.31
422.73	575.31
422.953	567.31
423.175	575.31
423.398	546.31
423.621	553.31
423.843	534.31
424.066	574.31
424.288	561.31
424.511	597.31
424.733	565.31
424.956	573.31
425.178	577.31
425.401	563.31
425.623	558.31
425.846	550.31
426.068	554.31
426.291	527.31
426.513	545.31
426.735	553.31
426.958	553.31
427.18	516.31
427.402	526.31
427.625	554.31
427.847	523.31
428.069	535.31
428.292	525.31
428.514	529.31
428.736	502.31
428.958	518.31
429.181	511.31
429.403	513.31
429.625	518.31
429.847	511.31
430.069	496.31
430.292	509.31
430.514	514.31
430.736	507.31
430.958	522.31
431.18	516.31
431.402	523.31
431.624	515.31
431.846	510.31
432.068	523.31
432.29	530.31
432.512	509.31
432.734	513.31
432.956	527.31
433.178	515.31
433.4	518.31
433.622	538.31
433.844	541.31
434.066	539.31
434.287	503.31
434.509	566.31
434.731	549.31
434.953	552.31
435.175	563.31
435.397	557.31
435.618	530.31
435.84	541.31
436.062	519.31
436.284	513.31
436.505	518.31
436.727	515.31
436.949	501.31
437.17	491.31
437.392	509.31
437.614	513.31
437.835	526.31
438.057	505.31
438.278	503.31
438.5	516.31
438.721	479.31
438.943	489.31
439.165	498.31
439.386	499.31
439.608	516.31
439.829	507.31
440.05	493.31
440.272	530.31
440.493	511.31
440.715	521.31
440.936	532.31
441.158	535.31
441.379	543.31
441.6	562.31
441.822	529.31
442.043	547.31
442.264	561.31
442.486	527.31
442.707	531.31
442.928	543.31
443.149	541.31
443.371	545.31
443.592	542.31
443.813	538.31
444.034	557.31
444.255	569.31
444.476	576.31
444.698	565.31
444.919	582.31
445.14	682.31
445.361	621.31
445.582	587.31
445.803	551.31
446.024	524.31
446.245	535.31
446.466	541.31
446.687	501.31
446.908	527.31
447.129	525.31
447.35	518.31
447.571	505.31
447.792	489.31
448.013	482.31
448.234	468.31
448.455	472.31
448.675	491.31
448.896	473.31
449.117	470.31
449.338	463.31
449.559	465.31
449.779	461.31
450	460.31
450.221	483.31
450.442	481.31
450.662	473.31
450.883	466.31
451.104	493.31
451.324	464.31
451.545	459.31
451.766	445.31
451.986	453.31
452.207	472.31
452.428	465.31
452.648	482.31
452.869	461.31
453.089	469.31
453.31	469.31
453.53	459.31
453.751	447.31
453.971	453.31
454.192	466.31
454.412	446.31
454.633	451.31
454.853	475.31
455.073	444.31
455.294	461.31
455.514	439.31
455.734	457.31
455.955	433.31
456.175	449.31
456.395	437.31
456.616	451.31
456.836	427.31
457.056	453.31
457.276	445.31
457.497	450.31
457.717	451.31
457.937	446.31
458.157	454.31
458.377	466.31
458.598	466.31
458.818	470.31
459.038	493.31
459.258	489.31
459.478	520.31
459.698	504.31
459.918	529.31
460.138	561.31
460.358	564.31
460.578	555.31
460.798	573.31
461.018	573.31
461.238	577.31
461.458	552.31
461.678	568.31
461.898	543.31
462.118	594.31
462.338	603.31
462.558	639.31
462.777	648.31
462.997	656.31
463.217	679.31
463.437	668.31
463.657	661.31
463.876	636.31
464.096	641.31
464.316	624.31
464.536	667.31
464.755	603.31
464.975	597.31
465.195	590.31
465.414	570.31
465.634	563.31
465.854	537.31
466.073	507.31
466.293	509.31
466.512	490.31
466.732	501.31
466.951	507.31
467.171	495.31
467.391	482.31
467.61	477.31
467.829	486.31
468.049	465.31
468.268	477.31
468.488	474.31
468.707	462.31
468.927	497.31
469.146	495.31
469.365	478.31
469.585	476.31
469.804	494.31
470.023	503.31
470.243	478.31
470.462	501.31
470.681	507.31
470.901	517.31
471.12	497.31
471.339	494.31
471.558	519.31
471.777	494.31
471.997	503.31
472.216	469.31
472.435	499.31
472.654	464.31
472.873	499.31
473.092	491.31
473.311	464.31
473.53	484.31
473.749	506.31
473.968	489.31
474.187	489.31
474.406	471.31
474.625	492.31
474.844	494.31
475.063	488.31
475.282	499.31
475.501	481.31
475.72	499.31
475.939	483.31
476.158	478.31
476.377	497.31
476.596	501.31
476.814	497.31
477.033	528.31
477.252	523.31
477.471	527.31
477.69	536.31
477.908	517.31
478.127	550.31
478.346	567.31
478.564	573.31
478.783	578.31
479.002	586.31
479.22	580.31
479.439	562.31
479.658	569.31
479.876	578.31
480.095	580.31
480.313	593.31
480.532	591.31
480.751	576.31
480.969	583.31
481.188	589.31
481.406	563.31
481.624	585.31
481.843	559.31
482.061	578.31
482.28	577.31
482.498	571.31
482.717	565.31
482.935	552.31
483.153	558.31
483.372	537.31
483.59	553.31
483.808	548.31
484.027	545.31
484.245	546.31
484.463	573.31
484.681	560.31
484.9	553.31
485.118	579.31
485.336	552.31
485.554	563.31
485.772	581.31
485.99	584.31
486.209	559.31
486.427	569.31
486.645	554.31
486.863	557.31
487.081	563.31
487.299	552.31
487.517	577.31
487.735	574.31
487.953	554.31
488.171	573.31
488.389	554.31
488.607	550.31
488.825	569.31
489.043	565.31
489.261	562.31
489.479	579.31
489.696	570.31
489.914	579.31
490.132	584.31
490.35	578.31
490.568	555.31
490.786	569.31
491.003	558.31
491.221	570.31
491.439	569.31
491.657	568.31
491.874	583.31
492.092	578.31
492.31	589.31
492.527	578.31
492.745	585.31
492.963	591.31
493.18	599.31
493.398	607.31
493.615	566.31
493.833	587.31
494.05	605.31
494.268	592.31
494.485	597.31
494.703	602.31
494.92	581.31
495.138	587.31
495.355	592.31
495.573	608.31
495.79	619.31
496.008	621.31
496.225	653.31
496.442	643.31
496.66	658.31
496.877	663.31
497.094	657.31
497.312	657.31
497.529	666.31
497.746	704.31
497.963	729.31
498.181	727.31
498.398	717.31
498.615	789.31
498.832	845.31
499.049	829.31
499.267	891.31
499.484	945.31
499.701	1039.31
499.918	1091.31
500.135	1185.31
500.352	1231.31
500.569	1283.31
500.786	1245.31
501.003	1241.31
501.22	1144.31
501.437	1111.31
501.654	1039.31
