Data from Fe(NO3)3@0.05M.TitratingCurve.Agarose3%dH2O.NegLispCup.LampEnergy10.LIBS07252019_HRD10591_16-48-54-335.txt Node
Date: Thu Jul 25 16:48:54 EDT 2019
User: cochatt
Spectrometer: HR+D1059
Trigger mode: 1
Integration Time (sec): 1.000000E-1
Scans to average: 1
Electric dark correction enabled: true
Nonlinearity correction enabled: false
Boxcar width: 0
XAxis mode: Wavelengths
Number of Pixels in Spectrum: 2048
>>>>>Begin Spectral Data<<<<<
223.165	-20.06
223.4	-20.06
223.635	-20.06
223.869	-18.06
224.104	-12.06
224.338	-20.06
224.573	-10.06
224.808	-8.06
225.042	-12.06
225.277	-2.06
225.511	-13.06
225.746	2.94
225.98	8.94
226.215	20.94
226.449	17.94
226.683	8.94
226.918	28.94
227.152	26.94
227.387	31.94
227.621	22.94
227.856	49.94
228.09	45.94
228.324	49.94
228.559	61.94
228.793	56.94
229.027	72.94
229.262	66.94
229.496	69.94
229.73	74.94
229.964	85.94
230.199	75.94
230.433	90.94
230.667	85.94
230.901	96.94
231.136	84.94
231.37	89.94
231.604	80.94
231.838	86.94
232.072	93.94
232.306	100.94
232.541	102.94
232.775	87.94
233.009	78.94
233.243	80.94
233.477	89.94
233.711	112.94
233.945	86.94
234.179	87.94
234.413	84.94
234.647	79.94
234.881	94.94
235.115	82.94
235.349	92.94
235.583	90.94
235.817	82.94
236.051	90.94
236.285	95.94
236.519	95.94
236.753	100.94
236.987	92.94
237.221	95.94
237.455	95.94
237.689	92.94
237.922	82.94
238.156	91.94
238.39	90.94
238.624	94.94
238.858	105.94
239.091	85.94
239.325	82.94
239.559	81.94
239.793	96.94
240.027	105.94
240.26	89.94
240.494	95.94
240.728	91.94
240.961	105.94
241.195	108.94
241.429	78.94
241.662	92.94
241.896	90.94
242.13	85.94
242.363	87.94
242.597	100.94
242.83	105.94
243.064	99.94
243.298	99.94
243.531	93.94
243.765	111.94
243.998	113.94
244.232	99.94
244.465	94.94
244.699	96.94
244.932	103.94
245.166	111.94
245.399	104.94
245.633	100.94
245.866	99.94
246.099	99.94
246.333	103.94
246.566	98.94
246.8	109.94
247.033	106.94
247.266	98.94
247.5	103.94
247.733	102.94
247.966	106.94
248.2	89.94
248.433	99.94
248.666	114.94
248.899	105.94
249.133	111.94
249.366	107.94
249.599	113.94
249.832	116.94
250.066	112.94
250.299	111.94
250.532	113.94
250.765	120.94
250.998	100.94
251.231	111.94
251.465	121.94
251.698	113.94
251.931	113.94
252.164	107.94
252.397	109.94
252.63	121.94
252.863	112.94
253.096	111.94
253.329	104.94
253.562	109.94
253.795	111.94
254.028	116.94
254.261	113.94
254.494	124.94
254.727	105.94
254.96	121.94
255.193	111.94
255.426	119.94
255.659	128.94
255.892	119.94
256.124	115.94
256.357	115.94
256.59	111.94
256.823	120.94
257.056	105.94
257.289	109.94
257.521	119.94
257.754	114.94
257.987	116.94
258.22	113.94
258.452	119.94
258.685	107.94
258.918	120.94
259.151	127.94
259.383	121.94
259.616	121.94
259.849	126.94
260.081	126.94
260.314	114.94
260.547	116.94
260.779	123.94
261.012	119.94
261.244	115.94
261.477	125.94
261.71	125.94
261.942	120.94
262.175	123.94
262.407	127.94
262.64	140.94
262.872	135.94
263.105	129.94
263.337	120.94
263.57	124.94
263.802	127.94
264.035	114.94
264.267	119.94
264.499	115.94
264.732	107.94
264.964	117.94
265.197	114.94
265.429	135.94
265.661	118.94
265.894	132.94
266.126	117.94
266.358	127.94
266.591	124.94
266.823	125.94
267.055	118.94
267.287	124.94
267.52	116.94
267.752	102.94
267.984	125.94
268.216	143.94
268.448	140.94
268.681	140.94
268.913	135.94
269.145	131.94
269.377	146.94
269.609	134.94
269.841	137.94
270.073	129.94
270.306	120.94
270.538	124.94
270.77	129.94
271.002	131.94
271.234	123.94
271.466	138.94
271.698	142.94
271.93	145.94
272.162	150.94
272.394	136.94
272.626	139.94
272.858	143.94
273.09	141.94
273.322	128.94
273.553	147.94
273.785	143.94
274.017	141.94
274.249	145.94
274.481	123.94
274.713	120.94
274.945	146.94
275.176	144.94
275.408	139.94
275.64	133.94
275.872	141.94
276.104	136.94
276.335	143.94
276.567	140.94
276.799	143.94
277.031	147.94
277.262	124.94
277.494	147.94
277.726	139.94
277.957	137.94
278.189	154.94
278.421	144.94
278.652	135.94
278.884	162.94
279.115	139.94
279.347	143.94
279.579	141.94
279.81	153.94
280.042	149.94
280.273	144.94
280.505	161.94
280.736	140.94
280.968	154.94
281.199	160.94
281.431	133.94
281.662	153.94
281.894	127.94
282.125	149.94
282.356	155.94
282.588	159.94
282.819	148.94
283.051	158.94
283.282	148.94
283.513	152.94
283.745	153.94
283.976	152.94
284.207	161.94
284.439	157.94
284.67	155.94
284.901	150.94
285.132	156.94
285.364	151.94
285.595	165.94
285.826	164.94
286.057	144.94
286.288	164.94
286.52	159.94
286.751	151.94
286.982	162.94
287.213	134.94
287.444	152.94
287.675	154.94
287.906	149.94
288.138	164.94
288.369	162.94
288.6	160.94
288.831	151.94
289.062	174.94
289.293	155.94
289.524	150.94
289.755	153.94
289.986	154.94
290.217	155.94
290.448	142.94
290.679	159.94
290.91	165.94
291.141	172.94
291.371	168.94
291.602	167.94
291.833	154.94
292.064	163.94
292.295	155.94
292.526	164.94
292.757	165.94
292.987	154.94
293.218	160.94
293.449	168.94
293.68	141.94
293.91	165.94
294.141	165.94
294.372	162.94
294.603	153.94
294.833	163.94
295.064	174.94
295.295	155.94
295.525	160.94
295.756	172.94
295.987	160.94
296.217	160.94
296.448	149.94
296.679	175.94
296.909	169.94
297.14	172.94
297.37	176.94
297.601	168.94
297.831	170.94
298.062	166.94
298.292	175.94
298.523	156.94
298.753	165.94
298.984	159.94
299.214	159.94
299.445	180.94
299.675	172.94
299.905	158.94
300.136	163.94
300.366	182.94
300.597	177.94
300.827	187.94
301.057	161.94
301.288	164.94
301.518	177.94
301.748	165.94
301.979	179.94
302.209	169.94
302.439	163.94
302.669	170.94
302.9	175.94
303.13	175.94
303.36	168.94
303.59	172.94
303.82	163.94
304.051	161.94
304.281	170.94
304.511	178.94
304.741	176.94
304.971	181.94
305.201	173.94
305.431	180.94
305.661	175.94
305.891	139.94
306.121	179.94
306.352	176.94
306.582	183.94
306.812	175.94
307.042	161.94
307.272	162.94
307.502	172.94
307.731	187.94
307.961	171.94
308.191	161.94
308.421	179.94
308.651	181.94
308.881	166.94
309.111	179.94
309.341	162.94
309.571	179.94
309.8	168.94
310.03	170.94
310.26	185.94
310.49	173.94
310.72	167.94
310.949	186.94
311.179	164.94
311.409	168.94
311.639	169.94
311.868	167.94
312.098	175.94
312.328	189.94
312.557	175.94
312.787	177.94
313.017	178.94
313.246	172.94
313.476	176.94
313.706	178.94
313.935	181.94
314.165	177.94
314.394	193.94
314.624	180.94
314.853	183.94
315.083	172.94
315.312	193.94
315.542	180.94
315.771	182.94
316.001	173.94
316.23	179.94
316.46	176.94
316.689	179.94
316.919	161.94
317.148	181.94
317.377	174.94
317.607	181.94
317.836	171.94
318.065	177.94
318.295	171.94
318.524	185.94
318.753	185.94
318.983	176.94
319.212	183.94
319.441	178.94
319.67	172.94
319.9	183.94
320.129	183.94
320.358	185.94
320.587	193.94
320.816	172.94
321.046	169.94
321.275	199.94
321.504	171.94
321.733	178.94
321.962	183.94
322.191	194.94
322.42	175.94
322.649	173.94
322.878	186.94
323.108	174.94
323.337	172.94
323.566	185.94
323.795	190.94
324.024	185.94
324.253	199.94
324.482	178.94
324.71	197.94
324.939	204.94
325.168	173.94
325.397	178.94
325.626	171.94
325.855	196.94
326.084	187.94
326.313	193.94
326.542	198.94
326.77	181.94
326.999	201.94
327.228	176.94
327.457	199.94
327.686	203.94
327.914	191.94
328.143	192.94
328.372	186.94
328.6	179.94
328.829	203.94
329.058	184.94
329.287	188.94
329.515	196.94
329.744	194.94
329.972	204.94
330.201	173.94
330.43	192.94
330.658	176.94
330.887	205.94
331.115	196.94
331.344	195.94
331.572	209.94
331.801	210.94
332.03	215.94
332.258	187.94
332.486	209.94
332.715	214.94
332.943	227.94
333.172	223.94
333.4	223.94
333.629	216.94
333.857	217.94
334.085	242.94
334.314	255.94
334.542	234.94
334.771	230.94
334.999	220.94
335.227	207.94
335.455	222.94
335.684	244.94
335.912	220.94
336.14	211.94
336.369	214.94
336.597	203.94
336.825	205.94
337.053	209.94
337.281	216.94
337.51	210.94
337.738	222.94
337.966	211.94
338.194	208.94
338.422	215.94
338.65	217.94
338.878	224.94
339.106	216.94
339.334	195.94
339.562	199.94
339.79	197.94
340.018	198.94
340.246	183.94
340.474	199.94
340.702	194.94
340.93	198.94
341.158	200.94
341.386	210.94
341.614	195.94
341.842	192.94
342.07	191.94
342.298	188.94
342.526	191.94
342.754	202.94
342.981	221.94
343.209	192.94
343.437	215.94
343.665	220.94
343.893	212.94
344.12	229.94
344.348	213.94
344.576	223.94
344.804	199.94
345.031	213.94
345.259	205.94
345.487	185.94
345.714	212.94
345.942	190.94
346.17	196.94
346.397	204.94
346.625	198.94
346.853	188.94
347.08	189.94
347.308	199.94
347.535	192.94
347.763	178.94
347.99	194.94
348.218	206.94
348.445	190.94
348.673	187.94
348.9	201.94
349.128	202.94
349.355	209.94
349.583	211.94
349.81	184.94
350.037	183.94
350.265	195.94
350.492	183.94
350.72	183.94
350.947	188.94
351.174	187.94
351.402	185.94
351.629	189.94
351.856	184.94
352.083	187.94
352.311	189.94
352.538	188.94
352.765	189.94
352.992	190.94
353.22	199.94
353.447	199.94
353.674	201.94
353.901	209.94
354.128	191.94
354.355	192.94
354.583	171.94
354.81	191.94
355.037	187.94
355.264	199.94
355.491	204.94
355.718	186.94
355.945	185.94
356.172	204.94
356.399	201.94
356.626	181.94
356.853	187.94
357.08	184.94
357.307	198.94
357.534	197.94
357.761	193.94
357.988	182.94
358.215	194.94
358.441	204.94
358.668	167.94
358.895	192.94
359.122	191.94
359.349	185.94
359.576	214.94
359.802	202.94
360.029	196.94
360.256	201.94
360.483	180.94
360.709	196.94
360.936	204.94
361.163	189.94
361.39	191.94
361.616	180.94
361.843	208.94
362.07	188.94
362.296	174.94
362.523	180.94
362.749	199.94
362.976	191.94
363.203	187.94
363.429	198.94
363.656	197.94
363.882	201.94
364.109	203.94
364.335	195.94
364.562	191.94
364.788	198.94
365.015	199.94
365.241	203.94
365.468	196.94
365.694	190.94
365.92	185.94
366.147	208.94
366.373	192.94
366.599	196.94
366.826	197.94
367.052	190.94
367.278	188.94
367.505	184.94
367.731	203.94
367.957	187.94
368.184	203.94
368.41	176.94
368.636	187.94
368.862	188.94
369.089	199.94
369.315	197.94
369.541	195.94
369.767	201.94
369.993	187.94
370.219	199.94
370.445	215.94
370.672	180.94
370.898	202.94
371.124	205.94
371.35	200.94
371.576	228.94
371.802	231.94
372.028	213.94
372.254	214.94
372.48	200.94
372.706	216.94
372.932	226.94
373.158	225.94
373.384	210.94
373.61	216.94
373.835	226.94
374.061	195.94
374.287	219.94
374.513	204.94
374.739	215.94
374.965	226.94
375.191	231.94
375.416	227.94
375.642	217.94
375.868	220.94
376.094	223.94
376.319	212.94
376.545	216.94
376.771	212.94
376.997	224.94
377.222	202.94
377.448	204.94
377.674	212.94
377.899	209.94
378.125	211.94
378.35	206.94
378.576	214.94
378.802	221.94
379.027	200.94
379.253	208.94
379.478	221.94
379.704	215.94
379.929	205.94
380.155	214.94
380.38	205.94
380.606	209.94
380.831	196.94
381.057	212.94
381.282	208.94
381.507	213.94
381.733	231.94
381.958	229.94
382.184	217.94
382.409	213.94
382.634	243.94
382.86	239.94
383.085	229.94
383.31	218.94
383.535	224.94
383.761	248.94
383.986	245.94
384.211	228.94
384.436	243.94
384.662	231.94
384.887	257.94
385.112	242.94
385.337	232.94
385.562	239.94
385.787	248.94
386.013	294.94
386.238	249.94
386.463	243.94
386.688	251.94
386.913	250.94
387.138	251.94
387.363	230.94
387.588	241.94
387.813	246.94
388.038	236.94
388.263	243.94
388.488	259.94
388.713	258.94
388.938	244.94
389.163	246.94
389.387	229.94
389.612	247.94
389.837	263.94
390.062	249.94
390.287	243.94
390.512	261.94
390.736	240.94
390.961	235.94
391.186	269.94
391.411	265.94
391.636	263.94
391.86	252.94
392.085	277.94
392.31	291.94
392.534	269.94
392.759	264.94
392.984	272.94
393.208	267.94
393.433	260.94
393.658	268.94
393.882	267.94
394.107	257.94
394.331	258.94
394.556	270.94
394.78	253.94
395.005	261.94
395.229	256.94
395.454	291.94
395.678	290.94
395.903	263.94
396.127	279.94
396.352	256.94
396.576	265.94
396.801	264.94
397.025	258.94
397.249	269.94
397.474	275.94
397.698	277.94
397.922	285.94
398.147	265.94
398.371	292.94
398.595	290.94
398.82	293.94
399.044	315.94
399.268	356.94
399.492	383.94
399.717	417.94
399.941	388.94
400.165	353.94
400.389	333.94
400.613	319.94
400.837	319.94
401.062	309.94
401.286	310.94
401.51	315.94
401.734	299.94
401.958	291.94
402.182	300.94
402.406	311.94
402.63	313.94
402.854	296.94
403.078	315.94
403.302	333.94
403.526	336.94
403.75	333.94
403.974	347.94
404.198	333.94
404.422	338.94
404.645	331.94
404.869	347.94
405.093	340.94
405.317	343.94
405.541	339.94
405.765	319.94
405.988	325.94
406.212	319.94
406.436	322.94
406.66	332.94
406.883	331.94
407.107	347.94
407.331	371.94
407.555	385.94
407.778	356.94
408.002	373.94
408.226	348.94
408.449	351.94
408.673	351.94
408.896	326.94
409.12	312.94
409.344	355.94
409.567	335.94
409.791	347.94
410.014	343.94
410.238	348.94
410.461	339.94
410.685	349.94
410.908	334.94
411.132	331.94
411.355	316.94
411.578	315.94
411.802	329.94
412.025	325.94
412.249	330.94
412.472	353.94
412.695	324.94
412.919	307.94
413.142	307.94
413.365	325.94
413.589	327.94
413.812	314.94
414.035	319.94
414.258	340.94
414.482	308.94
414.705	304.94
414.928	335.94
415.151	333.94
415.374	316.94
415.597	326.94
415.821	307.94
416.044	316.94
416.267	304.94
416.49	293.94
416.713	298.94
416.936	298.94
417.159	310.94
417.382	298.94
417.605	309.94
417.828	326.94
418.051	313.94
418.274	303.94
418.497	319.94
418.72	319.94
418.943	311.94
419.166	319.94
419.389	368.94
419.611	311.94
419.834	328.94
420.057	325.94
420.28	313.94
420.503	318.94
420.726	320.94
420.948	314.94
421.171	306.94
421.394	315.94
421.617	324.94
421.839	304.94
422.062	311.94
422.285	321.94
422.507	329.94
422.73	319.94
422.953	299.94
423.175	328.94
423.398	313.94
423.621	308.94
423.843	319.94
424.066	333.94
424.288	326.94
424.511	329.94
424.733	327.94
424.956	299.94
425.178	324.94
425.401	314.94
425.623	304.94
425.846	317.94
426.068	315.94
426.291	305.94
426.513	298.94
426.735	295.94
426.958	292.94
427.18	308.94
427.402	311.94
427.625	289.94
427.847	283.94
428.069	283.94
428.292	291.94
428.514	283.94
428.736	284.94
428.958	297.94
429.181	289.94
429.403	283.94
429.625	288.94
429.847	273.94
430.069	284.94
430.292	296.94
430.514	285.94
430.736	285.94
430.958	291.94
431.18	291.94
431.402	291.94
431.624	308.94
431.846	301.94
432.068	303.94
432.29	303.94
432.512	292.94
432.734	305.94
432.956	291.94
433.178	297.94
433.4	307.94
433.622	305.94
433.844	297.94
434.066	312.94
434.287	295.94
434.509	293.94
434.731	315.94
434.953	317.94
435.175	316.94
435.397	332.94
435.618	286.94
435.84	291.94
436.062	290.94
436.284	298.94
436.505	296.94
436.727	300.94
436.949	315.94
437.17	293.94
437.392	287.94
437.614	276.94
437.835	282.94
438.057	276.94
438.278	279.94
438.5	280.94
438.721	301.94
438.943	297.94
439.165	296.94
439.386	317.94
439.608	300.94
439.829	310.94
440.05	299.94
440.272	291.94
440.493	296.94
440.715	328.94
440.936	295.94
441.158	325.94
441.379	316.94
441.6	324.94
441.822	330.94
442.043	295.94
442.264	335.94
442.486	325.94
442.707	332.94
442.928	329.94
443.149	316.94
443.371	321.94
443.592	316.94
443.813	328.94
444.034	342.94
444.255	337.94
444.476	351.94
444.698	360.94
444.919	360.94
445.14	489.94
445.361	391.94
445.582	330.94
445.803	312.94
446.024	330.94
446.245	316.94
446.466	298.94
446.687	315.94
446.908	326.94
447.129	300.94
447.35	305.94
447.571	308.94
447.792	292.94
448.013	313.94
448.234	307.94
448.455	310.94
448.675	295.94
448.896	290.94
449.117	295.94
449.338	283.94
449.559	281.94
449.779	272.94
450	277.94
450.221	278.94
450.442	290.94
450.662	303.94
450.883	315.94
451.104	300.94
451.324	289.94
451.545	291.94
451.766	295.94
451.986	276.94
452.207	277.94
452.428	298.94
452.648	277.94
452.869	283.94
453.089	287.94
453.31	283.94
453.53	268.94
453.751	271.94
453.971	265.94
454.192	280.94
454.412	274.94
454.633	260.94
454.853	275.94
455.073	271.94
455.294	235.94
455.514	257.94
455.734	258.94
455.955	255.94
456.175	256.94
456.395	277.94
456.616	253.94
456.836	265.94
457.056	276.94
457.276	256.94
457.497	254.94
457.717	275.94
457.937	279.94
458.157	266.94
458.377	282.94
458.598	260.94
458.818	250.94
459.038	277.94
459.258	299.94
459.478	290.94
459.698	308.94
459.918	315.94
460.138	303.94
460.358	330.94
460.578	318.94
460.798	330.94
461.018	330.94
461.238	323.94
461.458	339.94
461.678	337.94
461.898	324.94
462.118	333.94
462.338	339.94
462.558	355.94
462.777	368.94
462.997	377.94
463.217	405.94
463.437	409.94
463.657	378.94
463.876	379.94
464.096	374.94
464.316	371.94
464.536	372.94
464.755	361.94
464.975	356.94
465.195	338.94
465.414	330.94
465.634	326.94
465.854	306.94
466.073	296.94
466.293	290.94
466.512	299.94
466.732	307.94
466.951	307.94
467.171	295.94
467.391	284.94
467.61	295.94
467.829	273.94
468.049	289.94
468.268	274.94
468.488	284.94
468.707	296.94
468.927	304.94
469.146	277.94
469.365	300.94
469.585	285.94
469.804	297.94
470.023	305.94
470.243	288.94
470.462	307.94
470.681	314.94
470.901	311.94
471.12	298.94
471.339	296.94
471.558	297.94
471.777	286.94
471.997	283.94
472.216	277.94
472.435	277.94
472.654	286.94
472.873	282.94
473.092	274.94
473.311	280.94
473.53	293.94
473.749	275.94
473.968	292.94
474.187	281.94
474.406	283.94
474.625	273.94
474.844	293.94
475.063	284.94
475.282	259.94
475.501	281.94
475.72	281.94
475.939	295.94
476.158	287.94
476.377	287.94
476.596	285.94
476.814	309.94
477.033	275.94
477.252	291.94
477.471	303.94
477.69	295.94
477.908	306.94
478.127	323.94
478.346	318.94
478.564	319.94
478.783	311.94
479.002	328.94
479.22	322.94
479.439	322.94
479.658	340.94
479.876	329.94
480.095	336.94
480.313	332.94
480.532	367.94
480.751	330.94
480.969	323.94
481.188	326.94
481.406	313.94
481.624	309.94
481.843	287.94
482.061	310.94
482.28	298.94
482.498	317.94
482.717	293.94
482.935	300.94
483.153	324.94
483.372	313.94
483.59	320.94
483.808	305.94
484.027	303.94
484.245	309.94
484.463	323.94
484.681	317.94
484.9	330.94
485.118	328.94
485.336	321.94
485.554	309.94
485.772	319.94
485.99	316.94
486.209	319.94
486.427	324.94
486.645	335.94
486.863	323.94
487.081	307.94
487.299	332.94
487.517	318.94
487.735	339.94
487.953	331.94
488.171	326.94
488.389	312.94
488.607	309.94
488.825	317.94
489.043	310.94
489.261	313.94
489.479	324.94
489.696	334.94
489.914	322.94
490.132	326.94
490.35	328.94
490.568	313.94
490.786	333.94
491.003	324.94
491.221	317.94
491.439	317.94
491.657	328.94
491.874	337.94
492.092	328.94
492.31	331.94
492.527	337.94
492.745	337.94
492.963	345.94
493.18	327.94
493.398	339.94
493.615	352.94
493.833	326.94
494.05	336.94
494.268	324.94
494.485	347.94
494.703	330.94
494.92	342.94
495.138	351.94
495.355	356.94
495.573	348.94
495.79	355.94
496.008	348.94
496.225	351.94
496.442	341.94
496.66	343.94
496.877	352.94
497.094	360.94
497.312	371.94
497.529	344.94
497.746	393.94
497.963	391.94
498.181	371.94
498.398	395.94
498.615	406.94
498.832	436.94
499.049	453.94
499.267	487.94
499.484	513.94
499.701	573.94
499.918	610.94
500.135	679.94
500.352	770.94
500.569	776.94
500.786	734.94
501.003	702.94
501.22	638.94
501.437	604.94
501.654	554.94
501.871	528.94
502.088	468.94
502.305	454.94
