Data from Fe(NO3)3@0.05M.TitratingCurve.Agarose3%dH2O.NegLispCup.LampEnergy10.LIBS07252019_HRD10591_16-46-17-334.txt Node
Date: Thu Jul 25 16:46:17 EDT 2019
User: cochatt
Spectrometer: HR+D1059
Trigger mode: 1
Integration Time (sec): 1.000000E-1
Scans to average: 1
Electric dark correction enabled: true
Nonlinearity correction enabled: false
Boxcar width: 0
XAxis mode: Wavelengths
Number of Pixels in Spectrum: 2048
>>>>>Begin Spectral Data<<<<<
223.165	-16.31
223.4	-16.31
223.635	-16.31
223.869	-30.31
224.104	-24.31
224.338	-14.31
224.573	-25.31
224.808	-25.31
225.042	-11.31
225.277	13.69
225.511	2.69
225.746	2.69
225.98	8.69
226.215	19.69
226.449	12.69
226.683	18.69
226.918	27.69
227.152	40.69
227.387	28.69
227.621	46.69
227.856	55.69
228.09	52.69
228.324	47.69
228.559	62.69
228.793	73.69
229.027	115.69
229.262	118.69
229.496	109.69
229.73	116.69
229.964	132.69
230.199	122.69
230.433	131.69
230.667	132.69
230.901	139.69
231.136	145.69
231.37	122.69
231.604	146.69
231.838	136.69
232.072	144.69
232.306	154.69
232.541	146.69
232.775	160.69
233.009	144.69
233.243	153.69
233.477	164.69
233.711	172.69
233.945	150.69
234.179	159.69
234.413	188.69
234.647	168.69
234.881	178.69
235.115	165.69
235.349	179.69
235.583	165.69
235.817	159.69
236.051	169.69
236.285	184.69
236.519	176.69
236.753	183.69
236.987	162.69
237.221	174.69
237.455	185.69
237.689	189.69
237.922	181.69
238.156	181.69
238.39	194.69
238.624	213.69
238.858	216.69
239.091	197.69
239.325	193.69
239.559	201.69
239.793	202.69
240.027	229.69
240.26	231.69
240.494	214.69
240.728	197.69
240.961	202.69
241.195	216.69
241.429	237.69
241.662	224.69
241.896	225.69
242.13	217.69
242.363	205.69
242.597	224.69
242.83	233.69
243.064	220.69
243.298	208.69
243.531	216.69
243.765	245.69
243.998	217.69
244.232	231.69
244.465	236.69
244.699	238.69
244.932	228.69
245.166	246.69
245.399	264.69
245.633	232.69
245.866	248.69
246.099	244.69
246.333	254.69
246.566	265.69
246.8	260.69
247.033	247.69
247.266	263.69
247.5	264.69
247.733	270.69
247.966	272.69
248.2	251.69
248.433	266.69
248.666	253.69
248.899	267.69
249.133	288.69
249.366	297.69
249.599	309.69
249.832	294.69
250.066	296.69
250.299	289.69
250.532	281.69
250.765	278.69
250.998	284.69
251.231	291.69
251.465	296.69
251.698	293.69
251.931	305.69
252.164	296.69
252.397	312.69
252.63	305.69
252.863	305.69
253.096	322.69
253.329	330.69
253.562	321.69
253.795	318.69
254.028	350.69
254.261	351.69
254.494	320.69
254.727	330.69
254.96	332.69
255.193	336.69
255.426	335.69
255.659	333.69
255.892	337.69
256.124	353.69
256.357	336.69
256.59	347.69
256.823	362.69
257.056	357.69
257.289	338.69
257.521	349.69
257.754	344.69
257.987	319.69
258.22	346.69
258.452	345.69
258.685	353.69
258.918	352.69
259.151	330.69
259.383	373.69
259.616	364.69
259.849	374.69
260.081	434.69
260.314	446.69
260.547	406.69
260.779	376.69
261.012	410.69
261.244	413.69
261.477	414.69
261.71	416.69
261.942	383.69
262.175	398.69
262.407	382.69
262.64	386.69
262.872	405.69
263.105	421.69
263.337	416.69
263.57	413.69
263.802	388.69
264.035	388.69
264.267	392.69
264.499	385.69
264.732	364.69
264.964	392.69
265.197	394.69
265.429	400.69
265.661	402.69
265.894	378.69
266.126	405.69
266.358	390.69
266.591	413.69
266.823	402.69
267.055	400.69
267.287	406.69
267.52	404.69
267.752	394.69
267.984	414.69
268.216	408.69
268.448	430.69
268.681	415.69
268.913	421.69
269.145	434.69
269.377	444.69
269.609	407.69
269.841	442.69
270.073	417.69
270.306	420.69
270.538	432.69
270.77	416.69
271.002	431.69
271.234	430.69
271.466	440.69
271.698	442.69
271.93	442.69
272.162	444.69
272.394	452.69
272.626	444.69
272.858	477.69
273.09	457.69
273.322	466.69
273.553	472.69
273.785	469.69
274.017	485.69
274.249	546.69
274.481	526.69
274.713	515.69
274.945	569.69
275.176	563.69
275.408	546.69
275.64	531.69
275.872	528.69
276.104	510.69
276.335	508.69
276.567	485.69
276.799	478.69
277.031	517.69
277.262	482.69
277.494	480.69
277.726	482.69
277.957	484.69
278.189	484.69
278.421	509.69
278.652	518.69
278.884	513.69
279.115	483.69
279.347	496.69
279.579	489.69
279.81	489.69
280.042	492.69
280.273	514.69
280.505	504.69
280.736	515.69
280.968	496.69
281.199	532.69
281.431	521.69
281.662	532.69
281.894	513.69
282.125	532.69
282.356	526.69
282.588	542.69
282.819	526.69
283.051	518.69
283.282	518.69
283.513	527.69
283.745	524.69
283.976	540.69
284.207	534.69
284.439	553.69
284.67	554.69
284.901	570.69
285.132	540.69
285.364	537.69
285.595	537.69
285.826	557.69
286.057	551.69
286.288	552.69
286.52	572.69
286.751	550.69
286.982	535.69
287.213	564.69
287.444	574.69
287.675	566.69
287.906	592.69
288.138	553.69
288.369	550.69
288.6	582.69
288.831	579.69
289.062	553.69
289.293	553.69
289.524	566.69
289.755	583.69
289.986	567.69
290.217	553.69
290.448	568.69
290.679	578.69
290.91	564.69
291.141	576.69
291.371	570.69
291.602	585.69
291.833	587.69
292.064	593.69
292.295	581.69
292.526	586.69
292.757	584.69
292.987	581.69
293.218	563.69
293.449	577.69
293.68	564.69
293.91	572.69
294.141	575.69
294.372	552.69
294.603	590.69
294.833	591.69
295.064	580.69
295.295	580.69
295.525	563.69
295.756	591.69
295.987	553.69
296.217	596.69
296.448	612.69
296.679	601.69
296.909	606.69
297.14	618.69
297.37	629.69
297.601	613.69
297.831	600.69
298.062	611.69
298.292	600.69
298.523	623.69
298.753	637.69
298.984	634.69
299.214	629.69
299.445	632.69
299.675	635.69
299.905	631.69
300.136	618.69
300.366	613.69
300.597	660.69
300.827	664.69
301.057	640.69
301.288	642.69
301.518	641.69
301.748	664.69
301.979	658.69
302.209	684.69
302.439	666.69
302.669	661.69
302.9	664.69
303.13	656.69
303.36	670.69
303.59	644.69
303.82	661.69
304.051	657.69
304.281	677.69
304.511	633.69
304.741	651.69
304.971	669.69
305.201	666.69
305.431	668.69
305.661	676.69
305.891	661.69
306.121	671.69
306.352	632.69
306.582	648.69
306.812	666.69
307.042	661.69
307.272	665.69
307.502	649.69
307.731	662.69
307.961	661.69
308.191	682.69
308.421	688.69
308.651	653.69
308.881	652.69
309.111	672.69
309.341	647.69
309.571	677.69
309.8	660.69
310.03	658.69
310.26	650.69
310.49	645.69
310.72	664.69
310.949	681.69
311.179	678.69
311.409	689.69
311.639	693.69
311.868	696.69
312.098	674.69
312.328	697.69
312.557	716.69
312.787	673.69
313.017	700.69
313.246	705.69
313.476	689.69
313.706	689.69
313.935	690.69
314.165	698.69
314.394	690.69
314.624	716.69
314.853	712.69
315.083	719.69
315.312	720.69
315.542	737.69
315.771	721.69
316.001	707.69
316.23	704.69
316.46	718.69
316.689	728.69
316.919	727.69
317.148	733.69
317.377	741.69
317.607	726.69
317.836	708.69
318.065	719.69
318.295	739.69
318.524	717.69
318.753	735.69
318.983	726.69
319.212	735.69
319.441	732.69
319.67	716.69
319.9	707.69
320.129	752.69
320.358	740.69
320.587	712.69
320.816	739.69
321.046	740.69
321.275	745.69
321.504	751.69
321.733	722.69
321.962	751.69
322.191	752.69
322.42	749.69
322.649	754.69
322.878	756.69
323.108	741.69
323.337	742.69
323.566	752.69
323.795	755.69
324.024	751.69
324.253	749.69
324.482	745.69
324.71	752.69
324.939	761.69
325.168	778.69
325.397	783.69
325.626	770.69
325.855	770.69
326.084	781.69
326.313	788.69
326.542	776.69
326.77	786.69
326.999	802.69
327.228	796.69
327.457	774.69
327.686	792.69
327.914	772.69
328.143	778.69
328.372	812.69
328.6	814.69
328.829	787.69
329.058	800.69
329.287	786.69
329.515	800.69
329.744	786.69
329.972	800.69
330.201	809.69
330.43	816.69
330.658	792.69
330.887	818.69
331.115	808.69
331.344	812.69
331.572	822.69
331.801	843.69
332.03	842.69
332.258	846.69
332.486	861.69
332.715	882.69
332.943	866.69
333.172	879.69
333.4	882.69
333.629	891.69
333.857	910.69
334.085	912.69
334.314	922.69
334.542	944.69
334.771	940.69
334.999	928.69
335.227	932.69
335.455	952.69
335.684	933.69
335.912	951.69
336.14	928.69
336.369	925.69
336.597	919.69
336.825	916.69
337.053	905.69
337.281	916.69
337.51	906.69
337.738	906.69
337.966	897.69
338.194	869.69
338.422	879.69
338.65	860.69
338.878	861.69
339.106	892.69
339.334	889.69
339.562	878.69
339.79	865.69
340.018	868.69
340.246	848.69
340.474	857.69
340.702	840.69
340.93	862.69
341.158	867.69
341.386	842.69
341.614	823.69
341.842	811.69
342.07	817.69
342.298	851.69
342.526	851.69
342.754	825.69
342.981	862.69
343.209	840.69
343.437	849.69
343.665	866.69
343.893	916.69
344.12	904.69
344.348	910.69
344.576	905.69
344.804	895.69
345.031	876.69
345.259	884.69
345.487	853.69
345.714	852.69
345.942	840.69
346.17	834.69
346.397	816.69
346.625	851.69
346.853	822.69
347.08	829.69
347.308	834.69
347.535	826.69
347.763	816.69
347.99	832.69
348.218	814.69
348.445	801.69
348.673	796.69
348.9	824.69
349.128	813.69
349.355	792.69
349.583	835.69
349.81	798.69
350.037	805.69
350.265	786.69
350.492	812.69
350.72	809.69
350.947	770.69
351.174	778.69
351.402	813.69
351.629	796.69
351.856	796.69
352.083	823.69
352.311	799.69
352.538	797.69
352.765	806.69
352.992	816.69
353.22	793.69
353.447	776.69
353.674	784.69
353.901	787.69
354.128	791.69
354.355	770.69
354.583	816.69
354.81	822.69
355.037	818.69
355.264	794.69
355.491	813.69
355.718	805.69
355.945	834.69
356.172	823.69
356.399	849.69
356.626	812.69
356.853	812.69
357.08	808.69
357.307	800.69
357.534	795.69
357.761	808.69
357.988	841.69
358.215	824.69
358.441	798.69
358.668	796.69
358.895	786.69
359.122	787.69
359.349	812.69
359.576	797.69
359.802	785.69
360.029	783.69
360.256	793.69
360.483	809.69
360.709	815.69
360.936	820.69
361.163	797.69
361.39	796.69
361.616	805.69
361.843	799.69
362.07	840.69
362.296	825.69
362.523	823.69
362.749	828.69
362.976	818.69
363.203	817.69
363.429	820.69
363.656	817.69
363.882	800.69
364.109	828.69
364.335	824.69
364.562	824.69
364.788	817.69
365.015	819.69
365.241	814.69
365.468	801.69
365.694	810.69
365.92	825.69
366.147	827.69
366.373	847.69
366.599	816.69
366.826	838.69
367.052	818.69
367.278	827.69
367.505	822.69
367.731	837.69
367.957	817.69
368.184	836.69
368.41	843.69
368.636	853.69
368.862	853.69
369.089	862.69
369.315	848.69
369.541	850.69
369.767	874.69
369.993	866.69
370.219	862.69
370.445	870.69
370.672	898.69
370.898	882.69
371.124	889.69
371.35	892.69
371.576	882.69
371.802	916.69
372.028	912.69
372.254	893.69
372.48	902.69
372.706	905.69
372.932	918.69
373.158	920.69
373.384	918.69
373.61	917.69
373.835	969.69
374.061	917.69
374.287	925.69
374.513	907.69
374.739	952.69
374.965	962.69
375.191	987.69
375.416	949.69
375.642	933.69
375.868	917.69
376.094	933.69
376.319	918.69
376.545	908.69
376.771	912.69
376.997	901.69
377.222	885.69
377.448	892.69
377.674	892.69
377.899	909.69
378.125	901.69
378.35	900.69
378.576	874.69
378.802	888.69
379.027	892.69
379.253	887.69
379.478	898.69
379.704	900.69
379.929	900.69
380.155	889.69
380.38	921.69
380.606	905.69
380.831	888.69
381.057	904.69
381.282	907.69
381.507	893.69
381.733	912.69
381.958	951.69
382.184	949.69
382.409	958.69
382.634	962.69
382.86	954.69
383.085	960.69
383.31	952.69
383.535	953.69
383.761	935.69
383.986	976.69
384.211	998.69
384.436	1027.69
384.662	984.69
384.887	1012.69
385.112	1013.69
385.337	1011.69
385.562	1030.69
385.787	1074.69
386.013	1070.69
386.238	1084.69
386.463	1059.69
386.688	1026.69
386.913	1058.69
387.138	1028.69
387.363	1032.69
387.588	1038.69
387.813	1054.69
388.038	1065.69
388.263	1046.69
388.488	1067.69
388.713	1078.69
388.938	1043.69
389.163	1030.69
389.387	1057.69
389.612	1061.69
389.837	1037.69
390.062	1061.69
390.287	1073.69
390.512	1055.69
390.736	1075.69
390.961	1079.69
391.186	1050.69
391.411	1101.69
391.636	1097.69
391.86	1117.69
392.085	1139.69
392.31	1112.69
392.534	1103.69
392.759	1130.69
392.984	1124.69
393.208	1120.69
393.433	1136.69
393.658	1111.69
393.882	1134.69
394.107	1113.69
394.331	1113.69
394.556	1109.69
394.78	1133.69
395.005	1144.69
395.229	1091.69
395.454	1150.69
395.678	1132.69
395.903	1155.69
396.127	1170.69
396.352	1149.69
396.576	1123.69
396.801	1161.69
397.025	1177.69
397.249	1193.69
397.474	1194.69
397.698	1154.69
397.922	1193.69
398.147	1192.69
398.371	1207.69
398.595	1209.69
398.82	1249.69
399.044	1293.69
399.268	1380.69
399.492	1416.69
399.717	1486.69
399.941	1512.69
400.165	1475.69
400.389	1473.69
400.613	1369.69
400.837	1359.69
401.062	1343.69
401.286	1324.69
401.51	1306.69
401.734	1287.69
401.958	1313.69
402.182	1294.69
402.406	1279.69
402.63	1268.69
402.854	1274.69
403.078	1303.69
403.302	1276.69
403.526	1301.69
403.75	1317.69
403.974	1328.69
404.198	1314.69
404.422	1321.69
404.645	1353.69
404.869	1333.69
405.093	1336.69
405.317	1287.69
405.541	1324.69
405.765	1390.69
405.988	1361.69
406.212	1382.69
406.436	1372.69
406.66	1436.69
406.883	1404.69
407.107	1415.69
407.331	1436.69
407.555	1500.69
407.778	1486.69
408.002	1472.69
408.226	1497.69
408.449	1505.69
408.673	1447.69
408.896	1450.69
409.12	1390.69
409.344	1401.69
409.567	1397.69
409.791	1416.69
410.014	1404.69
410.238	1375.69
410.461	1380.69
410.685	1398.69
410.908	1362.69
411.132	1374.69
411.355	1322.69
411.578	1344.69
411.802	1338.69
412.025	1340.69
412.249	1364.69
412.472	1351.69
412.695	1334.69
412.919	1350.69
413.142	1294.69
413.365	1335.69
413.589	1341.69
413.812	1328.69
414.035	1300.69
414.258	1323.69
414.482	1328.69
414.705	1333.69
414.928	1268.69
415.151	1313.69
415.374	1319.69
415.597	1290.69
415.821	1283.69
416.044	1246.69
416.267	1288.69
416.49	1260.69
416.713	1294.69
416.936	1298.69
417.159	1242.69
417.382	1250.69
417.605	1252.69
417.828	1262.69
418.051	1264.69
418.274	1244.69
418.497	1234.69
418.72	1279.69
418.943	1254.69
419.166	1316.69
419.389	1364.69
419.611	1373.69
419.834	1346.69
420.057	1302.69
420.28	1282.69
420.503	1216.69
420.726	1211.69
420.948	1214.69
421.171	1214.69
421.394	1221.69
421.617	1254.69
421.839	1233.69
422.062	1247.69
422.285	1231.69
422.507	1273.69
422.73	1230.69
422.953	1229.69
423.175	1226.69
423.398	1249.69
423.621	1249.69
423.843	1250.69
424.066	1256.69
424.288	1239.69
424.511	1262.69
424.733	1248.69
424.956	1199.69
425.178	1262.69
425.401	1257.69
425.623	1236.69
425.846	1189.69
426.068	1208.69
426.291	1208.69
426.513	1225.69
426.735	1212.69
426.958	1207.69
427.18	1174.69
427.402	1205.69
427.625	1198.69
427.847	1156.69
428.069	1164.69
428.292	1192.69
428.514	1189.69
428.736	1171.69
428.958	1211.69
429.181	1162.69
429.403	1174.69
429.625	1156.69
429.847	1186.69
430.069	1189.69
430.292	1175.69
430.514	1156.69
430.736	1162.69
430.958	1167.69
431.18	1174.69
431.402	1186.69
431.624	1153.69
431.846	1147.69
432.068	1170.69
432.29	1193.69
432.512	1165.69
432.734	1209.69
432.956	1207.69
433.178	1198.69
433.4	1223.69
433.622	1217.69
433.844	1245.69
434.066	1212.69
434.287	1171.69
434.509	1205.69
434.731	1221.69
434.953	1232.69
435.175	1233.69
435.397	1244.69
435.618	1223.69
435.84	1210.69
436.062	1160.69
436.284	1178.69
436.505	1192.69
436.727	1219.69
436.949	1188.69
437.17	1160.69
437.392	1172.69
437.614	1151.69
437.835	1141.69
438.057	1147.69
438.278	1107.69
438.5	1168.69
438.721	1172.69
438.943	1134.69
439.165	1151.69
439.386	1181.69
439.608	1160.69
439.829	1186.69
440.05	1172.69
440.272	1161.69
440.493	1186.69
440.715	1192.69
440.936	1198.69
441.158	1202.69
441.379	1188.69
441.6	1227.69
441.822	1227.69
442.043	1249.69
442.264	1233.69
442.486	1197.69
442.707	1227.69
442.928	1211.69
443.149	1224.69
443.371	1228.69
443.592	1236.69
443.813	1237.69
444.034	1235.69
444.255	1245.69
444.476	1257.69
444.698	1302.69
444.919	1318.69
445.14	1423.69
445.361	1327.69
445.582	1288.69
445.803	1233.69
446.024	1185.69
446.245	1232.69
446.466	1223.69
446.687	1153.69
446.908	1192.69
447.129	1156.69
447.35	1145.69
447.571	1142.69
447.792	1122.69
448.013	1134.69
448.234	1108.69
448.455	1112.69
448.675	1093.69
448.896	1062.69
449.117	1067.69
449.338	1112.69
449.559	1097.69
449.779	1097.69
450	1101.69
450.221	1084.69
450.442	1106.69
450.662	1080.69
450.883	1077.69
451.104	1086.69
451.324	1082.69
451.545	1074.69
451.766	1056.69
451.986	1073.69
452.207	1096.69
452.428	1058.69
452.648	1056.69
452.869	1022.69
453.089	1052.69
453.31	1050.69
453.53	1037.69
453.751	1059.69
453.971	1048.69
454.192	1059.69
454.412	1030.69
454.633	1054.69
454.853	1040.69
455.073	1048.69
455.294	1074.69
455.514	1034.69
455.734	1026.69
455.955	1031.69
456.175	1039.69
456.395	1043.69
456.616	1045.69
456.836	1035.69
457.056	1054.69
457.276	1041.69
457.497	1073.69
457.717	1068.69
457.937	1080.69
458.157	1068.69
458.377	1068.69
458.598	1092.69
458.818	1078.69
459.038	1119.69
459.258	1139.69
459.478	1165.69
459.698	1208.69
459.918	1166.69
460.138	1190.69
460.358	1210.69
460.578	1242.69
460.798	1258.69
461.018	1258.69
461.238	1271.69
461.458	1271.69
461.678	1281.69
461.898	1328.69
462.118	1340.69
462.338	1314.69
462.558	1331.69
462.777	1383.69
462.997	1416.69
463.217	1462.69
463.437	1496.69
463.657	1435.69
463.876	1432.69
464.096	1432.69
464.316	1371.69
464.536	1377.69
464.755	1332.69
464.975	1338.69
465.195	1316.69
465.414	1274.69
465.634	1237.69
465.854	1224.69
466.073	1186.69
466.293	1158.69
466.512	1177.69
466.732	1172.69
466.951	1190.69
467.171	1164.69
467.391	1142.69
467.61	1134.69
467.829	1119.69
468.049	1113.69
468.268	1109.69
468.488	1114.69
468.707	1086.69
468.927	1129.69
469.146	1127.69
469.365	1107.69
469.585	1089.69
469.804	1151.69
470.023	1185.69
470.243	1139.69
470.462	1129.69
470.681	1146.69
470.901	1161.69
471.12	1136.69
471.339	1170.69
471.558	1153.69
471.777	1158.69
471.997	1118.69
472.216	1145.69
472.435	1118.69
472.654	1125.69
472.873	1118.69
473.092	1122.69
473.311	1153.69
473.53	1100.69
473.749	1102.69
473.968	1109.69
474.187	1114.69
474.406	1116.69
474.625	1119.69
474.844	1173.69
475.063	1142.69
475.282	1168.69
475.501	1142.69
475.72	1166.69
475.939	1135.69
476.158	1167.69
476.377	1199.69
476.596	1218.69
476.814	1201.69
477.033	1234.69
477.252	1196.69
477.471	1234.69
477.69	1205.69
477.908	1232.69
478.127	1286.69
478.346	1276.69
478.564	1270.69
478.783	1288.69
479.002	1311.69
479.22	1347.69
479.439	1369.69
479.658	1351.69
479.876	1339.69
480.095	1342.69
480.313	1382.69
480.532	1390.69
480.751	1346.69
480.969	1338.69
481.188	1339.69
481.406	1357.69
481.624	1363.69
481.843	1316.69
482.061	1326.69
482.28	1333.69
482.498	1352.69
482.717	1317.69
482.935	1340.69
483.153	1351.69
483.372	1318.69
483.59	1302.69
483.808	1309.69
484.027	1309.69
484.245	1344.69
484.463	1342.69
484.681	1394.69
484.9	1338.69
485.118	1368.69
485.336	1340.69
485.554	1370.69
485.772	1345.69
485.99	1341.69
486.209	1326.69
486.427	1367.69
486.645	1352.69
486.863	1399.69
487.081	1346.69
487.299	1362.69
487.517	1353.69
487.735	1359.69
487.953	1384.69
488.171	1392.69
488.389	1359.69
488.607	1344.69
488.825	1354.69
489.043	1337.69
489.261	1330.69
489.479	1358.69
489.696	1371.69
489.914	1330.69
490.132	1351.69
490.35	1335.69
490.568	1367.69
490.786	1352.69
491.003	1391.69
491.221	1384.69
491.439	1385.69
491.657	1389.69
491.874	1380.69
492.092	1397.69
492.31	1435.69
492.527	1428.69
492.745	1421.69
492.963	1401.69
493.18	1386.69
493.398	1408.69
493.615	1399.69
493.833	1407.69
494.05	1391.69
494.268	1399.69
494.485	1407.69
494.703	1409.69
