Data from Fe(NO3)3@0.05M.TitratingCurve.Agarose3%dH2O.NegLispCup.LampEnergy10.LIBS07252019_HRD10591_16-48-59-334.txt Node
Date: Thu Jul 25 16:48:59 EDT 2019
User: cochatt
Spectrometer: HR+D1059
Trigger mode: 1
Integration Time (sec): 1.000000E-1
Scans to average: 1
Electric dark correction enabled: true
Nonlinearity correction enabled: false
Boxcar width: 0
XAxis mode: Wavelengths
Number of Pixels in Spectrum: 2048
>>>>>Begin Spectral Data<<<<<
223.165	-19.69
223.4	-19.69
223.635	-19.69
223.869	-12.69
224.104	-11.69
224.338	-13.69
224.573	-10.69
224.808	-18.69
225.042	-8.69
225.277	-10.69
225.511	-6.69
225.746	4.31
225.98	-7.69
226.215	24.31
226.449	31.31
226.683	26.31
226.918	18.31
227.152	16.31
227.387	35.31
227.621	32.31
227.856	33.31
228.09	43.31
228.324	35.31
228.559	68.31
228.793	57.31
229.027	80.31
229.262	77.31
229.496	71.31
229.73	77.31
229.964	84.31
230.199	88.31
230.433	82.31
230.667	92.31
230.901	86.31
231.136	83.31
231.37	95.31
231.604	100.31
231.838	87.31
232.072	82.31
232.306	96.31
232.541	101.31
232.775	96.31
233.009	106.31
233.243	105.31
233.477	75.31
233.711	92.31
233.945	89.31
234.179	95.31
234.413	107.31
234.647	83.31
234.881	93.31
235.115	92.31
235.349	92.31
235.583	108.31
235.817	106.31
236.051	91.31
236.285	95.31
236.519	97.31
236.753	95.31
236.987	89.31
237.221	95.31
237.455	94.31
237.689	106.31
237.922	106.31
238.156	85.31
238.39	102.31
238.624	82.31
238.858	87.31
239.091	92.31
239.325	98.31
239.559	93.31
239.793	92.31
240.027	90.31
240.26	81.31
240.494	96.31
240.728	100.31
240.961	98.31
241.195	94.31
241.429	107.31
241.662	83.31
241.896	102.31
242.13	90.31
242.363	102.31
242.597	96.31
242.83	102.31
243.064	94.31
243.298	99.31
243.531	113.31
243.765	113.31
243.998	101.31
244.232	107.31
244.465	120.31
244.699	95.31
244.932	117.31
245.166	111.31
245.399	120.31
245.633	119.31
245.866	109.31
246.099	96.31
246.333	106.31
246.566	108.31
246.8	122.31
247.033	103.31
247.266	104.31
247.5	95.31
247.733	116.31
247.966	111.31
248.2	102.31
248.433	120.31
248.666	116.31
248.899	103.31
249.133	121.31
249.366	117.31
249.599	102.31
249.832	125.31
250.066	126.31
250.299	114.31
250.532	117.31
250.765	111.31
250.998	113.31
251.231	121.31
251.465	108.31
251.698	115.31
251.931	116.31
252.164	123.31
252.397	106.31
252.63	115.31
252.863	132.31
253.096	124.31
253.329	126.31
253.562	121.31
253.795	115.31
254.028	107.31
254.261	127.31
254.494	123.31
254.727	118.31
254.96	125.31
255.193	123.31
255.426	122.31
255.659	124.31
255.892	135.31
256.124	118.31
256.357	117.31
256.59	110.31
256.823	131.31
257.056	134.31
257.289	107.31
257.521	129.31
257.754	121.31
257.987	131.31
258.22	133.31
258.452	135.31
258.685	119.31
258.918	124.31
259.151	121.31
259.383	134.31
259.616	132.31
259.849	138.31
260.081	131.31
260.314	147.31
260.547	130.31
260.779	137.31
261.012	145.31
261.244	132.31
261.477	131.31
261.71	144.31
261.942	131.31
262.175	131.31
262.407	144.31
262.64	139.31
262.872	140.31
263.105	123.31
263.337	140.31
263.57	155.31
263.802	129.31
264.035	137.31
264.267	136.31
264.499	138.31
264.732	139.31
264.964	141.31
265.197	136.31
265.429	135.31
265.661	141.31
265.894	139.31
266.126	129.31
266.358	142.31
266.591	129.31
266.823	135.31
267.055	139.31
267.287	132.31
267.52	127.31
267.752	137.31
267.984	137.31
268.216	144.31
268.448	154.31
268.681	141.31
268.913	131.31
269.145	141.31
269.377	146.31
269.609	139.31
269.841	140.31
270.073	153.31
270.306	146.31
270.538	146.31
270.77	134.31
271.002	153.31
271.234	137.31
271.466	140.31
271.698	139.31
271.93	155.31
272.162	158.31
272.394	151.31
272.626	147.31
272.858	148.31
273.09	147.31
273.322	148.31
273.553	162.31
273.785	156.31
274.017	166.31
274.249	154.31
274.481	147.31
274.713	159.31
274.945	168.31
275.176	150.31
275.408	148.31
275.64	176.31
275.872	163.31
276.104	157.31
276.335	152.31
276.567	163.31
276.799	139.31
277.031	181.31
277.262	164.31
277.494	159.31
277.726	171.31
277.957	149.31
278.189	173.31
278.421	156.31
278.652	152.31
278.884	146.31
279.115	151.31
279.347	166.31
279.579	157.31
279.81	146.31
280.042	168.31
280.273	163.31
280.505	169.31
280.736	146.31
280.968	163.31
281.199	160.31
281.431	179.31
281.662	164.31
281.894	168.31
282.125	155.31
282.356	158.31
282.588	161.31
282.819	178.31
283.051	171.31
283.282	161.31
283.513	160.31
283.745	172.31
283.976	166.31
284.207	156.31
284.439	170.31
284.67	161.31
284.901	166.31
285.132	167.31
285.364	168.31
285.595	180.31
285.826	177.31
286.057	164.31
286.288	171.31
286.52	163.31
286.751	180.31
286.982	175.31
287.213	165.31
287.444	176.31
287.675	169.31
287.906	160.31
288.138	175.31
288.369	170.31
288.6	162.31
288.831	165.31
289.062	188.31
289.293	177.31
289.524	176.31
289.755	164.31
289.986	182.31
290.217	189.31
290.448	173.31
290.679	176.31
290.91	182.31
291.141	177.31
291.371	188.31
291.602	169.31
291.833	193.31
292.064	180.31
292.295	165.31
292.526	180.31
292.757	166.31
292.987	172.31
293.218	175.31
293.449	197.31
293.68	183.31
293.91	173.31
294.141	187.31
294.372	172.31
294.603	175.31
294.833	183.31
295.064	191.31
295.295	193.31
295.525	187.31
295.756	180.31
295.987	178.31
296.217	182.31
296.448	181.31
296.679	198.31
296.909	193.31
297.14	186.31
297.37	175.31
297.601	184.31
297.831	185.31
298.062	175.31
298.292	185.31
298.523	195.31
298.753	186.31
298.984	202.31
299.214	182.31
299.445	196.31
299.675	186.31
299.905	177.31
300.136	188.31
300.366	187.31
300.597	189.31
300.827	172.31
301.057	202.31
301.288	201.31
301.518	185.31
301.748	208.31
301.979	203.31
302.209	185.31
302.439	187.31
302.669	196.31
302.9	168.31
303.13	205.31
303.36	197.31
303.59	185.31
303.82	205.31
304.051	187.31
304.281	186.31
304.511	204.31
304.741	199.31
304.971	194.31
305.201	187.31
305.431	199.31
305.661	190.31
305.891	188.31
306.121	179.31
306.352	185.31
306.582	183.31
306.812	188.31
307.042	190.31
307.272	207.31
307.502	199.31
307.731	189.31
307.961	179.31
308.191	189.31
308.421	210.31
308.651	195.31
308.881	203.31
309.111	188.31
309.341	185.31
309.571	195.31
309.8	186.31
310.03	187.31
310.26	200.31
310.49	197.31
310.72	200.31
310.949	200.31
311.179	204.31
311.409	186.31
311.639	201.31
311.868	171.31
312.098	205.31
312.328	203.31
312.557	189.31
312.787	188.31
313.017	207.31
313.246	202.31
313.476	204.31
313.706	209.31
313.935	215.31
314.165	200.31
314.394	199.31
314.624	224.31
314.853	204.31
315.083	193.31
315.312	206.31
315.542	197.31
315.771	197.31
316.001	203.31
316.23	217.31
316.46	186.31
316.689	202.31
316.919	199.31
317.148	201.31
317.377	203.31
317.607	211.31
317.836	204.31
318.065	200.31
318.295	198.31
318.524	192.31
318.753	196.31
318.983	196.31
319.212	197.31
319.441	201.31
319.67	216.31
319.9	229.31
320.129	207.31
320.358	212.31
320.587	194.31
320.816	206.31
321.046	205.31
321.275	209.31
321.504	197.31
321.733	205.31
321.962	204.31
322.191	209.31
322.42	196.31
322.649	208.31
322.878	203.31
323.108	199.31
323.337	211.31
323.566	201.31
323.795	217.31
324.024	212.31
324.253	209.31
324.482	216.31
324.71	212.31
324.939	210.31
325.168	206.31
325.397	208.31
325.626	203.31
325.855	194.31
326.084	205.31
326.313	212.31
326.542	228.31
326.77	226.31
326.999	207.31
327.228	224.31
327.457	211.31
327.686	209.31
327.914	202.31
328.143	212.31
328.372	204.31
328.6	218.31
328.829	224.31
329.058	206.31
329.287	231.31
329.515	210.31
329.744	207.31
329.972	205.31
330.201	232.31
330.43	248.31
330.658	243.31
330.887	224.31
331.115	213.31
331.344	227.31
331.572	218.31
331.801	223.31
332.03	233.31
332.258	220.31
332.486	224.31
332.715	258.31
332.943	255.31
333.172	249.31
333.4	258.31
333.629	261.31
333.857	270.31
334.085	258.31
334.314	268.31
334.542	263.31
334.771	267.31
334.999	257.31
335.227	271.31
335.455	267.31
335.684	255.31
335.912	241.31
336.14	236.31
336.369	255.31
336.597	242.31
336.825	258.31
337.053	243.31
337.281	260.31
337.51	241.31
337.738	241.31
337.966	244.31
338.194	236.31
338.422	226.31
338.65	236.31
338.878	227.31
339.106	217.31
339.334	226.31
339.562	225.31
339.79	223.31
340.018	220.31
340.246	200.31
340.474	224.31
340.702	195.31
340.93	223.31
341.158	213.31
341.386	232.31
341.614	207.31
341.842	239.31
342.07	212.31
342.298	204.31
342.526	221.31
342.754	218.31
342.981	216.31
343.209	234.31
343.437	246.31
343.665	219.31
343.893	252.31
344.12	249.31
344.348	267.31
344.576	259.31
344.804	234.31
345.031	211.31
345.259	230.31
345.487	233.31
345.714	244.31
345.942	243.31
346.17	227.31
346.397	208.31
346.625	229.31
346.853	217.31
347.08	220.31
347.308	234.31
347.535	241.31
347.763	243.31
347.99	212.31
348.218	220.31
348.445	227.31
348.673	216.31
348.9	234.31
349.128	224.31
349.355	204.31
349.583	216.31
349.81	219.31
350.037	235.31
350.265	228.31
350.492	227.31
350.72	210.31
350.947	214.31
351.174	204.31
351.402	229.31
351.629	220.31
351.856	229.31
352.083	207.31
352.311	213.31
352.538	210.31
352.765	202.31
352.992	210.31
353.22	215.31
353.447	207.31
353.674	218.31
353.901	212.31
354.128	218.31
354.355	197.31
354.583	224.31
354.81	219.31
355.037	213.31
355.264	218.31
355.491	227.31
355.718	198.31
355.945	208.31
356.172	212.31
356.399	226.31
356.626	202.31
356.853	207.31
357.08	215.31
357.307	223.31
357.534	213.31
357.761	219.31
357.988	233.31
358.215	229.31
358.441	209.31
358.668	203.31
358.895	227.31
359.122	210.31
359.349	229.31
359.576	215.31
359.802	210.31
360.029	223.31
360.256	211.31
360.483	213.31
360.709	207.31
360.936	216.31
361.163	211.31
361.39	215.31
361.616	195.31
361.843	211.31
362.07	223.31
362.296	205.31
362.523	209.31
362.749	221.31
362.976	211.31
363.203	230.31
363.429	211.31
363.656	221.31
363.882	211.31
364.109	220.31
364.335	204.31
364.562	220.31
364.788	216.31
365.015	219.31
365.241	218.31
365.468	215.31
365.694	220.31
365.92	206.31
366.147	201.31
366.373	212.31
366.599	209.31
366.826	216.31
367.052	216.31
367.278	215.31
367.505	213.31
367.731	212.31
367.957	236.31
368.184	212.31
368.41	232.31
368.636	216.31
368.862	240.31
369.089	226.31
369.315	227.31
369.541	212.31
369.767	217.31
369.993	242.31
370.219	237.31
370.445	220.31
370.672	231.31
370.898	227.31
371.124	230.31
371.35	227.31
371.576	227.31
371.802	254.31
372.028	232.31
372.254	253.31
372.48	237.31
372.706	233.31
372.932	221.31
373.158	249.31
373.384	247.31
373.61	239.31
373.835	251.31
374.061	233.31
374.287	249.31
374.513	251.31
374.739	259.31
374.965	244.31
375.191	261.31
375.416	242.31
375.642	240.31
375.868	239.31
376.094	242.31
376.319	245.31
376.545	245.31
376.771	236.31
376.997	231.31
377.222	245.31
377.448	234.31
377.674	243.31
377.899	236.31
378.125	224.31
378.35	232.31
378.576	244.31
378.802	230.31
379.027	220.31
379.253	247.31
379.478	243.31
379.704	229.31
379.929	235.31
380.155	259.31
380.38	240.31
380.606	239.31
380.831	235.31
381.057	225.31
381.282	218.31
381.507	224.31
381.733	224.31
381.958	232.31
382.184	241.31
382.409	233.31
382.634	259.31
382.86	243.31
383.085	253.31
383.31	264.31
383.535	260.31
383.761	263.31
383.986	251.31
384.211	257.31
384.436	267.31
384.662	270.31
384.887	286.31
385.112	284.31
385.337	270.31
385.562	268.31
385.787	278.31
386.013	281.31
386.238	284.31
386.463	280.31
386.688	275.31
386.913	277.31
387.138	278.31
387.363	278.31
387.588	288.31
387.813	276.31
388.038	287.31
388.263	292.31
388.488	285.31
388.713	301.31
388.938	280.31
389.163	278.31
389.387	305.31
389.612	269.31
389.837	265.31
390.062	285.31
390.287	304.31
390.512	277.31
390.736	289.31
390.961	283.31
391.186	295.31
391.411	325.31
391.636	309.31
391.86	319.31
392.085	291.31
392.31	304.31
392.534	293.31
392.759	295.31
392.984	305.31
393.208	287.31
393.433	300.31
393.658	290.31
393.882	294.31
394.107	289.31
394.331	305.31
394.556	303.31
394.78	304.31
395.005	303.31
395.229	317.31
395.454	316.31
395.678	298.31
395.903	320.31
396.127	313.31
396.352	322.31
396.576	301.31
396.801	289.31
397.025	324.31
397.249	325.31
397.474	307.31
397.698	323.31
397.922	334.31
398.147	317.31
398.371	325.31
398.595	335.31
398.82	348.31
399.044	361.31
399.268	373.31
399.492	431.31
399.717	457.31
399.941	458.31
400.165	433.31
400.389	391.31
400.613	368.31
400.837	359.31
401.062	367.31
401.286	346.31
401.51	347.31
401.734	343.31
401.958	331.31
402.182	349.31
402.406	349.31
402.63	360.31
402.854	356.31
403.078	369.31
403.302	383.31
403.526	365.31
403.75	385.31
403.974	405.31
404.198	363.31
404.422	388.31
404.645	379.31
404.869	388.31
405.093	372.31
405.317	362.31
405.541	374.31
405.765	364.31
405.988	367.31
406.212	375.31
406.436	401.31
406.66	371.31
406.883	387.31
407.107	395.31
407.331	406.31
407.555	420.31
407.778	430.31
408.002	443.31
408.226	423.31
408.449	414.31
408.673	396.31
408.896	409.31
409.12	388.31
409.344	391.31
409.567	388.31
409.791	401.31
410.014	395.31
410.238	392.31
410.461	379.31
410.685	357.31
410.908	386.31
411.132	377.31
411.355	375.31
411.578	363.31
411.802	353.31
412.025	374.31
412.249	381.31
412.472	391.31
412.695	357.31
412.919	377.31
413.142	349.31
413.365	354.31
413.589	355.31
413.812	352.31
414.035	362.31
414.258	368.31
414.482	367.31
414.705	374.31
414.928	375.31
415.151	355.31
415.374	362.31
415.597	355.31
415.821	344.31
416.044	332.31
416.267	339.31
416.49	369.31
416.713	343.31
416.936	330.31
417.159	343.31
417.382	344.31
417.605	363.31
417.828	351.31
418.051	349.31
418.274	345.31
418.497	350.31
418.72	358.31
418.943	370.31
419.166	385.31
419.389	383.31
419.611	371.31
419.834	359.31
420.057	376.31
420.28	380.31
420.503	353.31
420.726	355.31
420.948	335.31
421.171	353.31
421.394	359.31
421.617	355.31
421.839	354.31
422.062	361.31
422.285	355.31
422.507	355.31
422.73	355.31
422.953	360.31
423.175	371.31
423.398	363.31
423.621	373.31
423.843	357.31
424.066	384.31
424.288	370.31
424.511	354.31
424.733	370.31
424.956	356.31
425.178	348.31
425.401	360.31
425.623	374.31
425.846	363.31
426.068	358.31
426.291	347.31
426.513	349.31
426.735	354.31
426.958	337.31
427.18	350.31
427.402	344.31
427.625	341.31
427.847	326.31
428.069	349.31
428.292	327.31
428.514	329.31
428.736	327.31
428.958	313.31
429.181	314.31
429.403	324.31
429.625	324.31
429.847	337.31
430.069	335.31
430.292	333.31
430.514	327.31
430.736	318.31
430.958	317.31
431.18	327.31
431.402	346.31
431.624	323.31
431.846	326.31
432.068	315.31
432.29	342.31
432.512	337.31
432.734	328.31
432.956	328.31
433.178	332.31
433.4	354.31
433.622	334.31
433.844	352.31
434.066	340.31
434.287	346.31
434.509	323.31
434.731	356.31
434.953	339.31
435.175	349.31
435.397	354.31
435.618	362.31
435.84	347.31
436.062	348.31
436.284	362.31
436.505	332.31
436.727	346.31
436.949	345.31
437.17	337.31
437.392	331.31
437.614	313.31
437.835	326.31
438.057	335.31
438.278	330.31
438.5	332.31
438.721	330.31
438.943	342.31
439.165	318.31
439.386	342.31
439.608	335.31
439.829	338.31
440.05	341.31
440.272	353.31
440.493	351.31
440.715	328.31
440.936	369.31
441.158	351.31
441.379	355.31
441.6	378.31
441.822	369.31
442.043	378.31
442.264	377.31
442.486	350.31
442.707	363.31
442.928	377.31
443.149	385.31
443.371	367.31
443.592	370.31
443.813	360.31
444.034	375.31
444.255	379.31
444.476	396.31
444.698	418.31
444.919	427.31
445.14	546.31
445.361	457.31
445.582	393.31
445.803	358.31
446.024	368.31
446.245	374.31
446.466	356.31
446.687	345.31
446.908	360.31
447.129	355.31
447.35	350.31
447.571	347.31
447.792	330.31
448.013	318.31
448.234	332.31
448.455	330.31
448.675	336.31
448.896	321.31
449.117	337.31
449.338	335.31
449.559	319.31
449.779	330.31
450	320.31
450.221	336.31
450.442	324.31
450.662	332.31
450.883	326.31
451.104	327.31
451.324	315.31
451.545	306.31
451.766	315.31
451.986	315.31
452.207	315.31
452.428	329.31
452.648	322.31
452.869	316.31
453.089	299.31
453.31	305.31
453.53	304.31
453.751	296.31
453.971	299.31
454.192	299.31
454.412	299.31
454.633	320.31
454.853	313.31
455.073	306.31
455.294	317.31
455.514	303.31
455.734	290.31
455.955	303.31
456.175	308.31
456.395	292.31
456.616	295.31
456.836	309.31
457.056	297.31
457.276	289.31
457.497	284.31
457.717	301.31
457.937	309.31
458.157	312.31
458.377	309.31
458.598	292.31
458.818	305.31
459.038	329.31
459.258	324.31
459.478	343.31
459.698	345.31
459.918	354.31
460.138	358.31
460.358	361.31
460.578	385.31
460.798	356.31
461.018	395.31
461.238	403.31
461.458	383.31
461.678	388.31
461.898	395.31
462.118	373.31
462.338	403.31
462.558	408.31
462.777	420.31
462.997	466.31
463.217	489.31
463.437	458.31
463.657	444.31
463.876	423.31
464.096	418.31
464.316	417.31
464.536	426.31
464.755	433.31
464.975	401.31
465.195	380.31
465.414	369.31
465.634	324.31
465.854	354.31
466.073	355.31
466.293	352.31
466.512	344.31
466.732	336.31
466.951	344.31
467.171	348.31
467.391	337.31
467.61	337.31
467.829	338.31
468.049	353.31
468.268	330.31
468.488	313.31
468.707	316.31
468.927	328.31
469.146	307.31
469.365	315.31
469.585	324.31
469.804	325.31
470.023	342.31
470.243	331.31
470.462	341.31
470.681	344.31
470.901	360.31
471.12	335.31
471.339	326.31
471.558	339.31
471.777	325.31
471.997	320.31
472.216	325.31
472.435	313.31
472.654	324.31
472.873	317.31
473.092	327.31
473.311	313.31
473.53	312.31
473.749	314.31
473.968	292.31
474.187	314.31
474.406	303.31
474.625	310.31
474.844	333.31
475.063	319.31
475.282	323.31
475.501	309.31
475.72	310.31
475.939	337.31
476.158	307.31
476.377	336.31
476.596	320.31
476.814	342.31
477.033	340.31
477.252	327.31
477.471	353.31
477.69	324.31
477.908	338.31
478.127	360.31
478.346	358.31
478.564	358.31
478.783	372.31
479.002	364.31
479.22	359.31
479.439	371.31
479.658	372.31
479.876	352.31
480.095	347.31
480.313	376.31
480.532	395.31
480.751	385.31
480.969	375.31
481.188	359.31
481.406	350.31
481.624	351.31
481.843	335.31
482.061	324.31
482.28	349.31
482.498	352.31
482.717	345.31
482.935	346.31
483.153	369.31
483.372	359.31
483.59	349.31
483.808	351.31
484.027	367.31
484.245	376.31
484.463	344.31
484.681	377.31
484.9	373.31
485.118	347.31
485.336	366.31
485.554	358.31
485.772	367.31
485.99	353.31
486.209	351.31
486.427	377.31
486.645	362.31
486.863	358.31
487.081	369.31
487.299	354.31
487.517	349.31
487.735	371.31
487.953	360.31
488.171	367.31
488.389	364.31
488.607	355.31
488.825	355.31
489.043	364.31
489.261	356.31
489.479	375.31
489.696	345.31
489.914	373.31
490.132	370.31
490.35	370.31
490.568	382.31
490.786	371.31
491.003	354.31
491.221	391.31
491.439	382.31
491.657	367.31
491.874	369.31
492.092	376.31
492.31	403.31
492.527	388.31
492.745	379.31
492.963	373.31
493.18	362.31
493.398	383.31
493.615	395.31
493.833	372.31
494.05	372.31
494.268	396.31
494.485	388.31
494.703	381.31
494.92	383.31
495.138	386.31
495.355	402.31
495.573	386.31
495.79	397.31
496.008	381.31
496.225	378.31
496.442	388.31
496.66	416.31
496.877	407.31
497.094	407.31
497.312	426.31
497.529	422.31
497.746	422.31
497.963	439.31
498.181	442.31
498.398	467.31
498.615	483.31
498.832	506.31
499.049	539.31
499.267	567.31
499.484	602.31
499.701	640.31
499.918	711.31
500.135	775.31
500.352	851.31
500.569	898.31
500.786	883.31
501.003	824.31
501.22	787.31
501.437	714.31
501.654	620.31
501.871	585.31
502.088	564.31
502.305	524.31
