Data from Fe(NO3)3@0.1M.TitratingCurve.Agarose3%dH2O.NegLispCup.LampEnergy10.LIBS07252019_HRD10591_16-40-16-332.txt Node
Date: Thu Jul 25 16:40:16 EDT 2019
User: cochatt
Spectrometer: HR+D1059
Trigger mode: 1
Integration Time (sec): 1.000000E-1
Scans to average: 1
Electric dark correction enabled: true
Nonlinearity correction enabled: false
Boxcar width: 0
XAxis mode: Wavelengths
Number of Pixels in Spectrum: 2048
>>>>>Begin Spectral Data<<<<<
223.165	-24.06
223.4	-24.06
223.635	-24.06
223.869	-28.06
224.104	-36.06
224.338	-17.06
224.573	-4.06
224.808	-3.06
225.042	-20.06
225.277	6.94
225.511	-9.06
225.746	9.94
225.98	14.94
226.215	15.94
226.449	23.94
226.683	15.94
226.918	31.94
227.152	21.94
227.387	40.94
227.621	32.94
227.856	41.94
228.09	63.94
228.324	57.94
228.559	67.94
228.793	67.94
229.027	66.94
229.262	62.94
229.496	81.94
229.73	74.94
229.964	80.94
230.199	74.94
230.433	76.94
230.667	80.94
230.901	69.94
231.136	95.94
231.37	96.94
231.604	87.94
231.838	101.94
232.072	99.94
232.306	82.94
232.541	85.94
232.775	88.94
233.009	91.94
233.243	93.94
233.477	93.94
233.711	87.94
233.945	98.94
234.179	97.94
234.413	85.94
234.647	84.94
234.881	77.94
235.115	90.94
235.349	101.94
235.583	99.94
235.817	95.94
236.051	93.94
236.285	85.94
236.519	99.94
236.753	79.94
236.987	88.94
237.221	83.94
237.455	89.94
237.689	92.94
237.922	80.94
238.156	88.94
238.39	94.94
238.624	77.94
238.858	99.94
239.091	77.94
239.325	79.94
239.559	94.94
239.793	99.94
240.027	96.94
240.26	79.94
240.494	91.94
240.728	85.94
240.961	85.94
241.195	96.94
241.429	98.94
241.662	82.94
241.896	99.94
242.13	87.94
242.363	90.94
242.597	95.94
242.83	91.94
243.064	99.94
243.298	87.94
243.531	91.94
243.765	100.94
243.998	101.94
244.232	87.94
244.465	100.94
244.699	114.94
244.932	76.94
245.166	108.94
245.399	106.94
245.633	115.94
245.866	88.94
246.099	100.94
246.333	102.94
246.566	106.94
246.8	90.94
247.033	92.94
247.266	103.94
247.5	88.94
247.733	106.94
247.966	98.94
248.2	92.94
248.433	112.94
248.666	101.94
248.899	107.94
249.133	101.94
249.366	92.94
249.599	117.94
249.832	100.94
250.066	102.94
250.299	107.94
250.532	92.94
250.765	90.94
250.998	98.94
251.231	102.94
251.465	93.94
251.698	106.94
251.931	100.94
252.164	110.94
252.397	94.94
252.63	97.94
252.863	83.94
253.096	100.94
253.329	103.94
253.562	91.94
253.795	99.94
254.028	115.94
254.261	104.94
254.494	98.94
254.727	114.94
254.96	114.94
255.193	110.94
255.426	96.94
255.659	94.94
255.892	108.94
256.124	101.94
256.357	108.94
256.59	98.94
256.823	112.94
257.056	110.94
257.289	94.94
257.521	115.94
257.754	102.94
257.987	95.94
258.22	99.94
258.452	109.94
258.685	114.94
258.918	95.94
259.151	105.94
259.383	120.94
259.616	117.94
259.849	108.94
260.081	108.94
260.314	115.94
260.547	102.94
260.779	107.94
261.012	115.94
261.244	116.94
261.477	121.94
261.71	125.94
261.942	108.94
262.175	126.94
262.407	118.94
262.64	111.94
262.872	121.94
263.105	122.94
263.337	119.94
263.57	119.94
263.802	107.94
264.035	112.94
264.267	101.94
264.499	119.94
264.732	122.94
264.964	104.94
265.197	116.94
265.429	115.94
265.661	111.94
265.894	110.94
266.126	120.94
266.358	107.94
266.591	114.94
266.823	124.94
267.055	116.94
267.287	110.94
267.52	116.94
267.752	129.94
267.984	107.94
268.216	108.94
268.448	116.94
268.681	108.94
268.913	107.94
269.145	110.94
269.377	115.94
269.609	112.94
269.841	132.94
270.073	132.94
270.306	107.94
270.538	136.94
270.77	114.94
271.002	111.94
271.234	118.94
271.466	124.94
271.698	125.94
271.93	108.94
272.162	131.94
272.394	128.94
272.626	121.94
272.858	111.94
273.09	109.94
273.322	127.94
273.553	122.94
273.785	118.94
274.017	123.94
274.249	124.94
274.481	119.94
274.713	114.94
274.945	138.94
275.176	124.94
275.408	131.94
275.64	136.94
275.872	124.94
276.104	122.94
276.335	122.94
276.567	116.94
276.799	114.94
277.031	124.94
277.262	121.94
277.494	120.94
277.726	134.94
277.957	120.94
278.189	137.94
278.421	131.94
278.652	119.94
278.884	120.94
279.115	120.94
279.347	124.94
279.579	124.94
279.81	128.94
280.042	119.94
280.273	125.94
280.505	132.94
280.736	129.94
280.968	120.94
281.199	104.94
281.431	126.94
281.662	123.94
281.894	132.94
282.125	124.94
282.356	129.94
282.588	142.94
282.819	132.94
283.051	144.94
283.282	123.94
283.513	125.94
283.745	137.94
283.976	130.94
284.207	137.94
284.439	130.94
284.67	128.94
284.901	138.94
285.132	125.94
285.364	125.94
285.595	112.94
285.826	115.94
286.057	143.94
286.288	145.94
286.52	139.94
286.751	152.94
286.982	144.94
287.213	141.94
287.444	132.94
287.675	123.94
287.906	132.94
288.138	148.94
288.369	129.94
288.6	149.94
288.831	133.94
289.062	132.94
289.293	136.94
289.524	134.94
289.755	142.94
289.986	141.94
290.217	162.94
290.448	148.94
290.679	155.94
290.91	138.94
291.141	148.94
291.371	142.94
291.602	135.94
291.833	142.94
292.064	139.94
292.295	139.94
292.526	124.94
292.757	154.94
292.987	152.94
293.218	131.94
293.449	136.94
293.68	130.94
293.91	148.94
294.141	138.94
294.372	134.94
294.603	143.94
294.833	124.94
295.064	123.94
295.295	144.94
295.525	136.94
295.756	135.94
295.987	128.94
296.217	158.94
296.448	158.94
296.679	131.94
296.909	134.94
297.14	132.94
297.37	147.94
297.601	145.94
297.831	162.94
298.062	142.94
298.292	131.94
298.523	144.94
298.753	142.94
298.984	150.94
299.214	144.94
299.445	151.94
299.675	138.94
299.905	134.94
300.136	151.94
300.366	160.94
300.597	157.94
300.827	163.94
301.057	155.94
301.288	162.94
301.518	144.94
301.748	156.94
301.979	149.94
302.209	147.94
302.439	163.94
302.669	147.94
302.9	145.94
303.13	155.94
303.36	158.94
303.59	158.94
303.82	149.94
304.051	150.94
304.281	132.94
304.511	158.94
304.741	138.94
304.971	144.94
305.201	152.94
305.431	154.94
305.661	143.94
305.891	150.94
306.121	144.94
306.352	160.94
306.582	146.94
306.812	144.94
307.042	163.94
307.272	162.94
307.502	155.94
307.731	140.94
307.961	147.94
308.191	135.94
308.421	158.94
308.651	158.94
308.881	154.94
309.111	159.94
309.341	130.94
309.571	141.94
309.8	139.94
310.03	178.94
310.26	166.94
310.49	145.94
310.72	157.94
310.949	164.94
311.179	147.94
311.409	170.94
311.639	159.94
311.868	144.94
312.098	157.94
312.328	158.94
312.557	162.94
312.787	158.94
313.017	158.94
313.246	151.94
313.476	162.94
313.706	154.94
313.935	140.94
314.165	143.94
314.394	166.94
314.624	156.94
314.853	171.94
315.083	172.94
315.312	164.94
315.542	164.94
315.771	169.94
316.001	152.94
316.23	146.94
316.46	157.94
316.689	141.94
316.919	158.94
317.148	168.94
317.377	163.94
317.607	164.94
317.836	160.94
318.065	175.94
318.295	160.94
318.524	155.94
318.753	165.94
318.983	157.94
319.212	156.94
319.441	127.94
319.67	166.94
319.9	156.94
320.129	168.94
320.358	171.94
320.587	156.94
320.816	149.94
321.046	158.94
321.275	168.94
321.504	154.94
321.733	146.94
321.962	154.94
322.191	154.94
322.42	167.94
322.649	167.94
322.878	157.94
323.108	156.94
323.337	169.94
323.566	156.94
323.795	175.94
324.024	162.94
324.253	182.94
324.482	180.94
324.71	159.94
324.939	151.94
325.168	157.94
325.397	168.94
325.626	169.94
325.855	158.94
326.084	170.94
326.313	168.94
326.542	188.94
326.77	172.94
326.999	158.94
327.228	178.94
327.457	157.94
327.686	171.94
327.914	161.94
328.143	184.94
328.372	154.94
328.6	178.94
328.829	178.94
329.058	171.94
329.287	183.94
329.515	164.94
329.744	164.94
329.972	173.94
330.201	168.94
330.43	162.94
330.658	170.94
330.887	176.94
331.115	190.94
331.344	194.94
331.572	197.94
331.801	175.94
332.03	184.94
332.258	184.94
332.486	169.94
332.715	175.94
332.943	194.94
333.172	191.94
333.4	196.94
333.629	207.94
333.857	210.94
334.085	206.94
334.314	183.94
334.542	214.94
334.771	198.94
334.999	193.94
335.227	204.94
335.455	188.94
335.684	215.94
335.912	182.94
336.14	171.94
336.369	183.94
336.597	202.94
336.825	171.94
337.053	183.94
337.281	186.94
337.51	184.94
337.738	178.94
337.966	170.94
338.194	175.94
338.422	186.94
338.65	170.94
338.878	181.94
339.106	183.94
339.334	186.94
339.562	188.94
339.79	181.94
340.018	172.94
340.246	180.94
340.474	176.94
340.702	180.94
340.93	180.94
341.158	185.94
341.386	156.94
341.614	185.94
341.842	185.94
342.07	190.94
342.298	164.94
342.526	194.94
342.754	162.94
342.981	167.94
343.209	172.94
343.437	194.94
343.665	191.94
343.893	202.94
344.12	189.94
344.348	176.94
344.576	206.94
344.804	188.94
345.031	195.94
345.259	188.94
345.487	183.94
345.714	174.94
345.942	178.94
346.17	172.94
346.397	170.94
346.625	168.94
346.853	175.94
347.08	175.94
347.308	173.94
347.535	172.94
347.763	164.94
347.99	181.94
348.218	173.94
348.445	162.94
348.673	156.94
348.9	179.94
349.128	166.94
349.355	187.94
349.583	180.94
349.81	168.94
350.037	169.94
350.265	174.94
350.492	172.94
350.72	175.94
350.947	168.94
351.174	163.94
351.402	182.94
351.629	176.94
351.856	183.94
352.083	166.94
352.311	165.94
352.538	166.94
352.765	172.94
352.992	182.94
353.22	163.94
353.447	174.94
353.674	178.94
353.901	168.94
354.128	173.94
354.355	179.94
354.583	165.94
354.81	188.94
355.037	170.94
355.264	175.94
355.491	163.94
355.718	181.94
355.945	170.94
356.172	167.94
356.399	178.94
356.626	151.94
356.853	183.94
357.08	193.94
357.307	177.94
357.534	171.94
357.761	177.94
357.988	174.94
358.215	165.94
358.441	169.94
358.668	186.94
358.895	168.94
359.122	186.94
359.349	166.94
359.576	173.94
359.802	185.94
360.029	167.94
360.256	169.94
360.483	181.94
360.709	170.94
360.936	178.94
361.163	181.94
361.39	178.94
361.616	180.94
361.843	174.94
362.07	189.94
362.296	178.94
362.523	172.94
362.749	179.94
362.976	176.94
363.203	172.94
363.429	172.94
363.656	159.94
363.882	182.94
364.109	174.94
364.335	165.94
364.562	173.94
364.788	172.94
365.015	198.94
365.241	182.94
365.468	170.94
365.694	169.94
365.92	170.94
366.147	180.94
366.373	184.94
366.599	171.94
366.826	185.94
367.052	171.94
367.278	171.94
367.505	174.94
367.731	164.94
367.957	198.94
368.184	192.94
368.41	168.94
368.636	179.94
368.862	180.94
369.089	187.94
369.315	181.94
369.541	183.94
369.767	171.94
369.993	178.94
370.219	199.94
370.445	190.94
370.672	184.94
370.898	175.94
371.124	178.94
371.35	190.94
371.576	194.94
371.802	190.94
372.028	191.94
372.254	203.94
372.48	190.94
372.706	183.94
372.932	196.94
373.158	182.94
373.384	175.94
373.61	197.94
373.835	196.94
374.061	178.94
374.287	186.94
374.513	202.94
374.739	181.94
374.965	197.94
375.191	194.94
375.416	193.94
375.642	207.94
375.868	197.94
376.094	182.94
376.319	189.94
376.545	179.94
376.771	178.94
376.997	172.94
377.222	197.94
377.448	173.94
377.674	186.94
377.899	180.94
378.125	185.94
378.35	184.94
378.576	188.94
378.802	180.94
379.027	180.94
379.253	197.94
379.478	188.94
379.704	202.94
379.929	181.94
380.155	197.94
380.38	189.94
380.606	196.94
380.831	201.94
381.057	198.94
381.282	181.94
381.507	191.94
381.733	178.94
381.958	192.94
382.184	197.94
382.409	209.94
382.634	183.94
382.86	202.94
383.085	219.94
383.31	214.94
383.535	192.94
383.761	212.94
383.986	204.94
384.211	212.94
384.436	202.94
384.662	214.94
384.887	225.94
385.112	208.94
385.337	205.94
385.562	210.94
385.787	207.94
386.013	218.94
386.238	220.94
386.463	224.94
386.688	208.94
386.913	211.94
387.138	196.94
387.363	203.94
387.588	207.94
387.813	221.94
388.038	210.94
388.263	209.94
388.488	222.94
388.713	210.94
388.938	206.94
389.163	206.94
389.387	202.94
389.612	206.94
389.837	221.94
390.062	208.94
390.287	232.94
390.512	203.94
390.736	219.94
390.961	196.94
391.186	218.94
391.411	221.94
391.636	227.94
391.86	243.94
392.085	251.94
392.31	227.94
392.534	231.94
392.759	234.94
392.984	223.94
393.208	228.94
393.433	207.94
393.658	221.94
393.882	226.94
394.107	235.94
394.331	219.94
394.556	229.94
394.78	214.94
395.005	220.94
395.229	221.94
395.454	224.94
395.678	222.94
395.903	233.94
396.127	227.94
396.352	233.94
396.576	213.94
396.801	227.94
397.025	219.94
397.249	236.94
397.474	232.94
397.698	235.94
397.922	244.94
398.147	237.94
398.371	218.94
398.595	245.94
398.82	231.94
399.044	270.94
399.268	293.94
399.492	322.94
399.717	332.94
399.941	304.94
400.165	311.94
400.389	286.94
400.613	280.94
400.837	247.94
401.062	251.94
401.286	238.94
401.51	246.94
401.734	257.94
401.958	231.94
402.182	268.94
402.406	259.94
402.63	262.94
402.854	250.94
403.078	264.94
403.302	271.94
403.526	276.94
403.75	271.94
403.974	275.94
404.198	275.94
404.422	267.94
404.645	259.94
404.869	278.94
405.093	266.94
405.317	272.94
405.541	276.94
405.765	282.94
405.988	271.94
406.212	259.94
406.436	272.94
406.66	283.94
406.883	272.94
407.107	291.94
407.331	304.94
407.555	294.94
407.778	302.94
408.002	287.94
408.226	296.94
408.449	278.94
408.673	267.94
408.896	282.94
409.12	288.94
409.344	277.94
409.567	290.94
409.791	300.94
410.014	271.94
410.238	281.94
410.461	271.94
410.685	269.94
410.908	268.94
411.132	278.94
411.355	252.94
411.578	273.94
411.802	278.94
412.025	258.94
412.249	259.94
412.472	263.94
412.695	269.94
412.919	257.94
413.142	257.94
413.365	259.94
413.589	258.94
413.812	265.94
414.035	258.94
414.258	251.94
414.482	261.94
414.705	247.94
414.928	243.94
415.151	275.94
415.374	276.94
415.597	255.94
415.821	245.94
416.044	264.94
416.267	261.94
416.49	239.94
416.713	253.94
416.936	254.94
417.159	245.94
417.382	267.94
417.605	269.94
417.828	263.94
418.051	250.94
418.274	270.94
418.497	266.94
418.72	284.94
418.943	288.94
419.166	279.94
419.389	282.94
419.611	280.94
419.834	260.94
420.057	260.94
420.28	268.94
420.503	249.94
420.726	254.94
420.948	236.94
421.171	255.94
421.394	261.94
421.617	253.94
421.839	277.94
422.062	255.94
422.285	252.94
422.507	250.94
422.73	267.94
422.953	257.94
423.175	259.94
423.398	285.94
423.621	270.94
423.843	272.94
424.066	273.94
424.288	276.94
424.511	261.94
424.733	267.94
424.956	262.94
425.178	260.94
425.401	266.94
425.623	261.94
425.846	257.94
426.068	239.94
426.291	250.94
426.513	272.94
426.735	263.94
426.958	259.94
427.18	238.94
427.402	254.94
427.625	249.94
427.847	258.94
428.069	234.94
428.292	248.94
428.514	232.94
428.736	247.94
428.958	247.94
429.181	239.94
429.403	248.94
429.625	245.94
429.847	239.94
430.069	240.94
430.292	227.94
430.514	233.94
430.736	220.94
430.958	266.94
431.18	224.94
431.402	254.94
431.624	243.94
431.846	254.94
432.068	235.94
432.29	243.94
432.512	233.94
432.734	250.94
432.956	266.94
433.178	263.94
433.4	263.94
433.622	258.94
433.844	269.94
434.066	270.94
434.287	234.94
434.509	252.94
434.731	251.94
434.953	282.94
435.175	283.94
435.397	262.94
435.618	251.94
435.84	256.94
436.062	252.94
436.284	263.94
436.505	267.94
436.727	239.94
436.949	230.94
437.17	254.94
437.392	244.94
437.614	265.94
437.835	254.94
438.057	251.94
438.278	231.94
438.5	248.94
438.721	249.94
438.943	246.94
439.165	264.94
439.386	267.94
439.608	269.94
439.829	267.94
440.05	266.94
440.272	270.94
440.493	265.94
440.715	264.94
440.936	266.94
441.158	278.94
441.379	276.94
441.6	278.94
441.822	285.94
442.043	285.94
442.264	280.94
442.486	294.94
442.707	274.94
442.928	262.94
443.149	278.94
443.371	288.94
443.592	287.94
443.813	273.94
444.034	287.94
444.255	286.94
444.476	290.94
444.698	314.94
444.919	301.94
445.14	394.94
445.361	344.94
445.582	280.94
445.803	277.94
446.024	274.94
446.245	270.94
446.466	278.94
446.687	258.94
446.908	284.94
447.129	278.94
447.35	251.94
447.571	236.94
447.792	265.94
448.013	250.94
448.234	257.94
448.455	250.94
448.675	262.94
448.896	258.94
449.117	232.94
449.338	255.94
449.559	233.94
449.779	246.94
450	248.94
450.221	255.94
450.442	237.94
450.662	262.94
450.883	260.94
451.104	240.94
451.324	244.94
451.545	225.94
451.766	247.94
451.986	246.94
452.207	239.94
452.428	245.94
452.648	238.94
452.869	251.94
453.089	238.94
453.31	235.94
453.53	228.94
453.751	218.94
453.971	231.94
454.192	234.94
454.412	227.94
454.633	220.94
454.853	220.94
455.073	245.94
455.294	236.94
455.514	245.94
455.734	219.94
455.955	232.94
456.175	216.94
456.395	218.94
456.616	239.94
456.836	232.94
457.056	227.94
457.276	235.94
457.497	214.94
457.717	227.94
457.937	224.94
458.157	237.94
458.377	221.94
458.598	234.94
458.818	239.94
459.038	244.94
459.258	238.94
459.478	255.94
459.698	231.94
459.918	269.94
460.138	250.94
460.358	269.94
460.578	271.94
460.798	293.94
461.018	290.94
461.238	264.94
461.458	304.94
461.678	283.94
461.898	288.94
462.118	293.94
462.338	293.94
462.558	308.94
462.777	306.94
462.997	326.94
463.217	349.94
463.437	332.94
463.657	312.94
463.876	293.94
464.096	304.94
464.316	314.94
464.536	309.94
464.755	316.94
464.975	286.94
465.195	292.94
465.414	272.94
465.634	259.94
465.854	260.94
466.073	266.94
466.293	254.94
466.512	244.94
466.732	263.94
466.951	246.94
467.171	242.94
467.391	269.94
467.61	251.94
467.829	242.94
468.049	264.94
468.268	243.94
468.488	238.94
468.707	250.94
468.927	235.94
469.146	254.94
469.365	237.94
469.585	246.94
469.804	256.94
470.023	239.94
470.243	242.94
470.462	241.94
470.681	267.94
470.901	260.94
471.12	259.94
471.339	255.94
471.558	245.94
471.777	256.94
471.997	266.94
472.216	237.94
472.435	239.94
472.654	238.94
472.873	233.94
473.092	232.94
473.311	236.94
473.53	238.94
473.749	240.94
473.968	252.94
474.187	242.94
474.406	246.94
474.625	246.94
474.844	240.94
475.063	226.94
475.282	234.94
475.501	218.94
475.72	239.94
475.939	250.94
476.158	268.94
476.377	257.94
476.596	260.94
476.814	253.94
477.033	230.94
477.252	254.94
477.471	236.94
477.69	270.94
477.908	278.94
478.127	285.94
478.346	279.94
478.564	280.94
478.783	272.94
479.002	275.94
479.22	268.94
479.439	271.94
479.658	251.94
479.876	280.94
480.095	280.94
480.313	286.94
480.532	284.94
480.751	283.94
480.969	267.94
481.188	251.94
481.406	269.94
481.624	271.94
481.843	256.94
482.061	260.94
482.28	286.94
482.498	268.94
482.717	251.94
482.935	260.94
483.153	249.94
483.372	276.94
483.59	274.94
483.808	272.94
484.027	266.94
484.245	257.94
484.463	259.94
484.681	277.94
484.9	260.94
485.118	258.94
485.336	261.94
485.554	262.94
485.772	260.94
485.99	242.94
486.209	265.94
486.427	264.94
486.645	277.94
486.863	269.94
487.081	282.94
487.299	262.94
487.517	263.94
487.735	283.94
487.953	274.94
488.171	293.94
488.389	280.94
488.607	270.94
488.825	275.94
489.043	268.94
489.261	274.94
489.479	266.94
489.696	275.94
489.914	260.94
490.132	272.94
490.35	254.94
490.568	283.94
490.786	292.94
491.003	285.94
491.221	288.94
491.439	279.94
491.657	275.94
491.874	281.94
492.092	312.94
492.31	318.94
492.527	279.94
492.745	287.94
492.963	302.94
493.18	290.94
493.398	290.94
493.615	301.94
493.833	276.94
494.05	288.94
494.268	279.94
494.485	294.94
494.703	277.94
494.92	291.94
495.138	283.94
495.355	288.94
495.573	287.94
495.79	295.94
496.008	281.94
496.225	286.94
496.442	307.94
496.66	283.94
496.877	292.94
497.094	308.94
497.312	295.94
497.529	326.94
497.746	314.94
497.963	301.94
498.181	330.94
498.398	328.94
498.615	335.94
498.832	357.94
499.049	379.94
499.267	392.94
499.484	425.94
499.701	452.94
499.918	485.94
500.135	562.94
500.352	598.94
500.569	612.94
500.786	608.94
501.003	551.94
501.22	500.94
501.437	461.94
501.654	426.94
501.871	394.94
502.088	372.94
502.305	355.94
502.522	334.94
502.739	340.94
