Data from Fe(NO3)3@0.1M.TitratingCurve.Agarose3%dH2O.NegLispCup.LampEnergy10.LIBS07252019_HRD10591_16-40-44-333.txt Node
Date: Thu Jul 25 16:40:44 EDT 2019
User: cochatt
Spectrometer: HR+D1059
Trigger mode: 1
Integration Time (sec): 1.000000E-1
Scans to average: 1
Electric dark correction enabled: true
Nonlinearity correction enabled: false
Boxcar width: 0
XAxis mode: Wavelengths
Number of Pixels in Spectrum: 2048
>>>>>Begin Spectral Data<<<<<
223.165	-14.31
223.4	-14.31
223.635	-14.31
223.869	-17.31
224.104	-18.31
224.338	-27.31
224.573	-4.31
224.808	-0.31
225.042	-4.31
225.277	4.69
225.511	-4.31
225.746	-6.31
225.98	5.69
226.215	13.69
226.449	21.69
226.683	15.69
226.918	9.69
227.152	25.69
227.387	40.69
227.621	33.69
227.856	33.69
228.09	43.69
228.324	46.69
228.559	47.69
228.793	61.69
229.027	86.69
229.262	81.69
229.496	78.69
229.73	78.69
229.964	79.69
230.199	93.69
230.433	90.69
230.667	82.69
230.901	83.69
231.136	91.69
231.37	99.69
231.604	106.69
231.838	101.69
232.072	85.69
232.306	89.69
232.541	100.69
232.775	96.69
233.009	105.69
233.243	103.69
233.477	89.69
233.711	111.69
233.945	111.69
234.179	101.69
234.413	96.69
234.647	113.69
234.881	105.69
235.115	116.69
235.349	99.69
235.583	109.69
235.817	110.69
236.051	94.69
236.285	104.69
236.519	106.69
236.753	89.69
236.987	105.69
237.221	106.69
237.455	94.69
237.689	112.69
237.922	111.69
238.156	96.69
238.39	100.69
238.624	114.69
238.858	109.69
239.091	117.69
239.325	106.69
239.559	109.69
239.793	120.69
240.027	99.69
240.26	117.69
240.494	105.69
240.728	106.69
240.961	109.69
241.195	118.69
241.429	114.69
241.662	138.69
241.896	116.69
242.13	124.69
242.363	125.69
242.597	113.69
242.83	117.69
243.064	119.69
243.298	121.69
243.531	114.69
243.765	123.69
243.998	118.69
244.232	130.69
244.465	116.69
244.699	115.69
244.932	121.69
245.166	131.69
245.399	125.69
245.633	137.69
245.866	139.69
246.099	127.69
246.333	113.69
246.566	125.69
246.8	137.69
247.033	126.69
247.266	123.69
247.5	138.69
247.733	121.69
247.966	129.69
248.2	122.69
248.433	129.69
248.666	124.69
248.899	137.69
249.133	123.69
249.366	139.69
249.599	135.69
249.832	128.69
250.066	159.69
250.299	144.69
250.532	121.69
250.765	117.69
250.998	128.69
251.231	123.69
251.465	143.69
251.698	141.69
251.931	153.69
252.164	146.69
252.397	136.69
252.63	147.69
252.863	138.69
253.096	145.69
253.329	150.69
253.562	127.69
253.795	154.69
254.028	142.69
254.261	119.69
254.494	133.69
254.727	150.69
254.96	143.69
255.193	145.69
255.426	158.69
255.659	152.69
255.892	151.69
256.124	140.69
256.357	150.69
256.59	147.69
256.823	139.69
257.056	142.69
257.289	147.69
257.521	165.69
257.754	151.69
257.987	140.69
258.22	166.69
258.452	143.69
258.685	163.69
258.918	159.69
259.151	162.69
259.383	145.69
259.616	137.69
259.849	159.69
260.081	152.69
260.314	173.69
260.547	159.69
260.779	159.69
261.012	161.69
261.244	163.69
261.477	180.69
261.71	169.69
261.942	181.69
262.175	173.69
262.407	167.69
262.64	140.69
262.872	162.69
263.105	164.69
263.337	170.69
263.57	175.69
263.802	168.69
264.035	159.69
264.267	163.69
264.499	165.69
264.732	160.69
264.964	153.69
265.197	166.69
265.429	176.69
265.661	161.69
265.894	176.69
266.126	172.69
266.358	166.69
266.591	162.69
266.823	168.69
267.055	181.69
267.287	172.69
267.52	159.69
267.752	163.69
267.984	192.69
268.216	176.69
268.448	188.69
268.681	197.69
268.913	169.69
269.145	173.69
269.377	193.69
269.609	169.69
269.841	179.69
270.073	187.69
270.306	177.69
270.538	183.69
270.77	189.69
271.002	179.69
271.234	177.69
271.466	185.69
271.698	171.69
271.93	168.69
272.162	183.69
272.394	190.69
272.626	187.69
272.858	158.69
273.09	185.69
273.322	189.69
273.553	190.69
273.785	190.69
274.017	179.69
274.249	206.69
274.481	200.69
274.713	199.69
274.945	201.69
275.176	200.69
275.408	185.69
275.64	207.69
275.872	207.69
276.104	201.69
276.335	219.69
276.567	203.69
276.799	198.69
277.031	202.69
277.262	192.69
277.494	211.69
277.726	200.69
277.957	200.69
278.189	209.69
278.421	196.69
278.652	202.69
278.884	182.69
279.115	205.69
279.347	199.69
279.579	213.69
279.81	197.69
280.042	215.69
280.273	211.69
280.505	210.69
280.736	236.69
280.968	209.69
281.199	226.69
281.431	223.69
281.662	227.69
281.894	237.69
282.125	224.69
282.356	214.69
282.588	214.69
282.819	224.69
283.051	204.69
283.282	218.69
283.513	222.69
283.745	197.69
283.976	227.69
284.207	217.69
284.439	218.69
284.67	217.69
284.901	222.69
285.132	226.69
285.364	234.69
285.595	232.69
285.826	235.69
286.057	226.69
286.288	222.69
286.52	235.69
286.751	217.69
286.982	227.69
287.213	231.69
287.444	217.69
287.675	238.69
287.906	234.69
288.138	220.69
288.369	237.69
288.6	241.69
288.831	253.69
289.062	229.69
289.293	226.69
289.524	246.69
289.755	242.69
289.986	230.69
290.217	220.69
290.448	229.69
290.679	239.69
290.91	228.69
291.141	245.69
291.371	238.69
291.602	243.69
291.833	227.69
292.064	256.69
292.295	231.69
292.526	218.69
292.757	226.69
292.987	241.69
293.218	243.69
293.449	230.69
293.68	242.69
293.91	236.69
294.141	255.69
294.372	240.69
294.603	241.69
294.833	234.69
295.064	249.69
295.295	247.69
295.525	252.69
295.756	241.69
295.987	253.69
296.217	260.69
296.448	242.69
296.679	253.69
296.909	253.69
297.14	259.69
297.37	249.69
297.601	234.69
297.831	261.69
298.062	273.69
298.292	279.69
298.523	262.69
298.753	273.69
298.984	271.69
299.214	254.69
299.445	265.69
299.675	260.69
299.905	258.69
300.136	252.69
300.366	262.69
300.597	258.69
300.827	260.69
301.057	279.69
301.288	286.69
301.518	281.69
301.748	271.69
301.979	296.69
302.209	268.69
302.439	270.69
302.669	256.69
302.9	269.69
303.13	266.69
303.36	269.69
303.59	267.69
303.82	271.69
304.051	271.69
304.281	287.69
304.511	274.69
304.741	262.69
304.971	248.69
305.201	263.69
305.431	273.69
305.661	273.69
305.891	267.69
306.121	266.69
306.352	289.69
306.582	286.69
306.812	264.69
307.042	273.69
307.272	274.69
307.502	268.69
307.731	273.69
307.961	296.69
308.191	277.69
308.421	269.69
308.651	253.69
308.881	285.69
309.111	245.69
309.341	267.69
309.571	281.69
309.8	263.69
310.03	277.69
310.26	265.69
310.49	245.69
310.72	284.69
310.949	282.69
311.179	265.69
311.409	273.69
311.639	271.69
311.868	286.69
312.098	289.69
312.328	274.69
312.557	283.69
312.787	284.69
313.017	290.69
313.246	297.69
313.476	290.69
313.706	281.69
313.935	297.69
314.165	289.69
314.394	293.69
314.624	291.69
314.853	311.69
315.083	295.69
315.312	277.69
315.542	279.69
315.771	300.69
316.001	305.69
316.23	311.69
316.46	311.69
316.689	286.69
316.919	295.69
317.148	294.69
317.377	273.69
317.607	311.69
317.836	290.69
318.065	303.69
318.295	295.69
318.524	308.69
318.753	293.69
318.983	297.69
319.212	307.69
319.441	301.69
319.67	286.69
319.9	294.69
320.129	293.69
320.358	294.69
320.587	289.69
320.816	288.69
321.046	294.69
321.275	310.69
321.504	290.69
321.733	296.69
321.962	304.69
322.191	303.69
322.42	296.69
322.649	301.69
322.878	291.69
323.108	298.69
323.337	288.69
323.566	293.69
323.795	298.69
324.024	310.69
324.253	296.69
324.482	298.69
324.71	309.69
324.939	287.69
325.168	304.69
325.397	321.69
325.626	312.69
325.855	306.69
326.084	320.69
326.313	309.69
326.542	332.69
326.77	307.69
326.999	327.69
327.228	311.69
327.457	319.69
327.686	325.69
327.914	314.69
328.143	335.69
328.372	309.69
328.6	331.69
328.829	327.69
329.058	331.69
329.287	305.69
329.515	321.69
329.744	322.69
329.972	323.69
330.201	329.69
330.43	341.69
330.658	327.69
330.887	314.69
331.115	336.69
331.344	329.69
331.572	340.69
331.801	340.69
332.03	347.69
332.258	339.69
332.486	344.69
332.715	372.69
332.943	371.69
333.172	383.69
333.4	370.69
333.629	394.69
333.857	405.69
334.085	389.69
334.314	397.69
334.542	394.69
334.771	385.69
334.999	377.69
335.227	392.69
335.455	395.69
335.684	401.69
335.912	399.69
336.14	377.69
336.369	359.69
336.597	377.69
336.825	378.69
337.053	362.69
337.281	367.69
337.51	377.69
337.738	347.69
337.966	346.69
338.194	357.69
338.422	354.69
338.65	327.69
338.878	341.69
339.106	338.69
339.334	340.69
339.562	331.69
339.79	338.69
340.018	342.69
340.246	347.69
340.474	334.69
340.702	347.69
340.93	325.69
341.158	338.69
341.386	313.69
341.614	334.69
341.842	346.69
342.07	338.69
342.298	338.69
342.526	341.69
342.754	357.69
342.981	343.69
343.209	352.69
343.437	351.69
343.665	349.69
343.893	386.69
344.12	405.69
344.348	372.69
344.576	369.69
344.804	353.69
345.031	351.69
345.259	363.69
345.487	345.69
345.714	325.69
345.942	323.69
346.17	343.69
346.397	330.69
346.625	317.69
346.853	326.69
347.08	323.69
347.308	319.69
347.535	305.69
347.763	323.69
347.99	307.69
348.218	347.69
348.445	320.69
348.673	325.69
348.9	314.69
349.128	337.69
349.355	326.69
349.583	334.69
349.81	331.69
350.037	319.69
350.265	326.69
350.492	326.69
350.72	324.69
350.947	315.69
351.174	309.69
351.402	320.69
351.629	325.69
351.856	322.69
352.083	309.69
352.311	327.69
352.538	336.69
352.765	328.69
352.992	315.69
353.22	311.69
353.447	299.69
353.674	313.69
353.901	336.69
354.128	323.69
354.355	313.69
354.583	342.69
354.81	311.69
355.037	313.69
355.264	327.69
355.491	323.69
355.718	325.69
355.945	323.69
356.172	327.69
356.399	329.69
356.626	338.69
356.853	314.69
357.08	317.69
357.307	328.69
357.534	340.69
357.761	320.69
357.988	330.69
358.215	350.69
358.441	327.69
358.668	322.69
358.895	321.69
359.122	325.69
359.349	335.69
359.576	332.69
359.802	327.69
360.029	324.69
360.256	317.69
360.483	325.69
360.709	331.69
360.936	326.69
361.163	307.69
361.39	309.69
361.616	313.69
361.843	342.69
362.07	331.69
362.296	340.69
362.523	329.69
362.749	308.69
362.976	350.69
363.203	321.69
363.429	319.69
363.656	337.69
363.882	344.69
364.109	317.69
364.335	331.69
364.562	320.69
364.788	329.69
365.015	334.69
365.241	314.69
365.468	324.69
365.694	333.69
365.92	343.69
366.147	318.69
366.373	316.69
366.599	330.69
366.826	324.69
367.052	344.69
367.278	322.69
367.505	338.69
367.731	346.69
367.957	331.69
368.184	339.69
368.41	339.69
368.636	335.69
368.862	352.69
369.089	343.69
369.315	342.69
369.541	343.69
369.767	352.69
369.993	343.69
370.219	331.69
370.445	352.69
370.672	348.69
370.898	347.69
371.124	351.69
371.35	338.69
371.576	331.69
371.802	363.69
372.028	360.69
372.254	366.69
372.48	362.69
372.706	357.69
372.932	370.69
373.158	349.69
373.384	346.69
373.61	340.69
373.835	353.69
374.061	359.69
374.287	369.69
374.513	378.69
374.739	376.69
374.965	383.69
375.191	361.69
375.416	368.69
375.642	341.69
375.868	365.69
376.094	363.69
376.319	362.69
376.545	394.69
376.771	365.69
376.997	353.69
377.222	346.69
377.448	358.69
377.674	343.69
377.899	361.69
378.125	363.69
378.35	343.69
378.576	368.69
378.802	340.69
379.027	335.69
379.253	345.69
379.478	356.69
379.704	366.69
379.929	353.69
380.155	341.69
380.38	350.69
380.606	349.69
380.831	350.69
381.057	378.69
381.282	381.69
381.507	341.69
381.733	367.69
381.958	375.69
382.184	378.69
382.409	368.69
382.634	391.69
382.86	371.69
383.085	383.69
383.31	387.69
383.535	377.69
383.761	387.69
383.986	400.69
384.211	398.69
384.436	400.69
384.662	410.69
384.887	406.69
385.112	398.69
385.337	435.69
385.562	428.69
385.787	424.69
386.013	419.69
386.238	411.69
386.463	413.69
386.688	408.69
386.913	423.69
387.138	408.69
387.363	415.69
387.588	413.69
387.813	403.69
388.038	431.69
388.263	429.69
388.488	411.69
388.713	419.69
388.938	406.69
389.163	413.69
389.387	425.69
389.612	410.69
389.837	426.69
390.062	427.69
390.287	428.69
390.512	410.69
390.736	419.69
390.961	431.69
391.186	407.69
391.411	450.69
391.636	450.69
391.86	461.69
392.085	466.69
392.31	450.69
392.534	447.69
392.759	449.69
392.984	458.69
393.208	436.69
393.433	432.69
393.658	448.69
393.882	457.69
394.107	434.69
394.331	445.69
394.556	463.69
394.78	445.69
395.005	450.69
395.229	432.69
395.454	474.69
395.678	492.69
395.903	470.69
396.127	469.69
396.352	443.69
396.576	424.69
396.801	441.69
397.025	451.69
397.249	463.69
397.474	465.69
397.698	469.69
397.922	481.69
398.147	462.69
398.371	475.69
398.595	497.69
398.82	517.69
399.044	524.69
399.268	569.69
399.492	630.69
399.717	663.69
399.941	694.69
400.165	654.69
400.389	569.69
400.613	565.69
400.837	535.69
401.062	522.69
401.286	521.69
401.51	519.69
401.734	502.69
401.958	506.69
402.182	518.69
402.406	517.69
402.63	543.69
402.854	517.69
403.078	530.69
403.302	550.69
403.526	533.69
403.75	573.69
403.974	572.69
404.198	567.69
404.422	554.69
404.645	545.69
404.869	592.69
405.093	545.69
405.317	529.69
405.541	554.69
405.765	559.69
405.988	541.69
406.212	569.69
406.436	564.69
406.66	569.69
406.883	562.69
407.107	585.69
407.331	606.69
407.555	633.69
407.778	607.69
408.002	624.69
408.226	623.69
408.449	596.69
408.673	571.69
408.896	568.69
409.12	580.69
409.344	571.69
409.567	564.69
409.791	579.69
410.014	573.69
410.238	552.69
410.461	559.69
410.685	542.69
410.908	557.69
411.132	554.69
411.355	538.69
411.578	531.69
411.802	529.69
412.025	546.69
412.249	555.69
412.472	515.69
412.695	551.69
412.919	535.69
413.142	521.69
413.365	529.69
413.589	528.69
413.812	546.69
414.035	518.69
414.258	532.69
414.482	502.69
414.705	532.69
414.928	525.69
415.151	512.69
415.374	505.69
415.597	525.69
415.821	512.69
416.044	517.69
416.267	516.69
416.49	526.69
416.713	530.69
416.936	504.69
417.159	516.69
417.382	490.69
417.605	498.69
417.828	507.69
418.051	518.69
418.274	514.69
418.497	502.69
418.72	520.69
418.943	531.69
419.166	548.69
419.389	577.69
419.611	555.69
419.834	542.69
420.057	529.69
420.28	528.69
420.503	504.69
420.726	500.69
420.948	507.69
421.171	493.69
421.394	505.69
421.617	482.69
421.839	509.69
422.062	525.69
422.285	521.69
422.507	543.69
422.73	523.69
422.953	534.69
423.175	515.69
423.398	529.69
423.621	518.69
423.843	533.69
424.066	529.69
424.288	513.69
424.511	526.69
424.733	533.69
424.956	507.69
425.178	523.69
425.401	521.69
425.623	525.69
425.846	499.69
426.068	515.69
426.291	496.69
426.513	500.69
426.735	497.69
426.958	495.69
427.18	476.69
427.402	483.69
427.625	461.69
427.847	468.69
428.069	470.69
428.292	477.69
428.514	458.69
428.736	474.69
428.958	464.69
429.181	461.69
429.403	466.69
429.625	449.69
429.847	475.69
430.069	442.69
430.292	475.69
430.514	465.69
430.736	475.69
430.958	480.69
431.18	470.69
431.402	458.69
431.624	497.69
431.846	483.69
432.068	464.69
432.29	471.69
432.512	474.69
432.734	488.69
432.956	457.69
433.178	487.69
433.4	486.69
433.622	489.69
433.844	503.69
434.066	473.69
434.287	498.69
434.509	485.69
434.731	527.69
434.953	508.69
435.175	521.69
435.397	519.69
435.618	468.69
435.84	489.69
436.062	471.69
436.284	481.69
436.505	466.69
436.727	467.69
436.949	481.69
437.17	467.69
437.392	475.69
437.614	478.69
437.835	459.69
438.057	478.69
438.278	448.69
438.5	468.69
438.721	457.69
438.943	479.69
439.165	453.69
439.386	490.69
439.608	479.69
439.829	464.69
440.05	477.69
440.272	495.69
440.493	485.69
440.715	479.69
440.936	479.69
441.158	515.69
441.379	509.69
441.6	515.69
441.822	533.69
442.043	532.69
442.264	526.69
442.486	515.69
442.707	526.69
442.928	511.69
443.149	522.69
443.371	515.69
443.592	506.69
443.813	528.69
444.034	544.69
444.255	547.69
444.476	568.69
444.698	581.69
444.919	595.69
445.14	650.69
445.361	601.69
445.582	527.69
445.803	507.69
446.024	514.69
446.245	506.69
446.466	521.69
446.687	504.69
446.908	489.69
447.129	499.69
447.35	471.69
447.571	501.69
447.792	465.69
448.013	466.69
448.234	470.69
448.455	457.69
448.675	456.69
448.896	461.69
449.117	438.69
449.338	467.69
449.559	426.69
449.779	440.69
450	443.69
450.221	449.69
450.442	456.69
450.662	447.69
450.883	462.69
451.104	449.69
451.324	447.69
451.545	449.69
451.766	454.69
451.986	441.69
452.207	446.69
452.428	446.69
452.648	441.69
452.869	449.69
453.089	405.69
453.31	425.69
453.53	430.69
453.751	418.69
453.971	422.69
454.192	407.69
454.412	433.69
454.633	426.69
454.853	429.69
455.073	417.69
455.294	429.69
455.514	411.69
455.734	421.69
455.955	430.69
456.175	431.69
456.395	427.69
456.616	409.69
456.836	431.69
457.056	419.69
457.276	413.69
457.497	419.69
457.717	422.69
457.937	437.69
458.157	442.69
458.377	430.69
458.598	430.69
458.818	448.69
459.038	441.69
459.258	450.69
459.478	456.69
459.698	476.69
459.918	505.69
460.138	500.69
460.358	543.69
460.578	531.69
460.798	542.69
461.018	547.69
461.238	522.69
461.458	541.69
461.678	549.69
461.898	558.69
462.118	547.69
462.338	594.69
462.558	590.69
462.777	597.69
462.997	653.69
463.217	685.69
463.437	661.69
463.657	630.69
463.876	598.69
464.096	587.69
464.316	598.69
464.536	587.69
464.755	597.69
464.975	574.69
465.195	549.69
465.414	530.69
465.634	505.69
465.854	486.69
466.073	505.69
466.293	487.69
466.512	468.69
466.732	486.69
466.951	463.69
467.171	454.69
467.391	463.69
467.61	453.69
467.829	456.69
468.049	468.69
468.268	461.69
468.488	435.69
468.707	436.69
468.927	455.69
469.146	442.69
469.365	442.69
469.585	443.69
469.804	435.69
470.023	453.69
470.243	450.69
470.462	463.69
470.681	469.69
470.901	473.69
471.12	467.69
471.339	479.69
471.558	481.69
471.777	443.69
471.997	452.69
472.216	447.69
472.435	440.69
472.654	447.69
472.873	422.69
473.092	433.69
473.311	445.69
473.53	442.69
473.749	449.69
473.968	430.69
474.187	436.69
474.406	451.69
474.625	470.69
474.844	449.69
475.063	440.69
475.282	441.69
475.501	457.69
475.72	459.69
475.939	454.69
476.158	461.69
476.377	442.69
476.596	435.69
476.814	454.69
477.033	451.69
477.252	477.69
477.471	473.69
477.69	488.69
477.908	496.69
478.127	538.69
478.346	501.69
478.564	523.69
478.783	530.69
479.002	521.69
479.22	546.69
479.439	527.69
479.658	538.69
479.876	519.69
480.095	515.69
480.313	529.69
480.532	548.69
480.751	533.69
480.969	514.69
481.188	515.69
481.406	532.69
481.624	487.69
481.843	503.69
482.061	505.69
482.28	479.69
482.498	481.69
482.717	465.69
482.935	490.69
483.153	488.69
483.372	497.69
483.59	504.69
483.808	505.69
484.027	490.69
484.245	485.69
484.463	513.69
484.681	497.69
484.9	495.69
485.118	509.69
485.336	513.69
485.554	508.69
485.772	518.69
485.99	485.69
486.209	515.69
486.427	507.69
486.645	489.69
486.863	502.69
487.081	505.69
487.299	511.69
487.517	504.69
487.735	521.69
487.953	530.69
488.171	520.69
488.389	495.69
488.607	492.69
488.825	494.69
489.043	499.69
489.261	489.69
489.479	511.69
489.696	513.69
489.914	515.69
490.132	517.69
490.35	513.69
490.568	500.69
490.786	503.69
491.003	524.69
491.221	527.69
491.439	503.69
491.657	529.69
491.874	559.69
492.092	529.69
492.31	541.69
492.527	523.69
492.745	527.69
492.963	541.69
493.18	530.69
493.398	531.69
493.615	516.69
493.833	532.69
494.05	527.69
494.268	531.69
494.485	549.69
494.703	553.69
494.92	557.69
495.138	549.69
495.355	554.69
495.573	538.69
495.79	546.69
496.008	564.69
496.225	537.69
496.442	570.69
496.66	562.69
496.877	581.69
497.094	577.69
497.312	587.69
497.529	581.69
497.746	616.69
497.963	663.69
498.181	650.69
498.398	665.69
498.615	685.69
498.832	746.69
499.049	760.69
499.267	821.69
499.484	896.69
499.701	949.69
499.918	993.69
500.135	1135.69
500.352	1240.69
500.569	1268.69
500.786	1247.69
501.003	1171.69
501.22	1081.69
501.437	999.69
501.654	889.69
501.871	862.69
