Data from Fe(NO3)3@0.1M.TitratingCurve.Agarose3%dH2O.NegLispCup.LampEnergy10.LIBS07252019_HRD10591_16-42-10-333.txt Node
Date: Thu Jul 25 16:42:10 EDT 2019
User: cochatt
Spectrometer: HR+D1059
Trigger mode: 1
Integration Time (sec): 1.000000E-1
Scans to average: 1
Electric dark correction enabled: true
Nonlinearity correction enabled: false
Boxcar width: 0
XAxis mode: Wavelengths
Number of Pixels in Spectrum: 2048
>>>>>Begin Spectral Data<<<<<
223.165	-29.88
223.4	-29.88
223.635	-29.88
223.869	-16.88
224.104	-10.88
224.338	-14.88
224.573	-23.88
224.808	-12.88
225.042	-7.88
225.277	0.12
225.511	12.12
225.746	5.12
225.98	1.12
226.215	15.12
226.449	13.12
226.683	25.12
226.918	19.12
227.152	26.12
227.387	33.12
227.621	41.12
227.856	29.12
228.09	49.12
228.324	53.12
228.559	55.12
228.793	53.12
229.027	59.12
229.262	71.12
229.496	71.12
229.73	75.12
229.964	78.12
230.199	78.12
230.433	69.12
230.667	88.12
230.901	81.12
231.136	76.12
231.37	83.12
231.604	104.12
231.838	96.12
232.072	93.12
232.306	101.12
232.541	106.12
232.775	105.12
233.009	91.12
233.243	86.12
233.477	98.12
233.711	89.12
233.945	93.12
234.179	106.12
234.413	95.12
234.647	90.12
234.881	96.12
235.115	90.12
235.349	85.12
235.583	89.12
235.817	91.12
236.051	114.12
236.285	93.12
236.519	98.12
236.753	91.12
236.987	85.12
237.221	86.12
237.455	102.12
237.689	95.12
237.922	94.12
238.156	103.12
238.39	88.12
238.624	83.12
238.858	97.12
239.091	91.12
239.325	89.12
239.559	95.12
239.793	87.12
240.027	85.12
240.26	102.12
240.494	92.12
240.728	91.12
240.961	98.12
241.195	97.12
241.429	98.12
241.662	93.12
241.896	89.12
242.13	93.12
242.363	75.12
242.597	87.12
242.83	96.12
243.064	95.12
243.298	94.12
243.531	86.12
243.765	97.12
243.998	103.12
244.232	98.12
244.465	97.12
244.699	86.12
244.932	98.12
245.166	102.12
245.399	103.12
245.633	100.12
245.866	94.12
246.099	97.12
246.333	87.12
246.566	97.12
246.8	92.12
247.033	98.12
247.266	103.12
247.5	108.12
247.733	102.12
247.966	105.12
248.2	101.12
248.433	83.12
248.666	104.12
248.899	95.12
249.133	93.12
249.366	108.12
249.599	110.12
249.832	105.12
250.066	90.12
250.299	96.12
250.532	94.12
250.765	121.12
250.998	96.12
251.231	100.12
251.465	92.12
251.698	98.12
251.931	117.12
252.164	108.12
252.397	103.12
252.63	110.12
252.863	113.12
253.096	99.12
253.329	93.12
253.562	110.12
253.795	96.12
254.028	113.12
254.261	110.12
254.494	104.12
254.727	103.12
254.96	89.12
255.193	93.12
255.426	102.12
255.659	104.12
255.892	100.12
256.124	114.12
256.357	96.12
256.59	125.12
256.823	103.12
257.056	115.12
257.289	111.12
257.521	99.12
257.754	111.12
257.987	97.12
258.22	113.12
258.452	101.12
258.685	110.12
258.918	109.12
259.151	102.12
259.383	122.12
259.616	115.12
259.849	102.12
260.081	111.12
260.314	118.12
260.547	116.12
260.779	108.12
261.012	120.12
261.244	117.12
261.477	114.12
261.71	125.12
261.942	122.12
262.175	125.12
262.407	116.12
262.64	120.12
262.872	124.12
263.105	128.12
263.337	120.12
263.57	112.12
263.802	122.12
264.035	127.12
264.267	116.12
264.499	117.12
264.732	119.12
264.964	111.12
265.197	131.12
265.429	101.12
265.661	123.12
265.894	118.12
266.126	113.12
266.358	132.12
266.591	118.12
266.823	138.12
267.055	119.12
267.287	115.12
267.52	112.12
267.752	120.12
267.984	116.12
268.216	105.12
268.448	129.12
268.681	127.12
268.913	129.12
269.145	114.12
269.377	129.12
269.609	134.12
269.841	125.12
270.073	109.12
270.306	118.12
270.538	118.12
270.77	126.12
271.002	114.12
271.234	126.12
271.466	122.12
271.698	122.12
271.93	122.12
272.162	132.12
272.394	124.12
272.626	125.12
272.858	126.12
273.09	132.12
273.322	122.12
273.553	114.12
273.785	117.12
274.017	100.12
274.249	143.12
274.481	130.12
274.713	114.12
274.945	125.12
275.176	131.12
275.408	131.12
275.64	130.12
275.872	131.12
276.104	122.12
276.335	149.12
276.567	147.12
276.799	140.12
277.031	126.12
277.262	133.12
277.494	141.12
277.726	130.12
277.957	133.12
278.189	144.12
278.421	131.12
278.652	128.12
278.884	125.12
279.115	135.12
279.347	129.12
279.579	130.12
279.81	129.12
280.042	147.12
280.273	127.12
280.505	146.12
280.736	127.12
280.968	134.12
281.199	153.12
281.431	134.12
281.662	131.12
281.894	138.12
282.125	125.12
282.356	126.12
282.588	140.12
282.819	146.12
283.051	133.12
283.282	135.12
283.513	137.12
283.745	150.12
283.976	138.12
284.207	123.12
284.439	147.12
284.67	148.12
284.901	147.12
285.132	144.12
285.364	125.12
285.595	133.12
285.826	150.12
286.057	137.12
286.288	133.12
286.52	136.12
286.751	156.12
286.982	137.12
287.213	134.12
287.444	141.12
287.675	142.12
287.906	148.12
288.138	147.12
288.369	144.12
288.6	150.12
288.831	155.12
289.062	142.12
289.293	139.12
289.524	165.12
289.755	155.12
289.986	143.12
290.217	145.12
290.448	155.12
290.679	156.12
290.91	151.12
291.141	142.12
291.371	142.12
291.602	147.12
291.833	141.12
292.064	153.12
292.295	147.12
292.526	141.12
292.757	151.12
292.987	158.12
293.218	149.12
293.449	137.12
293.68	150.12
293.91	151.12
294.141	154.12
294.372	146.12
294.603	154.12
294.833	155.12
295.064	147.12
295.295	150.12
295.525	158.12
295.756	154.12
295.987	149.12
296.217	159.12
296.448	147.12
296.679	159.12
296.909	155.12
297.14	156.12
297.37	153.12
297.601	149.12
297.831	176.12
298.062	156.12
298.292	149.12
298.523	181.12
298.753	158.12
298.984	153.12
299.214	178.12
299.445	153.12
299.675	183.12
299.905	156.12
300.136	164.12
300.366	153.12
300.597	150.12
300.827	148.12
301.057	164.12
301.288	168.12
301.518	169.12
301.748	166.12
301.979	166.12
302.209	151.12
302.439	165.12
302.669	155.12
302.9	164.12
303.13	149.12
303.36	158.12
303.59	161.12
303.82	177.12
304.051	164.12
304.281	180.12
304.511	165.12
304.741	173.12
304.971	165.12
305.201	166.12
305.431	177.12
305.661	170.12
305.891	178.12
306.121	160.12
306.352	161.12
306.582	163.12
306.812	181.12
307.042	173.12
307.272	171.12
307.502	168.12
307.731	161.12
307.961	161.12
308.191	158.12
308.421	171.12
308.651	152.12
308.881	177.12
309.111	169.12
309.341	151.12
309.571	174.12
309.8	167.12
310.03	179.12
310.26	169.12
310.49	167.12
310.72	155.12
310.949	155.12
311.179	147.12
311.409	154.12
311.639	158.12
311.868	170.12
312.098	158.12
312.328	162.12
312.557	176.12
312.787	179.12
313.017	173.12
313.246	190.12
313.476	186.12
313.706	174.12
313.935	167.12
314.165	162.12
314.394	187.12
314.624	185.12
314.853	173.12
315.083	177.12
315.312	180.12
315.542	172.12
315.771	181.12
316.001	175.12
316.23	180.12
316.46	185.12
316.689	191.12
316.919	177.12
317.148	171.12
317.377	188.12
317.607	174.12
317.836	181.12
318.065	194.12
318.295	183.12
318.524	174.12
318.753	177.12
318.983	177.12
319.212	178.12
319.441	178.12
319.67	159.12
319.9	179.12
320.129	195.12
320.358	183.12
320.587	177.12
320.816	181.12
321.046	177.12
321.275	184.12
321.504	190.12
321.733	178.12
321.962	190.12
322.191	184.12
322.42	194.12
322.649	179.12
322.878	203.12
323.108	182.12
323.337	178.12
323.566	179.12
323.795	185.12
324.024	174.12
324.253	179.12
324.482	183.12
324.71	195.12
324.939	185.12
325.168	181.12
325.397	197.12
325.626	190.12
325.855	190.12
326.084	199.12
326.313	198.12
326.542	172.12
326.77	184.12
326.999	172.12
327.228	200.12
327.457	187.12
327.686	202.12
327.914	204.12
328.143	190.12
328.372	185.12
328.6	181.12
328.829	186.12
329.058	189.12
329.287	195.12
329.515	183.12
329.744	207.12
329.972	182.12
330.201	199.12
330.43	184.12
330.658	193.12
330.887	195.12
331.115	182.12
331.344	188.12
331.572	198.12
331.801	207.12
332.03	203.12
332.258	190.12
332.486	226.12
332.715	206.12
332.943	206.12
333.172	216.12
333.4	227.12
333.629	222.12
333.857	246.12
334.085	222.12
334.314	219.12
334.542	229.12
334.771	217.12
334.999	216.12
335.227	207.12
335.455	230.12
335.684	214.12
335.912	223.12
336.14	213.12
336.369	212.12
336.597	203.12
336.825	219.12
337.053	219.12
337.281	210.12
337.51	218.12
337.738	208.12
337.966	215.12
338.194	205.12
338.422	196.12
338.65	192.12
338.878	193.12
339.106	206.12
339.334	194.12
339.562	203.12
339.79	197.12
340.018	214.12
340.246	212.12
340.474	207.12
340.702	205.12
340.93	194.12
341.158	198.12
341.386	193.12
341.614	199.12
341.842	201.12
342.07	185.12
342.298	206.12
342.526	204.12
342.754	205.12
342.981	192.12
343.209	214.12
343.437	199.12
343.665	223.12
343.893	210.12
344.12	197.12
344.348	222.12
344.576	220.12
344.804	205.12
345.031	207.12
345.259	204.12
345.487	203.12
345.714	210.12
345.942	209.12
346.17	203.12
346.397	193.12
346.625	201.12
346.853	198.12
347.08	198.12
347.308	193.12
347.535	203.12
347.763	203.12
347.99	201.12
348.218	204.12
348.445	199.12
348.673	204.12
348.9	196.12
349.128	187.12
349.355	202.12
349.583	206.12
349.81	184.12
350.037	206.12
350.265	185.12
350.492	207.12
350.72	190.12
350.947	202.12
351.174	197.12
351.402	197.12
351.629	210.12
351.856	189.12
352.083	200.12
352.311	194.12
352.538	217.12
352.765	198.12
352.992	205.12
353.22	197.12
353.447	185.12
353.674	207.12
353.901	191.12
354.128	194.12
354.355	202.12
354.583	208.12
354.81	178.12
355.037	182.12
355.264	204.12
355.491	210.12
355.718	197.12
355.945	193.12
356.172	193.12
356.399	196.12
356.626	212.12
356.853	185.12
357.08	190.12
357.307	191.12
357.534	198.12
357.761	191.12
357.988	188.12
358.215	203.12
358.441	217.12
358.668	203.12
358.895	195.12
359.122	190.12
359.349	184.12
359.576	199.12
359.802	191.12
360.029	207.12
360.256	200.12
360.483	205.12
360.709	195.12
360.936	212.12
361.163	179.12
361.39	202.12
361.616	204.12
361.843	203.12
362.07	206.12
362.296	194.12
362.523	198.12
362.749	197.12
362.976	206.12
363.203	213.12
363.429	209.12
363.656	199.12
363.882	199.12
364.109	212.12
364.335	208.12
364.562	209.12
364.788	194.12
365.015	228.12
365.241	210.12
365.468	207.12
365.694	199.12
365.92	205.12
366.147	205.12
366.373	209.12
366.599	186.12
366.826	213.12
367.052	206.12
367.278	207.12
367.505	213.12
367.731	205.12
367.957	202.12
368.184	211.12
368.41	209.12
368.636	209.12
368.862	214.12
369.089	197.12
369.315	209.12
369.541	200.12
369.767	227.12
369.993	223.12
370.219	225.12
370.445	209.12
370.672	219.12
370.898	207.12
371.124	218.12
371.35	211.12
371.576	210.12
371.802	208.12
372.028	213.12
372.254	220.12
372.48	214.12
372.706	215.12
372.932	235.12
373.158	219.12
373.384	212.12
373.61	227.12
373.835	206.12
374.061	212.12
374.287	225.12
374.513	216.12
374.739	229.12
374.965	240.12
375.191	222.12
375.416	230.12
375.642	213.12
375.868	208.12
376.094	208.12
376.319	227.12
376.545	217.12
376.771	226.12
376.997	222.12
377.222	216.12
377.448	208.12
377.674	217.12
377.899	216.12
378.125	211.12
378.35	201.12
378.576	219.12
378.802	226.12
379.027	222.12
379.253	208.12
379.478	199.12
379.704	220.12
379.929	214.12
380.155	214.12
380.38	209.12
380.606	216.12
380.831	204.12
381.057	222.12
381.282	219.12
381.507	220.12
381.733	215.12
381.958	223.12
382.184	230.12
382.409	238.12
382.634	231.12
382.86	245.12
383.085	221.12
383.31	222.12
383.535	228.12
383.761	236.12
383.986	244.12
384.211	234.12
384.436	247.12
384.662	232.12
384.887	247.12
385.112	225.12
385.337	239.12
385.562	247.12
385.787	253.12
386.013	254.12
386.238	250.12
386.463	231.12
386.688	253.12
386.913	230.12
387.138	241.12
387.363	259.12
387.588	250.12
387.813	245.12
388.038	251.12
388.263	233.12
388.488	248.12
388.713	243.12
388.938	233.12
389.163	246.12
389.387	252.12
389.612	250.12
389.837	246.12
390.062	257.12
390.287	246.12
390.512	267.12
390.736	255.12
390.961	230.12
391.186	249.12
391.411	234.12
391.636	273.12
391.86	274.12
392.085	256.12
392.31	271.12
392.534	256.12
392.759	271.12
392.984	265.12
393.208	242.12
393.433	264.12
393.658	266.12
393.882	234.12
394.107	248.12
394.331	259.12
394.556	248.12
394.78	263.12
395.005	267.12
395.229	258.12
395.454	267.12
395.678	265.12
395.903	238.12
396.127	269.12
396.352	262.12
396.576	276.12
396.801	248.12
397.025	262.12
397.249	283.12
397.474	294.12
397.698	269.12
397.922	284.12
398.147	281.12
398.371	295.12
398.595	306.12
398.82	291.12
399.044	317.12
399.268	340.12
399.492	357.12
399.717	382.12
399.941	361.12
400.165	362.12
400.389	345.12
400.613	302.12
400.837	306.12
401.062	277.12
401.286	282.12
401.51	289.12
401.734	279.12
401.958	286.12
402.182	302.12
402.406	307.12
402.63	287.12
402.854	309.12
403.078	311.12
403.302	337.12
403.526	325.12
403.75	324.12
403.974	315.12
404.198	325.12
404.422	322.12
404.645	327.12
404.869	334.12
405.093	311.12
405.317	327.12
405.541	314.12
405.765	316.12
405.988	313.12
406.212	325.12
406.436	309.12
406.66	347.12
406.883	318.12
407.107	355.12
407.331	355.12
407.555	349.12
407.778	343.12
408.002	343.12
408.226	333.12
408.449	325.12
408.673	326.12
408.896	339.12
409.12	316.12
409.344	313.12
409.567	319.12
409.791	320.12
410.014	335.12
410.238	325.12
410.461	328.12
410.685	326.12
410.908	315.12
411.132	322.12
411.355	291.12
411.578	326.12
411.802	325.12
412.025	321.12
412.249	313.12
412.472	307.12
412.695	325.12
412.919	298.12
413.142	296.12
413.365	310.12
413.589	311.12
413.812	326.12
414.035	320.12
414.258	313.12
414.482	309.12
414.705	309.12
414.928	303.12
415.151	307.12
415.374	297.12
415.597	308.12
415.821	309.12
416.044	316.12
416.267	287.12
416.49	290.12
416.713	301.12
416.936	305.12
417.159	295.12
417.382	317.12
417.605	310.12
417.828	307.12
418.051	309.12
418.274	302.12
418.497	300.12
418.72	312.12
418.943	318.12
419.166	309.12
419.389	328.12
419.611	313.12
419.834	315.12
420.057	339.12
420.28	310.12
420.503	310.12
420.726	292.12
420.948	295.12
421.171	315.12
421.394	303.12
421.617	315.12
421.839	312.12
422.062	314.12
422.285	309.12
422.507	322.12
422.73	303.12
422.953	328.12
423.175	316.12
423.398	316.12
423.621	318.12
423.843	324.12
424.066	311.12
424.288	313.12
424.511	321.12
424.733	315.12
424.956	316.12
425.178	306.12
425.401	305.12
425.623	319.12
425.846	291.12
426.068	314.12
426.291	310.12
426.513	287.12
426.735	300.12
426.958	267.12
427.18	287.12
427.402	295.12
427.625	285.12
427.847	308.12
428.069	282.12
428.292	285.12
428.514	303.12
428.736	286.12
428.958	306.12
429.181	297.12
429.403	279.12
429.625	263.12
429.847	294.12
430.069	283.12
430.292	303.12
430.514	286.12
430.736	284.12
430.958	289.12
431.18	286.12
431.402	297.12
431.624	288.12
431.846	286.12
432.068	283.12
432.29	301.12
432.512	287.12
432.734	282.12
432.956	281.12
433.178	281.12
433.4	296.12
433.622	286.12
433.844	301.12
434.066	296.12
434.287	301.12
434.509	309.12
434.731	318.12
434.953	307.12
435.175	300.12
435.397	315.12
435.618	305.12
435.84	287.12
436.062	289.12
436.284	300.12
436.505	300.12
436.727	322.12
436.949	300.12
437.17	287.12
437.392	295.12
437.614	281.12
437.835	294.12
438.057	280.12
438.278	299.12
438.5	282.12
438.721	278.12
438.943	305.12
439.165	292.12
439.386	297.12
439.608	301.12
439.829	313.12
440.05	305.12
440.272	305.12
440.493	309.12
440.715	301.12
440.936	322.12
441.158	332.12
441.379	322.12
441.6	316.12
441.822	316.12
442.043	338.12
442.264	329.12
442.486	313.12
442.707	303.12
442.928	309.12
443.149	320.12
443.371	324.12
443.592	316.12
443.813	329.12
444.034	330.12
444.255	361.12
444.476	340.12
444.698	347.12
444.919	366.12
445.14	433.12
445.361	389.12
445.582	333.12
445.803	316.12
446.024	302.12
446.245	297.12
446.466	305.12
446.687	292.12
446.908	315.12
447.129	322.12
447.35	309.12
447.571	307.12
447.792	272.12
448.013	292.12
448.234	271.12
448.455	299.12
448.675	309.12
448.896	305.12
449.117	289.12
449.338	280.12
449.559	291.12
449.779	287.12
450	280.12
450.221	277.12
450.442	307.12
450.662	296.12
450.883	279.12
451.104	286.12
451.324	282.12
451.545	273.12
451.766	290.12
451.986	280.12
452.207	258.12
452.428	275.12
452.648	292.12
452.869	274.12
453.089	259.12
453.31	283.12
453.53	267.12
453.751	263.12
453.971	270.12
454.192	265.12
454.412	246.12
454.633	250.12
454.853	254.12
455.073	261.12
455.294	269.12
455.514	267.12
455.734	270.12
455.955	282.12
456.175	279.12
456.395	255.12
456.616	247.12
456.836	266.12
457.056	266.12
457.276	269.12
457.497	272.12
457.717	263.12
457.937	254.12
458.157	279.12
458.377	251.12
458.598	275.12
458.818	266.12
459.038	274.12
459.258	287.12
459.478	289.12
459.698	301.12
459.918	309.12
460.138	334.12
460.358	325.12
460.578	324.12
460.798	326.12
461.018	333.12
461.238	339.12
461.458	329.12
461.678	337.12
461.898	329.12
462.118	339.12
462.338	345.12
462.558	340.12
462.777	372.12
462.997	394.12
463.217	391.12
463.437	406.12
463.657	394.12
463.876	361.12
464.096	336.12
464.316	343.12
464.536	362.12
464.755	362.12
464.975	346.12
465.195	329.12
465.414	313.12
465.634	298.12
465.854	311.12
466.073	302.12
466.293	313.12
466.512	298.12
466.732	291.12
466.951	294.12
467.171	273.12
467.391	277.12
467.61	282.12
467.829	301.12
468.049	305.12
468.268	275.12
468.488	275.12
468.707	278.12
468.927	299.12
469.146	297.12
469.365	300.12
469.585	282.12
469.804	289.12
470.023	292.12
470.243	302.12
470.462	291.12
470.681	315.12
470.901	297.12
471.12	293.12
471.339	295.12
471.558	296.12
471.777	302.12
471.997	301.12
472.216	277.12
472.435	287.12
472.654	292.12
472.873	287.12
473.092	270.12
473.311	272.12
473.53	260.12
473.749	281.12
473.968	278.12
474.187	273.12
474.406	282.12
474.625	296.12
474.844	290.12
475.063	278.12
475.282	275.12
475.501	295.12
475.72	286.12
475.939	275.12
476.158	286.12
476.377	288.12
476.596	294.12
476.814	300.12
477.033	301.12
477.252	285.12
477.471	299.12
477.69	309.12
477.908	311.12
478.127	329.12
478.346	333.12
478.564	310.12
478.783	331.12
479.002	345.12
479.22	328.12
479.439	328.12
479.658	321.12
479.876	335.12
480.095	328.12
480.313	344.12
480.532	346.12
480.751	329.12
480.969	329.12
481.188	301.12
481.406	302.12
481.624	311.12
481.843	315.12
482.061	314.12
482.28	322.12
482.498	294.12
482.717	310.12
482.935	310.12
483.153	291.12
483.372	332.12
483.59	311.12
483.808	315.12
484.027	301.12
484.245	329.12
484.463	330.12
484.681	323.12
484.9	327.12
485.118	331.12
485.336	318.12
485.554	320.12
485.772	318.12
485.99	310.12
486.209	308.12
486.427	314.12
486.645	317.12
486.863	321.12
487.081	325.12
487.299	335.12
487.517	332.12
487.735	348.12
487.953	340.12
488.171	321.12
488.389	332.12
488.607	311.12
488.825	309.12
489.043	311.12
489.261	322.12
489.479	333.12
489.696	326.12
489.914	334.12
490.132	315.12
490.35	312.12
490.568	327.12
490.786	334.12
491.003	339.12
491.221	330.12
491.439	343.12
491.657	333.12
491.874	342.12
492.092	340.12
492.31	354.12
492.527	338.12
492.745	339.12
492.963	334.12
493.18	324.12
493.398	335.12
493.615	332.12
493.833	344.12
494.05	337.12
494.268	343.12
494.485	347.12
494.703	322.12
494.92	346.12
495.138	346.12
495.355	353.12
495.573	342.12
495.79	350.12
496.008	345.12
496.225	347.12
496.442	342.12
496.66	356.12
496.877	347.12
497.094	365.12
497.312	355.12
497.529	355.12
497.746	361.12
497.963	375.12
498.181	383.12
498.398	402.12
498.615	409.12
498.832	427.12
499.049	456.12
499.267	488.12
499.484	503.12
499.701	552.12
499.918	580.12
500.135	640.12
500.352	702.12
500.569	721.12
500.786	683.12
501.003	657.12
501.22	609.12
501.437	563.12
501.654	487.12
501.871	469.12
502.088	461.12
502.305	440.12
502.522	393.12
502.739	394.12
