Data from Fe(NO3)3@0.0125M.TitratingCurve.Agarose3%dH2O.NegLispCup.LampEnergy10.LIBS07252019_HRD10591_16-59-17-337.txt Node
Date: Thu Jul 25 16:59:17 EDT 2019
User: cochatt
Spectrometer: HR+D1059
Trigger mode: 1
Integration Time (sec): 1.000000E-1
Scans to average: 1
Electric dark correction enabled: true
Nonlinearity correction enabled: false
Boxcar width: 0
XAxis mode: Wavelengths
Number of Pixels in Spectrum: 2048
>>>>>Begin Spectral Data<<<<<
223.165	-13.19
223.4	-13.19
223.635	-13.19
223.869	-18.19
224.104	-28.19
224.338	-25.19
224.573	-14.19
224.808	-2.19
225.042	-7.19
225.277	-6.19
225.511	-0.19
225.746	-6.19
225.98	-0.19
226.215	22.81
226.449	26.81
226.683	14.81
226.918	15.81
227.152	40.81
227.387	47.81
227.621	41.81
227.856	40.81
228.09	47.81
228.324	38.81
228.559	50.81
228.793	65.81
229.027	79.81
229.262	86.81
229.496	96.81
229.73	109.81
229.964	98.81
230.199	108.81
230.433	113.81
230.667	113.81
230.901	110.81
231.136	107.81
231.37	113.81
231.604	123.81
231.838	117.81
232.072	119.81
232.306	129.81
232.541	117.81
232.775	122.81
233.009	117.81
233.243	119.81
233.477	121.81
233.711	125.81
233.945	129.81
234.179	122.81
234.413	124.81
234.647	129.81
234.881	126.81
235.115	115.81
235.349	125.81
235.583	132.81
235.817	132.81
236.051	125.81
236.285	120.81
236.519	143.81
236.753	143.81
236.987	125.81
237.221	125.81
237.455	124.81
237.689	136.81
237.922	156.81
238.156	139.81
238.39	136.81
238.624	147.81
238.858	133.81
239.091	138.81
239.325	135.81
239.559	146.81
239.793	140.81
240.027	149.81
240.26	158.81
240.494	142.81
240.728	139.81
240.961	145.81
241.195	143.81
241.429	159.81
241.662	166.81
241.896	149.81
242.13	161.81
242.363	164.81
242.597	145.81
242.83	157.81
243.064	137.81
243.298	163.81
243.531	168.81
243.765	163.81
243.998	154.81
244.232	161.81
244.465	162.81
244.699	169.81
244.932	157.81
245.166	172.81
245.399	166.81
245.633	172.81
245.866	166.81
246.099	160.81
246.333	165.81
246.566	177.81
246.8	179.81
247.033	160.81
247.266	165.81
247.5	159.81
247.733	171.81
247.966	180.81
248.2	177.81
248.433	183.81
248.666	183.81
248.899	184.81
249.133	173.81
249.366	184.81
249.599	184.81
249.832	196.81
250.066	182.81
250.299	201.81
250.532	181.81
250.765	187.81
250.998	197.81
251.231	193.81
251.465	177.81
251.698	189.81
251.931	190.81
252.164	190.81
252.397	206.81
252.63	198.81
252.863	203.81
253.096	197.81
253.329	216.81
253.562	201.81
253.795	199.81
254.028	204.81
254.261	215.81
254.494	210.81
254.727	195.81
254.96	209.81
255.193	196.81
255.426	193.81
255.659	207.81
255.892	217.81
256.124	222.81
256.357	229.81
256.59	217.81
256.823	203.81
257.056	212.81
257.289	209.81
257.521	241.81
257.754	226.81
257.987	214.81
258.22	213.81
258.452	232.81
258.685	222.81
258.918	218.81
259.151	211.81
259.383	234.81
259.616	250.81
259.849	230.81
260.081	229.81
260.314	241.81
260.547	234.81
260.779	218.81
261.012	244.81
261.244	235.81
261.477	236.81
261.71	245.81
261.942	230.81
262.175	236.81
262.407	242.81
262.64	244.81
262.872	262.81
263.105	256.81
263.337	253.81
263.57	257.81
263.802	248.81
264.035	234.81
264.267	261.81
264.499	264.81
264.732	243.81
264.964	262.81
265.197	257.81
265.429	241.81
265.661	252.81
265.894	260.81
266.126	270.81
266.358	273.81
266.591	268.81
266.823	251.81
267.055	276.81
267.287	279.81
267.52	271.81
267.752	249.81
267.984	267.81
268.216	271.81
268.448	280.81
268.681	275.81
268.913	289.81
269.145	273.81
269.377	302.81
269.609	272.81
269.841	277.81
270.073	287.81
270.306	283.81
270.538	292.81
270.77	299.81
271.002	293.81
271.234	293.81
271.466	299.81
271.698	277.81
271.93	293.81
272.162	287.81
272.394	318.81
272.626	297.81
272.858	317.81
273.09	296.81
273.322	318.81
273.553	321.81
273.785	323.81
274.017	309.81
274.249	309.81
274.481	329.81
274.713	329.81
274.945	346.81
275.176	353.81
275.408	340.81
275.64	334.81
275.872	317.81
276.104	327.81
276.335	338.81
276.567	332.81
276.799	313.81
277.031	330.81
277.262	326.81
277.494	324.81
277.726	333.81
277.957	346.81
278.189	333.81
278.421	345.81
278.652	334.81
278.884	337.81
279.115	362.81
279.347	352.81
279.579	330.81
279.81	333.81
280.042	353.81
280.273	325.81
280.505	354.81
280.736	366.81
280.968	348.81
281.199	380.81
281.431	348.81
281.662	348.81
281.894	359.81
282.125	354.81
282.356	360.81
282.588	369.81
282.819	352.81
283.051	356.81
283.282	365.81
283.513	383.81
283.745	370.81
283.976	375.81
284.207	374.81
284.439	374.81
284.67	364.81
284.901	389.81
285.132	387.81
285.364	380.81
285.595	374.81
285.826	371.81
286.057	386.81
286.288	374.81
286.52	409.81
286.751	370.81
286.982	377.81
287.213	394.81
287.444	395.81
287.675	396.81
287.906	384.81
288.138	395.81
288.369	407.81
288.6	405.81
288.831	435.81
289.062	418.81
289.293	389.81
289.524	405.81
289.755	410.81
289.986	395.81
290.217	399.81
290.448	404.81
290.679	423.81
290.91	426.81
291.141	423.81
291.371	426.81
291.602	416.81
291.833	403.81
292.064	415.81
292.295	418.81
292.526	431.81
292.757	417.81
292.987	415.81
293.218	443.81
293.449	416.81
293.68	421.81
293.91	419.81
294.141	437.81
294.372	427.81
294.603	412.81
294.833	425.81
295.064	423.81
295.295	435.81
295.525	433.81
295.756	437.81
295.987	439.81
296.217	429.81
296.448	427.81
296.679	436.81
296.909	418.81
297.14	440.81
297.37	448.81
297.601	448.81
297.831	455.81
298.062	441.81
298.292	447.81
298.523	443.81
298.753	461.81
298.984	474.81
299.214	449.81
299.445	471.81
299.675	455.81
299.905	457.81
300.136	477.81
300.366	455.81
300.597	466.81
300.827	439.81
301.057	453.81
301.288	473.81
301.518	477.81
301.748	458.81
301.979	479.81
302.209	477.81
302.439	477.81
302.669	491.81
302.9	462.81
303.13	486.81
303.36	482.81
303.59	483.81
303.82	490.81
304.051	489.81
304.281	491.81
304.511	488.81
304.741	497.81
304.971	499.81
305.201	484.81
305.431	513.81
305.661	497.81
305.891	502.81
306.121	505.81
306.352	514.81
306.582	503.81
306.812	490.81
307.042	517.81
307.272	519.81
307.502	486.81
307.731	498.81
307.961	515.81
308.191	505.81
308.421	515.81
308.651	502.81
308.881	509.81
309.111	478.81
309.341	478.81
309.571	504.81
309.8	522.81
310.03	533.81
310.26	497.81
310.49	526.81
310.72	554.81
310.949	501.81
311.179	542.81
311.409	547.81
311.639	529.81
311.868	516.81
312.098	554.81
312.328	539.81
312.557	532.81
312.787	539.81
313.017	535.81
313.246	531.81
313.476	562.81
313.706	543.81
313.935	550.81
314.165	550.81
314.394	519.81
314.624	570.81
314.853	562.81
315.083	545.81
315.312	542.81
315.542	567.81
315.771	551.81
316.001	579.81
316.23	583.81
316.46	581.81
316.689	564.81
316.919	581.81
317.148	591.81
317.377	541.81
317.607	579.81
317.836	559.81
318.065	561.81
318.295	563.81
318.524	572.81
318.753	587.81
318.983	593.81
319.212	588.81
319.441	575.81
319.67	586.81
319.9	598.81
320.129	606.81
320.358	597.81
320.587	606.81
320.816	565.81
321.046	595.81
321.275	585.81
321.504	581.81
321.733	595.81
321.962	597.81
322.191	595.81
322.42	602.81
322.649	591.81
322.878	647.81
323.108	617.81
323.337	620.81
323.566	602.81
323.795	619.81
324.024	588.81
324.253	627.81
324.482	631.81
324.71	618.81
324.939	611.81
325.168	611.81
325.397	620.81
325.626	622.81
325.855	615.81
326.084	635.81
326.313	641.81
326.542	633.81
326.77	637.81
326.999	618.81
327.228	628.81
327.457	647.81
327.686	630.81
327.914	632.81
328.143	638.81
328.372	639.81
328.6	639.81
328.829	667.81
329.058	632.81
329.287	641.81
329.515	635.81
329.744	637.81
329.972	625.81
330.201	628.81
330.43	609.81
330.658	663.81
330.887	624.81
331.115	646.81
331.344	652.81
331.572	645.81
331.801	658.81
332.03	651.81
332.258	663.81
332.486	661.81
332.715	632.81
332.943	699.81
333.172	661.81
333.4	669.81
333.629	674.81
333.857	665.81
334.085	671.81
334.314	684.81
334.542	676.81
334.771	675.81
334.999	686.81
335.227	715.81
335.455	714.81
335.684	682.81
335.912	678.81
336.14	679.81
336.369	671.81
336.597	692.81
336.825	684.81
337.053	684.81
337.281	702.81
337.51	685.81
337.738	701.81
337.966	702.81
338.194	679.81
338.422	680.81
338.65	680.81
338.878	694.81
339.106	681.81
339.334	674.81
339.562	702.81
339.79	706.81
340.018	661.81
340.246	669.81
340.474	694.81
340.702	684.81
340.93	673.81
341.158	693.81
341.386	685.81
341.614	686.81
341.842	691.81
342.07	716.81
342.298	684.81
342.526	677.81
342.754	672.81
342.981	675.81
343.209	696.81
343.437	695.81
343.665	683.81
343.893	684.81
344.12	699.81
344.348	683.81
344.576	707.81
344.804	682.81
345.031	685.81
345.259	686.81
345.487	689.81
345.714	676.81
345.942	678.81
346.17	682.81
346.397	694.81
346.625	700.81
346.853	690.81
347.08	680.81
347.308	705.81
347.535	678.81
347.763	671.81
347.99	677.81
348.218	691.81
348.445	674.81
348.673	670.81
348.9	692.81
349.128	706.81
349.355	669.81
349.583	698.81
349.81	675.81
350.037	680.81
350.265	680.81
350.492	681.81
350.72	664.81
350.947	649.81
351.174	665.81
351.402	666.81
351.629	656.81
351.856	668.81
352.083	661.81
352.311	665.81
352.538	658.81
352.765	684.81
352.992	678.81
353.22	659.81
353.447	655.81
353.674	659.81
353.901	676.81
354.128	672.81
354.355	658.81
354.583	669.81
354.81	694.81
355.037	672.81
355.264	683.81
355.491	661.81
355.718	674.81
355.945	675.81
356.172	676.81
356.399	671.81
356.626	677.81
356.853	674.81
357.08	664.81
357.307	679.81
357.534	685.81
357.761	700.81
357.988	697.81
358.215	703.81
358.441	682.81
358.668	678.81
358.895	669.81
359.122	679.81
359.349	680.81
359.576	656.81
359.802	699.81
360.029	682.81
360.256	673.81
360.483	671.81
360.709	686.81
360.936	679.81
361.163	694.81
361.39	697.81
361.616	704.81
361.843	669.81
362.07	686.81
362.296	686.81
362.523	693.81
362.749	707.81
362.976	680.81
363.203	699.81
363.429	717.81
363.656	677.81
363.882	698.81
364.109	691.81
364.335	693.81
364.562	699.81
364.788	713.81
365.015	703.81
365.241	696.81
365.468	687.81
365.694	701.81
365.92	729.81
366.147	686.81
366.373	681.81
366.599	678.81
366.826	700.81
367.052	684.81
367.278	706.81
367.505	719.81
367.731	715.81
367.957	686.81
368.184	729.81
368.41	719.81
368.636	737.81
368.862	741.81
369.089	730.81
369.315	721.81
369.541	734.81
369.767	733.81
369.993	707.81
370.219	724.81
370.445	717.81
370.672	722.81
370.898	729.81
371.124	719.81
371.35	749.81
371.576	727.81
371.802	714.81
372.028	723.81
372.254	762.81
372.48	740.81
372.706	745.81
372.932	734.81
373.158	741.81
373.384	722.81
373.61	757.81
373.835	743.81
374.061	743.81
374.287	736.81
374.513	738.81
374.739	773.81
374.965	754.81
375.191	758.81
375.416	753.81
375.642	732.81
375.868	773.81
376.094	758.81
376.319	741.81
376.545	747.81
376.771	724.81
376.997	746.81
377.222	713.81
377.448	736.81
377.674	746.81
377.899	739.81
378.125	734.81
378.35	724.81
378.576	692.81
378.802	714.81
379.027	747.81
379.253	750.81
379.478	751.81
379.704	739.81
379.929	724.81
380.155	733.81
380.38	735.81
380.606	745.81
380.831	716.81
381.057	753.81
381.282	723.81
381.507	725.81
381.733	724.81
381.958	750.81
382.184	762.81
382.409	772.81
382.634	739.81
382.86	766.81
383.085	748.81
383.31	769.81
383.535	736.81
383.761	758.81
383.986	753.81
384.211	766.81
384.436	763.81
384.662	782.81
384.887	786.81
385.112	780.81
385.337	784.81
385.562	798.81
385.787	769.81
386.013	789.81
386.238	767.81
386.463	775.81
386.688	791.81
386.913	803.81
387.138	788.81
387.363	799.81
387.588	810.81
387.813	805.81
388.038	789.81
388.263	770.81
388.488	794.81
388.713	821.81
388.938	822.81
389.163	773.81
389.387	773.81
389.612	787.81
389.837	781.81
390.062	778.81
390.287	748.81
390.512	801.81
390.736	801.81
390.961	796.81
391.186	799.81
391.411	807.81
391.636	812.81
391.86	824.81
392.085	790.81
392.31	807.81
392.534	799.81
392.759	813.81
392.984	803.81
393.208	803.81
393.433	836.81
393.658	810.81
393.882	793.81
394.107	821.81
394.331	797.81
394.556	825.81
394.78	822.81
395.005	795.81
395.229	808.81
395.454	811.81
395.678	821.81
395.903	793.81
396.127	834.81
396.352	817.81
396.576	814.81
396.801	819.81
397.025	829.81
397.249	843.81
397.474	827.81
397.698	845.81
397.922	853.81
398.147	821.81
398.371	819.81
398.595	842.81
398.82	855.81
399.044	883.81
399.268	855.81
399.492	877.81
399.717	916.81
399.941	883.81
400.165	889.81
400.389	874.81
400.613	875.81
400.837	864.81
401.062	892.81
401.286	901.81
401.51	875.81
401.734	840.81
401.958	862.81
402.182	893.81
402.406	848.81
402.63	858.81
402.854	862.81
403.078	852.81
403.302	862.81
403.526	877.81
403.75	861.81
403.974	834.81
404.198	866.81
404.422	873.81
404.645	842.81
404.869	867.81
405.093	859.81
405.317	845.81
405.541	884.81
405.765	868.81
405.988	868.81
406.212	878.81
406.436	876.81
406.66	886.81
406.883	892.81
407.107	891.81
407.331	912.81
407.555	910.81
407.778	908.81
408.002	903.81
408.226	906.81
408.449	944.81
408.673	915.81
408.896	895.81
409.12	908.81
409.344	904.81
409.567	894.81
409.791	909.81
410.014	880.81
410.238	876.81
410.461	905.81
410.685	879.81
410.908	909.81
411.132	874.81
411.355	879.81
411.578	900.81
411.802	889.81
412.025	869.81
412.249	873.81
412.472	871.81
412.695	857.81
412.919	863.81
413.142	886.81
413.365	863.81
413.589	870.81
413.812	855.81
414.035	836.81
414.258	850.81
414.482	873.81
414.705	853.81
414.928	847.81
415.151	867.81
415.374	850.81
415.597	856.81
415.821	853.81
416.044	841.81
416.267	839.81
416.49	840.81
416.713	820.81
416.936	842.81
417.159	845.81
417.382	852.81
417.605	822.81
417.828	835.81
418.051	847.81
418.274	839.81
418.497	808.81
418.72	807.81
418.943	819.81
419.166	854.81
419.389	909.81
419.611	877.81
419.834	866.81
420.057	840.81
420.28	814.81
420.503	812.81
420.726	801.81
420.948	813.81
421.171	835.81
421.394	806.81
421.617	807.81
421.839	808.81
422.062	820.81
422.285	805.81
422.507	820.81
422.73	806.81
422.953	805.81
423.175	794.81
423.398	834.81
423.621	791.81
423.843	829.81
424.066	832.81
424.288	806.81
424.511	836.81
424.733	807.81
424.956	817.81
425.178	814.81
425.401	818.81
425.623	842.81
425.846	837.81
426.068	842.81
426.291	815.81
426.513	820.81
426.735	833.81
426.958	835.81
427.18	796.81
427.402	823.81
427.625	808.81
427.847	775.81
428.069	787.81
428.292	807.81
428.514	833.81
428.736	841.81
428.958	825.81
429.181	813.81
429.403	797.81
429.625	808.81
429.847	800.81
430.069	813.81
430.292	809.81
430.514	790.81
430.736	807.81
430.958	834.81
431.18	801.81
431.402	816.81
431.624	783.81
431.846	782.81
432.068	790.81
432.29	798.81
432.512	791.81
432.734	825.81
432.956	805.81
433.178	827.81
433.4	805.81
433.622	797.81
433.844	806.81
434.066	787.81
434.287	810.81
434.509	814.81
434.731	801.81
434.953	789.81
435.175	815.81
435.397	807.81
435.618	811.81
435.84	822.81
436.062	805.81
436.284	811.81
436.505	793.81
436.727	814.81
436.949	799.81
437.17	800.81
437.392	803.81
437.614	783.81
437.835	810.81
438.057	795.81
438.278	781.81
438.5	758.81
438.721	795.81
438.943	793.81
439.165	780.81
439.386	753.81
439.608	796.81
439.829	791.81
440.05	790.81
440.272	814.81
440.493	783.81
440.715	777.81
440.936	787.81
441.158	789.81
441.379	779.81
441.6	803.81
441.822	797.81
442.043	821.81
442.264	798.81
442.486	796.81
442.707	801.81
442.928	815.81
443.149	830.81
443.371	809.81
443.592	819.81
443.813	781.81
444.034	780.81
444.255	804.81
444.476	778.81
444.698	783.81
444.919	810.81
445.14	921.81
445.361	833.81
445.582	810.81
445.803	788.81
446.024	791.81
446.245	802.81
446.466	784.81
446.687	770.81
446.908	789.81
447.129	777.81
447.35	770.81
447.571	780.81
447.792	756.81
448.013	760.81
448.234	772.81
448.455	756.81
448.675	761.81
448.896	753.81
449.117	749.81
449.338	743.81
449.559	729.81
449.779	748.81
450	725.81
450.221	755.81
450.442	753.81
450.662	734.81
450.883	719.81
451.104	730.81
451.324	745.81
451.545	745.81
451.766	733.81
451.986	729.81
452.207	699.81
452.428	734.81
452.648	718.81
452.869	719.81
453.089	747.81
453.31	726.81
453.53	731.81
453.751	734.81
453.971	727.81
454.192	719.81
454.412	717.81
454.633	733.81
454.853	713.81
455.073	717.81
455.294	742.81
455.514	730.81
455.734	728.81
455.955	730.81
456.175	742.81
456.395	751.81
456.616	742.81
456.836	736.81
457.056	729.81
457.276	716.81
457.497	716.81
457.717	692.81
457.937	723.81
458.157	756.81
458.377	709.81
458.598	761.81
458.818	715.81
459.038	750.81
459.258	758.81
459.478	761.81
459.698	760.81
459.918	756.81
460.138	766.81
460.358	778.81
460.578	758.81
460.798	813.81
461.018	826.81
461.238	782.81
461.458	799.81
461.678	786.81
461.898	799.81
462.118	804.81
462.338	830.81
462.558	784.81
462.777	805.81
462.997	822.81
463.217	841.81
463.437	853.81
463.657	819.81
463.876	825.81
464.096	834.81
464.316	820.81
464.536	797.81
464.755	826.81
464.975	780.81
465.195	815.81
465.414	810.81
465.634	799.81
465.854	787.81
466.073	791.81
466.293	776.81
466.512	777.81
466.732	776.81
466.951	778.81
467.171	809.81
467.391	796.81
467.61	783.81
467.829	765.81
468.049	764.81
468.268	759.81
468.488	769.81
468.707	760.81
468.927	787.81
469.146	787.81
469.365	780.81
469.585	739.81
469.804	783.81
470.023	802.81
470.243	763.81
470.462	767.81
470.681	788.81
470.901	768.81
471.12	816.81
471.339	761.81
471.558	800.81
471.777	784.81
471.997	808.81
472.216	812.81
472.435	814.81
472.654	809.81
472.873	818.81
473.092	813.81
473.311	783.81
473.53	805.81
473.749	821.81
473.968	834.81
474.187	830.81
474.406	822.81
474.625	827.81
474.844	833.81
475.063	836.81
475.282	838.81
475.501	853.81
475.72	860.81
475.939	870.81
476.158	881.81
476.377	854.81
476.596	874.81
476.814	875.81
477.033	889.81
477.252	867.81
477.471	916.81
477.69	867.81
477.908	918.81
478.127	899.81
478.346	895.81
478.564	895.81
478.783	909.81
479.002	916.81
479.22	917.81
479.439	922.81
479.658	967.81
479.876	938.81
480.095	912.81
480.313	952.81
480.532	955.81
480.751	966.81
480.969	948.81
481.188	964.81
481.406	968.81
481.624	989.81
481.843	945.81
482.061	981.81
482.28	963.81
482.498	978.81
482.717	956.81
482.935	1007.81
483.153	993.81
483.372	971.81
483.59	975.81
483.808	981.81
484.027	976.81
484.245	997.81
484.463	974.81
484.681	1013.81
484.9	1013.81
485.118	987.81
485.336	1018.81
485.554	982.81
485.772	983.81
485.99	997.81
486.209	994.81
486.427	1029.81
486.645	984.81
486.863	994.81
487.081	990.81
487.299	1014.81
487.517	1016.81
487.735	1023.81
487.953	1011.81
488.171	1053.81
488.389	1023.81
488.607	1009.81
488.825	1042.81
489.043	1026.81
489.261	1013.81
489.479	1022.81
489.696	994.81
489.914	1038.81
490.132	1014.81
490.35	1035.81
490.568	1050.81
490.786	1034.81
491.003	1014.81
491.221	999.81
491.439	1017.81
491.657	1031.81
491.874	1014.81
492.092	1075.81
492.31	1086.81
492.527	1059.81
492.745	1038.81
492.963	1059.81
493.18	1014.81
493.398	1040.81
493.615	1061.81
493.833	1028.81
494.05	1044.81
494.268	1020.81
494.485	1039.81
494.703	1048.81
494.92	1042.81
495.138	1060.81
495.355	1057.81
495.573	1074.81
495.79	1096.81
496.008	1082.81
496.225	1068.81
496.442	1076.81
496.66	1069.81
496.877	1101.81
497.094	1090.81
497.312	1095.81
497.529	1089.81
497.746	1097.81
497.963	1097.81
498.181	1121.81
498.398	1117.81
498.615	1141.81
498.832	1131.81
499.049	1144.81
499.267	1149.81
499.484	1178.81
499.701	1212.81
499.918	1201.81
500.135	1221.81
500.352	1221.81
500.569	1219.81
