Data from Fe(NO3)3@0.05M.TitratingCurve.Agarose3%dH2O.NegLispCup.LampEnergy10.LIBS07252019_HRD10591_16-48-43-334.txt Node
Date: Thu Jul 25 16:48:43 EDT 2019
User: cochatt
Spectrometer: HR+D1059
Trigger mode: 1
Integration Time (sec): 1.000000E-1
Scans to average: 1
Electric dark correction enabled: true
Nonlinearity correction enabled: false
Boxcar width: 0
XAxis mode: Wavelengths
Number of Pixels in Spectrum: 2048
>>>>>Begin Spectral Data<<<<<
223.165	-30.62
223.4	-30.62
223.635	-30.62
223.869	-10.62
224.104	-16.62
224.338	-7.62
224.573	-22.62
224.808	-8.62
225.042	-6.62
225.277	9.38
225.511	-10.62
225.746	2.38
225.98	1.38
226.215	2.38
226.449	4.38
226.683	26.38
226.918	29.38
227.152	38.38
227.387	29.38
227.621	32.38
227.856	39.38
228.09	47.38
228.324	40.38
228.559	40.38
228.793	37.38
229.027	65.38
229.262	64.38
229.496	87.38
229.73	73.38
229.964	75.38
230.199	57.38
230.433	70.38
230.667	74.38
230.901	82.38
231.136	84.38
231.37	87.38
231.604	88.38
231.838	85.38
232.072	88.38
232.306	91.38
232.541	90.38
232.775	85.38
233.009	93.38
233.243	82.38
233.477	87.38
233.711	88.38
233.945	90.38
234.179	83.38
234.413	87.38
234.647	79.38
234.881	81.38
235.115	81.38
235.349	83.38
235.583	87.38
235.817	98.38
236.051	75.38
236.285	74.38
236.519	87.38
236.753	92.38
236.987	94.38
237.221	91.38
237.455	98.38
237.689	96.38
237.922	89.38
238.156	80.38
238.39	81.38
238.624	86.38
238.858	83.38
239.091	80.38
239.325	79.38
239.559	89.38
239.793	75.38
240.027	83.38
240.26	93.38
240.494	86.38
240.728	75.38
240.961	84.38
241.195	81.38
241.429	82.38
241.662	86.38
241.896	86.38
242.13	86.38
242.363	86.38
242.597	91.38
242.83	91.38
243.064	81.38
243.298	101.38
243.531	79.38
243.765	94.38
243.998	93.38
244.232	86.38
244.465	86.38
244.699	87.38
244.932	93.38
245.166	89.38
245.399	99.38
245.633	97.38
245.866	85.38
246.099	97.38
246.333	104.38
246.566	97.38
246.8	101.38
247.033	101.38
247.266	94.38
247.5	91.38
247.733	83.38
247.966	103.38
248.2	86.38
248.433	95.38
248.666	91.38
248.899	106.38
249.133	97.38
249.366	97.38
249.599	103.38
249.832	106.38
250.066	80.38
250.299	110.38
250.532	99.38
250.765	93.38
250.998	90.38
251.231	109.38
251.465	69.38
251.698	96.38
251.931	105.38
252.164	93.38
252.397	89.38
252.63	96.38
252.863	105.38
253.096	104.38
253.329	102.38
253.562	88.38
253.795	97.38
254.028	95.38
254.261	109.38
254.494	113.38
254.727	113.38
254.96	99.38
255.193	97.38
255.426	78.38
255.659	95.38
255.892	103.38
256.124	115.38
256.357	109.38
256.59	95.38
256.823	97.38
257.056	94.38
257.289	84.38
257.521	101.38
257.754	106.38
257.987	89.38
258.22	117.38
258.452	100.38
258.685	102.38
258.918	111.38
259.151	105.38
259.383	107.38
259.616	118.38
259.849	103.38
260.081	101.38
260.314	117.38
260.547	109.38
260.779	93.38
261.012	94.38
261.244	107.38
261.477	125.38
261.71	121.38
261.942	111.38
262.175	125.38
262.407	105.38
262.64	116.38
262.872	104.38
263.105	112.38
263.337	113.38
263.57	112.38
263.802	118.38
264.035	109.38
264.267	122.38
264.499	126.38
264.732	118.38
264.964	113.38
265.197	115.38
265.429	121.38
265.661	103.38
265.894	110.38
266.126	103.38
266.358	117.38
266.591	128.38
266.823	110.38
267.055	115.38
267.287	119.38
267.52	107.38
267.752	106.38
267.984	117.38
268.216	117.38
268.448	115.38
268.681	117.38
268.913	115.38
269.145	103.38
269.377	116.38
269.609	98.38
269.841	117.38
270.073	101.38
270.306	108.38
270.538	123.38
270.77	118.38
271.002	106.38
271.234	99.38
271.466	115.38
271.698	107.38
271.93	105.38
272.162	107.38
272.394	112.38
272.626	120.38
272.858	106.38
273.09	125.38
273.322	98.38
273.553	111.38
273.785	127.38
274.017	123.38
274.249	115.38
274.481	104.38
274.713	131.38
274.945	124.38
275.176	106.38
275.408	122.38
275.64	126.38
275.872	134.38
276.104	124.38
276.335	114.38
276.567	112.38
276.799	126.38
277.031	114.38
277.262	125.38
277.494	123.38
277.726	109.38
277.957	130.38
278.189	115.38
278.421	137.38
278.652	128.38
278.884	107.38
279.115	123.38
279.347	125.38
279.579	108.38
279.81	117.38
280.042	116.38
280.273	131.38
280.505	125.38
280.736	131.38
280.968	126.38
281.199	129.38
281.431	131.38
281.662	123.38
281.894	133.38
282.125	125.38
282.356	125.38
282.588	118.38
282.819	126.38
283.051	127.38
283.282	130.38
283.513	138.38
283.745	143.38
283.976	138.38
284.207	129.38
284.439	140.38
284.67	129.38
284.901	134.38
285.132	132.38
285.364	120.38
285.595	137.38
285.826	146.38
286.057	137.38
286.288	133.38
286.52	139.38
286.751	121.38
286.982	134.38
287.213	129.38
287.444	129.38
287.675	140.38
287.906	127.38
288.138	143.38
288.369	131.38
288.6	130.38
288.831	129.38
289.062	125.38
289.293	126.38
289.524	133.38
289.755	119.38
289.986	136.38
290.217	143.38
290.448	129.38
290.679	135.38
290.91	118.38
291.141	139.38
291.371	141.38
291.602	135.38
291.833	122.38
292.064	142.38
292.295	133.38
292.526	143.38
292.757	134.38
292.987	133.38
293.218	146.38
293.449	127.38
293.68	128.38
293.91	129.38
294.141	120.38
294.372	123.38
294.603	142.38
294.833	148.38
295.064	129.38
295.295	137.38
295.525	138.38
295.756	132.38
295.987	139.38
296.217	151.38
296.448	138.38
296.679	152.38
296.909	143.38
297.14	129.38
297.37	124.38
297.601	116.38
297.831	118.38
298.062	142.38
298.292	142.38
298.523	146.38
298.753	134.38
298.984	135.38
299.214	136.38
299.445	133.38
299.675	150.38
299.905	128.38
300.136	133.38
300.366	145.38
300.597	149.38
300.827	156.38
301.057	145.38
301.288	147.38
301.518	148.38
301.748	141.38
301.979	150.38
302.209	149.38
302.439	145.38
302.669	135.38
302.9	143.38
303.13	130.38
303.36	121.38
303.59	133.38
303.82	157.38
304.051	125.38
304.281	145.38
304.511	132.38
304.741	155.38
304.971	141.38
305.201	148.38
305.431	147.38
305.661	133.38
305.891	149.38
306.121	147.38
306.352	163.38
306.582	146.38
306.812	143.38
307.042	136.38
307.272	145.38
307.502	143.38
307.731	129.38
307.961	146.38
308.191	151.38
308.421	139.38
308.651	137.38
308.881	136.38
309.111	137.38
309.341	148.38
309.571	144.38
309.8	151.38
310.03	141.38
310.26	130.38
310.49	150.38
310.72	137.38
310.949	140.38
311.179	140.38
311.409	124.38
311.639	140.38
311.868	142.38
312.098	138.38
312.328	139.38
312.557	153.38
312.787	157.38
313.017	143.38
313.246	152.38
313.476	158.38
313.706	143.38
313.935	142.38
314.165	145.38
314.394	134.38
314.624	154.38
314.853	155.38
315.083	149.38
315.312	156.38
315.542	140.38
315.771	151.38
316.001	144.38
316.23	149.38
316.46	145.38
316.689	129.38
316.919	139.38
317.148	157.38
317.377	149.38
317.607	144.38
317.836	130.38
318.065	137.38
318.295	156.38
318.524	142.38
318.753	154.38
318.983	175.38
319.212	150.38
319.441	163.38
319.67	153.38
319.9	161.38
320.129	145.38
320.358	135.38
320.587	162.38
320.816	140.38
321.046	147.38
321.275	141.38
321.504	144.38
321.733	149.38
321.962	151.38
322.191	163.38
322.42	149.38
322.649	144.38
322.878	162.38
323.108	163.38
323.337	173.38
323.566	149.38
323.795	139.38
324.024	156.38
324.253	140.38
324.482	145.38
324.71	145.38
324.939	163.38
325.168	163.38
325.397	160.38
325.626	156.38
325.855	151.38
326.084	150.38
326.313	157.38
326.542	144.38
326.77	154.38
326.999	166.38
327.228	173.38
327.457	155.38
327.686	146.38
327.914	149.38
328.143	158.38
328.372	154.38
328.6	167.38
328.829	163.38
329.058	154.38
329.287	147.38
329.515	150.38
329.744	171.38
329.972	154.38
330.201	162.38
330.43	139.38
330.658	168.38
330.887	153.38
331.115	167.38
331.344	159.38
331.572	161.38
331.801	162.38
332.03	168.38
332.258	155.38
332.486	181.38
332.715	193.38
332.943	169.38
333.172	184.38
333.4	187.38
333.629	188.38
333.857	171.38
334.085	189.38
334.314	178.38
334.542	161.38
334.771	189.38
334.999	180.38
335.227	180.38
335.455	173.38
335.684	195.38
335.912	183.38
336.14	168.38
336.369	182.38
336.597	191.38
336.825	175.38
337.053	174.38
337.281	181.38
337.51	165.38
337.738	173.38
337.966	163.38
338.194	157.38
338.422	154.38
338.65	170.38
338.878	173.38
339.106	167.38
339.334	160.38
339.562	176.38
339.79	154.38
340.018	152.38
340.246	159.38
340.474	157.38
340.702	175.38
340.93	165.38
341.158	157.38
341.386	166.38
341.614	152.38
341.842	150.38
342.07	157.38
342.298	161.38
342.526	152.38
342.754	168.38
342.981	180.38
343.209	165.38
343.437	167.38
343.665	168.38
343.893	169.38
344.12	177.38
344.348	161.38
344.576	176.38
344.804	164.38
345.031	173.38
345.259	166.38
345.487	159.38
345.714	175.38
345.942	167.38
346.17	155.38
346.397	160.38
346.625	153.38
346.853	147.38
347.08	161.38
347.308	158.38
347.535	165.38
347.763	163.38
347.99	163.38
348.218	167.38
348.445	163.38
348.673	151.38
348.9	168.38
349.128	156.38
349.355	163.38
349.583	153.38
349.81	161.38
350.037	145.38
350.265	158.38
350.492	155.38
350.72	162.38
350.947	159.38
351.174	158.38
351.402	169.38
351.629	161.38
351.856	152.38
352.083	148.38
352.311	139.38
352.538	161.38
352.765	157.38
352.992	153.38
353.22	156.38
353.447	145.38
353.674	153.38
353.901	150.38
354.128	153.38
354.355	153.38
354.583	169.38
354.81	167.38
355.037	166.38
355.264	158.38
355.491	154.38
355.718	158.38
355.945	152.38
356.172	140.38
356.399	175.38
356.626	154.38
356.853	149.38
357.08	166.38
357.307	175.38
357.534	171.38
357.761	153.38
357.988	157.38
358.215	143.38
358.441	160.38
358.668	151.38
358.895	147.38
359.122	165.38
359.349	158.38
359.576	147.38
359.802	171.38
360.029	155.38
360.256	160.38
360.483	146.38
360.709	148.38
360.936	162.38
361.163	153.38
361.39	161.38
361.616	163.38
361.843	161.38
362.07	170.38
362.296	164.38
362.523	162.38
362.749	161.38
362.976	162.38
363.203	156.38
363.429	162.38
363.656	163.38
363.882	160.38
364.109	152.38
364.335	153.38
364.562	164.38
364.788	160.38
365.015	151.38
365.241	161.38
365.468	155.38
365.694	143.38
365.92	155.38
366.147	162.38
366.373	148.38
366.599	154.38
366.826	156.38
367.052	157.38
367.278	154.38
367.505	145.38
367.731	150.38
367.957	157.38
368.184	160.38
368.41	174.38
368.636	162.38
368.862	177.38
369.089	165.38
369.315	162.38
369.541	162.38
369.767	147.38
369.993	158.38
370.219	159.38
370.445	170.38
370.672	165.38
370.898	176.38
371.124	169.38
371.35	159.38
371.576	173.38
371.802	191.38
372.028	180.38
372.254	170.38
372.48	170.38
372.706	160.38
372.932	178.38
373.158	167.38
373.384	164.38
373.61	185.38
373.835	171.38
374.061	169.38
374.287	179.38
374.513	183.38
374.739	170.38
374.965	170.38
375.191	203.38
375.416	179.38
375.642	186.38
375.868	184.38
376.094	195.38
376.319	174.38
376.545	173.38
376.771	175.38
376.997	186.38
377.222	185.38
377.448	180.38
377.674	189.38
377.899	182.38
378.125	162.38
378.35	159.38
378.576	181.38
378.802	183.38
379.027	165.38
379.253	182.38
379.478	177.38
379.704	165.38
379.929	166.38
380.155	168.38
380.38	191.38
380.606	185.38
380.831	189.38
381.057	208.38
381.282	170.38
381.507	173.38
381.733	192.38
381.958	195.38
382.184	185.38
382.409	204.38
382.634	173.38
382.86	175.38
383.085	198.38
383.31	197.38
383.535	180.38
383.761	200.38
383.986	207.38
384.211	201.38
384.436	197.38
384.662	194.38
384.887	211.38
385.112	206.38
385.337	203.38
385.562	193.38
385.787	203.38
386.013	210.38
386.238	200.38
386.463	208.38
386.688	206.38
386.913	203.38
387.138	210.38
387.363	204.38
387.588	204.38
387.813	214.38
388.038	192.38
388.263	207.38
388.488	197.38
388.713	215.38
388.938	207.38
389.163	182.38
389.387	197.38
389.612	193.38
389.837	195.38
390.062	207.38
390.287	225.38
390.512	208.38
390.736	207.38
390.961	212.38
391.186	219.38
391.411	229.38
391.636	197.38
391.86	220.38
392.085	221.38
392.31	224.38
392.534	201.38
392.759	217.38
392.984	210.38
393.208	203.38
393.433	206.38
393.658	206.38
393.882	214.38
394.107	230.38
394.331	210.38
394.556	220.38
394.78	222.38
395.005	205.38
395.229	217.38
395.454	230.38
395.678	254.38
395.903	233.38
396.127	221.38
396.352	236.38
396.576	222.38
396.801	223.38
397.025	243.38
397.249	226.38
397.474	218.38
397.698	226.38
397.922	230.38
398.147	231.38
398.371	243.38
398.595	245.38
398.82	245.38
399.044	243.38
399.268	286.38
399.492	306.38
399.717	319.38
399.941	290.38
400.165	294.38
400.389	274.38
400.613	268.38
400.837	266.38
401.062	260.38
401.286	237.38
401.51	239.38
401.734	245.38
401.958	257.38
402.182	269.38
402.406	232.38
402.63	264.38
402.854	277.38
403.078	277.38
403.302	266.38
403.526	298.38
403.75	274.38
403.974	265.38
404.198	278.38
404.422	287.38
404.645	284.38
404.869	277.38
405.093	281.38
405.317	265.38
405.541	281.38
405.765	285.38
405.988	279.38
406.212	276.38
406.436	257.38
406.66	280.38
406.883	286.38
407.107	287.38
407.331	291.38
407.555	302.38
407.778	301.38
408.002	291.38
408.226	292.38
408.449	281.38
408.673	266.38
408.896	287.38
409.12	277.38
409.344	279.38
409.567	283.38
409.791	282.38
410.014	278.38
410.238	286.38
410.461	268.38
410.685	286.38
410.908	291.38
411.132	272.38
411.355	263.38
411.578	280.38
411.802	251.38
412.025	279.38
412.249	289.38
412.472	284.38
412.695	267.38
412.919	273.38
413.142	266.38
413.365	257.38
413.589	258.38
413.812	266.38
414.035	257.38
414.258	260.38
414.482	263.38
414.705	277.38
414.928	258.38
415.151	270.38
415.374	257.38
415.597	259.38
415.821	248.38
416.044	251.38
416.267	258.38
416.49	269.38
416.713	263.38
416.936	263.38
417.159	259.38
417.382	280.38
417.605	267.38
417.828	254.38
418.051	256.38
418.274	276.38
418.497	266.38
418.72	275.38
418.943	285.38
419.166	283.38
419.389	318.38
419.611	299.38
419.834	271.38
420.057	293.38
420.28	284.38
420.503	293.38
420.726	285.38
420.948	279.38
421.171	267.38
421.394	265.38
421.617	261.38
421.839	277.38
422.062	266.38
422.285	273.38
422.507	270.38
422.73	273.38
422.953	270.38
423.175	260.38
423.398	289.38
423.621	285.38
423.843	283.38
424.066	283.38
424.288	286.38
424.511	288.38
424.733	291.38
424.956	273.38
425.178	272.38
425.401	264.38
425.623	268.38
425.846	277.38
426.068	268.38
426.291	267.38
426.513	255.38
426.735	253.38
426.958	263.38
427.18	273.38
427.402	282.38
427.625	265.38
427.847	243.38
428.069	253.38
428.292	245.38
428.514	235.38
428.736	261.38
428.958	245.38
429.181	261.38
429.403	250.38
429.625	245.38
429.847	254.38
430.069	268.38
430.292	254.38
430.514	263.38
430.736	254.38
430.958	260.38
431.18	261.38
431.402	251.38
431.624	257.38
431.846	263.38
432.068	257.38
432.29	250.38
432.512	238.38
432.734	256.38
432.956	253.38
433.178	249.38
433.4	248.38
433.622	273.38
433.844	265.38
434.066	261.38
434.287	259.38
434.509	278.38
434.731	283.38
434.953	274.38
435.175	269.38
435.397	290.38
435.618	255.38
435.84	271.38
436.062	258.38
436.284	274.38
436.505	277.38
436.727	270.38
436.949	262.38
437.17	268.38
437.392	258.38
437.614	255.38
437.835	235.38
438.057	272.38
438.278	229.38
438.5	245.38
438.721	264.38
438.943	280.38
439.165	255.38
439.386	260.38
439.608	265.38
439.829	269.38
440.05	293.38
440.272	271.38
440.493	269.38
440.715	280.38
440.936	271.38
441.158	283.38
441.379	289.38
441.6	295.38
441.822	284.38
442.043	269.38
442.264	311.38
442.486	268.38
442.707	291.38
442.928	300.38
443.149	275.38
443.371	295.38
443.592	293.38
443.813	288.38
444.034	283.38
444.255	289.38
444.476	301.38
444.698	301.38
444.919	314.38
445.14	440.38
445.361	355.38
445.582	317.38
445.803	275.38
446.024	278.38
446.245	298.38
446.466	279.38
446.687	258.38
446.908	279.38
447.129	275.38
447.35	282.38
447.571	268.38
447.792	271.38
448.013	275.38
448.234	255.38
448.455	250.38
448.675	262.38
448.896	253.38
449.117	253.38
449.338	276.38
449.559	251.38
449.779	257.38
450	253.38
450.221	255.38
450.442	267.38
450.662	235.38
450.883	249.38
451.104	270.38
451.324	269.38
451.545	273.38
451.766	281.38
451.986	270.38
452.207	267.38
452.428	250.38
452.648	261.38
452.869	247.38
453.089	242.38
453.31	244.38
453.53	248.38
453.751	237.38
453.971	239.38
454.192	238.38
454.412	239.38
454.633	244.38
454.853	244.38
455.073	247.38
455.294	253.38
455.514	237.38
455.734	251.38
455.955	242.38
456.175	247.38
456.395	232.38
456.616	238.38
456.836	243.38
457.056	264.38
457.276	230.38
457.497	234.38
457.717	218.38
457.937	229.38
458.157	261.38
458.377	237.38
458.598	246.38
458.818	253.38
459.038	255.38
459.258	260.38
459.478	257.38
459.698	261.38
459.918	263.38
460.138	283.38
460.358	286.38
460.578	307.38
460.798	301.38
461.018	283.38
461.238	295.38
461.458	301.38
461.678	279.38
461.898	305.38
462.118	310.38
462.338	315.38
462.558	307.38
462.777	316.38
462.997	340.38
463.217	341.38
463.437	369.38
463.657	342.38
463.876	345.38
464.096	335.38
464.316	316.38
464.536	335.38
464.755	311.38
464.975	319.38
465.195	320.38
465.414	280.38
465.634	277.38
465.854	279.38
466.073	286.38
466.293	287.38
466.512	255.38
466.732	263.38
466.951	266.38
467.171	273.38
467.391	255.38
467.61	270.38
467.829	298.38
468.049	273.38
468.268	268.38
468.488	261.38
468.707	272.38
468.927	284.38
469.146	263.38
469.365	265.38
469.585	258.38
469.804	257.38
470.023	263.38
470.243	256.38
470.462	278.38
470.681	277.38
470.901	272.38
471.12	271.38
471.339	281.38
471.558	281.38
471.777	261.38
471.997	259.38
472.216	266.38
472.435	260.38
472.654	245.38
472.873	246.38
473.092	246.38
473.311	248.38
473.53	262.38
473.749	253.38
473.968	244.38
474.187	250.38
474.406	245.38
474.625	262.38
474.844	251.38
475.063	257.38
475.282	249.38
475.501	270.38
475.72	263.38
475.939	267.38
476.158	252.38
476.377	265.38
476.596	271.38
476.814	277.38
477.033	271.38
477.252	258.38
477.471	260.38
477.69	268.38
477.908	278.38
478.127	295.38
478.346	296.38
478.564	275.38
478.783	288.38
479.002	311.38
479.22	285.38
479.439	295.38
479.658	303.38
479.876	282.38
480.095	282.38
480.313	290.38
480.532	305.38
480.751	305.38
480.969	289.38
481.188	298.38
481.406	273.38
481.624	268.38
481.843	255.38
482.061	265.38
482.28	266.38
482.498	276.38
482.717	279.38
482.935	277.38
483.153	278.38
483.372	279.38
483.59	292.38
483.808	285.38
484.027	277.38
484.245	289.38
484.463	288.38
484.681	278.38
484.9	289.38
485.118	285.38
485.336	286.38
485.554	291.38
485.772	274.38
485.99	284.38
486.209	291.38
486.427	289.38
486.645	282.38
486.863	277.38
487.081	297.38
487.299	296.38
487.517	294.38
487.735	297.38
487.953	292.38
488.171	302.38
488.389	296.38
488.607	289.38
488.825	295.38
489.043	290.38
489.261	293.38
489.479	290.38
489.696	271.38
489.914	306.38
490.132	298.38
490.35	276.38
490.568	278.38
490.786	299.38
491.003	310.38
491.221	281.38
491.439	320.38
491.657	316.38
491.874	302.38
492.092	301.38
492.31	319.38
492.527	305.38
492.745	318.38
492.963	282.38
493.18	298.38
493.398	309.38
493.615	289.38
493.833	312.38
494.05	312.38
494.268	313.38
494.485	315.38
494.703	309.38
494.92	314.38
495.138	305.38
495.355	295.38
495.573	311.38
495.79	322.38
496.008	338.38
496.225	312.38
496.442	326.38
496.66	335.38
496.877	337.38
497.094	337.38
497.312	346.38
497.529	313.38
497.746	324.38
497.963	353.38
498.181	345.38
498.398	369.38
498.615	368.38
498.832	366.38
499.049	417.38
499.267	432.38
499.484	456.38
499.701	501.38
499.918	532.38
500.135	559.38
500.352	610.38
500.569	650.38
500.786	616.38
501.003	598.38
501.22	537.38
501.437	523.38
501.654	458.38
501.871	439.38
502.088	409.38
502.305	399.38
502.522	390.38
502.739	410.38
502.956	349.38
503.172	365.38
