Data from Fe(NO3)3@0.05M.TitratingCurve.Agarose3%dH2O.NegLispCup.LampEnergy10.LIBS07252019_HRD10591_16-47-17-334.txt Node
Date: Thu Jul 25 16:47:17 EDT 2019
User: cochatt
Spectrometer: HR+D1059
Trigger mode: 1
Integration Time (sec): 1.000000E-1
Scans to average: 1
Electric dark correction enabled: true
Nonlinearity correction enabled: false
Boxcar width: 0
XAxis mode: Wavelengths
Number of Pixels in Spectrum: 2048
>>>>>Begin Spectral Data<<<<<
223.165	-14.69
223.4	-14.69
223.635	-14.69
223.869	-6.69
224.104	-21.69
224.338	-0.69
224.573	-25.69
224.808	-13.69
225.042	2.31
225.277	4.31
225.511	8.31
225.746	-2.69
225.98	-2.69
226.215	6.31
226.449	4.31
226.683	10.31
226.918	34.31
227.152	18.31
227.387	27.31
227.621	38.31
227.856	38.31
228.09	50.31
228.324	55.31
228.559	60.31
228.793	70.31
229.027	96.31
229.262	105.31
229.496	116.31
229.73	125.31
229.964	115.31
230.199	136.31
230.433	121.31
230.667	124.31
230.901	126.31
231.136	120.31
231.37	122.31
231.604	129.31
231.838	140.31
232.072	131.31
232.306	135.31
232.541	140.31
232.775	139.31
233.009	150.31
233.243	146.31
233.477	140.31
233.711	155.31
233.945	141.31
234.179	137.31
234.413	165.31
234.647	160.31
234.881	148.31
235.115	157.31
235.349	162.31
235.583	154.31
235.817	160.31
236.051	151.31
236.285	137.31
236.519	161.31
236.753	156.31
236.987	170.31
237.221	166.31
237.455	163.31
237.689	169.31
237.922	165.31
238.156	159.31
238.39	171.31
238.624	173.31
238.858	174.31
239.091	171.31
239.325	166.31
239.559	169.31
239.793	168.31
240.027	204.31
240.26	182.31
240.494	195.31
240.728	182.31
240.961	196.31
241.195	197.31
241.429	201.31
241.662	191.31
241.896	187.31
242.13	180.31
242.363	175.31
242.597	187.31
242.83	190.31
243.064	204.31
243.298	199.31
243.531	188.31
243.765	200.31
243.998	201.31
244.232	204.31
244.465	201.31
244.699	188.31
244.932	195.31
245.166	193.31
245.399	193.31
245.633	211.31
245.866	202.31
246.099	213.31
246.333	197.31
246.566	213.31
246.8	240.31
247.033	219.31
247.266	215.31
247.5	194.31
247.733	208.31
247.966	239.31
248.2	220.31
248.433	224.31
248.666	217.31
248.899	207.31
249.133	232.31
249.366	257.31
249.599	233.31
249.832	241.31
250.066	232.31
250.299	228.31
250.532	239.31
250.765	228.31
250.998	251.31
251.231	255.31
251.465	243.31
251.698	238.31
251.931	251.31
252.164	263.31
252.397	242.31
252.63	267.31
252.863	270.31
253.096	273.31
253.329	279.31
253.562	252.31
253.795	264.31
254.028	273.31
254.261	288.31
254.494	266.31
254.727	289.31
254.96	269.31
255.193	281.31
255.426	276.31
255.659	282.31
255.892	268.31
256.124	256.31
256.357	268.31
256.59	281.31
256.823	273.31
257.056	259.31
257.289	259.31
257.521	291.31
257.754	268.31
257.987	295.31
258.22	284.31
258.452	281.31
258.685	285.31
258.918	274.31
259.151	303.31
259.383	287.31
259.616	309.31
259.849	330.31
260.081	350.31
260.314	367.31
260.547	338.31
260.779	312.31
261.012	326.31
261.244	329.31
261.477	333.31
261.71	332.31
261.942	328.31
262.175	323.31
262.407	316.31
262.64	326.31
262.872	337.31
263.105	349.31
263.337	340.31
263.57	353.31
263.802	312.31
264.035	331.31
264.267	323.31
264.499	317.31
264.732	303.31
264.964	317.31
265.197	315.31
265.429	309.31
265.661	334.31
265.894	320.31
266.126	327.31
266.358	318.31
266.591	338.31
266.823	336.31
267.055	319.31
267.287	337.31
267.52	342.31
267.752	329.31
267.984	329.31
268.216	328.31
268.448	338.31
268.681	340.31
268.913	365.31
269.145	335.31
269.377	337.31
269.609	350.31
269.841	349.31
270.073	356.31
270.306	340.31
270.538	341.31
270.77	333.31
271.002	348.31
271.234	352.31
271.466	361.31
271.698	367.31
271.93	361.31
272.162	375.31
272.394	360.31
272.626	382.31
272.858	387.31
273.09	392.31
273.322	372.31
273.553	399.31
273.785	386.31
274.017	423.31
274.249	437.31
274.481	431.31
274.713	462.31
274.945	485.31
275.176	466.31
275.408	448.31
275.64	450.31
275.872	458.31
276.104	425.31
276.335	404.31
276.567	411.31
276.799	416.31
277.031	433.31
277.262	411.31
277.494	413.31
277.726	397.31
277.957	407.31
278.189	405.31
278.421	412.31
278.652	413.31
278.884	422.31
279.115	392.31
279.347	423.31
279.579	420.31
279.81	398.31
280.042	408.31
280.273	408.31
280.505	421.31
280.736	409.31
280.968	416.31
281.199	420.31
281.431	435.31
281.662	424.31
281.894	438.31
282.125	443.31
282.356	439.31
282.588	440.31
282.819	409.31
283.051	454.31
283.282	429.31
283.513	435.31
283.745	438.31
283.976	463.31
284.207	441.31
284.439	435.31
284.67	429.31
284.901	462.31
285.132	439.31
285.364	428.31
285.595	440.31
285.826	455.31
286.057	462.31
286.288	455.31
286.52	445.31
286.751	466.31
286.982	454.31
287.213	472.31
287.444	455.31
287.675	460.31
287.906	460.31
288.138	466.31
288.369	455.31
288.6	469.31
288.831	461.31
289.062	471.31
289.293	478.31
289.524	449.31
289.755	457.31
289.986	488.31
290.217	459.31
290.448	485.31
290.679	467.31
290.91	461.31
291.141	467.31
291.371	463.31
291.602	482.31
291.833	480.31
292.064	480.31
292.295	466.31
292.526	475.31
292.757	482.31
292.987	459.31
293.218	477.31
293.449	489.31
293.68	481.31
293.91	473.31
294.141	482.31
294.372	501.31
294.603	485.31
294.833	473.31
295.064	481.31
295.295	493.31
295.525	482.31
295.756	480.31
295.987	495.31
296.217	486.31
296.448	492.31
296.679	498.31
296.909	511.31
297.14	491.31
297.37	513.31
297.601	521.31
297.831	495.31
298.062	535.31
298.292	539.31
298.523	510.31
298.753	529.31
298.984	513.31
299.214	519.31
299.445	516.31
299.675	529.31
299.905	525.31
300.136	503.31
300.366	522.31
300.597	527.31
300.827	531.31
301.057	551.31
301.288	545.31
301.518	541.31
301.748	543.31
301.979	535.31
302.209	567.31
302.439	552.31
302.669	543.31
302.9	570.31
303.13	541.31
303.36	552.31
303.59	566.31
303.82	563.31
304.051	563.31
304.281	547.31
304.511	537.31
304.741	568.31
304.971	550.31
305.201	563.31
305.431	552.31
305.661	559.31
305.891	548.31
306.121	555.31
306.352	551.31
306.582	566.31
306.812	549.31
307.042	537.31
307.272	550.31
307.502	528.31
307.731	537.31
307.961	567.31
308.191	565.31
308.421	557.31
308.651	562.31
308.881	529.31
309.111	547.31
309.341	559.31
309.571	555.31
309.8	545.31
310.03	561.31
310.26	561.31
310.49	564.31
310.72	555.31
310.949	548.31
311.179	563.31
311.409	571.31
311.639	567.31
311.868	571.31
312.098	573.31
312.328	565.31
312.557	564.31
312.787	576.31
313.017	588.31
313.246	581.31
313.476	586.31
313.706	600.31
313.935	590.31
314.165	597.31
314.394	577.31
314.624	594.31
314.853	586.31
315.083	602.31
315.312	606.31
315.542	613.31
315.771	593.31
316.001	570.31
316.23	620.31
316.46	617.31
316.689	608.31
316.919	612.31
317.148	605.31
317.377	607.31
317.607	616.31
317.836	611.31
318.065	583.31
318.295	603.31
318.524	620.31
318.753	586.31
318.983	597.31
319.212	599.31
319.441	603.31
319.67	622.31
319.9	619.31
320.129	593.31
320.358	603.31
320.587	604.31
320.816	604.31
321.046	603.31
321.275	602.31
321.504	631.31
321.733	629.31
321.962	622.31
322.191	631.31
322.42	639.31
322.649	623.31
322.878	619.31
323.108	617.31
323.337	629.31
323.566	653.31
323.795	637.31
324.024	618.31
324.253	611.31
324.482	632.31
324.71	619.31
324.939	638.31
325.168	625.31
325.397	646.31
325.626	610.31
325.855	626.31
326.084	630.31
326.313	639.31
326.542	618.31
326.77	627.31
326.999	663.31
327.228	634.31
327.457	656.31
327.686	637.31
327.914	669.31
328.143	685.31
328.372	646.31
328.6	658.31
328.829	668.31
329.058	651.31
329.287	667.31
329.515	665.31
329.744	657.31
329.972	677.31
330.201	695.31
330.43	672.31
330.658	664.31
330.887	680.31
331.115	668.31
331.344	689.31
331.572	692.31
331.801	690.31
332.03	681.31
332.258	708.31
332.486	693.31
332.715	741.31
332.943	727.31
333.172	725.31
333.4	743.31
333.629	736.31
333.857	771.31
334.085	761.31
334.314	810.31
334.542	761.31
334.771	795.31
334.999	773.31
335.227	778.31
335.455	794.31
335.684	789.31
335.912	783.31
336.14	772.31
336.369	751.31
336.597	776.31
336.825	764.31
337.053	778.31
337.281	769.31
337.51	759.31
337.738	736.31
337.966	711.31
338.194	729.31
338.422	735.31
338.65	752.31
338.878	737.31
339.106	745.31
339.334	726.31
339.562	736.31
339.79	721.31
340.018	710.31
340.246	703.31
340.474	716.31
340.702	711.31
340.93	700.31
341.158	723.31
341.386	706.31
341.614	714.31
341.842	697.31
342.07	691.31
342.298	713.31
342.526	698.31
342.754	727.31
342.981	737.31
343.209	708.31
343.437	754.31
343.665	773.31
343.893	792.31
344.12	796.31
344.348	806.31
344.576	785.31
344.804	762.31
345.031	738.31
345.259	742.31
345.487	713.31
345.714	720.31
345.942	705.31
346.17	709.31
346.397	690.31
346.625	726.31
346.853	704.31
347.08	683.31
347.308	674.31
347.535	687.31
347.763	673.31
347.99	669.31
348.218	670.31
348.445	662.31
348.673	670.31
348.9	684.31
349.128	663.31
349.355	699.31
349.583	699.31
349.81	673.31
350.037	680.31
350.265	665.31
350.492	688.31
350.72	667.31
350.947	671.31
351.174	659.31
351.402	678.31
351.629	675.31
351.856	694.31
352.083	661.31
352.311	666.31
352.538	654.31
352.765	668.31
352.992	661.31
353.22	672.31
353.447	676.31
353.674	677.31
353.901	666.31
354.128	649.31
354.355	663.31
354.583	671.31
354.81	667.31
355.037	681.31
355.264	664.31
355.491	669.31
355.718	697.31
355.945	678.31
356.172	644.31
356.399	669.31
356.626	678.31
356.853	695.31
357.08	701.31
357.307	708.31
357.534	690.31
357.761	675.31
357.988	688.31
358.215	715.31
358.441	712.31
358.668	717.31
358.895	693.31
359.122	676.31
359.349	699.31
359.576	668.31
359.802	665.31
360.029	669.31
360.256	666.31
360.483	680.31
360.709	686.31
360.936	715.31
361.163	674.31
361.39	687.31
361.616	681.31
361.843	699.31
362.07	713.31
362.296	673.31
362.523	687.31
362.749	700.31
362.976	678.31
363.203	701.31
363.429	696.31
363.656	703.31
363.882	680.31
364.109	684.31
364.335	681.31
364.562	677.31
364.788	695.31
365.015	684.31
365.241	695.31
365.468	684.31
365.694	654.31
365.92	706.31
366.147	677.31
366.373	695.31
366.599	692.31
366.826	695.31
367.052	730.31
367.278	707.31
367.505	690.31
367.731	692.31
367.957	703.31
368.184	712.31
368.41	728.31
368.636	706.31
368.862	699.31
369.089	717.31
369.315	703.31
369.541	709.31
369.767	717.31
369.993	714.31
370.219	703.31
370.445	715.31
370.672	714.31
370.898	734.31
371.124	737.31
371.35	737.31
371.576	723.31
371.802	732.31
372.028	755.31
372.254	810.31
372.48	763.31
372.706	765.31
372.932	774.31
373.158	772.31
373.384	771.31
373.61	811.31
373.835	820.31
374.061	760.31
374.287	771.31
374.513	769.31
374.739	833.31
374.965	828.31
375.191	813.31
375.416	797.31
375.642	768.31
375.868	806.31
376.094	789.31
376.319	772.31
376.545	777.31
376.771	771.31
376.997	757.31
377.222	761.31
377.448	741.31
377.674	742.31
377.899	755.31
378.125	735.31
378.35	739.31
378.576	753.31
378.802	732.31
379.027	748.31
379.253	780.31
379.478	761.31
379.704	745.31
379.929	757.31
380.155	772.31
380.38	758.31
380.606	769.31
380.831	775.31
381.057	782.31
381.282	740.31
381.507	810.31
381.733	791.31
381.958	809.31
382.184	801.31
382.409	820.31
382.634	795.31
382.86	821.31
383.085	804.31
383.31	801.31
383.535	841.31
383.761	813.31
383.986	827.31
384.211	853.31
384.436	848.31
384.662	833.31
384.887	851.31
385.112	857.31
385.337	875.31
385.562	881.31
385.787	891.31
386.013	911.31
386.238	895.31
386.463	909.31
386.688	893.31
386.913	907.31
387.138	899.31
387.363	931.31
387.588	904.31
387.813	924.31
388.038	889.31
388.263	936.31
388.488	922.31
388.713	933.31
388.938	943.31
389.163	920.31
389.387	931.31
389.612	909.31
389.837	923.31
390.062	889.31
390.287	937.31
390.512	931.31
390.736	928.31
390.961	921.31
391.186	958.31
391.411	941.31
391.636	973.31
391.86	953.31
392.085	951.31
392.31	934.31
392.534	968.31
392.759	965.31
392.984	956.31
393.208	955.31
393.433	968.31
393.658	987.31
393.882	939.31
394.107	947.31
394.331	944.31
394.556	965.31
394.78	932.31
395.005	952.31
395.229	951.31
395.454	986.31
395.678	1001.31
395.903	1002.31
396.127	1002.31
396.352	994.31
396.576	992.31
396.801	996.31
397.025	1025.31
397.249	1015.31
397.474	1051.31
397.698	1040.31
397.922	1045.31
398.147	1040.31
398.371	1061.31
398.595	1082.31
398.82	1110.31
399.044	1160.31
399.268	1222.31
399.492	1255.31
399.717	1315.31
399.941	1346.31
400.165	1307.31
400.389	1259.31
400.613	1214.31
400.837	1181.31
401.062	1175.31
401.286	1133.31
401.51	1140.31
401.734	1103.31
401.958	1135.31
402.182	1111.31
402.406	1109.31
402.63	1097.31
402.854	1129.31
403.078	1119.31
403.302	1121.31
403.526	1119.31
403.75	1105.31
403.974	1144.31
404.198	1117.31
404.422	1110.31
404.645	1151.31
404.869	1159.31
405.093	1127.31
405.317	1157.31
405.541	1151.31
405.765	1156.31
405.988	1185.31
406.212	1182.31
406.436	1196.31
406.66	1232.31
406.883	1220.31
407.107	1229.31
407.331	1277.31
407.555	1285.31
407.778	1290.31
408.002	1281.31
408.226	1252.31
408.449	1275.31
408.673	1235.31
408.896	1204.31
409.12	1211.31
409.344	1216.31
409.567	1160.31
409.791	1178.31
410.014	1136.31
410.238	1169.31
410.461	1174.31
410.685	1132.31
410.908	1177.31
411.132	1131.31
411.355	1135.31
411.578	1150.31
411.802	1139.31
412.025	1114.31
412.249	1179.31
412.472	1129.31
412.695	1137.31
412.919	1122.31
413.142	1110.31
413.365	1107.31
413.589	1123.31
413.812	1127.31
414.035	1123.31
414.258	1136.31
414.482	1128.31
414.705	1140.31
414.928	1095.31
415.151	1119.31
415.374	1109.31
415.597	1101.31
415.821	1104.31
416.044	1098.31
416.267	1060.31
416.49	1073.31
416.713	1056.31
416.936	1052.31
417.159	1042.31
417.382	1057.31
417.605	1052.31
417.828	1079.31
418.051	1088.31
418.274	1077.31
418.497	1040.31
418.72	1068.31
418.943	1063.31
419.166	1092.31
419.389	1175.31
419.611	1166.31
419.834	1135.31
420.057	1108.31
420.28	1081.31
420.503	1024.31
420.726	1032.31
420.948	1070.31
421.171	1088.31
421.394	1079.31
421.617	1019.31
421.839	1009.31
422.062	1047.31
422.285	1050.31
422.507	1068.31
422.73	1055.31
422.953	1034.31
423.175	1048.31
423.398	1059.31
423.621	1048.31
423.843	1063.31
424.066	1050.31
424.288	1060.31
424.511	1065.31
424.733	1091.31
424.956	1070.31
425.178	1075.31
425.401	1051.31
425.623	1078.31
425.846	1056.31
426.068	1054.31
426.291	1048.31
426.513	1046.31
426.735	1047.31
426.958	1037.31
427.18	1047.31
427.402	1056.31
427.625	1040.31
427.847	1024.31
428.069	1002.31
428.292	1024.31
428.514	1013.31
428.736	1002.31
428.958	998.31
429.181	980.31
429.403	993.31
429.625	973.31
429.847	979.31
430.069	987.31
430.292	1017.31
430.514	956.31
430.736	999.31
430.958	1026.31
431.18	1028.31
431.402	1015.31
431.624	997.31
431.846	1005.31
432.068	1011.31
432.29	994.31
432.512	996.31
432.734	1044.31
432.956	1010.31
433.178	1034.31
433.4	1008.31
433.622	1039.31
433.844	1044.31
434.066	1048.31
434.287	1037.31
434.509	1047.31
434.731	1052.31
434.953	1063.31
435.175	1064.31
435.397	1055.31
435.618	1045.31
435.84	1033.31
436.062	1001.31
436.284	1055.31
436.505	1028.31
436.727	1025.31
436.949	997.31
437.17	1021.31
437.392	1001.31
437.614	994.31
437.835	996.31
438.057	1002.31
438.278	965.31
438.5	987.31
438.721	997.31
438.943	992.31
439.165	952.31
439.386	977.31
439.608	976.31
439.829	997.31
440.05	992.31
440.272	1030.31
440.493	1027.31
440.715	1025.31
440.936	1022.31
441.158	1055.31
441.379	1065.31
441.6	1072.31
441.822	1073.31
442.043	1057.31
442.264	1063.31
442.486	1020.31
442.707	1043.31
442.928	1087.31
443.149	1077.31
443.371	1013.31
443.592	1067.31
443.813	1076.31
444.034	1103.31
444.255	1089.31
444.476	1127.31
444.698	1133.31
444.919	1096.31
445.14	1172.31
445.361	1187.31
445.582	1113.31
445.803	1048.31
446.024	1064.31
446.245	1038.31
446.466	1047.31
446.687	1019.31
446.908	1037.31
447.129	994.31
447.35	991.31
447.571	983.31
447.792	938.31
448.013	944.31
448.234	973.31
448.455	959.31
448.675	927.31
448.896	947.31
449.117	911.31
449.338	944.31
449.559	935.31
449.779	929.31
450	899.31
450.221	937.31
450.442	916.31
450.662	917.31
450.883	910.31
451.104	914.31
451.324	907.31
451.545	931.31
451.766	904.31
451.986	907.31
452.207	898.31
452.428	906.31
452.648	887.31
452.869	861.31
453.089	887.31
453.31	915.31
453.53	920.31
453.751	867.31
453.971	881.31
454.192	893.31
454.412	874.31
454.633	896.31
454.853	867.31
455.073	895.31
455.294	898.31
455.514	883.31
455.734	877.31
455.955	864.31
456.175	851.31
456.395	866.31
456.616	884.31
456.836	891.31
457.056	890.31
457.276	870.31
457.497	886.31
457.717	889.31
457.937	890.31
458.157	917.31
458.377	899.31
458.598	953.31
458.818	948.31
459.038	935.31
459.258	968.31
459.478	988.31
459.698	1003.31
459.918	1036.31
460.138	1061.31
460.358	1086.31
460.578	1090.31
460.798	1091.31
461.018	1121.31
461.238	1114.31
461.458	1142.31
461.678	1127.31
461.898	1159.31
462.118	1159.31
462.338	1194.31
462.558	1211.31
462.777	1208.31
462.997	1237.31
463.217	1253.31
463.437	1288.31
463.657	1252.31
463.876	1284.31
464.096	1271.31
464.316	1248.31
464.536	1245.31
464.755	1211.31
464.975	1177.31
465.195	1141.31
465.414	1095.31
465.634	1066.31
465.854	1071.31
466.073	1026.31
466.293	1034.31
466.512	1018.31
466.732	1037.31
466.951	1001.31
467.171	1001.31
467.391	1020.31
467.61	1003.31
467.829	998.31
468.049	999.31
468.268	973.31
468.488	981.31
468.707	979.31
468.927	982.31
469.146	959.31
469.365	980.31
469.585	994.31
469.804	1010.31
470.023	1000.31
470.243	991.31
470.462	991.31
470.681	1004.31
470.901	1028.31
471.12	1009.31
471.339	1011.31
471.558	965.31
471.777	984.31
471.997	979.31
472.216	992.31
472.435	991.31
472.654	966.31
472.873	975.31
473.092	966.31
473.311	1021.31
473.53	991.31
473.749	977.31
473.968	994.31
474.187	988.31
474.406	1028.31
474.625	981.31
474.844	1015.31
475.063	1015.31
475.282	1017.31
475.501	1007.31
475.72	1012.31
475.939	995.31
476.158	1041.31
476.377	1067.31
476.596	1079.31
476.814	1114.31
477.033	1090.31
477.252	1076.31
477.471	1060.31
477.69	1081.31
477.908	1135.31
478.127	1143.31
478.346	1140.31
478.564	1177.31
478.783	1155.31
479.002	1186.31
479.22	1232.31
479.439	1225.31
479.658	1179.31
479.876	1188.31
480.095	1245.31
480.313	1244.31
480.532	1236.31
480.751	1208.31
480.969	1204.31
481.188	1215.31
481.406	1202.31
481.624	1213.31
481.843	1168.31
482.061	1199.31
482.28	1191.31
482.498	1147.31
482.717	1146.31
482.935	1185.31
483.153	1173.31
483.372	1176.31
483.59	1156.31
483.808	1181.31
484.027	1180.31
484.245	1172.31
484.463	1180.31
484.681	1194.31
484.9	1200.31
485.118	1205.31
485.336	1232.31
485.554	1194.31
485.772	1206.31
485.99	1175.31
486.209	1190.31
486.427	1237.31
486.645	1224.31
486.863	1211.31
487.081	1211.31
487.299	1213.31
487.517	1229.31
487.735	1210.31
487.953	1222.31
488.171	1209.31
488.389	1186.31
488.607	1191.31
488.825	1205.31
489.043	1194.31
489.261	1207.31
489.479	1200.31
489.696	1192.31
489.914	1205.31
490.132	1244.31
490.35	1242.31
490.568	1191.31
490.786	1181.31
491.003	1229.31
491.221	1215.31
491.439	1232.31
491.657	1244.31
491.874	1236.31
492.092	1230.31
492.31	1248.31
492.527	1263.31
492.745	1257.31
492.963	1245.31
493.18	1247.31
493.398	1235.31
493.615	1232.31
493.833	1260.31
494.05	1287.31
494.268	1263.31
494.485	1247.31
494.703	1257.31
494.92	1282.31
495.138	1265.31
495.355	1286.31
495.573	1295.31
495.79	1282.31
496.008	1340.31
496.225	1333.31
496.442	1347.31
496.66	1347.31
496.877	1327.31
