Data from Fe(NO3)3@0.025M.TitratingCurve.Agarose3%dH2O.NegLispCup.LampEnergy10.LIBS07252019_HRD10591_16-55-43-336.txt Node
Date: Thu Jul 25 16:55:43 EDT 2019
User: cochatt
Spectrometer: HR+D1059
Trigger mode: 1
Integration Time (sec): 1.000000E-1
Scans to average: 1
Electric dark correction enabled: true
Nonlinearity correction enabled: false
Boxcar width: 0
XAxis mode: Wavelengths
Number of Pixels in Spectrum: 2048
>>>>>Begin Spectral Data<<<<<
223.165	-10.88
223.4	-10.88
223.635	-10.88
223.869	-13.88
224.104	-7.88
224.338	-15.88
224.573	-25.88
224.808	-19.88
225.042	-13.88
225.277	8.12
225.511	-0.88
225.746	-13.88
225.98	4.12
226.215	8.12
226.449	15.12
226.683	21.12
226.918	29.12
227.152	37.12
227.387	33.12
227.621	40.12
227.856	34.12
228.09	43.12
228.324	52.12
228.559	65.12
228.793	63.12
229.027	69.12
229.262	79.12
229.496	82.12
229.73	78.12
229.964	95.12
230.199	88.12
230.433	67.12
230.667	80.12
230.901	86.12
231.136	87.12
231.37	62.12
231.604	90.12
231.838	102.12
232.072	104.12
232.306	95.12
232.541	103.12
232.775	100.12
233.009	93.12
233.243	89.12
233.477	87.12
233.711	97.12
233.945	87.12
234.179	88.12
234.413	95.12
234.647	83.12
234.881	95.12
235.115	85.12
235.349	90.12
235.583	91.12
235.817	91.12
236.051	93.12
236.285	80.12
236.519	84.12
236.753	102.12
236.987	81.12
237.221	90.12
237.455	92.12
237.689	100.12
237.922	85.12
238.156	83.12
238.39	80.12
238.624	91.12
238.858	92.12
239.091	99.12
239.325	102.12
239.559	95.12
239.793	98.12
240.027	101.12
240.26	85.12
240.494	97.12
240.728	103.12
240.961	104.12
241.195	104.12
241.429	92.12
241.662	93.12
241.896	93.12
242.13	103.12
242.363	97.12
242.597	102.12
242.83	107.12
243.064	89.12
243.298	99.12
243.531	90.12
243.765	101.12
243.998	98.12
244.232	87.12
244.465	102.12
244.699	110.12
244.932	102.12
245.166	102.12
245.399	100.12
245.633	97.12
245.866	92.12
246.099	117.12
246.333	98.12
246.566	103.12
246.8	105.12
247.033	109.12
247.266	103.12
247.5	98.12
247.733	89.12
247.966	86.12
248.2	100.12
248.433	101.12
248.666	90.12
248.899	98.12
249.133	109.12
249.366	125.12
249.599	117.12
249.832	102.12
250.066	127.12
250.299	111.12
250.532	114.12
250.765	105.12
250.998	113.12
251.231	101.12
251.465	105.12
251.698	117.12
251.931	115.12
252.164	110.12
252.397	113.12
252.63	113.12
252.863	109.12
253.096	111.12
253.329	116.12
253.562	115.12
253.795	110.12
254.028	127.12
254.261	119.12
254.494	96.12
254.727	100.12
254.96	103.12
255.193	102.12
255.426	118.12
255.659	121.12
255.892	121.12
256.124	120.12
256.357	118.12
256.59	110.12
256.823	125.12
257.056	122.12
257.289	119.12
257.521	126.12
257.754	117.12
257.987	122.12
258.22	114.12
258.452	132.12
258.685	121.12
258.918	129.12
259.151	118.12
259.383	126.12
259.616	126.12
259.849	132.12
260.081	125.12
260.314	148.12
260.547	116.12
260.779	116.12
261.012	117.12
261.244	121.12
261.477	129.12
261.71	131.12
261.942	122.12
262.175	144.12
262.407	127.12
262.64	109.12
262.872	113.12
263.105	127.12
263.337	119.12
263.57	114.12
263.802	120.12
264.035	123.12
264.267	115.12
264.499	135.12
264.732	146.12
264.964	125.12
265.197	125.12
265.429	124.12
265.661	131.12
265.894	135.12
266.126	129.12
266.358	131.12
266.591	142.12
266.823	130.12
267.055	126.12
267.287	147.12
267.52	125.12
267.752	133.12
267.984	119.12
268.216	136.12
268.448	139.12
268.681	121.12
268.913	141.12
269.145	143.12
269.377	133.12
269.609	129.12
269.841	129.12
270.073	134.12
270.306	133.12
270.538	143.12
270.77	143.12
271.002	150.12
271.234	146.12
271.466	147.12
271.698	146.12
271.93	136.12
272.162	153.12
272.394	154.12
272.626	137.12
272.858	140.12
273.09	151.12
273.322	135.12
273.553	146.12
273.785	142.12
274.017	157.12
274.249	148.12
274.481	163.12
274.713	145.12
274.945	167.12
275.176	154.12
275.408	128.12
275.64	144.12
275.872	145.12
276.104	155.12
276.335	147.12
276.567	145.12
276.799	155.12
277.031	152.12
277.262	163.12
277.494	150.12
277.726	147.12
277.957	135.12
278.189	160.12
278.421	137.12
278.652	145.12
278.884	160.12
279.115	165.12
279.347	163.12
279.579	157.12
279.81	161.12
280.042	150.12
280.273	164.12
280.505	150.12
280.736	171.12
280.968	158.12
281.199	159.12
281.431	179.12
281.662	167.12
281.894	147.12
282.125	148.12
282.356	166.12
282.588	162.12
282.819	188.12
283.051	175.12
283.282	159.12
283.513	169.12
283.745	166.12
283.976	171.12
284.207	167.12
284.439	155.12
284.67	167.12
284.901	166.12
285.132	175.12
285.364	164.12
285.595	172.12
285.826	169.12
286.057	148.12
286.288	177.12
286.52	172.12
286.751	169.12
286.982	200.12
287.213	177.12
287.444	168.12
287.675	161.12
287.906	187.12
288.138	192.12
288.369	170.12
288.6	173.12
288.831	170.12
289.062	187.12
289.293	169.12
289.524	181.12
289.755	193.12
289.986	153.12
290.217	179.12
290.448	169.12
290.679	177.12
290.91	173.12
291.141	177.12
291.371	194.12
291.602	165.12
291.833	174.12
292.064	180.12
292.295	177.12
292.526	175.12
292.757	169.12
292.987	169.12
293.218	179.12
293.449	180.12
293.68	198.12
293.91	183.12
294.141	196.12
294.372	190.12
294.603	179.12
294.833	168.12
295.064	195.12
295.295	190.12
295.525	191.12
295.756	195.12
295.987	170.12
296.217	167.12
296.448	194.12
296.679	195.12
296.909	193.12
297.14	184.12
297.37	183.12
297.601	181.12
297.831	170.12
298.062	193.12
298.292	182.12
298.523	196.12
298.753	201.12
298.984	192.12
299.214	195.12
299.445	191.12
299.675	190.12
299.905	191.12
300.136	185.12
300.366	200.12
300.597	187.12
300.827	205.12
301.057	199.12
301.288	198.12
301.518	194.12
301.748	194.12
301.979	201.12
302.209	215.12
302.439	208.12
302.669	196.12
302.9	201.12
303.13	204.12
303.36	189.12
303.59	202.12
303.82	207.12
304.051	221.12
304.281	201.12
304.511	195.12
304.741	193.12
304.971	195.12
305.201	195.12
305.431	193.12
305.661	226.12
305.891	207.12
306.121	213.12
306.352	207.12
306.582	210.12
306.812	217.12
307.042	199.12
307.272	207.12
307.502	214.12
307.731	206.12
307.961	208.12
308.191	206.12
308.421	210.12
308.651	218.12
308.881	204.12
309.111	191.12
309.341	229.12
309.571	217.12
309.8	221.12
310.03	197.12
310.26	208.12
310.49	215.12
310.72	205.12
310.949	203.12
311.179	210.12
311.409	197.12
311.639	210.12
311.868	215.12
312.098	221.12
312.328	238.12
312.557	214.12
312.787	207.12
313.017	217.12
313.246	225.12
313.476	228.12
313.706	234.12
313.935	213.12
314.165	199.12
314.394	210.12
314.624	199.12
314.853	221.12
315.083	216.12
315.312	222.12
315.542	213.12
315.771	235.12
316.001	243.12
316.23	225.12
316.46	215.12
316.689	218.12
316.919	209.12
317.148	230.12
317.377	211.12
317.607	217.12
317.836	211.12
318.065	230.12
318.295	212.12
318.524	230.12
318.753	220.12
318.983	210.12
319.212	219.12
319.441	219.12
319.67	227.12
319.9	230.12
320.129	228.12
320.358	223.12
320.587	239.12
320.816	229.12
321.046	221.12
321.275	243.12
321.504	226.12
321.733	236.12
321.962	225.12
322.191	223.12
322.42	222.12
322.649	218.12
322.878	230.12
323.108	227.12
323.337	245.12
323.566	234.12
323.795	212.12
324.024	231.12
324.253	224.12
324.482	238.12
324.71	219.12
324.939	238.12
325.168	244.12
325.397	228.12
325.626	247.12
325.855	234.12
326.084	235.12
326.313	247.12
326.542	229.12
326.77	231.12
326.999	251.12
327.228	235.12
327.457	240.12
327.686	243.12
327.914	233.12
328.143	251.12
328.372	238.12
328.6	246.12
328.829	237.12
329.058	231.12
329.287	269.12
329.515	233.12
329.744	235.12
329.972	244.12
330.201	265.12
330.43	261.12
330.658	252.12
330.887	242.12
331.115	242.12
331.344	238.12
331.572	260.12
331.801	265.12
332.03	259.12
332.258	268.12
332.486	276.12
332.715	274.12
332.943	267.12
333.172	267.12
333.4	274.12
333.629	280.12
333.857	294.12
334.085	283.12
334.314	300.12
334.542	307.12
334.771	273.12
334.999	282.12
335.227	298.12
335.455	274.12
335.684	279.12
335.912	280.12
336.14	281.12
336.369	267.12
336.597	273.12
336.825	269.12
337.053	278.12
337.281	274.12
337.51	282.12
337.738	268.12
337.966	271.12
338.194	265.12
338.422	274.12
338.65	260.12
338.878	278.12
339.106	271.12
339.334	277.12
339.562	261.12
339.79	291.12
340.018	260.12
340.246	265.12
340.474	263.12
340.702	270.12
340.93	254.12
341.158	259.12
341.386	270.12
341.614	267.12
341.842	279.12
342.07	258.12
342.298	272.12
342.526	276.12
342.754	246.12
342.981	252.12
343.209	269.12
343.437	272.12
343.665	285.12
343.893	287.12
344.12	298.12
344.348	288.12
344.576	265.12
344.804	271.12
345.031	269.12
345.259	271.12
345.487	270.12
345.714	268.12
345.942	271.12
346.17	255.12
346.397	257.12
346.625	257.12
346.853	266.12
347.08	268.12
347.308	241.12
347.535	265.12
347.763	242.12
347.99	252.12
348.218	265.12
348.445	247.12
348.673	244.12
348.9	269.12
349.128	262.12
349.355	249.12
349.583	255.12
349.81	275.12
350.037	266.12
350.265	274.12
350.492	243.12
350.72	242.12
350.947	221.12
351.174	252.12
351.402	249.12
351.629	263.12
351.856	262.12
352.083	258.12
352.311	261.12
352.538	239.12
352.765	243.12
352.992	255.12
353.22	241.12
353.447	263.12
353.674	244.12
353.901	251.12
354.128	259.12
354.355	260.12
354.583	257.12
354.81	267.12
355.037	270.12
355.264	241.12
355.491	237.12
355.718	263.12
355.945	277.12
356.172	262.12
356.399	243.12
356.626	274.12
356.853	270.12
357.08	272.12
357.307	258.12
357.534	250.12
357.761	255.12
357.988	249.12
358.215	261.12
358.441	257.12
358.668	241.12
358.895	265.12
359.122	251.12
359.349	255.12
359.576	257.12
359.802	261.12
360.029	271.12
360.256	270.12
360.483	282.12
360.709	247.12
360.936	264.12
361.163	271.12
361.39	256.12
361.616	268.12
361.843	277.12
362.07	279.12
362.296	274.12
362.523	249.12
362.749	272.12
362.976	258.12
363.203	257.12
363.429	266.12
363.656	275.12
363.882	265.12
364.109	277.12
364.335	253.12
364.562	266.12
364.788	271.12
365.015	274.12
365.241	251.12
365.468	263.12
365.694	271.12
365.92	264.12
366.147	274.12
366.373	272.12
366.599	264.12
366.826	244.12
367.052	262.12
367.278	264.12
367.505	249.12
367.731	257.12
367.957	261.12
368.184	260.12
368.41	285.12
368.636	275.12
368.862	278.12
369.089	246.12
369.315	271.12
369.541	282.12
369.767	266.12
369.993	263.12
370.219	284.12
370.445	275.12
370.672	287.12
370.898	253.12
371.124	267.12
371.35	278.12
371.576	290.12
371.802	275.12
372.028	290.12
372.254	266.12
372.48	285.12
372.706	290.12
372.932	275.12
373.158	285.12
373.384	292.12
373.61	288.12
373.835	282.12
374.061	282.12
374.287	299.12
374.513	301.12
374.739	308.12
374.965	298.12
375.191	294.12
375.416	286.12
375.642	293.12
375.868	280.12
376.094	291.12
376.319	282.12
376.545	286.12
376.771	277.12
376.997	267.12
377.222	274.12
377.448	291.12
377.674	287.12
377.899	278.12
378.125	273.12
378.35	292.12
378.576	275.12
378.802	259.12
379.027	280.12
379.253	274.12
379.478	299.12
379.704	287.12
379.929	289.12
380.155	295.12
380.38	290.12
380.606	290.12
380.831	280.12
381.057	285.12
381.282	291.12
381.507	271.12
381.733	280.12
381.958	297.12
382.184	263.12
382.409	300.12
382.634	296.12
382.86	289.12
383.085	305.12
383.31	297.12
383.535	302.12
383.761	297.12
383.986	308.12
384.211	295.12
384.436	309.12
384.662	330.12
384.887	308.12
385.112	316.12
385.337	327.12
385.562	325.12
385.787	334.12
386.013	352.12
386.238	342.12
386.463	320.12
386.688	324.12
386.913	335.12
387.138	313.12
387.363	337.12
387.588	326.12
387.813	330.12
388.038	347.12
388.263	330.12
388.488	339.12
388.713	347.12
388.938	318.12
389.163	329.12
389.387	313.12
389.612	323.12
389.837	345.12
390.062	340.12
390.287	331.12
390.512	325.12
390.736	331.12
390.961	338.12
391.186	331.12
391.411	331.12
391.636	355.12
391.86	357.12
392.085	346.12
392.31	341.12
392.534	350.12
392.759	355.12
392.984	340.12
393.208	349.12
393.433	348.12
393.658	350.12
393.882	337.12
394.107	346.12
394.331	327.12
394.556	338.12
394.78	338.12
395.005	330.12
395.229	342.12
395.454	363.12
395.678	368.12
395.903	363.12
396.127	347.12
396.352	372.12
396.576	348.12
396.801	371.12
397.025	357.12
397.249	361.12
397.474	336.12
397.698	370.12
397.922	375.12
398.147	375.12
398.371	416.12
398.595	393.12
398.82	391.12
399.044	403.12
399.268	441.12
399.492	440.12
399.717	452.12
399.941	455.12
400.165	449.12
400.389	460.12
400.613	433.12
400.837	430.12
401.062	425.12
401.286	404.12
401.51	403.12
401.734	408.12
401.958	414.12
402.182	390.12
402.406	390.12
402.63	382.12
402.854	406.12
403.078	386.12
403.302	370.12
403.526	407.12
403.75	405.12
403.974	407.12
404.198	410.12
404.422	410.12
404.645	385.12
404.869	399.12
405.093	396.12
405.317	400.12
405.541	399.12
405.765	393.12
405.988	407.12
406.212	401.12
406.436	420.12
406.66	439.12
406.883	425.12
407.107	411.12
407.331	453.12
407.555	437.12
407.778	454.12
408.002	454.12
408.226	427.12
408.449	443.12
408.673	413.12
408.896	420.12
409.12	429.12
409.344	423.12
409.567	404.12
409.791	404.12
410.014	417.12
410.238	433.12
410.461	397.12
410.685	386.12
410.908	411.12
411.132	383.12
411.355	411.12
411.578	408.12
411.802	392.12
412.025	392.12
412.249	372.12
412.472	391.12
412.695	389.12
412.919	399.12
413.142	394.12
413.365	385.12
413.589	401.12
413.812	389.12
414.035	394.12
414.258	389.12
414.482	398.12
414.705	391.12
414.928	379.12
415.151	385.12
415.374	379.12
415.597	390.12
415.821	388.12
416.044	393.12
416.267	373.12
416.49	369.12
416.713	375.12
416.936	386.12
417.159	382.12
417.382	376.12
417.605	373.12
417.828	357.12
418.051	362.12
418.274	354.12
418.497	364.12
418.72	397.12
418.943	364.12
419.166	408.12
419.389	385.12
419.611	389.12
419.834	391.12
420.057	379.12
420.28	369.12
420.503	363.12
420.726	374.12
420.948	384.12
421.171	365.12
421.394	373.12
421.617	373.12
421.839	372.12
422.062	365.12
422.285	373.12
422.507	373.12
422.73	370.12
422.953	378.12
423.175	365.12
423.398	365.12
423.621	350.12
423.843	369.12
424.066	372.12
424.288	377.12
424.511	357.12
424.733	361.12
424.956	371.12
425.178	379.12
425.401	374.12
425.623	350.12
425.846	359.12
426.068	370.12
426.291	361.12
426.513	359.12
426.735	358.12
426.958	375.12
427.18	364.12
427.402	351.12
427.625	362.12
427.847	367.12
428.069	357.12
428.292	358.12
428.514	334.12
428.736	342.12
428.958	345.12
429.181	361.12
429.403	349.12
429.625	351.12
429.847	346.12
430.069	329.12
430.292	331.12
430.514	335.12
430.736	345.12
430.958	346.12
431.18	363.12
431.402	358.12
431.624	354.12
431.846	335.12
432.068	348.12
432.29	358.12
432.512	345.12
432.734	376.12
432.956	353.12
433.178	360.12
433.4	371.12
433.622	346.12
433.844	349.12
434.066	361.12
434.287	353.12
434.509	370.12
434.731	368.12
434.953	359.12
435.175	367.12
435.397	352.12
435.618	369.12
435.84	357.12
436.062	347.12
436.284	343.12
436.505	351.12
436.727	314.12
436.949	330.12
437.17	340.12
437.392	348.12
437.614	343.12
437.835	354.12
438.057	342.12
438.278	336.12
438.5	329.12
438.721	334.12
438.943	352.12
439.165	341.12
439.386	347.12
439.608	356.12
439.829	358.12
440.05	349.12
440.272	344.12
440.493	340.12
440.715	364.12
440.936	362.12
441.158	347.12
441.379	362.12
441.6	379.12
441.822	362.12
442.043	368.12
442.264	358.12
442.486	372.12
442.707	366.12
442.928	347.12
443.149	360.12
443.371	372.12
443.592	359.12
443.813	355.12
444.034	365.12
444.255	381.12
444.476	376.12
444.698	397.12
444.919	400.12
445.14	462.12
445.361	437.12
445.582	355.12
445.803	377.12
446.024	364.12
446.245	365.12
446.466	361.12
446.687	337.12
446.908	342.12
447.129	343.12
447.35	350.12
447.571	345.12
447.792	324.12
448.013	347.12
448.234	325.12
448.455	332.12
448.675	337.12
448.896	328.12
449.117	327.12
449.338	332.12
449.559	355.12
449.779	310.12
450	311.12
450.221	308.12
450.442	326.12
450.662	322.12
450.883	313.12
451.104	317.12
451.324	312.12
451.545	307.12
451.766	318.12
451.986	323.12
452.207	322.12
452.428	327.12
452.648	330.12
452.869	296.12
453.089	311.12
453.31	324.12
453.53	306.12
453.751	315.12
453.971	325.12
454.192	309.12
454.412	312.12
454.633	325.12
454.853	309.12
455.073	306.12
455.294	324.12
455.514	314.12
455.734	295.12
455.955	305.12
456.175	309.12
456.395	301.12
456.616	314.12
456.836	312.12
457.056	321.12
457.276	316.12
457.497	313.12
457.717	304.12
457.937	317.12
458.157	310.12
458.377	332.12
458.598	329.12
458.818	325.12
459.038	336.12
459.258	322.12
459.478	365.12
459.698	347.12
459.918	359.12
460.138	375.12
460.358	372.12
460.578	391.12
460.798	372.12
461.018	385.12
461.238	379.12
461.458	403.12
461.678	356.12
461.898	395.12
462.118	383.12
462.338	386.12
462.558	407.12
462.777	417.12
462.997	427.12
463.217	434.12
463.437	458.12
463.657	431.12
463.876	442.12
464.096	407.12
464.316	441.12
464.536	407.12
464.755	421.12
464.975	407.12
465.195	388.12
465.414	381.12
465.634	365.12
465.854	372.12
466.073	365.12
466.293	350.12
466.512	354.12
466.732	350.12
466.951	355.12
467.171	358.12
467.391	348.12
467.61	331.12
467.829	339.12
468.049	334.12
468.268	331.12
468.488	318.12
468.707	346.12
468.927	338.12
469.146	356.12
469.365	363.12
469.585	339.12
469.804	343.12
470.023	340.12
470.243	343.12
470.462	352.12
470.681	361.12
470.901	353.12
471.12	334.12
471.339	346.12
471.558	338.12
471.777	332.12
471.997	358.12
472.216	332.12
472.435	322.12
472.654	334.12
472.873	353.12
473.092	329.12
473.311	358.12
473.53	332.12
473.749	342.12
473.968	330.12
474.187	337.12
474.406	346.12
474.625	344.12
474.844	330.12
475.063	333.12
475.282	341.12
475.501	338.12
475.72	327.12
475.939	355.12
476.158	362.12
476.377	357.12
476.596	339.12
476.814	348.12
477.033	350.12
477.252	361.12
477.471	358.12
477.69	373.12
477.908	375.12
478.127	380.12
478.346	380.12
478.564	408.12
478.783	398.12
479.002	391.12
479.22	396.12
479.439	398.12
479.658	403.12
479.876	399.12
480.095	408.12
480.313	420.12
480.532	405.12
480.751	409.12
480.969	407.12
481.188	389.12
481.406	398.12
481.624	387.12
481.843	395.12
482.061	404.12
482.28	412.12
482.498	384.12
482.717	381.12
482.935	390.12
483.153	375.12
483.372	377.12
483.59	381.12
483.808	402.12
484.027	379.12
484.245	395.12
484.463	390.12
484.681	399.12
484.9	384.12
485.118	381.12
485.336	387.12
485.554	385.12
485.772	412.12
485.99	389.12
486.209	398.12
486.427	380.12
486.645	402.12
486.863	382.12
487.081	389.12
487.299	408.12
487.517	383.12
487.735	401.12
487.953	399.12
488.171	383.12
488.389	407.12
488.607	401.12
488.825	376.12
489.043	388.12
489.261	390.12
489.479	380.12
489.696	390.12
489.914	411.12
490.132	403.12
490.35	392.12
490.568	408.12
490.786	409.12
491.003	410.12
491.221	407.12
491.439	410.12
491.657	403.12
491.874	390.12
492.092	400.12
492.31	430.12
492.527	410.12
492.745	418.12
492.963	421.12
493.18	397.12
493.398	423.12
493.615	430.12
493.833	409.12
494.05	430.12
494.268	426.12
494.485	438.12
494.703	433.12
494.92	436.12
495.138	429.12
495.355	429.12
495.573	417.12
495.79	458.12
496.008	435.12
496.225	438.12
496.442	442.12
496.66	453.12
496.877	473.12
497.094	461.12
497.312	470.12
497.529	498.12
497.746	492.12
497.963	500.12
498.181	513.12
498.398	529.12
498.615	561.12
498.832	574.12
499.049	584.12
499.267	622.12
499.484	659.12
499.701	689.12
499.918	705.12
500.135	727.12
500.352	730.12
500.569	772.12
500.786	758.12
501.003	723.12
501.22	681.12
501.437	665.12
501.654	648.12
501.871	633.12
502.088	621.12
502.305	577.12
