Data from Fe(NO3)3@0.0125M.TitratingCurve.Agarose3%dH2O.NegLispCup.LampEnergy10.LIBS07252019_HRD10591_17-00-57-337.txt Node
Date: Thu Jul 25 17:00:57 EDT 2019
User: cochatt
Spectrometer: HR+D1059
Trigger mode: 1
Integration Time (sec): 1.000000E-1
Scans to average: 1
Electric dark correction enabled: true
Nonlinearity correction enabled: false
Boxcar width: 0
XAxis mode: Wavelengths
Number of Pixels in Spectrum: 2048
>>>>>Begin Spectral Data<<<<<
223.165	-16.06
223.4	-16.06
223.635	-16.06
223.869	-18.06
224.104	-18.06
224.338	-31.06
224.573	-3.06
224.808	-13.06
225.042	-0.06
225.277	-2.06
225.511	9.94
225.746	4.94
225.98	1.94
226.215	-2.06
226.449	14.94
226.683	19.94
226.918	25.94
227.152	25.94
227.387	46.94
227.621	35.94
227.856	34.94
228.09	44.94
228.324	57.94
228.559	60.94
228.793	65.94
229.027	85.94
229.262	87.94
229.496	84.94
229.73	73.94
229.964	99.94
230.199	87.94
230.433	100.94
230.667	109.94
230.901	98.94
231.136	92.94
231.37	108.94
231.604	101.94
231.838	98.94
232.072	93.94
232.306	117.94
232.541	110.94
232.775	107.94
233.009	110.94
233.243	110.94
233.477	108.94
233.711	109.94
233.945	105.94
234.179	107.94
234.413	101.94
234.647	110.94
234.881	99.94
235.115	108.94
235.349	110.94
235.583	111.94
235.817	114.94
236.051	106.94
236.285	108.94
236.519	101.94
236.753	118.94
236.987	94.94
237.221	102.94
237.455	101.94
237.689	113.94
237.922	106.94
238.156	112.94
238.39	124.94
238.624	126.94
238.858	112.94
239.091	115.94
239.325	117.94
239.559	115.94
239.793	128.94
240.027	126.94
240.26	136.94
240.494	127.94
240.728	118.94
240.961	117.94
241.195	123.94
241.429	120.94
241.662	124.94
241.896	126.94
242.13	115.94
242.363	118.94
242.597	127.94
242.83	123.94
243.064	130.94
243.298	128.94
243.531	123.94
243.765	134.94
243.998	118.94
244.232	128.94
244.465	135.94
244.699	134.94
244.932	126.94
245.166	129.94
245.399	117.94
245.633	121.94
245.866	129.94
246.099	128.94
246.333	131.94
246.566	134.94
246.8	138.94
247.033	139.94
247.266	133.94
247.5	145.94
247.733	122.94
247.966	133.94
248.2	144.94
248.433	145.94
248.666	147.94
248.899	138.94
249.133	136.94
249.366	169.94
249.599	129.94
249.832	150.94
250.066	148.94
250.299	130.94
250.532	132.94
250.765	151.94
250.998	149.94
251.231	158.94
251.465	150.94
251.698	153.94
251.931	155.94
252.164	151.94
252.397	154.94
252.63	141.94
252.863	153.94
253.096	142.94
253.329	163.94
253.562	154.94
253.795	172.94
254.028	166.94
254.261	177.94
254.494	180.94
254.727	157.94
254.96	172.94
255.193	143.94
255.426	160.94
255.659	160.94
255.892	157.94
256.124	160.94
256.357	162.94
256.59	177.94
256.823	153.94
257.056	157.94
257.289	164.94
257.521	168.94
257.754	163.94
257.987	171.94
258.22	165.94
258.452	157.94
258.685	170.94
258.918	167.94
259.151	167.94
259.383	184.94
259.616	176.94
259.849	168.94
260.081	182.94
260.314	191.94
260.547	181.94
260.779	178.94
261.012	180.94
261.244	177.94
261.477	184.94
261.71	170.94
261.942	172.94
262.175	192.94
262.407	178.94
262.64	192.94
262.872	187.94
263.105	194.94
263.337	195.94
263.57	201.94
263.802	196.94
264.035	184.94
264.267	183.94
264.499	176.94
264.732	180.94
264.964	177.94
265.197	185.94
265.429	178.94
265.661	183.94
265.894	193.94
266.126	186.94
266.358	189.94
266.591	195.94
266.823	192.94
267.055	212.94
267.287	179.94
267.52	194.94
267.752	194.94
267.984	190.94
268.216	205.94
268.448	201.94
268.681	201.94
268.913	178.94
269.145	188.94
269.377	206.94
269.609	214.94
269.841	206.94
270.073	188.94
270.306	206.94
270.538	201.94
270.77	212.94
271.002	182.94
271.234	214.94
271.466	195.94
271.698	194.94
271.93	198.94
272.162	207.94
272.394	197.94
272.626	210.94
272.858	213.94
273.09	207.94
273.322	221.94
273.553	215.94
273.785	206.94
274.017	217.94
274.249	219.94
274.481	230.94
274.713	233.94
274.945	247.94
275.176	225.94
275.408	233.94
275.64	229.94
275.872	225.94
276.104	205.94
276.335	233.94
276.567	214.94
276.799	210.94
277.031	221.94
277.262	219.94
277.494	199.94
277.726	213.94
277.957	226.94
278.189	226.94
278.421	225.94
278.652	229.94
278.884	242.94
279.115	236.94
279.347	224.94
279.579	232.94
279.81	226.94
280.042	226.94
280.273	222.94
280.505	246.94
280.736	240.94
280.968	230.94
281.199	215.94
281.431	242.94
281.662	212.94
281.894	234.94
282.125	239.94
282.356	246.94
282.588	246.94
282.819	238.94
283.051	251.94
283.282	245.94
283.513	236.94
283.745	247.94
283.976	246.94
284.207	227.94
284.439	257.94
284.67	238.94
284.901	246.94
285.132	231.94
285.364	251.94
285.595	246.94
285.826	226.94
286.057	240.94
286.288	241.94
286.52	255.94
286.751	247.94
286.982	257.94
287.213	269.94
287.444	256.94
287.675	268.94
287.906	257.94
288.138	253.94
288.369	258.94
288.6	266.94
288.831	260.94
289.062	268.94
289.293	272.94
289.524	261.94
289.755	268.94
289.986	236.94
290.217	276.94
290.448	262.94
290.679	268.94
290.91	274.94
291.141	276.94
291.371	249.94
291.602	270.94
291.833	276.94
292.064	273.94
292.295	255.94
292.526	279.94
292.757	283.94
292.987	262.94
293.218	274.94
293.449	258.94
293.68	269.94
293.91	260.94
294.141	260.94
294.372	258.94
294.603	259.94
294.833	294.94
295.064	274.94
295.295	278.94
295.525	267.94
295.756	264.94
295.987	282.94
296.217	284.94
296.448	285.94
296.679	297.94
296.909	261.94
297.14	278.94
297.37	285.94
297.601	282.94
297.831	297.94
298.062	290.94
298.292	294.94
298.523	284.94
298.753	297.94
298.984	301.94
299.214	292.94
299.445	300.94
299.675	277.94
299.905	284.94
300.136	300.94
300.366	276.94
300.597	300.94
300.827	309.94
301.057	306.94
301.288	312.94
301.518	299.94
301.748	291.94
301.979	320.94
302.209	317.94
302.439	302.94
302.669	308.94
302.9	292.94
303.13	285.94
303.36	281.94
303.59	301.94
303.82	321.94
304.051	304.94
304.281	290.94
304.511	317.94
304.741	304.94
304.971	313.94
305.201	318.94
305.431	306.94
305.661	296.94
305.891	307.94
306.121	317.94
306.352	280.94
306.582	308.94
306.812	310.94
307.042	302.94
307.272	314.94
307.502	315.94
307.731	328.94
307.961	323.94
308.191	311.94
308.421	329.94
308.651	312.94
308.881	310.94
309.111	306.94
309.341	304.94
309.571	296.94
309.8	315.94
310.03	305.94
310.26	321.94
310.49	308.94
310.72	294.94
310.949	317.94
311.179	325.94
311.409	307.94
311.639	323.94
311.868	326.94
312.098	313.94
312.328	317.94
312.557	332.94
312.787	323.94
313.017	339.94
313.246	317.94
313.476	322.94
313.706	342.94
313.935	308.94
314.165	329.94
314.394	331.94
314.624	347.94
314.853	333.94
315.083	321.94
315.312	338.94
315.542	319.94
315.771	320.94
316.001	345.94
316.23	345.94
316.46	314.94
316.689	317.94
316.919	351.94
317.148	362.94
317.377	351.94
317.607	331.94
317.836	333.94
318.065	314.94
318.295	330.94
318.524	338.94
318.753	336.94
318.983	339.94
319.212	339.94
319.441	347.94
319.67	338.94
319.9	344.94
320.129	339.94
320.358	340.94
320.587	330.94
320.816	332.94
321.046	346.94
321.275	345.94
321.504	365.94
321.733	354.94
321.962	333.94
322.191	348.94
322.42	341.94
322.649	362.94
322.878	343.94
323.108	366.94
323.337	364.94
323.566	345.94
323.795	343.94
324.024	357.94
324.253	362.94
324.482	349.94
324.71	348.94
324.939	357.94
325.168	355.94
325.397	352.94
325.626	357.94
325.855	350.94
326.084	348.94
326.313	372.94
326.542	359.94
326.77	356.94
326.999	382.94
327.228	390.94
327.457	350.94
327.686	372.94
327.914	351.94
328.143	362.94
328.372	374.94
328.6	354.94
328.829	357.94
329.058	356.94
329.287	363.94
329.515	364.94
329.744	361.94
329.972	377.94
330.201	386.94
330.43	376.94
330.658	399.94
330.887	372.94
331.115	376.94
331.344	362.94
331.572	384.94
331.801	380.94
332.03	387.94
332.258	406.94
332.486	397.94
332.715	418.94
332.943	404.94
333.172	406.94
333.4	409.94
333.629	392.94
333.857	441.94
334.085	425.94
334.314	435.94
334.542	422.94
334.771	436.94
334.999	432.94
335.227	425.94
335.455	434.94
335.684	442.94
335.912	426.94
336.14	428.94
336.369	410.94
336.597	424.94
336.825	426.94
337.053	431.94
337.281	416.94
337.51	405.94
337.738	429.94
337.966	413.94
338.194	395.94
338.422	396.94
338.65	396.94
338.878	394.94
339.106	397.94
339.334	395.94
339.562	396.94
339.79	393.94
340.018	381.94
340.246	389.94
340.474	397.94
340.702	391.94
340.93	390.94
341.158	395.94
341.386	389.94
341.614	379.94
341.842	381.94
342.07	403.94
342.298	388.94
342.526	400.94
342.754	392.94
342.981	387.94
343.209	402.94
343.437	414.94
343.665	428.94
343.893	446.94
344.12	429.94
344.348	416.94
344.576	424.94
344.804	408.94
345.031	400.94
345.259	402.94
345.487	412.94
345.714	390.94
345.942	414.94
346.17	394.94
346.397	404.94
346.625	384.94
346.853	377.94
347.08	377.94
347.308	391.94
347.535	398.94
347.763	393.94
347.99	390.94
348.218	402.94
348.445	389.94
348.673	381.94
348.9	398.94
349.128	381.94
349.355	404.94
349.583	391.94
349.81	377.94
350.037	383.94
350.265	386.94
350.492	374.94
350.72	380.94
350.947	358.94
351.174	381.94
351.402	380.94
351.629	376.94
351.856	359.94
352.083	373.94
352.311	379.94
352.538	361.94
352.765	371.94
352.992	388.94
353.22	376.94
353.447	381.94
353.674	360.94
353.901	371.94
354.128	380.94
354.355	384.94
354.583	388.94
354.81	373.94
355.037	370.94
355.264	377.94
355.491	386.94
355.718	379.94
355.945	382.94
356.172	373.94
356.399	373.94
356.626	387.94
356.853	394.94
357.08	384.94
357.307	386.94
357.534	394.94
357.761	385.94
357.988	389.94
358.215	393.94
358.441	394.94
358.668	370.94
358.895	359.94
359.122	380.94
359.349	388.94
359.576	372.94
359.802	372.94
360.029	411.94
360.256	402.94
360.483	380.94
360.709	378.94
360.936	393.94
361.163	397.94
361.39	381.94
361.616	388.94
361.843	401.94
362.07	399.94
362.296	380.94
362.523	389.94
362.749	379.94
362.976	389.94
363.203	388.94
363.429	381.94
363.656	409.94
363.882	382.94
364.109	388.94
364.335	383.94
364.562	371.94
364.788	386.94
365.015	407.94
365.241	391.94
365.468	382.94
365.694	387.94
365.92	380.94
366.147	382.94
366.373	385.94
366.599	386.94
366.826	391.94
367.052	396.94
367.278	392.94
367.505	377.94
367.731	425.94
367.957	408.94
368.184	386.94
368.41	402.94
368.636	415.94
368.862	400.94
369.089	385.94
369.315	416.94
369.541	411.94
369.767	421.94
369.993	430.94
370.219	405.94
370.445	394.94
370.672	419.94
370.898	437.94
371.124	422.94
371.35	413.94
371.576	397.94
371.802	401.94
372.028	430.94
372.254	429.94
372.48	423.94
372.706	406.94
372.932	442.94
373.158	438.94
373.384	426.94
373.61	439.94
373.835	438.94
374.061	442.94
374.287	443.94
374.513	434.94
374.739	427.94
374.965	428.94
375.191	453.94
375.416	441.94
375.642	436.94
375.868	426.94
376.094	442.94
376.319	412.94
376.545	425.94
376.771	442.94
376.997	422.94
377.222	400.94
377.448	429.94
377.674	420.94
377.899	432.94
378.125	414.94
378.35	413.94
378.576	421.94
378.802	403.94
379.027	418.94
379.253	418.94
379.478	416.94
379.704	424.94
379.929	423.94
380.155	414.94
380.38	413.94
380.606	425.94
380.831	439.94
381.057	421.94
381.282	420.94
381.507	413.94
381.733	433.94
381.958	418.94
382.184	429.94
382.409	442.94
382.634	434.94
382.86	434.94
383.085	454.94
383.31	436.94
383.535	444.94
383.761	440.94
383.986	421.94
384.211	460.94
384.436	452.94
384.662	456.94
384.887	467.94
385.112	467.94
385.337	464.94
385.562	452.94
385.787	440.94
386.013	475.94
386.238	464.94
386.463	484.94
386.688	472.94
386.913	484.94
387.138	467.94
387.363	485.94
387.588	476.94
387.813	462.94
388.038	468.94
388.263	488.94
388.488	467.94
388.713	465.94
388.938	469.94
389.163	467.94
389.387	476.94
389.612	461.94
389.837	474.94
390.062	489.94
390.287	476.94
390.512	449.94
390.736	472.94
390.961	475.94
391.186	494.94
391.411	487.94
391.636	508.94
391.86	503.94
392.085	529.94
392.31	495.94
392.534	508.94
392.759	486.94
392.984	518.94
393.208	505.94
393.433	494.94
393.658	505.94
393.882	492.94
394.107	486.94
394.331	529.94
394.556	508.94
394.78	507.94
395.005	485.94
395.229	512.94
395.454	519.94
395.678	516.94
395.903	516.94
396.127	503.94
396.352	531.94
396.576	527.94
396.801	532.94
397.025	537.94
397.249	528.94
397.474	494.94
397.698	525.94
397.922	534.94
398.147	522.94
398.371	534.94
398.595	555.94
398.82	573.94
399.044	568.94
399.268	582.94
399.492	614.94
399.717	624.94
399.941	656.94
400.165	618.94
400.389	610.94
400.613	583.94
400.837	582.94
401.062	581.94
401.286	563.94
401.51	569.94
401.734	556.94
401.958	570.94
402.182	572.94
402.406	572.94
402.63	550.94
402.854	568.94
403.078	564.94
403.302	573.94
403.526	580.94
403.75	572.94
403.974	575.94
404.198	578.94
404.422	589.94
404.645	597.94
404.869	584.94
405.093	596.94
405.317	559.94
405.541	596.94
405.765	578.94
405.988	587.94
406.212	585.94
406.436	602.94
406.66	604.94
406.883	599.94
407.107	650.94
407.331	617.94
407.555	640.94
407.778	612.94
408.002	644.94
408.226	619.94
408.449	616.94
408.673	622.94
408.896	652.94
409.12	597.94
409.344	610.94
409.567	603.94
409.791	614.94
410.014	628.94
410.238	591.94
410.461	603.94
410.685	582.94
410.908	594.94
411.132	582.94
411.355	562.94
411.578	616.94
411.802	573.94
412.025	573.94
412.249	597.94
412.472	561.94
412.695	571.94
412.919	570.94
413.142	578.94
413.365	569.94
413.589	579.94
413.812	587.94
414.035	562.94
414.258	548.94
414.482	566.94
414.705	566.94
414.928	589.94
415.151	564.94
415.374	557.94
415.597	572.94
415.821	550.94
416.044	557.94
416.267	526.94
416.49	536.94
416.713	555.94
416.936	544.94
417.159	538.94
417.382	530.94
417.605	546.94
417.828	532.94
418.051	569.94
418.274	544.94
418.497	535.94
418.72	544.94
418.943	545.94
419.166	580.94
419.389	594.94
419.611	587.94
419.834	568.94
420.057	556.94
420.28	549.94
420.503	530.94
420.726	521.94
420.948	541.94
421.171	545.94
421.394	545.94
421.617	549.94
421.839	539.94
422.062	538.94
422.285	517.94
422.507	540.94
422.73	534.94
422.953	535.94
423.175	536.94
423.398	530.94
423.621	555.94
423.843	545.94
424.066	530.94
424.288	528.94
424.511	512.94
424.733	531.94
424.956	530.94
425.178	540.94
425.401	536.94
425.623	531.94
425.846	534.94
426.068	521.94
426.291	533.94
426.513	516.94
426.735	510.94
426.958	524.94
427.18	534.94
427.402	542.94
427.625	527.94
427.847	542.94
428.069	529.94
428.292	532.94
428.514	498.94
428.736	507.94
428.958	509.94
429.181	521.94
429.403	518.94
429.625	512.94
429.847	491.94
430.069	525.94
430.292	526.94
430.514	508.94
430.736	531.94
430.958	525.94
431.18	522.94
431.402	511.94
431.624	508.94
431.846	510.94
432.068	501.94
432.29	514.94
432.512	506.94
432.734	501.94
432.956	530.94
433.178	513.94
433.4	516.94
433.622	530.94
433.844	524.94
434.066	550.94
434.287	521.94
434.509	533.94
434.731	547.94
434.953	512.94
435.175	533.94
435.397	542.94
435.618	524.94
435.84	526.94
436.062	529.94
436.284	505.94
436.505	515.94
436.727	496.94
436.949	506.94
437.17	504.94
437.392	517.94
437.614	483.94
437.835	513.94
438.057	490.94
438.278	465.94
438.5	497.94
438.721	505.94
438.943	515.94
439.165	481.94
439.386	491.94
439.608	502.94
439.829	495.94
440.05	504.94
440.272	513.94
440.493	507.94
440.715	518.94
440.936	509.94
441.158	523.94
441.379	519.94
441.6	531.94
441.822	541.94
442.043	552.94
442.264	534.94
442.486	496.94
442.707	507.94
442.928	521.94
443.149	525.94
443.371	522.94
443.592	525.94
443.813	532.94
444.034	541.94
444.255	554.94
444.476	547.94
444.698	562.94
444.919	580.94
445.14	628.94
445.361	578.94
445.582	554.94
445.803	512.94
446.024	519.94
446.245	531.94
446.466	512.94
446.687	503.94
446.908	498.94
447.129	481.94
447.35	508.94
447.571	487.94
447.792	488.94
448.013	482.94
448.234	480.94
448.455	472.94
448.675	456.94
448.896	486.94
449.117	485.94
449.338	461.94
449.559	450.94
449.779	499.94
450	460.94
450.221	455.94
450.442	470.94
450.662	478.94
450.883	480.94
451.104	455.94
451.324	470.94
451.545	482.94
451.766	469.94
451.986	469.94
452.207	467.94
452.428	459.94
452.648	468.94
452.869	448.94
453.089	440.94
453.31	449.94
453.53	451.94
453.751	469.94
453.971	444.94
454.192	452.94
454.412	463.94
454.633	459.94
454.853	454.94
455.073	462.94
455.294	456.94
455.514	468.94
455.734	453.94
455.955	452.94
456.175	440.94
456.395	442.94
456.616	462.94
456.836	467.94
457.056	449.94
457.276	456.94
457.497	454.94
457.717	438.94
457.937	454.94
458.157	460.94
458.377	469.94
458.598	467.94
458.818	483.94
459.038	494.94
459.258	506.94
459.478	524.94
459.698	493.94
459.918	518.94
460.138	497.94
460.358	530.94
460.578	554.94
460.798	544.94
461.018	524.94
461.238	534.94
461.458	546.94
461.678	541.94
461.898	534.94
462.118	544.94
462.338	558.94
462.558	564.94
462.777	574.94
462.997	597.94
463.217	598.94
463.437	625.94
463.657	588.94
463.876	599.94
464.096	576.94
464.316	573.94
464.536	597.94
464.755	578.94
464.975	574.94
465.195	563.94
465.414	551.94
465.634	509.94
465.854	517.94
466.073	535.94
466.293	505.94
466.512	524.94
466.732	509.94
466.951	488.94
467.171	506.94
467.391	501.94
467.61	470.94
467.829	485.94
468.049	496.94
468.268	466.94
468.488	490.94
468.707	500.94
468.927	492.94
469.146	488.94
469.365	501.94
469.585	473.94
469.804	488.94
470.023	490.94
470.243	496.94
470.462	492.94
470.681	477.94
470.901	496.94
471.12	497.94
471.339	510.94
471.558	487.94
471.777	504.94
471.997	479.94
472.216	500.94
472.435	496.94
472.654	500.94
472.873	481.94
473.092	483.94
473.311	486.94
473.53	472.94
473.749	486.94
473.968	522.94
474.187	499.94
474.406	490.94
474.625	497.94
474.844	494.94
475.063	514.94
475.282	509.94
475.501	489.94
475.72	486.94
475.939	509.94
476.158	510.94
476.377	524.94
476.596	533.94
476.814	545.94
477.033	541.94
477.252	534.94
477.471	548.94
477.69	540.94
477.908	557.94
478.127	596.94
478.346	536.94
478.564	548.94
478.783	552.94
479.002	583.94
479.22	583.94
479.439	621.94
479.658	560.94
479.876	588.94
480.095	602.94
480.313	604.94
480.532	594.94
480.751	581.94
480.969	604.94
481.188	604.94
481.406	590.94
481.624	588.94
481.843	589.94
482.061	603.94
482.28	582.94
482.498	584.94
482.717	589.94
482.935	595.94
483.153	592.94
483.372	599.94
483.59	617.94
483.808	597.94
484.027	596.94
484.245	608.94
484.463	598.94
484.681	596.94
484.9	611.94
485.118	619.94
485.336	595.94
485.554	616.94
485.772	605.94
485.99	618.94
486.209	635.94
486.427	610.94
486.645	601.94
486.863	605.94
487.081	609.94
487.299	616.94
487.517	605.94
487.735	630.94
487.953	620.94
488.171	636.94
488.389	611.94
488.607	626.94
488.825	608.94
489.043	614.94
489.261	610.94
489.479	597.94
489.696	604.94
489.914	609.94
490.132	606.94
490.35	600.94
490.568	594.94
490.786	630.94
491.003	613.94
491.221	608.94
491.439	625.94
491.657	640.94
491.874	630.94
492.092	629.94
492.31	619.94
492.527	612.94
492.745	619.94
492.963	603.94
493.18	624.94
493.398	641.94
493.615	624.94
493.833	619.94
494.05	613.94
494.268	624.94
494.485	600.94
494.703	625.94
494.92	644.94
495.138	627.94
495.355	631.94
495.573	621.94
495.79	636.94
496.008	666.94
496.225	654.94
496.442	660.94
496.66	659.94
496.877	657.94
497.094	686.94
497.312	672.94
497.529	707.94
497.746	728.94
497.963	725.94
498.181	714.94
498.398	748.94
498.615	741.94
498.832	775.94
499.049	811.94
499.267	842.94
499.484	904.94
499.701	917.94
499.918	950.94
500.135	993.94
500.352	1038.94
500.569	1052.94
500.786	1003.94
501.003	998.94
501.22	971.94
501.437	933.94
501.654	902.94
