Data from Fe(NO3)3@0.1M.TitratingCurve.Agarose3%dH2O.NegLispCup.LampEnergy10.LIBS07252019_HRD10591_16-37-52-332.txt Node
Date: Thu Jul 25 16:37:52 EDT 2019
User: cochatt
Spectrometer: HR+D1059
Trigger mode: 1
Integration Time (sec): 1.000000E-1
Scans to average: 1
Electric dark correction enabled: true
Nonlinearity correction enabled: false
Boxcar width: 0
XAxis mode: Wavelengths
Number of Pixels in Spectrum: 2048
>>>>>Begin Spectral Data<<<<<
223.165	-8.19
223.4	-8.19
223.635	-8.19
223.869	-22.19
224.104	-13.19
224.338	-20.19
224.573	-11.19
224.808	-20.19
225.042	-9.19
225.277	-11.19
225.511	1.81
225.746	2.81
225.98	13.81
226.215	22.81
226.449	13.81
226.683	22.81
226.918	12.81
227.152	24.81
227.387	40.81
227.621	32.81
227.856	44.81
228.09	32.81
228.324	48.81
228.559	64.81
228.793	63.81
229.027	63.81
229.262	69.81
229.496	69.81
229.73	78.81
229.964	97.81
230.199	81.81
230.433	95.81
230.667	102.81
230.901	83.81
231.136	86.81
231.37	86.81
231.604	98.81
231.838	92.81
232.072	93.81
232.306	94.81
232.541	111.81
232.775	103.81
233.009	97.81
233.243	97.81
233.477	94.81
233.711	94.81
233.945	96.81
234.179	84.81
234.413	101.81
234.647	94.81
234.881	98.81
235.115	94.81
235.349	104.81
235.583	92.81
235.817	92.81
236.051	94.81
236.285	104.81
236.519	97.81
236.753	103.81
236.987	118.81
237.221	87.81
237.455	89.81
237.689	90.81
237.922	115.81
238.156	103.81
238.39	96.81
238.624	91.81
238.858	99.81
239.091	97.81
239.325	92.81
239.559	97.81
239.793	99.81
240.027	106.81
240.26	112.81
240.494	111.81
240.728	91.81
240.961	95.81
241.195	104.81
241.429	94.81
241.662	104.81
241.896	109.81
242.13	115.81
242.363	105.81
242.597	102.81
242.83	109.81
243.064	107.81
243.298	116.81
243.531	100.81
243.765	112.81
243.998	116.81
244.232	107.81
244.465	109.81
244.699	109.81
244.932	101.81
245.166	125.81
245.399	104.81
245.633	109.81
245.866	114.81
246.099	125.81
246.333	100.81
246.566	111.81
246.8	126.81
247.033	103.81
247.266	118.81
247.5	123.81
247.733	91.81
247.966	113.81
248.2	111.81
248.433	119.81
248.666	121.81
248.899	125.81
249.133	108.81
249.366	118.81
249.599	117.81
249.832	121.81
250.066	112.81
250.299	119.81
250.532	117.81
250.765	123.81
250.998	124.81
251.231	113.81
251.465	139.81
251.698	108.81
251.931	116.81
252.164	119.81
252.397	117.81
252.63	124.81
252.863	123.81
253.096	137.81
253.329	129.81
253.562	122.81
253.795	120.81
254.028	123.81
254.261	131.81
254.494	113.81
254.727	119.81
254.96	131.81
255.193	127.81
255.426	120.81
255.659	133.81
255.892	127.81
256.124	135.81
256.357	131.81
256.59	136.81
256.823	124.81
257.056	134.81
257.289	132.81
257.521	129.81
257.754	129.81
257.987	141.81
258.22	134.81
258.452	123.81
258.685	136.81
258.918	133.81
259.151	132.81
259.383	135.81
259.616	133.81
259.849	139.81
260.081	133.81
260.314	133.81
260.547	139.81
260.779	132.81
261.012	133.81
261.244	134.81
261.477	139.81
261.71	126.81
261.942	133.81
262.175	135.81
262.407	130.81
262.64	144.81
262.872	149.81
263.105	143.81
263.337	137.81
263.57	134.81
263.802	139.81
264.035	131.81
264.267	146.81
264.499	152.81
264.732	147.81
264.964	145.81
265.197	165.81
265.429	141.81
265.661	139.81
265.894	135.81
266.126	144.81
266.358	139.81
266.591	138.81
266.823	140.81
267.055	138.81
267.287	148.81
267.52	144.81
267.752	150.81
267.984	155.81
268.216	152.81
268.448	140.81
268.681	157.81
268.913	171.81
269.145	149.81
269.377	157.81
269.609	154.81
269.841	157.81
270.073	137.81
270.306	152.81
270.538	152.81
270.77	146.81
271.002	154.81
271.234	176.81
271.466	143.81
271.698	152.81
271.93	139.81
272.162	151.81
272.394	155.81
272.626	157.81
272.858	152.81
273.09	161.81
273.322	153.81
273.553	162.81
273.785	149.81
274.017	157.81
274.249	168.81
274.481	148.81
274.713	163.81
274.945	168.81
275.176	178.81
275.408	172.81
275.64	179.81
275.872	160.81
276.104	169.81
276.335	153.81
276.567	160.81
276.799	172.81
277.031	180.81
277.262	162.81
277.494	162.81
277.726	175.81
277.957	165.81
278.189	175.81
278.421	165.81
278.652	151.81
278.884	156.81
279.115	162.81
279.347	165.81
279.579	160.81
279.81	168.81
280.042	177.81
280.273	159.81
280.505	162.81
280.736	153.81
280.968	164.81
281.199	185.81
281.431	164.81
281.662	182.81
281.894	185.81
282.125	157.81
282.356	182.81
282.588	180.81
282.819	171.81
283.051	161.81
283.282	196.81
283.513	193.81
283.745	171.81
283.976	170.81
284.207	155.81
284.439	164.81
284.67	165.81
284.901	177.81
285.132	179.81
285.364	188.81
285.595	185.81
285.826	195.81
286.057	197.81
286.288	172.81
286.52	180.81
286.751	185.81
286.982	179.81
287.213	192.81
287.444	181.81
287.675	165.81
287.906	188.81
288.138	185.81
288.369	184.81
288.6	179.81
288.831	198.81
289.062	189.81
289.293	189.81
289.524	189.81
289.755	159.81
289.986	180.81
290.217	177.81
290.448	188.81
290.679	186.81
290.91	180.81
291.141	188.81
291.371	177.81
291.602	202.81
291.833	213.81
292.064	175.81
292.295	200.81
292.526	187.81
292.757	179.81
292.987	187.81
293.218	177.81
293.449	180.81
293.68	187.81
293.91	195.81
294.141	183.81
294.372	197.81
294.603	194.81
294.833	186.81
295.064	180.81
295.295	178.81
295.525	176.81
295.756	191.81
295.987	182.81
296.217	198.81
296.448	210.81
296.679	198.81
296.909	193.81
297.14	185.81
297.37	209.81
297.601	192.81
297.831	194.81
298.062	193.81
298.292	204.81
298.523	216.81
298.753	204.81
298.984	196.81
299.214	194.81
299.445	206.81
299.675	206.81
299.905	214.81
300.136	205.81
300.366	202.81
300.597	187.81
300.827	195.81
301.057	196.81
301.288	200.81
301.518	196.81
301.748	207.81
301.979	209.81
302.209	213.81
302.439	194.81
302.669	201.81
302.9	210.81
303.13	191.81
303.36	211.81
303.59	201.81
303.82	209.81
304.051	212.81
304.281	219.81
304.511	201.81
304.741	214.81
304.971	207.81
305.201	209.81
305.431	195.81
305.661	209.81
305.891	204.81
306.121	200.81
306.352	211.81
306.582	207.81
306.812	190.81
307.042	211.81
307.272	224.81
307.502	217.81
307.731	194.81
307.961	192.81
308.191	204.81
308.421	207.81
308.651	190.81
308.881	203.81
309.111	204.81
309.341	218.81
309.571	217.81
309.8	212.81
310.03	205.81
310.26	212.81
310.49	191.81
310.72	213.81
310.949	186.81
311.179	204.81
311.409	217.81
311.639	201.81
311.868	205.81
312.098	202.81
312.328	219.81
312.557	204.81
312.787	218.81
313.017	222.81
313.246	205.81
313.476	223.81
313.706	204.81
313.935	214.81
314.165	218.81
314.394	220.81
314.624	211.81
314.853	214.81
315.083	225.81
315.312	227.81
315.542	233.81
315.771	212.81
316.001	218.81
316.23	214.81
316.46	218.81
316.689	218.81
316.919	220.81
317.148	208.81
317.377	210.81
317.607	208.81
317.836	210.81
318.065	221.81
318.295	228.81
318.524	211.81
318.753	205.81
318.983	227.81
319.212	216.81
319.441	222.81
319.67	216.81
319.9	209.81
320.129	218.81
320.358	218.81
320.587	204.81
320.816	218.81
321.046	221.81
321.275	225.81
321.504	212.81
321.733	213.81
321.962	202.81
322.191	221.81
322.42	210.81
322.649	211.81
322.878	227.81
323.108	213.81
323.337	225.81
323.566	224.81
323.795	216.81
324.024	217.81
324.253	210.81
324.482	214.81
324.71	229.81
324.939	220.81
325.168	199.81
325.397	222.81
325.626	224.81
325.855	252.81
326.084	226.81
326.313	236.81
326.542	252.81
326.77	220.81
326.999	234.81
327.228	231.81
327.457	229.81
327.686	246.81
327.914	243.81
328.143	236.81
328.372	232.81
328.6	235.81
328.829	229.81
329.058	232.81
329.287	234.81
329.515	233.81
329.744	249.81
329.972	232.81
330.201	243.81
330.43	235.81
330.658	243.81
330.887	234.81
331.115	244.81
331.344	252.81
331.572	252.81
331.801	257.81
332.03	249.81
332.258	268.81
332.486	263.81
332.715	273.81
332.943	275.81
333.172	270.81
333.4	292.81
333.629	277.81
333.857	303.81
334.085	320.81
334.314	296.81
334.542	294.81
334.771	297.81
334.999	291.81
335.227	289.81
335.455	292.81
335.684	293.81
335.912	281.81
336.14	275.81
336.369	267.81
336.597	270.81
336.825	267.81
337.053	266.81
337.281	264.81
337.51	262.81
337.738	261.81
337.966	269.81
338.194	263.81
338.422	250.81
338.65	249.81
338.878	249.81
339.106	246.81
339.334	254.81
339.562	250.81
339.79	230.81
340.018	226.81
340.246	245.81
340.474	235.81
340.702	243.81
340.93	234.81
341.158	241.81
341.386	254.81
341.614	260.81
341.842	233.81
342.07	266.81
342.298	255.81
342.526	250.81
342.754	256.81
342.981	240.81
343.209	245.81
343.437	267.81
343.665	254.81
343.893	281.81
344.12	279.81
344.348	268.81
344.576	269.81
344.804	263.81
345.031	273.81
345.259	247.81
345.487	227.81
345.714	231.81
345.942	246.81
346.17	248.81
346.397	223.81
346.625	245.81
346.853	227.81
347.08	242.81
347.308	225.81
347.535	237.81
347.763	236.81
347.99	241.81
348.218	247.81
348.445	243.81
348.673	231.81
348.9	240.81
349.128	226.81
349.355	244.81
349.583	224.81
349.81	231.81
350.037	229.81
350.265	236.81
350.492	231.81
350.72	237.81
350.947	239.81
351.174	230.81
351.402	233.81
351.629	235.81
351.856	225.81
352.083	232.81
352.311	237.81
352.538	219.81
352.765	230.81
352.992	219.81
353.22	234.81
353.447	247.81
353.674	220.81
353.901	244.81
354.128	241.81
354.355	227.81
354.583	225.81
354.81	210.81
355.037	242.81
355.264	228.81
355.491	230.81
355.718	216.81
355.945	218.81
356.172	229.81
356.399	224.81
356.626	233.81
356.853	239.81
357.08	229.81
357.307	226.81
357.534	247.81
357.761	236.81
357.988	246.81
358.215	230.81
358.441	234.81
358.668	215.81
358.895	222.81
359.122	235.81
359.349	237.81
359.576	235.81
359.802	230.81
360.029	262.81
360.256	246.81
360.483	240.81
360.709	223.81
360.936	236.81
361.163	222.81
361.39	250.81
361.616	236.81
361.843	228.81
362.07	230.81
362.296	244.81
362.523	236.81
362.749	223.81
362.976	232.81
363.203	236.81
363.429	224.81
363.656	227.81
363.882	210.81
364.109	240.81
364.335	242.81
364.562	256.81
364.788	243.81
365.015	229.81
365.241	227.81
365.468	222.81
365.694	217.81
365.92	232.81
366.147	242.81
366.373	234.81
366.599	229.81
366.826	232.81
367.052	243.81
367.278	236.81
367.505	224.81
367.731	227.81
367.957	224.81
368.184	216.81
368.41	248.81
368.636	233.81
368.862	251.81
369.089	243.81
369.315	240.81
369.541	239.81
369.767	236.81
369.993	267.81
370.219	239.81
370.445	234.81
370.672	230.81
370.898	259.81
371.124	255.81
371.35	260.81
371.576	235.81
371.802	252.81
372.028	255.81
372.254	259.81
372.48	255.81
372.706	262.81
372.932	269.81
373.158	228.81
373.384	259.81
373.61	276.81
373.835	266.81
374.061	264.81
374.287	286.81
374.513	277.81
374.739	273.81
374.965	281.81
375.191	280.81
375.416	286.81
375.642	282.81
375.868	283.81
376.094	268.81
376.319	266.81
376.545	277.81
376.771	278.81
376.997	275.81
377.222	255.81
377.448	255.81
377.674	259.81
377.899	272.81
378.125	273.81
378.35	270.81
378.576	259.81
378.802	247.81
379.027	255.81
379.253	245.81
379.478	253.81
379.704	239.81
379.929	244.81
380.155	251.81
380.38	249.81
380.606	258.81
380.831	281.81
381.057	283.81
381.282	259.81
381.507	272.81
381.733	245.81
381.958	268.81
382.184	285.81
382.409	255.81
382.634	272.81
382.86	259.81
383.085	259.81
383.31	275.81
383.535	269.81
383.761	284.81
383.986	282.81
384.211	287.81
384.436	282.81
384.662	301.81
384.887	306.81
385.112	304.81
385.337	308.81
385.562	298.81
385.787	287.81
386.013	313.81
386.238	299.81
386.463	291.81
386.688	317.81
386.913	305.81
387.138	301.81
387.363	312.81
387.588	304.81
387.813	304.81
388.038	296.81
388.263	300.81
388.488	304.81
388.713	304.81
388.938	299.81
389.163	311.81
389.387	294.81
389.612	287.81
389.837	319.81
390.062	312.81
390.287	311.81
390.512	309.81
390.736	314.81
390.961	308.81
391.186	321.81
391.411	338.81
391.636	341.81
391.86	335.81
392.085	323.81
392.31	318.81
392.534	337.81
392.759	321.81
392.984	308.81
393.208	304.81
393.433	336.81
393.658	329.81
393.882	333.81
394.107	338.81
394.331	341.81
394.556	337.81
394.78	332.81
395.005	310.81
395.229	338.81
395.454	330.81
395.678	333.81
395.903	338.81
396.127	349.81
396.352	339.81
396.576	334.81
396.801	316.81
397.025	324.81
397.249	338.81
397.474	337.81
397.698	348.81
397.922	344.81
398.147	343.81
398.371	342.81
398.595	353.81
398.82	373.81
399.044	388.81
399.268	431.81
399.492	493.81
399.717	500.81
399.941	521.81
400.165	485.81
400.389	438.81
400.613	419.81
400.837	385.81
401.062	369.81
401.286	377.81
401.51	385.81
401.734	379.81
401.958	377.81
402.182	383.81
402.406	388.81
402.63	379.81
402.854	386.81
403.078	379.81
403.302	421.81
403.526	413.81
403.75	432.81
403.974	413.81
404.198	403.81
404.422	408.81
404.645	411.81
404.869	417.81
405.093	431.81
405.317	407.81
405.541	388.81
405.765	403.81
405.988	409.81
406.212	399.81
406.436	417.81
406.66	408.81
406.883	421.81
407.107	436.81
407.331	452.81
407.555	464.81
407.778	469.81
408.002	448.81
408.226	455.81
408.449	466.81
408.673	421.81
408.896	421.81
409.12	431.81
409.344	437.81
409.567	433.81
409.791	449.81
410.014	439.81
410.238	424.81
410.461	417.81
410.685	421.81
410.908	404.81
411.132	424.81
411.355	393.81
411.578	424.81
411.802	403.81
412.025	404.81
412.249	411.81
412.472	390.81
412.695	393.81
412.919	395.81
413.142	407.81
413.365	406.81
413.589	418.81
413.812	373.81
414.035	383.81
414.258	403.81
414.482	398.81
414.705	407.81
414.928	397.81
415.151	408.81
415.374	387.81
415.597	404.81
415.821	387.81
416.044	371.81
416.267	382.81
416.49	367.81
416.713	372.81
416.936	378.81
417.159	380.81
417.382	369.81
417.605	379.81
417.828	373.81
418.051	395.81
418.274	377.81
418.497	383.81
418.72	385.81
418.943	410.81
419.166	407.81
419.389	415.81
419.611	410.81
419.834	411.81
420.057	406.81
420.28	377.81
420.503	380.81
420.726	370.81
420.948	380.81
421.171	382.81
421.394	373.81
421.617	360.81
421.839	392.81
422.062	385.81
422.285	383.81
422.507	396.81
422.73	391.81
422.953	369.81
423.175	391.81
423.398	393.81
423.621	379.81
423.843	406.81
424.066	397.81
424.288	379.81
424.511	380.81
424.733	377.81
424.956	409.81
425.178	390.81
425.401	383.81
425.623	390.81
425.846	373.81
426.068	367.81
426.291	374.81
426.513	371.81
426.735	345.81
426.958	359.81
427.18	362.81
427.402	357.81
427.625	349.81
427.847	353.81
428.069	358.81
428.292	351.81
428.514	330.81
428.736	346.81
428.958	343.81
429.181	322.81
429.403	332.81
429.625	332.81
429.847	330.81
430.069	331.81
430.292	340.81
430.514	329.81
430.736	330.81
430.958	353.81
431.18	348.81
431.402	339.81
431.624	331.81
431.846	351.81
432.068	348.81
432.29	347.81
432.512	346.81
432.734	342.81
432.956	352.81
433.178	351.81
433.4	344.81
433.622	345.81
433.844	356.81
434.066	338.81
434.287	332.81
434.509	365.81
434.731	371.81
434.953	374.81
435.175	375.81
435.397	384.81
435.618	371.81
435.84	345.81
436.062	377.81
436.284	356.81
436.505	360.81
436.727	348.81
436.949	361.81
437.17	369.81
437.392	349.81
437.614	354.81
437.835	329.81
438.057	340.81
438.278	321.81
438.5	338.81
438.721	335.81
438.943	368.81
439.165	343.81
439.386	326.81
439.608	342.81
439.829	340.81
440.05	344.81
440.272	345.81
440.493	359.81
440.715	361.81
440.936	357.81
441.158	380.81
441.379	363.81
441.6	387.81
441.822	387.81
442.043	384.81
442.264	392.81
442.486	360.81
442.707	372.81
442.928	369.81
443.149	408.81
443.371	376.81
443.592	368.81
443.813	377.81
444.034	379.81
444.255	382.81
444.476	401.81
444.698	428.81
444.919	446.81
445.14	554.81
445.361	471.81
445.582	405.81
445.803	369.81
446.024	390.81
446.245	371.81
446.466	358.81
446.687	341.81
446.908	337.81
447.129	345.81
447.35	344.81
447.571	341.81
447.792	343.81
448.013	338.81
448.234	338.81
448.455	336.81
448.675	326.81
448.896	309.81
449.117	315.81
449.338	321.81
449.559	321.81
449.779	321.81
450	323.81
450.221	333.81
450.442	334.81
450.662	319.81
450.883	320.81
451.104	333.81
451.324	332.81
451.545	330.81
451.766	330.81
451.986	340.81
452.207	343.81
452.428	322.81
452.648	319.81
452.869	320.81
453.089	313.81
453.31	316.81
453.53	314.81
453.751	325.81
453.971	308.81
454.192	313.81
454.412	301.81
454.633	321.81
454.853	314.81
455.073	303.81
455.294	323.81
455.514	321.81
455.734	303.81
455.955	310.81
456.175	298.81
456.395	301.81
456.616	310.81
456.836	320.81
457.056	303.81
457.276	307.81
457.497	324.81
457.717	298.81
457.937	321.81
458.157	307.81
458.377	323.81
458.598	332.81
458.818	329.81
459.038	339.81
459.258	343.81
459.478	354.81
459.698	335.81
459.918	342.81
460.138	379.81
460.358	404.81
460.578	404.81
460.798	390.81
461.018	395.81
461.238	397.81
461.458	398.81
461.678	389.81
461.898	404.81
462.118	408.81
462.338	435.81
462.558	426.81
462.777	458.81
462.997	480.81
463.217	501.81
463.437	523.81
463.657	487.81
463.876	443.81
464.096	440.81
464.316	440.81
464.536	445.81
464.755	427.81
464.975	434.81
465.195	401.81
465.414	379.81
465.634	386.81
465.854	368.81
466.073	357.81
466.293	356.81
466.512	321.81
466.732	353.81
466.951	342.81
467.171	344.81
467.391	336.81
467.61	324.81
467.829	338.81
468.049	338.81
468.268	327.81
468.488	336.81
468.707	328.81
468.927	325.81
469.146	341.81
469.365	332.81
469.585	347.81
469.804	356.81
470.023	346.81
470.243	363.81
470.462	348.81
470.681	357.81
470.901	356.81
471.12	357.81
471.339	321.81
471.558	327.81
471.777	328.81
471.997	334.81
472.216	338.81
472.435	337.81
472.654	340.81
472.873	332.81
473.092	332.81
473.311	332.81
473.53	336.81
473.749	325.81
473.968	327.81
474.187	317.81
474.406	310.81
474.625	318.81
474.844	335.81
475.063	336.81
475.282	308.81
475.501	311.81
475.72	344.81
475.939	322.81
476.158	343.81
476.377	327.81
476.596	323.81
476.814	333.81
477.033	325.81
477.252	339.81
477.471	342.81
477.69	340.81
477.908	350.81
478.127	373.81
478.346	349.81
478.564	371.81
478.783	377.81
479.002	393.81
479.22	395.81
479.439	373.81
479.658	377.81
479.876	383.81
480.095	379.81
480.313	396.81
480.532	407.81
480.751	384.81
480.969	373.81
481.188	368.81
481.406	374.81
481.624	382.81
481.843	373.81
482.061	350.81
482.28	354.81
482.498	354.81
482.717	336.81
482.935	372.81
483.153	351.81
483.372	348.81
483.59	362.81
483.808	364.81
484.027	361.81
484.245	363.81
484.463	356.81
484.681	378.81
484.9	369.81
485.118	374.81
485.336	363.81
485.554	361.81
485.772	376.81
485.99	369.81
486.209	374.81
486.427	352.81
486.645	382.81
486.863	361.81
487.081	372.81
487.299	360.81
487.517	361.81
487.735	370.81
487.953	381.81
488.171	362.81
488.389	366.81
488.607	373.81
488.825	353.81
489.043	366.81
489.261	395.81
489.479	360.81
489.696	387.81
489.914	367.81
490.132	373.81
490.35	393.81
490.568	386.81
490.786	372.81
491.003	379.81
491.221	387.81
491.439	388.81
491.657	367.81
491.874	369.81
492.092	395.81
492.31	385.81
492.527	389.81
492.745	405.81
492.963	381.81
493.18	375.81
493.398	401.81
493.615	423.81
493.833	382.81
494.05	396.81
494.268	402.81
494.485	397.81
494.703	386.81
494.92	407.81
495.138	392.81
495.355	404.81
495.573	383.81
495.79	418.81
496.008	405.81
496.225	383.81
496.442	412.81
496.66	417.81
496.877	407.81
497.094	423.81
497.312	440.81
497.529	441.81
497.746	453.81
497.963	443.81
498.181	475.81
498.398	493.81
498.615	503.81
498.832	540.81
499.049	568.81
499.267	594.81
499.484	661.81
499.701	703.81
499.918	787.81
500.135	851.81
500.352	932.81
500.569	957.81
500.786	972.81
501.003	899.81
501.22	824.81
501.437	746.81
501.654	690.81
501.871	641.81
502.088	588.81
