Data from Fe(NO3)3@0.05M.TitratingCurve.Agarose3%dH2O.NegLispCup.LampEnergy10.LIBS07252019_HRD10591_16-46-27-334.txt Node
Date: Thu Jul 25 16:46:27 EDT 2019
User: cochatt
Spectrometer: HR+D1059
Trigger mode: 1
Integration Time (sec): 1.000000E-1
Scans to average: 1
Electric dark correction enabled: true
Nonlinearity correction enabled: false
Boxcar width: 0
XAxis mode: Wavelengths
Number of Pixels in Spectrum: 2048
>>>>>Begin Spectral Data<<<<<
223.165	-16.5
223.4	-16.5
223.635	-16.5
223.869	-23.5
224.104	-12.5
224.338	-17.5
224.573	-16.5
224.808	-10.5
225.042	6.5
225.277	-24.5
225.511	-8.5
225.746	4.5
225.98	14.5
226.215	15.5
226.449	23.5
226.683	18.5
226.918	8.5
227.152	38.5
227.387	26.5
227.621	30.5
227.856	40.5
228.09	33.5
228.324	50.5
228.559	63.5
228.793	78.5
229.027	125.5
229.262	121.5
229.496	132.5
229.73	136.5
229.964	135.5
230.199	144.5
230.433	142.5
230.667	137.5
230.901	145.5
231.136	137.5
231.37	132.5
231.604	162.5
231.838	149.5
232.072	140.5
232.306	151.5
232.541	148.5
232.775	170.5
233.009	166.5
233.243	174.5
233.477	173.5
233.711	171.5
233.945	175.5
234.179	180.5
234.413	173.5
234.647	191.5
234.881	195.5
235.115	200.5
235.349	169.5
235.583	180.5
235.817	164.5
236.051	180.5
236.285	176.5
236.519	190.5
236.753	182.5
236.987	179.5
237.221	190.5
237.455	188.5
237.689	190.5
237.922	203.5
238.156	204.5
238.39	219.5
238.624	246.5
238.858	225.5
239.091	222.5
239.325	217.5
239.559	206.5
239.793	211.5
240.027	246.5
240.26	218.5
240.494	238.5
240.728	222.5
240.961	235.5
241.195	246.5
241.429	219.5
241.662	246.5
241.896	222.5
242.13	233.5
242.363	226.5
242.597	235.5
242.83	243.5
243.064	239.5
243.298	249.5
243.531	244.5
243.765	247.5
243.998	248.5
244.232	247.5
244.465	249.5
244.699	258.5
244.932	268.5
245.166	268.5
245.399	258.5
245.633	255.5
245.866	264.5
246.099	255.5
246.333	274.5
246.566	274.5
246.8	273.5
247.033	263.5
247.266	262.5
247.5	292.5
247.733	276.5
247.966	282.5
248.2	294.5
248.433	307.5
248.666	298.5
248.899	308.5
249.133	312.5
249.366	309.5
249.599	319.5
249.832	310.5
250.066	299.5
250.299	302.5
250.532	324.5
250.765	318.5
250.998	306.5
251.231	304.5
251.465	315.5
251.698	330.5
251.931	306.5
252.164	308.5
252.397	332.5
252.63	337.5
252.863	352.5
253.096	340.5
253.329	348.5
253.562	354.5
253.795	368.5
254.028	356.5
254.261	369.5
254.494	358.5
254.727	340.5
254.96	352.5
255.193	345.5
255.426	373.5
255.659	342.5
255.892	353.5
256.124	349.5
256.357	371.5
256.59	385.5
256.823	381.5
257.056	373.5
257.289	341.5
257.521	361.5
257.754	376.5
257.987	367.5
258.22	369.5
258.452	374.5
258.685	377.5
258.918	389.5
259.151	379.5
259.383	386.5
259.616	379.5
259.849	413.5
260.081	455.5
260.314	475.5
260.547	414.5
260.779	422.5
261.012	445.5
261.244	440.5
261.477	438.5
261.71	448.5
261.942	423.5
262.175	397.5
262.407	443.5
262.64	422.5
262.872	442.5
263.105	427.5
263.337	454.5
263.57	468.5
263.802	397.5
264.035	420.5
264.267	414.5
264.499	391.5
264.732	432.5
264.964	407.5
265.197	410.5
265.429	400.5
265.661	415.5
265.894	422.5
266.126	433.5
266.358	427.5
266.591	431.5
266.823	444.5
267.055	456.5
267.287	437.5
267.52	440.5
267.752	442.5
267.984	448.5
268.216	450.5
268.448	462.5
268.681	454.5
268.913	456.5
269.145	439.5
269.377	440.5
269.609	464.5
269.841	464.5
270.073	450.5
270.306	459.5
270.538	459.5
270.77	463.5
271.002	447.5
271.234	463.5
271.466	468.5
271.698	472.5
271.93	487.5
272.162	491.5
272.394	482.5
272.626	498.5
272.858	490.5
273.09	497.5
273.322	504.5
273.553	488.5
273.785	530.5
274.017	546.5
274.249	562.5
274.481	555.5
274.713	580.5
274.945	608.5
275.176	625.5
275.408	604.5
275.64	572.5
275.872	594.5
276.104	543.5
276.335	531.5
276.567	520.5
276.799	543.5
277.031	530.5
277.262	540.5
277.494	520.5
277.726	546.5
277.957	515.5
278.189	547.5
278.421	550.5
278.652	531.5
278.884	555.5
279.115	551.5
279.347	562.5
279.579	548.5
279.81	558.5
280.042	540.5
280.273	545.5
280.505	526.5
280.736	534.5
280.968	536.5
281.199	569.5
281.431	552.5
281.662	545.5
281.894	535.5
282.125	549.5
282.356	583.5
282.588	575.5
282.819	566.5
283.051	582.5
283.282	565.5
283.513	568.5
283.745	570.5
283.976	593.5
284.207	587.5
284.439	594.5
284.67	611.5
284.901	606.5
285.132	595.5
285.364	598.5
285.595	585.5
285.826	600.5
286.057	603.5
286.288	593.5
286.52	594.5
286.751	593.5
286.982	582.5
287.213	603.5
287.444	583.5
287.675	600.5
287.906	600.5
288.138	594.5
288.369	634.5
288.6	600.5
288.831	599.5
289.062	633.5
289.293	630.5
289.524	615.5
289.755	619.5
289.986	610.5
290.217	641.5
290.448	625.5
290.679	627.5
290.91	612.5
291.141	602.5
291.371	640.5
291.602	616.5
291.833	618.5
292.064	616.5
292.295	631.5
292.526	619.5
292.757	585.5
292.987	615.5
293.218	619.5
293.449	628.5
293.68	628.5
293.91	615.5
294.141	630.5
294.372	621.5
294.603	636.5
294.833	631.5
295.064	631.5
295.295	623.5
295.525	636.5
295.756	636.5
295.987	630.5
296.217	647.5
296.448	672.5
296.679	674.5
296.909	680.5
297.14	642.5
297.37	651.5
297.601	672.5
297.831	642.5
298.062	678.5
298.292	668.5
298.523	656.5
298.753	674.5
298.984	668.5
299.214	663.5
299.445	675.5
299.675	676.5
299.905	682.5
300.136	680.5
300.366	683.5
300.597	689.5
300.827	688.5
301.057	679.5
301.288	679.5
301.518	682.5
301.748	683.5
301.979	691.5
302.209	699.5
302.439	731.5
302.669	730.5
302.9	702.5
303.13	705.5
303.36	704.5
303.59	706.5
303.82	736.5
304.051	730.5
304.281	723.5
304.511	693.5
304.741	712.5
304.971	703.5
305.201	743.5
305.431	735.5
305.661	702.5
305.891	711.5
306.121	726.5
306.352	736.5
306.582	710.5
306.812	712.5
307.042	710.5
307.272	713.5
307.502	708.5
307.731	716.5
307.961	730.5
308.191	723.5
308.421	713.5
308.651	711.5
308.881	705.5
309.111	741.5
309.341	716.5
309.571	729.5
309.8	718.5
310.03	707.5
310.26	722.5
310.49	723.5
310.72	763.5
310.949	730.5
311.179	734.5
311.409	764.5
311.639	731.5
311.868	739.5
312.098	751.5
312.328	750.5
312.557	763.5
312.787	735.5
313.017	748.5
313.246	768.5
313.476	769.5
313.706	779.5
313.935	782.5
314.165	775.5
314.394	775.5
314.624	775.5
314.853	769.5
315.083	776.5
315.312	782.5
315.542	792.5
315.771	784.5
316.001	789.5
316.23	774.5
316.46	752.5
316.689	778.5
316.919	794.5
317.148	777.5
317.377	771.5
317.607	793.5
317.836	796.5
318.065	784.5
318.295	791.5
318.524	785.5
318.753	796.5
318.983	774.5
319.212	804.5
319.441	798.5
319.67	794.5
319.9	782.5
320.129	774.5
320.358	784.5
320.587	784.5
320.816	780.5
321.046	815.5
321.275	804.5
321.504	824.5
321.733	818.5
321.962	790.5
322.191	798.5
322.42	850.5
322.649	836.5
322.878	792.5
323.108	830.5
323.337	847.5
323.566	810.5
323.795	798.5
324.024	826.5
324.253	820.5
324.482	832.5
324.71	843.5
324.939	843.5
325.168	820.5
325.397	839.5
325.626	844.5
325.855	841.5
326.084	831.5
326.313	866.5
326.542	856.5
326.77	868.5
326.999	865.5
327.228	838.5
327.457	853.5
327.686	881.5
327.914	838.5
328.143	855.5
328.372	839.5
328.6	846.5
328.829	856.5
329.058	852.5
329.287	883.5
329.515	878.5
329.744	854.5
329.972	897.5
330.201	889.5
330.43	882.5
330.658	887.5
330.887	889.5
331.115	890.5
331.344	892.5
331.572	899.5
331.801	895.5
332.03	895.5
332.258	919.5
332.486	901.5
332.715	932.5
332.943	944.5
333.172	955.5
333.4	962.5
333.629	980.5
333.857	999.5
334.085	999.5
334.314	1024.5
334.542	1001.5
334.771	1025.5
334.999	1004.5
335.227	1021.5
335.455	973.5
335.684	965.5
335.912	1049.5
336.14	994.5
336.369	1019.5
336.597	1048.5
336.825	1000.5
337.053	982.5
337.281	968.5
337.51	970.5
337.738	978.5
337.966	964.5
338.194	925.5
338.422	947.5
338.65	916.5
338.878	956.5
339.106	936.5
339.334	966.5
339.562	939.5
339.79	925.5
340.018	930.5
340.246	930.5
340.474	923.5
340.702	913.5
340.93	934.5
341.158	912.5
341.386	914.5
341.614	923.5
341.842	896.5
342.07	903.5
342.298	916.5
342.526	900.5
342.754	902.5
342.981	906.5
343.209	947.5
343.437	956.5
343.665	970.5
343.893	1001.5
344.12	982.5
344.348	994.5
344.576	981.5
344.804	978.5
345.031	973.5
345.259	955.5
345.487	943.5
345.714	927.5
345.942	924.5
346.17	928.5
346.397	879.5
346.625	889.5
346.853	899.5
347.08	883.5
347.308	889.5
347.535	904.5
347.763	882.5
347.99	859.5
348.218	868.5
348.445	882.5
348.673	864.5
348.9	881.5
349.128	904.5
349.355	898.5
349.583	877.5
349.81	881.5
350.037	866.5
350.265	871.5
350.492	863.5
350.72	859.5
350.947	868.5
351.174	874.5
351.402	878.5
351.629	856.5
351.856	858.5
352.083	881.5
352.311	888.5
352.538	861.5
352.765	877.5
352.992	886.5
353.22	868.5
353.447	843.5
353.674	861.5
353.901	873.5
354.128	868.5
354.355	860.5
354.583	834.5
354.81	845.5
355.037	854.5
355.264	875.5
355.491	863.5
355.718	848.5
355.945	877.5
356.172	883.5
356.399	866.5
356.626	852.5
356.853	880.5
357.08	888.5
357.307	904.5
357.534	886.5
357.761	888.5
357.988	878.5
358.215	894.5
358.441	908.5
358.668	866.5
358.895	876.5
359.122	870.5
359.349	869.5
359.576	885.5
359.802	900.5
360.029	870.5
360.256	882.5
360.483	882.5
360.709	892.5
360.936	889.5
361.163	889.5
361.39	883.5
361.616	866.5
361.843	892.5
362.07	902.5
362.296	884.5
362.523	883.5
362.749	875.5
362.976	888.5
363.203	896.5
363.429	902.5
363.656	899.5
363.882	900.5
364.109	915.5
364.335	861.5
364.562	888.5
364.788	906.5
365.015	920.5
365.241	890.5
365.468	901.5
365.694	873.5
365.92	878.5
366.147	868.5
366.373	899.5
366.599	883.5
366.826	900.5
367.052	888.5
367.278	899.5
367.505	915.5
367.731	890.5
367.957	878.5
368.184	935.5
368.41	937.5
368.636	943.5
368.862	933.5
369.089	938.5
369.315	928.5
369.541	942.5
369.767	964.5
369.993	929.5
370.219	933.5
370.445	954.5
370.672	952.5
370.898	948.5
371.124	977.5
371.35	989.5
371.576	943.5
371.802	950.5
372.028	984.5
372.254	979.5
372.48	980.5
372.706	973.5
372.932	978.5
373.158	1010.5
373.384	1009.5
373.61	1032.5
373.835	1007.5
374.061	976.5
374.287	972.5
374.513	1009.5
374.739	1042.5
374.965	1039.5
375.191	1062.5
375.416	1030.5
375.642	1019.5
375.868	1024.5
376.094	1029.5
376.319	978.5
376.545	992.5
376.771	979.5
376.997	1001.5
377.222	979.5
377.448	985.5
377.674	976.5
377.899	984.5
378.125	978.5
378.35	971.5
378.576	979.5
378.802	981.5
379.027	997.5
379.253	980.5
379.478	976.5
379.704	973.5
379.929	977.5
380.155	977.5
380.38	945.5
380.606	988.5
380.831	999.5
381.057	978.5
381.282	969.5
381.507	1004.5
381.733	989.5
381.958	1044.5
382.184	1044.5
382.409	1046.5
382.634	1037.5
382.86	1058.5
383.085	1049.5
383.31	1048.5
383.535	1069.5
383.761	1060.5
383.986	1056.5
384.211	1058.5
384.436	1082.5
384.662	1123.5
384.887	1092.5
385.112	1087.5
385.337	1076.5
385.562	1102.5
385.787	1129.5
386.013	1150.5
386.238	1097.5
386.463	1147.5
386.688	1148.5
386.913	1150.5
387.138	1141.5
387.363	1140.5
387.588	1179.5
387.813	1164.5
388.038	1146.5
388.263	1151.5
388.488	1150.5
388.713	1174.5
388.938	1202.5
389.163	1156.5
389.387	1184.5
389.612	1156.5
389.837	1159.5
390.062	1167.5
390.287	1163.5
390.512	1168.5
390.736	1182.5
390.961	1178.5
391.186	1189.5
391.411	1224.5
391.636	1210.5
391.86	1234.5
392.085	1262.5
392.31	1240.5
392.534	1211.5
392.759	1234.5
392.984	1227.5
393.208	1247.5
393.433	1202.5
393.658	1209.5
393.882	1199.5
394.107	1217.5
394.331	1214.5
394.556	1251.5
394.78	1243.5
395.005	1244.5
395.229	1250.5
395.454	1286.5
395.678	1277.5
395.903	1249.5
396.127	1268.5
396.352	1249.5
396.576	1278.5
396.801	1272.5
397.025	1290.5
397.249	1285.5
397.474	1315.5
397.698	1312.5
397.922	1331.5
398.147	1321.5
398.371	1344.5
398.595	1385.5
398.82	1404.5
399.044	1442.5
399.268	1448.5
399.492	1560.5
399.717	1615.5
399.941	1696.5
400.165	1608.5
400.389	1595.5
400.613	1522.5
400.837	1510.5
401.062	1447.5
401.286	1424.5
401.51	1387.5
401.734	1418.5
401.958	1416.5
402.182	1400.5
402.406	1408.5
402.63	1387.5
402.854	1386.5
403.078	1434.5
403.302	1387.5
403.526	1385.5
403.75	1426.5
403.974	1436.5
404.198	1425.5
404.422	1455.5
404.645	1444.5
404.869	1440.5
405.093	1446.5
405.317	1473.5
405.541	1466.5
405.765	1486.5
405.988	1460.5
406.212	1499.5
406.436	1539.5
406.66	1540.5
406.883	1535.5
407.107	1572.5
407.331	1657.5
407.555	1674.5
407.778	1643.5
408.002	1632.5
408.226	1619.5
408.449	1611.5
408.673	1606.5
408.896	1566.5
409.12	1534.5
409.344	1571.5
409.567	1536.5
409.791	1549.5
410.014	1516.5
410.238	1502.5
410.461	1535.5
410.685	1513.5
410.908	1524.5
411.132	1459.5
411.355	1441.5
411.578	1459.5
411.802	1494.5
412.025	1512.5
412.249	1473.5
412.472	1501.5
412.695	1462.5
412.919	1443.5
413.142	1442.5
413.365	1437.5
413.589	1475.5
413.812	1443.5
414.035	1446.5
414.258	1430.5
414.482	1439.5
414.705	1420.5
414.928	1418.5
415.151	1445.5
415.374	1391.5
415.597	1364.5
415.821	1394.5
416.044	1361.5
416.267	1361.5
416.49	1387.5
416.713	1395.5
416.936	1385.5
417.159	1342.5
417.382	1362.5
417.605	1347.5
417.828	1362.5
418.051	1385.5
418.274	1357.5
418.497	1348.5
418.72	1396.5
418.943	1350.5
419.166	1430.5
419.389	1532.5
419.611	1504.5
419.834	1458.5
420.057	1399.5
420.28	1376.5
420.503	1358.5
420.726	1332.5
420.948	1325.5
421.171	1302.5
421.394	1344.5
421.617	1350.5
421.839	1318.5
422.062	1321.5
422.285	1327.5
422.507	1364.5
422.73	1340.5
422.953	1340.5
423.175	1351.5
423.398	1380.5
423.621	1346.5
423.843	1365.5
424.066	1375.5
424.288	1354.5
424.511	1372.5
424.733	1384.5
424.956	1352.5
425.178	1332.5
425.401	1363.5
425.623	1346.5
425.846	1321.5
426.068	1292.5
426.291	1348.5
426.513	1326.5
426.735	1312.5
426.958	1320.5
427.18	1301.5
427.402	1319.5
427.625	1305.5
427.847	1241.5
428.069	1283.5
428.292	1319.5
428.514	1297.5
428.736	1271.5
428.958	1315.5
429.181	1264.5
429.403	1236.5
429.625	1269.5
429.847	1275.5
430.069	1296.5
430.292	1298.5
430.514	1248.5
430.736	1291.5
430.958	1272.5
431.18	1276.5
431.402	1292.5
431.624	1270.5
431.846	1279.5
432.068	1300.5
432.29	1338.5
432.512	1263.5
432.734	1330.5
432.956	1312.5
433.178	1307.5
433.4	1301.5
433.622	1335.5
433.844	1334.5
434.066	1300.5
434.287	1297.5
434.509	1339.5
434.731	1346.5
434.953	1320.5
435.175	1344.5
435.397	1354.5
435.618	1343.5
435.84	1316.5
436.062	1267.5
436.284	1278.5
436.505	1280.5
436.727	1290.5
436.949	1279.5
437.17	1291.5
437.392	1249.5
437.614	1220.5
437.835	1250.5
438.057	1264.5
438.278	1278.5
438.5	1271.5
438.721	1249.5
438.943	1300.5
439.165	1257.5
439.386	1259.5
439.608	1247.5
439.829	1271.5
440.05	1252.5
440.272	1240.5
440.493	1299.5
440.715	1319.5
440.936	1332.5
441.158	1330.5
441.379	1343.5
441.6	1335.5
441.822	1351.5
442.043	1362.5
442.264	1349.5
442.486	1325.5
442.707	1354.5
442.928	1337.5
443.149	1346.5
443.371	1330.5
443.592	1326.5
443.813	1368.5
444.034	1348.5
444.255	1340.5
444.476	1393.5
444.698	1412.5
444.919	1405.5
445.14	1530.5
445.361	1424.5
445.582	1390.5
445.803	1331.5
446.024	1317.5
446.245	1305.5
446.466	1316.5
446.687	1264.5
446.908	1314.5
447.129	1241.5
447.35	1254.5
447.571	1196.5
447.792	1211.5
448.013	1231.5
448.234	1233.5
448.455	1223.5
448.675	1173.5
448.896	1184.5
449.117	1185.5
449.338	1192.5
449.559	1184.5
449.779	1184.5
450	1175.5
450.221	1195.5
450.442	1146.5
450.662	1180.5
450.883	1186.5
451.104	1180.5
451.324	1164.5
451.545	1176.5
451.766	1161.5
451.986	1187.5
452.207	1146.5
452.428	1142.5
452.648	1168.5
452.869	1115.5
453.089	1140.5
453.31	1184.5
453.53	1115.5
453.751	1140.5
453.971	1139.5
454.192	1154.5
454.412	1112.5
454.633	1148.5
454.853	1134.5
455.073	1128.5
455.294	1144.5
455.514	1134.5
455.734	1107.5
455.955	1099.5
456.175	1128.5
456.395	1136.5
456.616	1117.5
456.836	1148.5
457.056	1117.5
457.276	1141.5
457.497	1162.5
457.717	1131.5
457.937	1149.5
458.157	1162.5
458.377	1173.5
458.598	1168.5
458.818	1181.5
459.038	1183.5
459.258	1236.5
459.478	1268.5
459.698	1242.5
459.918	1237.5
460.138	1319.5
460.358	1337.5
460.578	1323.5
460.798	1377.5
461.018	1383.5
461.238	1401.5
461.458	1398.5
461.678	1403.5
461.898	1421.5
462.118	1415.5
462.338	1466.5
462.558	1509.5
462.777	1490.5
462.997	1539.5
463.217	1566.5
463.437	1564.5
463.657	1542.5
463.876	1562.5
464.096	1495.5
464.316	1489.5
464.536	1529.5
464.755	1489.5
464.975	1464.5
465.195	1451.5
465.414	1418.5
465.634	1349.5
465.854	1314.5
466.073	1321.5
466.293	1299.5
466.512	1301.5
466.732	1283.5
466.951	1270.5
467.171	1255.5
467.391	1236.5
467.61	1225.5
467.829	1230.5
468.049	1210.5
468.268	1213.5
468.488	1194.5
468.707	1212.5
468.927	1238.5
469.146	1238.5
469.365	1211.5
469.585	1168.5
469.804	1236.5
470.023	1242.5
470.243	1269.5
470.462	1251.5
470.681	1257.5
470.901	1265.5
471.12	1236.5
471.339	1224.5
471.558	1254.5
471.777	1244.5
471.997	1249.5
472.216	1240.5
472.435	1227.5
472.654	1239.5
472.873	1232.5
473.092	1236.5
473.311	1216.5
473.53	1224.5
473.749	1229.5
473.968	1231.5
474.187	1239.5
474.406	1206.5
474.625	1250.5
474.844	1218.5
475.063	1249.5
475.282	1228.5
475.501	1215.5
475.72	1251.5
475.939	1278.5
476.158	1284.5
476.377	1286.5
476.596	1314.5
476.814	1371.5
477.033	1322.5
477.252	1329.5
477.471	1348.5
477.69	1366.5
477.908	1383.5
478.127	1453.5
478.346	1375.5
478.564	1394.5
478.783	1424.5
479.002	1437.5
479.22	1472.5
479.439	1515.5
479.658	1495.5
479.876	1463.5
480.095	1492.5
480.313	1511.5
480.532	1473.5
480.751	1491.5
480.969	1451.5
481.188	1538.5
481.406	1507.5
481.624	1475.5
481.843	1447.5
482.061	1468.5
482.28	1464.5
482.498	1487.5
482.717	1463.5
482.935	1461.5
483.153	1500.5
483.372	1426.5
483.59	1483.5
483.808	1433.5
484.027	1466.5
484.245	1480.5
484.463	1450.5
484.681	1479.5
484.9	1464.5
485.118	1501.5
485.336	1475.5
485.554	1483.5
485.772	1472.5
485.99	1463.5
486.209	1503.5
486.427	1496.5
486.645	1487.5
486.863	1507.5
487.081	1529.5
487.299	1501.5
487.517	1498.5
487.735	1493.5
487.953	1503.5
488.171	1492.5
488.389	1512.5
488.607	1536.5
488.825	1489.5
489.043	1518.5
489.261	1468.5
489.479	1479.5
489.696	1483.5
489.914	1482.5
490.132	1503.5
490.35	1518.5
490.568	1505.5
490.786	1524.5
491.003	1472.5
491.221	1532.5
491.439	1500.5
491.657	1511.5
491.874	1519.5
492.092	1580.5
492.31	1501.5
492.527	1560.5
492.745	1522.5
492.963	1527.5
493.18	1571.5
493.398	1555.5
493.615	1557.5
493.833	1533.5
494.05	1548.5
494.268	1602.5
494.485	1555.5
494.703	1589.5
494.92	1565.5
495.138	1601.5
495.355	1582.5
495.573	1650.5
495.79	1595.5
496.008	1644.5
496.225	1658.5
496.442	1666.5
496.66	1697.5
496.877	1702.5
497.094	1698.5
497.312	1730.5
497.529	1754.5
497.746	1760.5
497.963	1786.5
498.181	1848.5
498.398	1928.5
498.615	1984.5
498.832	2066.5
499.049	2153.5
499.267	2209.5
499.484	2302.5
499.701	2420.5
499.918	2467.5
500.135	2640.5
500.352	2696.5
500.569	2726.5
500.786	2792.5
501.003	2709.5
501.22	2587.5
501.437	2517.5
501.654	2372.5
501.871	2302.5
502.088	2206.5
502.305	2118.5
502.522	2063.5
502.739	1985.5
502.956	1883.5
503.172	1879.5
503.389	1810.5
503.606	1790.5
503.823	1741.5
504.04	1686.5
504.256	1646.5
504.473	1665.5
504.69	1652.5
504.907	1629.5
505.123	1639.5
505.34	1601.5
505.557	1542.5
505.773	1512.5
505.99	1530.5
506.207	1476.5
506.423	1440.5
506.64	1430.5
506.856	1381.5
507.073	1390.5
507.289	1375.5
507.506	1390.5
507.722	1360.5
507.939	1368.5
508.155	1341.5
508.372	1337.5
508.588	1339.5
508.805	1337.5
509.021	1334.5
509.238	1313.5
509.454	1284.5
509.67	1242.5
509.887	1254.5
510.103	1275.5
510.319	1247.5
510.536	1270.5
510.752	1241.5
