Data from Fe(NO3)3@0.0125M.TitratingCurve.Agarose3%dH2O.NegLispCup.LampEnergy10.LIBS07252019_HRD10591_16-59-53-336.txt Node
Date: Thu Jul 25 16:59:53 EDT 2019
User: cochatt
Spectrometer: HR+D1059
Trigger mode: 1
Integration Time (sec): 1.000000E-1
Scans to average: 1
Electric dark correction enabled: true
Nonlinearity correction enabled: false
Boxcar width: 0
XAxis mode: Wavelengths
Number of Pixels in Spectrum: 2048
>>>>>Begin Spectral Data<<<<<
223.165	-8.12
223.4	-8.12
223.635	-8.12
223.869	-9.12
224.104	-4.12
224.338	-22.12
224.573	-19.12
224.808	-11.12
225.042	-24.12
225.277	-7.12
225.511	-8.12
225.746	8.88
225.98	10.88
226.215	15.88
226.449	8.88
226.683	14.88
226.918	29.88
227.152	23.88
227.387	38.88
227.621	49.88
227.856	38.88
228.09	54.88
228.324	38.88
228.559	37.88
228.793	62.88
229.027	69.88
229.262	60.88
229.496	70.88
229.73	62.88
229.964	65.88
230.199	84.88
230.433	90.88
230.667	94.88
230.901	83.88
231.136	96.88
231.37	98.88
231.604	95.88
231.838	96.88
232.072	83.88
232.306	113.88
232.541	101.88
232.775	88.88
233.009	99.88
233.243	90.88
233.477	100.88
233.711	96.88
233.945	96.88
234.179	98.88
234.413	93.88
234.647	88.88
234.881	95.88
235.115	99.88
235.349	92.88
235.583	92.88
235.817	105.88
236.051	103.88
236.285	127.88
236.519	94.88
236.753	110.88
236.987	98.88
237.221	104.88
237.455	93.88
237.689	82.88
237.922	117.88
238.156	103.88
238.39	107.88
238.624	106.88
238.858	101.88
239.091	111.88
239.325	102.88
239.559	107.88
239.793	100.88
240.027	105.88
240.26	98.88
240.494	110.88
240.728	100.88
240.961	102.88
241.195	109.88
241.429	104.88
241.662	110.88
241.896	114.88
242.13	97.88
242.363	90.88
242.597	112.88
242.83	111.88
243.064	117.88
243.298	108.88
243.531	106.88
243.765	113.88
243.998	120.88
244.232	100.88
244.465	118.88
244.699	117.88
244.932	110.88
245.166	124.88
245.399	105.88
245.633	110.88
245.866	114.88
246.099	120.88
246.333	116.88
246.566	108.88
246.8	128.88
247.033	130.88
247.266	119.88
247.5	116.88
247.733	126.88
247.966	99.88
248.2	113.88
248.433	118.88
248.666	122.88
248.899	109.88
249.133	121.88
249.366	117.88
249.599	120.88
249.832	134.88
250.066	131.88
250.299	137.88
250.532	124.88
250.765	126.88
250.998	115.88
251.231	113.88
251.465	120.88
251.698	122.88
251.931	115.88
252.164	125.88
252.397	130.88
252.63	131.88
252.863	126.88
253.096	122.88
253.329	133.88
253.562	124.88
253.795	128.88
254.028	129.88
254.261	143.88
254.494	126.88
254.727	147.88
254.96	142.88
255.193	142.88
255.426	127.88
255.659	146.88
255.892	144.88
256.124	135.88
256.357	137.88
256.59	148.88
256.823	133.88
257.056	133.88
257.289	132.88
257.521	132.88
257.754	133.88
257.987	138.88
258.22	143.88
258.452	130.88
258.685	148.88
258.918	143.88
259.151	143.88
259.383	140.88
259.616	144.88
259.849	160.88
260.081	149.88
260.314	172.88
260.547	160.88
260.779	151.88
261.012	156.88
261.244	140.88
261.477	157.88
261.71	150.88
261.942	143.88
262.175	156.88
262.407	159.88
262.64	152.88
262.872	145.88
263.105	165.88
263.337	157.88
263.57	144.88
263.802	158.88
264.035	137.88
264.267	160.88
264.499	158.88
264.732	154.88
264.964	139.88
265.197	148.88
265.429	139.88
265.661	141.88
265.894	155.88
266.126	154.88
266.358	167.88
266.591	161.88
266.823	163.88
267.055	140.88
267.287	156.88
267.52	159.88
267.752	157.88
267.984	158.88
268.216	168.88
268.448	168.88
268.681	163.88
268.913	157.88
269.145	153.88
269.377	169.88
269.609	152.88
269.841	154.88
270.073	157.88
270.306	160.88
270.538	172.88
270.77	170.88
271.002	177.88
271.234	168.88
271.466	180.88
271.698	174.88
271.93	161.88
272.162	172.88
272.394	165.88
272.626	175.88
272.858	178.88
273.09	172.88
273.322	176.88
273.553	159.88
273.785	180.88
274.017	200.88
274.249	200.88
274.481	191.88
274.713	197.88
274.945	189.88
275.176	201.88
275.408	195.88
275.64	201.88
275.872	210.88
276.104	186.88
276.335	201.88
276.567	177.88
276.799	181.88
277.031	183.88
277.262	175.88
277.494	175.88
277.726	192.88
277.957	215.88
278.189	184.88
278.421	190.88
278.652	188.88
278.884	188.88
279.115	199.88
279.347	198.88
279.579	200.88
279.81	193.88
280.042	201.88
280.273	177.88
280.505	196.88
280.736	198.88
280.968	197.88
281.199	191.88
281.431	195.88
281.662	208.88
281.894	214.88
282.125	202.88
282.356	192.88
282.588	211.88
282.819	209.88
283.051	206.88
283.282	214.88
283.513	200.88
283.745	189.88
283.976	195.88
284.207	200.88
284.439	219.88
284.67	206.88
284.901	225.88
285.132	194.88
285.364	207.88
285.595	225.88
285.826	218.88
286.057	214.88
286.288	222.88
286.52	221.88
286.751	224.88
286.982	237.88
287.213	216.88
287.444	220.88
287.675	223.88
287.906	212.88
288.138	234.88
288.369	226.88
288.6	233.88
288.831	221.88
289.062	234.88
289.293	228.88
289.524	236.88
289.755	200.88
289.986	228.88
290.217	229.88
290.448	219.88
290.679	219.88
290.91	228.88
291.141	227.88
291.371	229.88
291.602	249.88
291.833	245.88
292.064	227.88
292.295	232.88
292.526	250.88
292.757	256.88
292.987	239.88
293.218	236.88
293.449	244.88
293.68	237.88
293.91	257.88
294.141	231.88
294.372	249.88
294.603	258.88
294.833	242.88
295.064	253.88
295.295	266.88
295.525	258.88
295.756	247.88
295.987	258.88
296.217	238.88
296.448	249.88
296.679	259.88
296.909	273.88
297.14	262.88
297.37	268.88
297.601	276.88
297.831	268.88
298.062	264.88
298.292	272.88
298.523	281.88
298.753	262.88
298.984	272.88
299.214	266.88
299.445	261.88
299.675	261.88
299.905	268.88
300.136	279.88
300.366	288.88
300.597	277.88
300.827	287.88
301.057	263.88
301.288	282.88
301.518	288.88
301.748	292.88
301.979	278.88
302.209	279.88
302.439	290.88
302.669	285.88
302.9	298.88
303.13	290.88
303.36	293.88
303.59	290.88
303.82	286.88
304.051	286.88
304.281	303.88
304.511	291.88
304.741	288.88
304.971	292.88
305.201	287.88
305.431	300.88
305.661	311.88
305.891	326.88
306.121	295.88
306.352	276.88
306.582	287.88
306.812	291.88
307.042	296.88
307.272	300.88
307.502	297.88
307.731	298.88
307.961	301.88
308.191	293.88
308.421	288.88
308.651	284.88
308.881	314.88
309.111	293.88
309.341	296.88
309.571	302.88
309.8	299.88
310.03	329.88
310.26	280.88
310.49	294.88
310.72	311.88
310.949	309.88
311.179	309.88
311.409	322.88
311.639	318.88
311.868	329.88
312.098	303.88
312.328	321.88
312.557	324.88
312.787	311.88
313.017	318.88
313.246	326.88
313.476	313.88
313.706	323.88
313.935	324.88
314.165	315.88
314.394	333.88
314.624	337.88
314.853	341.88
315.083	311.88
315.312	329.88
315.542	342.88
315.771	342.88
316.001	345.88
316.23	327.88
316.46	330.88
316.689	334.88
316.919	336.88
317.148	367.88
317.377	356.88
317.607	336.88
317.836	338.88
318.065	341.88
318.295	349.88
318.524	342.88
318.753	347.88
318.983	333.88
319.212	352.88
319.441	342.88
319.67	373.88
319.9	345.88
320.129	343.88
320.358	350.88
320.587	361.88
320.816	336.88
321.046	358.88
321.275	359.88
321.504	365.88
321.733	352.88
321.962	342.88
322.191	382.88
322.42	369.88
322.649	355.88
322.878	361.88
323.108	371.88
323.337	374.88
323.566	364.88
323.795	364.88
324.024	357.88
324.253	345.88
324.482	377.88
324.71	352.88
324.939	368.88
325.168	383.88
325.397	375.88
325.626	356.88
325.855	373.88
326.084	383.88
326.313	386.88
326.542	384.88
326.77	381.88
326.999	365.88
327.228	364.88
327.457	376.88
327.686	386.88
327.914	382.88
328.143	377.88
328.372	370.88
328.6	390.88
328.829	391.88
329.058	375.88
329.287	371.88
329.515	393.88
329.744	375.88
329.972	379.88
330.201	390.88
330.43	390.88
330.658	390.88
330.887	386.88
331.115	399.88
331.344	398.88
331.572	386.88
331.801	410.88
332.03	393.88
332.258	399.88
332.486	387.88
332.715	398.88
332.943	389.88
333.172	409.88
333.4	430.88
333.629	438.88
333.857	438.88
334.085	415.88
334.314	422.88
334.542	424.88
334.771	440.88
334.999	443.88
335.227	439.88
335.455	430.88
335.684	409.88
335.912	433.88
336.14	415.88
336.369	440.88
336.597	437.88
336.825	436.88
337.053	433.88
337.281	429.88
337.51	409.88
337.738	425.88
337.966	412.88
338.194	400.88
338.422	448.88
338.65	435.88
338.878	413.88
339.106	406.88
339.334	408.88
339.562	412.88
339.79	408.88
340.018	409.88
340.246	416.88
340.474	408.88
340.702	436.88
340.93	439.88
341.158	423.88
341.386	413.88
341.614	409.88
341.842	420.88
342.07	434.88
342.298	410.88
342.526	408.88
342.754	424.88
342.981	404.88
343.209	435.88
343.437	428.88
343.665	453.88
343.893	427.88
344.12	436.88
344.348	437.88
344.576	414.88
344.804	418.88
345.031	423.88
345.259	424.88
345.487	415.88
345.714	403.88
345.942	423.88
346.17	424.88
346.397	417.88
346.625	431.88
346.853	405.88
347.08	414.88
347.308	420.88
347.535	402.88
347.763	419.88
347.99	412.88
348.218	412.88
348.445	412.88
348.673	404.88
348.9	415.88
349.128	398.88
349.355	414.88
349.583	414.88
349.81	414.88
350.037	410.88
350.265	421.88
350.492	411.88
350.72	414.88
350.947	419.88
351.174	412.88
351.402	429.88
351.629	423.88
351.856	413.88
352.083	411.88
352.311	386.88
352.538	396.88
352.765	414.88
352.992	408.88
353.22	416.88
353.447	396.88
353.674	412.88
353.901	409.88
354.128	420.88
354.355	412.88
354.583	391.88
354.81	415.88
355.037	417.88
355.264	430.88
355.491	408.88
355.718	416.88
355.945	412.88
356.172	429.88
356.399	438.88
356.626	432.88
356.853	412.88
357.08	420.88
357.307	416.88
357.534	423.88
357.761	404.88
357.988	412.88
358.215	420.88
358.441	433.88
358.668	410.88
358.895	417.88
359.122	408.88
359.349	402.88
359.576	419.88
359.802	405.88
360.029	419.88
360.256	417.88
360.483	432.88
360.709	429.88
360.936	412.88
361.163	430.88
361.39	439.88
361.616	426.88
361.843	436.88
362.07	434.88
362.296	430.88
362.523	413.88
362.749	425.88
362.976	421.88
363.203	432.88
363.429	423.88
363.656	437.88
363.882	432.88
364.109	426.88
364.335	438.88
364.562	441.88
364.788	430.88
365.015	422.88
365.241	424.88
365.468	444.88
365.694	451.88
365.92	413.88
366.147	436.88
366.373	419.88
366.599	430.88
366.826	450.88
367.052	413.88
367.278	442.88
367.505	424.88
367.731	445.88
367.957	415.88
368.184	447.88
368.41	445.88
368.636	433.88
368.862	458.88
369.089	450.88
369.315	455.88
369.541	432.88
369.767	464.88
369.993	450.88
370.219	461.88
370.445	462.88
370.672	448.88
370.898	435.88
371.124	455.88
371.35	466.88
371.576	467.88
371.802	468.88
372.028	446.88
372.254	464.88
372.48	475.88
372.706	487.88
372.932	458.88
373.158	486.88
373.384	476.88
373.61	477.88
373.835	496.88
374.061	458.88
374.287	457.88
374.513	471.88
374.739	483.88
374.965	483.88
375.191	482.88
375.416	483.88
375.642	463.88
375.868	483.88
376.094	481.88
376.319	467.88
376.545	473.88
376.771	466.88
376.997	463.88
377.222	470.88
377.448	462.88
377.674	465.88
377.899	463.88
378.125	457.88
378.35	451.88
378.576	466.88
378.802	464.88
379.027	449.88
379.253	441.88
379.478	463.88
379.704	456.88
379.929	457.88
380.155	452.88
380.38	481.88
380.606	510.88
380.831	462.88
381.057	477.88
381.282	464.88
381.507	483.88
381.733	492.88
381.958	481.88
382.184	476.88
382.409	477.88
382.634	506.88
382.86	477.88
383.085	472.88
383.31	478.88
383.535	517.88
383.761	476.88
383.986	464.88
384.211	482.88
384.436	502.88
384.662	518.88
384.887	504.88
385.112	478.88
385.337	528.88
385.562	493.88
385.787	509.88
386.013	530.88
386.238	518.88
386.463	510.88
386.688	522.88
386.913	509.88
387.138	536.88
387.363	534.88
387.588	543.88
387.813	516.88
388.038	479.88
388.263	528.88
388.488	543.88
388.713	536.88
388.938	547.88
389.163	543.88
389.387	517.88
389.612	546.88
389.837	540.88
390.062	534.88
390.287	531.88
390.512	509.88
390.736	521.88
390.961	525.88
391.186	530.88
391.411	520.88
391.636	560.88
391.86	535.88
392.085	535.88
392.31	538.88
392.534	528.88
392.759	525.88
392.984	541.88
393.208	544.88
393.433	559.88
393.658	558.88
393.882	549.88
394.107	538.88
394.331	543.88
394.556	541.88
394.78	538.88
395.005	556.88
395.229	541.88
395.454	554.88
395.678	531.88
395.903	542.88
396.127	549.88
396.352	557.88
396.576	546.88
396.801	573.88
397.025	574.88
397.249	581.88
397.474	565.88
397.698	547.88
397.922	556.88
398.147	570.88
398.371	596.88
398.595	591.88
398.82	592.88
399.044	590.88
399.268	588.88
399.492	615.88
399.717	657.88
399.941	666.88
400.165	650.88
400.389	648.88
400.613	621.88
400.837	599.88
401.062	618.88
401.286	614.88
401.51	601.88
401.734	605.88
401.958	602.88
402.182	615.88
402.406	621.88
402.63	628.88
402.854	585.88
403.078	605.88
403.302	600.88
403.526	606.88
403.75	602.88
403.974	606.88
404.198	620.88
404.422	637.88
404.645	594.88
404.869	610.88
405.093	593.88
405.317	628.88
405.541	590.88
405.765	581.88
405.988	623.88
406.212	620.88
406.436	629.88
406.66	634.88
406.883	639.88
407.107	646.88
407.331	667.88
407.555	661.88
407.778	673.88
408.002	632.88
408.226	656.88
408.449	643.88
408.673	662.88
408.896	639.88
409.12	624.88
409.344	646.88
409.567	624.88
409.791	641.88
410.014	624.88
410.238	646.88
410.461	637.88
410.685	658.88
410.908	637.88
411.132	626.88
411.355	615.88
411.578	617.88
411.802	620.88
412.025	605.88
412.249	626.88
412.472	615.88
412.695	607.88
412.919	623.88
413.142	628.88
413.365	594.88
413.589	622.88
413.812	605.88
414.035	610.88
414.258	621.88
414.482	613.88
414.705	615.88
414.928	621.88
415.151	622.88
415.374	620.88
415.597	583.88
415.821	622.88
416.044	594.88
416.267	589.88
416.49	609.88
416.713	593.88
416.936	582.88
417.159	584.88
417.382	577.88
417.605	576.88
417.828	592.88
418.051	603.88
418.274	586.88
418.497	594.88
418.72	584.88
418.943	589.88
419.166	615.88
419.389	655.88
419.611	626.88
419.834	611.88
420.057	595.88
420.28	589.88
420.503	584.88
420.726	592.88
420.948	572.88
421.171	572.88
421.394	561.88
421.617	570.88
421.839	567.88
422.062	594.88
422.285	569.88
422.507	599.88
422.73	584.88
422.953	579.88
423.175	575.88
423.398	583.88
423.621	580.88
423.843	579.88
424.066	574.88
424.288	606.88
424.511	599.88
424.733	574.88
424.956	592.88
425.178	571.88
425.401	609.88
425.623	612.88
425.846	577.88
426.068	590.88
426.291	576.88
426.513	595.88
426.735	580.88
426.958	572.88
427.18	559.88
427.402	576.88
427.625	566.88
427.847	563.88
428.069	562.88
428.292	582.88
428.514	561.88
428.736	571.88
428.958	589.88
429.181	572.88
429.403	561.88
429.625	564.88
429.847	562.88
430.069	567.88
430.292	560.88
430.514	578.88
430.736	564.88
430.958	583.88
431.18	563.88
431.402	576.88
431.624	563.88
431.846	585.88
432.068	557.88
432.29	596.88
432.512	578.88
432.734	586.88
432.956	561.88
433.178	583.88
433.4	585.88
433.622	585.88
433.844	568.88
434.066	568.88
434.287	572.88
434.509	549.88
434.731	590.88
434.953	558.88
435.175	574.88
435.397	592.88
435.618	578.88
435.84	586.88
436.062	574.88
436.284	571.88
436.505	567.88
436.727	569.88
436.949	579.88
437.17	593.88
437.392	564.88
437.614	578.88
437.835	571.88
438.057	550.88
438.278	543.88
438.5	569.88
438.721	575.88
438.943	564.88
439.165	554.88
439.386	573.88
439.608	581.88
439.829	590.88
440.05	574.88
440.272	585.88
440.493	594.88
440.715	586.88
440.936	588.88
441.158	568.88
441.379	558.88
441.6	601.88
441.822	592.88
442.043	581.88
442.264	581.88
442.486	591.88
442.707	582.88
442.928	601.88
443.149	572.88
443.371	590.88
443.592	577.88
443.813	572.88
444.034	590.88
444.255	601.88
444.476	616.88
444.698	597.88
444.919	586.88
445.14	671.88
445.361	620.88
445.582	591.88
445.803	550.88
446.024	578.88
446.245	579.88
446.466	584.88
446.687	569.88
446.908	585.88
447.129	557.88
447.35	557.88
447.571	564.88
447.792	559.88
448.013	557.88
448.234	558.88
448.455	538.88
448.675	553.88
448.896	559.88
449.117	526.88
449.338	551.88
449.559	542.88
449.779	513.88
450	538.88
450.221	524.88
450.442	532.88
450.662	520.88
450.883	536.88
451.104	529.88
451.324	522.88
451.545	537.88
451.766	547.88
451.986	533.88
452.207	545.88
452.428	543.88
452.648	533.88
452.869	534.88
453.089	537.88
453.31	550.88
453.53	517.88
453.751	504.88
453.971	516.88
454.192	522.88
454.412	506.88
454.633	527.88
454.853	544.88
455.073	521.88
455.294	539.88
455.514	526.88
455.734	520.88
455.955	516.88
456.175	523.88
456.395	512.88
456.616	518.88
456.836	529.88
457.056	528.88
457.276	526.88
457.497	542.88
457.717	526.88
457.937	529.88
458.157	542.88
458.377	568.88
458.598	540.88
458.818	566.88
459.038	547.88
459.258	569.88
459.478	576.88
459.698	571.88
459.918	557.88
460.138	588.88
460.358	587.88
460.578	574.88
460.798	607.88
461.018	596.88
461.238	602.88
461.458	585.88
461.678	601.88
461.898	613.88
462.118	620.88
462.338	615.88
462.558	634.88
462.777	625.88
462.997	626.88
463.217	655.88
463.437	638.88
463.657	646.88
463.876	643.88
464.096	653.88
464.316	645.88
464.536	648.88
464.755	634.88
464.975	616.88
465.195	608.88
465.414	600.88
465.634	593.88
465.854	597.88
466.073	592.88
466.293	596.88
466.512	582.88
466.732	578.88
466.951	586.88
467.171	579.88
467.391	567.88
467.61	568.88
467.829	577.88
468.049	574.88
468.268	558.88
468.488	581.88
468.707	551.88
468.927	562.88
469.146	568.88
469.365	572.88
469.585	580.88
469.804	573.88
470.023	609.88
470.243	578.88
470.462	594.88
470.681	578.88
470.901	582.88
471.12	587.88
471.339	581.88
471.558	572.88
471.777	569.88
471.997	589.88
472.216	581.88
472.435	589.88
472.654	587.88
472.873	578.88
473.092	585.88
473.311	596.88
473.53	596.88
473.749	591.88
473.968	605.88
474.187	593.88
474.406	612.88
474.625	603.88
474.844	584.88
475.063	600.88
475.282	604.88
475.501	598.88
475.72	632.88
475.939	590.88
476.158	627.88
476.377	634.88
476.596	624.88
476.814	639.88
477.033	634.88
477.252	626.88
477.471	623.88
477.69	642.88
477.908	653.88
478.127	646.88
478.346	673.88
478.564	672.88
478.783	680.88
479.002	686.88
479.22	678.88
479.439	682.88
479.658	668.88
479.876	682.88
480.095	673.88
480.313	711.88
480.532	713.88
480.751	693.88
480.969	684.88
481.188	692.88
481.406	695.88
481.624	697.88
481.843	670.88
482.061	675.88
482.28	702.88
482.498	685.88
482.717	706.88
482.935	696.88
483.153	713.88
483.372	718.88
483.59	718.88
483.808	713.88
484.027	716.88
484.245	715.88
484.463	704.88
484.681	723.88
484.9	729.88
485.118	712.88
485.336	698.88
485.554	729.88
485.772	715.88
485.99	737.88
486.209	714.88
486.427	733.88
486.645	717.88
486.863	750.88
487.081	727.88
487.299	766.88
487.517	743.88
487.735	742.88
487.953	735.88
488.171	764.88
488.389	735.88
488.607	725.88
488.825	711.88
489.043	728.88
489.261	729.88
489.479	733.88
489.696	749.88
489.914	713.88
490.132	718.88
490.35	724.88
490.568	736.88
490.786	768.88
491.003	744.88
491.221	740.88
491.439	768.88
491.657	734.88
491.874	774.88
492.092	768.88
492.31	776.88
492.527	764.88
492.745	756.88
492.963	742.88
493.18	757.88
493.398	769.88
493.615	767.88
493.833	763.88
494.05	752.88
494.268	766.88
494.485	778.88
494.703	765.88
494.92	775.88
495.138	783.88
495.355	766.88
495.573	774.88
495.79	797.88
496.008	799.88
496.225	805.88
496.442	800.88
496.66	806.88
496.877	809.88
497.094	819.88
497.312	822.88
497.529	852.88
497.746	858.88
497.963	846.88
498.181	855.88
498.398	882.88
498.615	903.88
498.832	909.88
499.049	947.88
499.267	930.88
499.484	958.88
499.701	999.88
499.918	1024.88
500.135	1042.88
500.352	1053.88
500.569	1040.88
500.786	1065.88
501.003	1092.88
501.22	1045.88
501.437	1001.88
501.654	951.88
501.871	965.88
