Data from Fe(NO3)3@0.1M.TitratingCurve.Agarose3%dH2O.NegLispCup.LampEnergy10.LIBS07252019_HRD10591_16-40-20-332.txt Node
Date: Thu Jul 25 16:40:20 EDT 2019
User: cochatt
Spectrometer: HR+D1059
Trigger mode: 1
Integration Time (sec): 1.000000E-1
Scans to average: 1
Electric dark correction enabled: true
Nonlinearity correction enabled: false
Boxcar width: 0
XAxis mode: Wavelengths
Number of Pixels in Spectrum: 2048
>>>>>Begin Spectral Data<<<<<
223.165	-15.88
223.4	-15.88
223.635	-15.88
223.869	-14.88
224.104	-18.88
224.338	5.12
224.573	-18.88
224.808	-17.88
225.042	-16.88
225.277	-9.88
225.511	7.12
225.746	3.12
225.98	7.12
226.215	7.12
226.449	18.12
226.683	12.12
226.918	25.12
227.152	28.12
227.387	47.12
227.621	26.12
227.856	36.12
228.09	55.12
228.324	34.12
228.559	69.12
228.793	69.12
229.027	67.12
229.262	84.12
229.496	73.12
229.73	71.12
229.964	70.12
230.199	94.12
230.433	84.12
230.667	80.12
230.901	79.12
231.136	84.12
231.37	85.12
231.604	93.12
231.838	91.12
232.072	92.12
232.306	89.12
232.541	79.12
232.775	89.12
233.009	82.12
233.243	91.12
233.477	79.12
233.711	95.12
233.945	98.12
234.179	93.12
234.413	105.12
234.647	91.12
234.881	97.12
235.115	79.12
235.349	82.12
235.583	100.12
235.817	94.12
236.051	83.12
236.285	91.12
236.519	92.12
236.753	82.12
236.987	90.12
237.221	87.12
237.455	91.12
237.689	74.12
237.922	87.12
238.156	83.12
238.39	91.12
238.624	98.12
238.858	80.12
239.091	85.12
239.325	94.12
239.559	90.12
239.793	92.12
240.027	85.12
240.26	85.12
240.494	86.12
240.728	105.12
240.961	94.12
241.195	95.12
241.429	92.12
241.662	95.12
241.896	87.12
242.13	90.12
242.363	107.12
242.597	99.12
242.83	82.12
243.064	84.12
243.298	86.12
243.531	100.12
243.765	102.12
243.998	92.12
244.232	93.12
244.465	106.12
244.699	91.12
244.932	77.12
245.166	100.12
245.399	95.12
245.633	97.12
245.866	103.12
246.099	85.12
246.333	113.12
246.566	92.12
246.8	90.12
247.033	118.12
247.266	101.12
247.5	101.12
247.733	94.12
247.966	110.12
248.2	82.12
248.433	92.12
248.666	106.12
248.899	93.12
249.133	91.12
249.366	115.12
249.599	88.12
249.832	91.12
250.066	101.12
250.299	95.12
250.532	96.12
250.765	99.12
250.998	110.12
251.231	105.12
251.465	103.12
251.698	95.12
251.931	103.12
252.164	99.12
252.397	108.12
252.63	115.12
252.863	96.12
253.096	117.12
253.329	119.12
253.562	115.12
253.795	102.12
254.028	106.12
254.261	110.12
254.494	97.12
254.727	100.12
254.96	106.12
255.193	97.12
255.426	98.12
255.659	95.12
255.892	102.12
256.124	129.12
256.357	120.12
256.59	113.12
256.823	114.12
257.056	101.12
257.289	106.12
257.521	129.12
257.754	112.12
257.987	100.12
258.22	104.12
258.452	122.12
258.685	115.12
258.918	113.12
259.151	114.12
259.383	107.12
259.616	106.12
259.849	97.12
260.081	113.12
260.314	114.12
260.547	122.12
260.779	102.12
261.012	117.12
261.244	98.12
261.477	105.12
261.71	122.12
261.942	117.12
262.175	106.12
262.407	121.12
262.64	106.12
262.872	123.12
263.105	105.12
263.337	108.12
263.57	120.12
263.802	106.12
264.035	119.12
264.267	127.12
264.499	105.12
264.732	126.12
264.964	125.12
265.197	110.12
265.429	118.12
265.661	129.12
265.894	119.12
266.126	129.12
266.358	137.12
266.591	113.12
266.823	119.12
267.055	113.12
267.287	129.12
267.52	128.12
267.752	122.12
267.984	117.12
268.216	125.12
268.448	134.12
268.681	108.12
268.913	143.12
269.145	139.12
269.377	130.12
269.609	129.12
269.841	120.12
270.073	128.12
270.306	123.12
270.538	125.12
270.77	127.12
271.002	129.12
271.234	133.12
271.466	124.12
271.698	131.12
271.93	125.12
272.162	119.12
272.394	127.12
272.626	139.12
272.858	115.12
273.09	126.12
273.322	130.12
273.553	127.12
273.785	129.12
274.017	113.12
274.249	123.12
274.481	132.12
274.713	133.12
274.945	116.12
275.176	139.12
275.408	144.12
275.64	125.12
275.872	124.12
276.104	131.12
276.335	132.12
276.567	131.12
276.799	133.12
277.031	115.12
277.262	133.12
277.494	125.12
277.726	119.12
277.957	128.12
278.189	123.12
278.421	122.12
278.652	130.12
278.884	119.12
279.115	139.12
279.347	139.12
279.579	134.12
279.81	136.12
280.042	122.12
280.273	133.12
280.505	126.12
280.736	139.12
280.968	130.12
281.199	124.12
281.431	141.12
281.662	126.12
281.894	129.12
282.125	124.12
282.356	138.12
282.588	147.12
282.819	137.12
283.051	126.12
283.282	132.12
283.513	143.12
283.745	146.12
283.976	123.12
284.207	153.12
284.439	148.12
284.67	132.12
284.901	143.12
285.132	146.12
285.364	133.12
285.595	134.12
285.826	139.12
286.057	131.12
286.288	137.12
286.52	156.12
286.751	137.12
286.982	148.12
287.213	148.12
287.444	142.12
287.675	145.12
287.906	144.12
288.138	142.12
288.369	149.12
288.6	135.12
288.831	144.12
289.062	137.12
289.293	142.12
289.524	137.12
289.755	150.12
289.986	133.12
290.217	139.12
290.448	142.12
290.679	142.12
290.91	138.12
291.141	161.12
291.371	139.12
291.602	143.12
291.833	135.12
292.064	154.12
292.295	144.12
292.526	149.12
292.757	141.12
292.987	139.12
293.218	143.12
293.449	131.12
293.68	140.12
293.91	148.12
294.141	158.12
294.372	142.12
294.603	160.12
294.833	136.12
295.064	154.12
295.295	164.12
295.525	155.12
295.756	158.12
295.987	158.12
296.217	141.12
296.448	146.12
296.679	143.12
296.909	138.12
297.14	158.12
297.37	161.12
297.601	147.12
297.831	144.12
298.062	159.12
298.292	146.12
298.523	157.12
298.753	151.12
298.984	151.12
299.214	158.12
299.445	158.12
299.675	142.12
299.905	157.12
300.136	149.12
300.366	154.12
300.597	155.12
300.827	158.12
301.057	163.12
301.288	167.12
301.518	152.12
301.748	169.12
301.979	173.12
302.209	172.12
302.439	164.12
302.669	160.12
302.9	150.12
303.13	163.12
303.36	161.12
303.59	144.12
303.82	159.12
304.051	158.12
304.281	161.12
304.511	142.12
304.741	163.12
304.971	158.12
305.201	160.12
305.431	158.12
305.661	162.12
305.891	158.12
306.121	148.12
306.352	164.12
306.582	151.12
306.812	162.12
307.042	170.12
307.272	156.12
307.502	171.12
307.731	161.12
307.961	174.12
308.191	181.12
308.421	151.12
308.651	145.12
308.881	148.12
309.111	158.12
309.341	161.12
309.571	159.12
309.8	159.12
310.03	154.12
310.26	157.12
310.49	154.12
310.72	179.12
310.949	174.12
311.179	152.12
311.409	170.12
311.639	167.12
311.868	167.12
312.098	158.12
312.328	150.12
312.557	168.12
312.787	160.12
313.017	166.12
313.246	176.12
313.476	167.12
313.706	163.12
313.935	158.12
314.165	171.12
314.394	164.12
314.624	171.12
314.853	189.12
315.083	183.12
315.312	162.12
315.542	155.12
315.771	171.12
316.001	169.12
316.23	178.12
316.46	175.12
316.689	169.12
316.919	156.12
317.148	154.12
317.377	174.12
317.607	173.12
317.836	169.12
318.065	165.12
318.295	166.12
318.524	165.12
318.753	167.12
318.983	177.12
319.212	159.12
319.441	170.12
319.67	173.12
319.9	164.12
320.129	174.12
320.358	157.12
320.587	178.12
320.816	170.12
321.046	180.12
321.275	177.12
321.504	168.12
321.733	183.12
321.962	169.12
322.191	173.12
322.42	177.12
322.649	172.12
322.878	169.12
323.108	175.12
323.337	164.12
323.566	163.12
323.795	167.12
324.024	172.12
324.253	188.12
324.482	179.12
324.71	177.12
324.939	169.12
325.168	165.12
325.397	175.12
325.626	195.12
325.855	170.12
326.084	174.12
326.313	175.12
326.542	182.12
326.77	182.12
326.999	187.12
327.228	192.12
327.457	198.12
327.686	164.12
327.914	185.12
328.143	166.12
328.372	177.12
328.6	176.12
328.829	193.12
329.058	174.12
329.287	157.12
329.515	173.12
329.744	181.12
329.972	181.12
330.201	174.12
330.43	189.12
330.658	179.12
330.887	170.12
331.115	189.12
331.344	205.12
331.572	208.12
331.801	181.12
332.03	197.12
332.258	208.12
332.486	193.12
332.715	216.12
332.943	196.12
333.172	205.12
333.4	196.12
333.629	225.12
333.857	213.12
334.085	227.12
334.314	227.12
334.542	208.12
334.771	193.12
334.999	207.12
335.227	204.12
335.455	193.12
335.684	217.12
335.912	224.12
336.14	190.12
336.369	192.12
336.597	208.12
336.825	214.12
337.053	199.12
337.281	200.12
337.51	203.12
337.738	190.12
337.966	181.12
338.194	193.12
338.422	181.12
338.65	199.12
338.878	187.12
339.106	179.12
339.334	192.12
339.562	187.12
339.79	198.12
340.018	180.12
340.246	179.12
340.474	174.12
340.702	198.12
340.93	190.12
341.158	191.12
341.386	191.12
341.614	186.12
341.842	184.12
342.07	183.12
342.298	191.12
342.526	174.12
342.754	186.12
342.981	173.12
343.209	182.12
343.437	215.12
343.665	205.12
343.893	228.12
344.12	215.12
344.348	207.12
344.576	199.12
344.804	205.12
345.031	210.12
345.259	177.12
345.487	179.12
345.714	185.12
345.942	179.12
346.17	191.12
346.397	175.12
346.625	193.12
346.853	196.12
347.08	195.12
347.308	188.12
347.535	200.12
347.763	202.12
347.99	190.12
348.218	194.12
348.445	170.12
348.673	178.12
348.9	179.12
349.128	193.12
349.355	195.12
349.583	179.12
349.81	180.12
350.037	203.12
350.265	185.12
350.492	205.12
350.72	185.12
350.947	193.12
351.174	183.12
351.402	179.12
351.629	186.12
351.856	187.12
352.083	178.12
352.311	175.12
352.538	191.12
352.765	159.12
352.992	178.12
353.22	173.12
353.447	190.12
353.674	174.12
353.901	190.12
354.128	183.12
354.355	188.12
354.583	167.12
354.81	180.12
355.037	174.12
355.264	188.12
355.491	177.12
355.718	179.12
355.945	179.12
356.172	201.12
356.399	189.12
356.626	175.12
356.853	169.12
357.08	173.12
357.307	183.12
357.534	180.12
357.761	183.12
357.988	182.12
358.215	195.12
358.441	181.12
358.668	173.12
358.895	181.12
359.122	185.12
359.349	185.12
359.576	169.12
359.802	174.12
360.029	180.12
360.256	193.12
360.483	189.12
360.709	195.12
360.936	183.12
361.163	177.12
361.39	183.12
361.616	178.12
361.843	190.12
362.07	180.12
362.296	192.12
362.523	187.12
362.749	157.12
362.976	188.12
363.203	194.12
363.429	183.12
363.656	199.12
363.882	186.12
364.109	191.12
364.335	188.12
364.562	177.12
364.788	174.12
365.015	190.12
365.241	189.12
365.468	182.12
365.694	173.12
365.92	190.12
366.147	171.12
366.373	189.12
366.599	188.12
366.826	183.12
367.052	186.12
367.278	195.12
367.505	192.12
367.731	199.12
367.957	182.12
368.184	202.12
368.41	172.12
368.636	189.12
368.862	185.12
369.089	193.12
369.315	191.12
369.541	186.12
369.767	190.12
369.993	197.12
370.219	189.12
370.445	172.12
370.672	189.12
370.898	199.12
371.124	197.12
371.35	178.12
371.576	195.12
371.802	197.12
372.028	194.12
372.254	210.12
372.48	197.12
372.706	199.12
372.932	203.12
373.158	191.12
373.384	189.12
373.61	213.12
373.835	215.12
374.061	211.12
374.287	204.12
374.513	211.12
374.739	201.12
374.965	215.12
375.191	200.12
375.416	209.12
375.642	202.12
375.868	217.12
376.094	208.12
376.319	215.12
376.545	195.12
376.771	191.12
376.997	194.12
377.222	205.12
377.448	196.12
377.674	201.12
377.899	193.12
378.125	217.12
378.35	205.12
378.576	207.12
378.802	184.12
379.027	193.12
379.253	206.12
379.478	206.12
379.704	198.12
379.929	199.12
380.155	195.12
380.38	218.12
380.606	189.12
380.831	197.12
381.057	197.12
381.282	190.12
381.507	201.12
381.733	209.12
381.958	210.12
382.184	220.12
382.409	208.12
382.634	206.12
382.86	193.12
383.085	241.12
383.31	210.12
383.535	212.12
383.761	218.12
383.986	236.12
384.211	223.12
384.436	207.12
384.662	213.12
384.887	232.12
385.112	230.12
385.337	221.12
385.562	230.12
385.787	222.12
386.013	226.12
386.238	227.12
386.463	228.12
386.688	232.12
386.913	221.12
387.138	227.12
387.363	226.12
387.588	228.12
387.813	232.12
388.038	243.12
388.263	213.12
388.488	224.12
388.713	215.12
388.938	220.12
389.163	235.12
389.387	225.12
389.612	222.12
389.837	232.12
390.062	225.12
390.287	228.12
390.512	231.12
390.736	234.12
390.961	217.12
391.186	234.12
391.411	243.12
391.636	248.12
391.86	259.12
392.085	248.12
392.31	233.12
392.534	219.12
392.759	253.12
392.984	246.12
393.208	230.12
393.433	237.12
393.658	250.12
393.882	243.12
394.107	255.12
394.331	240.12
394.556	257.12
394.78	229.12
395.005	245.12
395.229	247.12
395.454	266.12
395.678	255.12
395.903	260.12
396.127	231.12
396.352	241.12
396.576	218.12
396.801	248.12
397.025	233.12
397.249	246.12
397.474	254.12
397.698	244.12
397.922	258.12
398.147	258.12
398.371	253.12
398.595	268.12
398.82	264.12
399.044	303.12
399.268	311.12
399.492	346.12
399.717	381.12
399.941	349.12
400.165	333.12
400.389	284.12
400.613	282.12
400.837	289.12
401.062	281.12
401.286	277.12
401.51	265.12
401.734	272.12
401.958	263.12
402.182	266.12
402.406	284.12
402.63	291.12
402.854	290.12
403.078	286.12
403.302	307.12
403.526	280.12
403.75	336.12
403.974	293.12
404.198	279.12
404.422	312.12
404.645	275.12
404.869	303.12
405.093	294.12
405.317	281.12
405.541	305.12
405.765	291.12
405.988	296.12
406.212	292.12
406.436	293.12
406.66	308.12
406.883	293.12
407.107	330.12
407.331	344.12
407.555	316.12
407.778	344.12
408.002	323.12
408.226	336.12
408.449	313.12
408.673	324.12
408.896	309.12
409.12	299.12
409.344	307.12
409.567	321.12
409.791	314.12
410.014	319.12
410.238	316.12
410.461	303.12
410.685	296.12
410.908	290.12
411.132	290.12
411.355	295.12
411.578	301.12
411.802	282.12
412.025	287.12
412.249	281.12
412.472	290.12
412.695	297.12
412.919	279.12
413.142	279.12
413.365	284.12
413.589	299.12
413.812	309.12
414.035	297.12
414.258	274.12
414.482	284.12
414.705	290.12
414.928	295.12
415.151	293.12
415.374	287.12
415.597	267.12
415.821	280.12
416.044	277.12
416.267	283.12
416.49	269.12
416.713	274.12
416.936	289.12
417.159	281.12
417.382	286.12
417.605	299.12
417.828	293.12
418.051	280.12
418.274	284.12
418.497	283.12
418.72	300.12
418.943	286.12
419.166	302.12
419.389	307.12
419.611	294.12
419.834	287.12
420.057	297.12
420.28	277.12
420.503	295.12
420.726	289.12
420.948	285.12
421.171	298.12
421.394	287.12
421.617	288.12
421.839	279.12
422.062	291.12
422.285	259.12
422.507	285.12
422.73	291.12
422.953	295.12
423.175	286.12
423.398	296.12
423.621	292.12
423.843	294.12
424.066	296.12
424.288	289.12
424.511	303.12
424.733	293.12
424.956	278.12
425.178	306.12
425.401	297.12
425.623	309.12
425.846	282.12
426.068	274.12
426.291	250.12
426.513	282.12
426.735	278.12
426.958	270.12
427.18	280.12
427.402	269.12
427.625	261.12
427.847	254.12
428.069	263.12
428.292	269.12
428.514	251.12
428.736	259.12
428.958	258.12
429.181	246.12
429.403	248.12
429.625	260.12
429.847	256.12
430.069	261.12
430.292	258.12
430.514	261.12
430.736	260.12
430.958	257.12
431.18	269.12
431.402	254.12
431.624	257.12
431.846	251.12
432.068	261.12
432.29	265.12
432.512	259.12
432.734	262.12
432.956	271.12
433.178	257.12
433.4	271.12
433.622	268.12
433.844	283.12
434.066	276.12
434.287	244.12
434.509	277.12
434.731	284.12
434.953	298.12
435.175	280.12
435.397	289.12
435.618	285.12
435.84	267.12
436.062	261.12
436.284	277.12
436.505	267.12
436.727	269.12
436.949	299.12
437.17	265.12
437.392	264.12
437.614	263.12
437.835	263.12
438.057	257.12
438.278	260.12
438.5	254.12
438.721	255.12
438.943	278.12
439.165	273.12
439.386	266.12
439.608	289.12
439.829	288.12
440.05	287.12
440.272	289.12
440.493	269.12
440.715	278.12
440.936	280.12
441.158	276.12
441.379	284.12
441.6	309.12
441.822	301.12
442.043	281.12
442.264	302.12
442.486	274.12
442.707	295.12
442.928	296.12
443.149	289.12
443.371	313.12
443.592	308.12
443.813	308.12
444.034	297.12
444.255	318.12
444.476	301.12
444.698	331.12
444.919	343.12
445.14	425.12
445.361	355.12
445.582	317.12
445.803	296.12
446.024	288.12
446.245	315.12
446.466	279.12
446.687	293.12
446.908	293.12
447.129	279.12
447.35	282.12
447.571	274.12
447.792	274.12
448.013	284.12
448.234	247.12
448.455	263.12
448.675	263.12
448.896	265.12
449.117	263.12
449.338	278.12
449.559	269.12
449.779	261.12
450	271.12
450.221	255.12
450.442	276.12
450.662	263.12
450.883	257.12
451.104	286.12
451.324	261.12
451.545	267.12
451.766	258.12
451.986	261.12
452.207	251.12
452.428	249.12
452.648	268.12
452.869	250.12
453.089	247.12
453.31	254.12
453.53	248.12
453.751	245.12
453.971	238.12
454.192	245.12
454.412	232.12
454.633	233.12
454.853	232.12
455.073	238.12
455.294	234.12
455.514	251.12
455.734	230.12
455.955	248.12
456.175	249.12
456.395	219.12
456.616	243.12
456.836	225.12
457.056	247.12
457.276	236.12
457.497	248.12
457.717	251.12
457.937	251.12
458.157	255.12
458.377	242.12
458.598	248.12
458.818	264.12
459.038	257.12
459.258	260.12
459.478	257.12
459.698	279.12
459.918	291.12
460.138	278.12
460.358	303.12
460.578	294.12
460.798	305.12
461.018	311.12
461.238	303.12
461.458	310.12
461.678	293.12
461.898	317.12
462.118	291.12
462.338	316.12
462.558	319.12
462.777	365.12
462.997	351.12
463.217	379.12
463.437	362.12
463.657	354.12
463.876	322.12
464.096	339.12
464.316	339.12
464.536	348.12
464.755	333.12
464.975	320.12
465.195	321.12
465.414	312.12
465.634	272.12
465.854	274.12
466.073	278.12
466.293	258.12
466.512	271.12
466.732	260.12
466.951	265.12
467.171	259.12
467.391	263.12
467.61	251.12
467.829	279.12
468.049	266.12
468.268	254.12
468.488	257.12
468.707	249.12
468.927	260.12
469.146	256.12
469.365	244.12
469.585	253.12
469.804	276.12
470.023	270.12
470.243	271.12
470.462	270.12
470.681	277.12
470.901	273.12
471.12	247.12
471.339	262.12
471.558	263.12
471.777	279.12
471.997	262.12
472.216	266.12
472.435	245.12
472.654	244.12
472.873	244.12
473.092	241.12
473.311	238.12
473.53	251.12
473.749	266.12
473.968	247.12
474.187	241.12
474.406	248.12
474.625	246.12
474.844	259.12
475.063	258.12
475.282	243.12
475.501	246.12
475.72	254.12
475.939	256.12
476.158	254.12
476.377	251.12
476.596	249.12
476.814	256.12
477.033	249.12
477.252	265.12
477.471	252.12
477.69	263.12
477.908	276.12
478.127	283.12
478.346	305.12
478.564	268.12
478.783	273.12
479.002	268.12
479.22	283.12
479.439	291.12
479.658	291.12
479.876	282.12
480.095	286.12
480.313	308.12
480.532	288.12
480.751	295.12
480.969	270.12
481.188	283.12
481.406	270.12
481.624	261.12
481.843	260.12
482.061	268.12
482.28	276.12
482.498	263.12
482.717	263.12
482.935	255.12
483.153	304.12
483.372	261.12
483.59	269.12
483.808	266.12
484.027	275.12
484.245	262.12
484.463	278.12
484.681	284.12
484.9	276.12
485.118	273.12
485.336	278.12
485.554	261.12
485.772	261.12
485.99	287.12
486.209	278.12
486.427	282.12
486.645	286.12
486.863	278.12
487.081	286.12
487.299	278.12
487.517	292.12
487.735	298.12
487.953	266.12
488.171	279.12
488.389	279.12
488.607	296.12
488.825	275.12
489.043	264.12
489.261	273.12
489.479	273.12
489.696	306.12
489.914	291.12
490.132	281.12
490.35	280.12
490.568	284.12
490.786	280.12
491.003	298.12
491.221	290.12
491.439	298.12
491.657	289.12
491.874	293.12
492.092	313.12
492.31	289.12
492.527	299.12
492.745	313.12
492.963	289.12
493.18	297.12
493.398	287.12
493.615	290.12
493.833	292.12
494.05	308.12
494.268	316.12
494.485	295.12
494.703	287.12
494.92	303.12
495.138	282.12
495.355	313.12
495.573	297.12
495.79	306.12
496.008	307.12
496.225	301.12
496.442	294.12
496.66	321.12
496.877	308.12
497.094	317.12
497.312	310.12
497.529	316.12
497.746	320.12
497.963	343.12
498.181	338.12
498.398	356.12
498.615	372.12
498.832	366.12
499.049	422.12
499.267	438.12
499.484	459.12
499.701	507.12
499.918	553.12
500.135	610.12
500.352	705.12
500.569	725.12
500.786	699.12
501.003	639.12
501.22	554.12
501.437	531.12
501.654	476.12
501.871	449.12
502.088	398.12
502.305	403.12
502.522	381.12
502.739	372.12
