Data from Fe(NO3)3@0.05M.TitratingCurve.Agarose3%dH2O.NegLispCup.LampEnergy10.LIBS07252019_HRD10591_16-48-06-334.txt Node
Date: Thu Jul 25 16:48:06 EDT 2019
User: cochatt
Spectrometer: HR+D1059
Trigger mode: 1
Integration Time (sec): 1.000000E-1
Scans to average: 1
Electric dark correction enabled: true
Nonlinearity correction enabled: false
Boxcar width: 0
XAxis mode: Wavelengths
Number of Pixels in Spectrum: 2048
>>>>>Begin Spectral Data<<<<<
223.165	-4.38
223.4	-4.38
223.635	-4.38
223.869	3.62
224.104	-22.38
224.338	-11.38
224.573	-16.38
224.808	-13.38
225.042	-11.38
225.277	-12.38
225.511	-13.38
225.746	-5.38
225.98	10.62
226.215	16.62
226.449	11.62
226.683	21.62
226.918	33.62
227.152	12.62
227.387	29.62
227.621	37.62
227.856	49.62
228.09	36.62
228.324	50.62
228.559	47.62
228.793	51.62
229.027	82.62
229.262	75.62
229.496	71.62
229.73	73.62
229.964	80.62
230.199	82.62
230.433	88.62
230.667	100.62
230.901	104.62
231.136	108.62
231.37	101.62
231.604	95.62
231.838	98.62
232.072	99.62
232.306	110.62
232.541	86.62
232.775	99.62
233.009	91.62
233.243	106.62
233.477	82.62
233.711	103.62
233.945	108.62
234.179	94.62
234.413	99.62
234.647	102.62
234.881	93.62
235.115	107.62
235.349	102.62
235.583	94.62
235.817	96.62
236.051	93.62
236.285	105.62
236.519	97.62
236.753	95.62
236.987	109.62
237.221	99.62
237.455	97.62
237.689	101.62
237.922	104.62
238.156	97.62
238.39	94.62
238.624	89.62
238.858	103.62
239.091	88.62
239.325	92.62
239.559	113.62
239.793	109.62
240.027	121.62
240.26	113.62
240.494	107.62
240.728	83.62
240.961	82.62
241.195	101.62
241.429	97.62
241.662	90.62
241.896	99.62
242.13	94.62
242.363	98.62
242.597	102.62
242.83	97.62
243.064	111.62
243.298	95.62
243.531	98.62
243.765	123.62
243.998	115.62
244.232	98.62
244.465	107.62
244.699	97.62
244.932	105.62
245.166	111.62
245.399	97.62
245.633	109.62
245.866	110.62
246.099	106.62
246.333	113.62
246.566	106.62
246.8	113.62
247.033	111.62
247.266	106.62
247.5	105.62
247.733	103.62
247.966	117.62
248.2	107.62
248.433	101.62
248.666	105.62
248.899	106.62
249.133	113.62
249.366	117.62
249.599	119.62
249.832	123.62
250.066	128.62
250.299	117.62
250.532	113.62
250.765	114.62
250.998	119.62
251.231	121.62
251.465	127.62
251.698	119.62
251.931	111.62
252.164	112.62
252.397	127.62
252.63	117.62
252.863	113.62
253.096	125.62
253.329	129.62
253.562	107.62
253.795	139.62
254.028	138.62
254.261	127.62
254.494	129.62
254.727	131.62
254.96	117.62
255.193	125.62
255.426	127.62
255.659	133.62
255.892	135.62
256.124	124.62
256.357	120.62
256.59	135.62
256.823	104.62
257.056	118.62
257.289	121.62
257.521	123.62
257.754	130.62
257.987	143.62
258.22	123.62
258.452	128.62
258.685	123.62
258.918	117.62
259.151	128.62
259.383	125.62
259.616	138.62
259.849	137.62
260.081	131.62
260.314	150.62
260.547	130.62
260.779	135.62
261.012	135.62
261.244	139.62
261.477	135.62
261.71	149.62
261.942	134.62
262.175	134.62
262.407	134.62
262.64	140.62
262.872	119.62
263.105	136.62
263.337	163.62
263.57	150.62
263.802	145.62
264.035	139.62
264.267	150.62
264.499	146.62
264.732	142.62
264.964	145.62
265.197	125.62
265.429	138.62
265.661	140.62
265.894	138.62
266.126	152.62
266.358	147.62
266.591	144.62
266.823	129.62
267.055	131.62
267.287	158.62
267.52	143.62
267.752	150.62
267.984	149.62
268.216	143.62
268.448	152.62
268.681	163.62
268.913	158.62
269.145	155.62
269.377	136.62
269.609	150.62
269.841	143.62
270.073	162.62
270.306	148.62
270.538	154.62
270.77	134.62
271.002	157.62
271.234	138.62
271.466	139.62
271.698	139.62
271.93	147.62
272.162	149.62
272.394	147.62
272.626	149.62
272.858	131.62
273.09	156.62
273.322	139.62
273.553	167.62
273.785	148.62
274.017	157.62
274.249	162.62
274.481	163.62
274.713	174.62
274.945	162.62
275.176	156.62
275.408	188.62
275.64	154.62
275.872	170.62
276.104	169.62
276.335	155.62
276.567	155.62
276.799	153.62
277.031	147.62
277.262	152.62
277.494	147.62
277.726	150.62
277.957	156.62
278.189	151.62
278.421	172.62
278.652	159.62
278.884	168.62
279.115	151.62
279.347	167.62
279.579	162.62
279.81	177.62
280.042	177.62
280.273	162.62
280.505	159.62
280.736	165.62
280.968	186.62
281.199	180.62
281.431	171.62
281.662	169.62
281.894	153.62
282.125	184.62
282.356	175.62
282.588	189.62
282.819	187.62
283.051	164.62
283.282	166.62
283.513	183.62
283.745	178.62
283.976	166.62
284.207	180.62
284.439	187.62
284.67	180.62
284.901	168.62
285.132	184.62
285.364	179.62
285.595	172.62
285.826	170.62
286.057	197.62
286.288	179.62
286.52	183.62
286.751	183.62
286.982	175.62
287.213	185.62
287.444	178.62
287.675	181.62
287.906	177.62
288.138	198.62
288.369	174.62
288.6	181.62
288.831	185.62
289.062	185.62
289.293	191.62
289.524	191.62
289.755	190.62
289.986	187.62
290.217	192.62
290.448	175.62
290.679	183.62
290.91	185.62
291.141	195.62
291.371	178.62
291.602	189.62
291.833	178.62
292.064	182.62
292.295	200.62
292.526	182.62
292.757	177.62
292.987	181.62
293.218	190.62
293.449	209.62
293.68	192.62
293.91	182.62
294.141	181.62
294.372	175.62
294.603	203.62
294.833	194.62
295.064	189.62
295.295	197.62
295.525	182.62
295.756	192.62
295.987	179.62
296.217	194.62
296.448	181.62
296.679	189.62
296.909	198.62
297.14	190.62
297.37	191.62
297.601	185.62
297.831	176.62
298.062	192.62
298.292	199.62
298.523	202.62
298.753	198.62
298.984	202.62
299.214	208.62
299.445	202.62
299.675	211.62
299.905	190.62
300.136	190.62
300.366	214.62
300.597	198.62
300.827	202.62
301.057	203.62
301.288	201.62
301.518	206.62
301.748	196.62
301.979	198.62
302.209	195.62
302.439	203.62
302.669	209.62
302.9	186.62
303.13	186.62
303.36	214.62
303.59	213.62
303.82	216.62
304.051	200.62
304.281	193.62
304.511	208.62
304.741	199.62
304.971	197.62
305.201	209.62
305.431	201.62
305.661	207.62
305.891	201.62
306.121	209.62
306.352	208.62
306.582	221.62
306.812	196.62
307.042	209.62
307.272	185.62
307.502	184.62
307.731	199.62
307.961	192.62
308.191	220.62
308.421	202.62
308.651	195.62
308.881	206.62
309.111	226.62
309.341	210.62
309.571	206.62
309.8	193.62
310.03	213.62
310.26	201.62
310.49	203.62
310.72	204.62
310.949	189.62
311.179	210.62
311.409	206.62
311.639	224.62
311.868	206.62
312.098	224.62
312.328	202.62
312.557	202.62
312.787	214.62
313.017	213.62
313.246	198.62
313.476	203.62
313.706	221.62
313.935	211.62
314.165	212.62
314.394	223.62
314.624	209.62
314.853	211.62
315.083	216.62
315.312	207.62
315.542	203.62
315.771	212.62
316.001	220.62
316.23	208.62
316.46	222.62
316.689	230.62
316.919	206.62
317.148	209.62
317.377	215.62
317.607	210.62
317.836	207.62
318.065	226.62
318.295	213.62
318.524	209.62
318.753	211.62
318.983	206.62
319.212	226.62
319.441	216.62
319.67	212.62
319.9	205.62
320.129	217.62
320.358	206.62
320.587	211.62
320.816	234.62
321.046	209.62
321.275	214.62
321.504	224.62
321.733	213.62
321.962	223.62
322.191	213.62
322.42	215.62
322.649	220.62
322.878	214.62
323.108	214.62
323.337	211.62
323.566	210.62
323.795	214.62
324.024	218.62
324.253	228.62
324.482	233.62
324.71	232.62
324.939	221.62
325.168	225.62
325.397	228.62
325.626	234.62
325.855	233.62
326.084	225.62
326.313	204.62
326.542	229.62
326.77	232.62
326.999	237.62
327.228	202.62
327.457	216.62
327.686	211.62
327.914	238.62
328.143	224.62
328.372	237.62
328.6	242.62
328.829	220.62
329.058	238.62
329.287	230.62
329.515	237.62
329.744	246.62
329.972	233.62
330.201	232.62
330.43	240.62
330.658	216.62
330.887	228.62
331.115	228.62
331.344	247.62
331.572	243.62
331.801	254.62
332.03	219.62
332.258	259.62
332.486	255.62
332.715	266.62
332.943	260.62
333.172	273.62
333.4	276.62
333.629	301.62
333.857	276.62
334.085	284.62
334.314	282.62
334.542	277.62
334.771	281.62
334.999	280.62
335.227	245.62
335.455	273.62
335.684	284.62
335.912	261.62
336.14	267.62
336.369	263.62
336.597	250.62
336.825	267.62
337.053	278.62
337.281	266.62
337.51	262.62
337.738	267.62
337.966	243.62
338.194	253.62
338.422	247.62
338.65	239.62
338.878	251.62
339.106	231.62
339.334	239.62
339.562	231.62
339.79	259.62
340.018	247.62
340.246	231.62
340.474	251.62
340.702	244.62
340.93	254.62
341.158	246.62
341.386	255.62
341.614	236.62
341.842	232.62
342.07	237.62
342.298	219.62
342.526	247.62
342.754	220.62
342.981	234.62
343.209	242.62
343.437	259.62
343.665	264.62
343.893	275.62
344.12	298.62
344.348	274.62
344.576	281.62
344.804	250.62
345.031	243.62
345.259	227.62
345.487	237.62
345.714	255.62
345.942	248.62
346.17	242.62
346.397	244.62
346.625	234.62
346.853	231.62
347.08	218.62
347.308	238.62
347.535	239.62
347.763	233.62
347.99	230.62
348.218	238.62
348.445	232.62
348.673	235.62
348.9	217.62
349.128	234.62
349.355	226.62
349.583	245.62
349.81	249.62
350.037	225.62
350.265	230.62
350.492	233.62
350.72	220.62
350.947	233.62
351.174	215.62
351.402	208.62
351.629	224.62
351.856	237.62
352.083	235.62
352.311	234.62
352.538	239.62
352.765	221.62
352.992	238.62
353.22	242.62
353.447	237.62
353.674	232.62
353.901	232.62
354.128	245.62
354.355	218.62
354.583	233.62
354.81	228.62
355.037	235.62
355.264	234.62
355.491	237.62
355.718	217.62
355.945	243.62
356.172	231.62
356.399	240.62
356.626	219.62
356.853	232.62
357.08	230.62
357.307	234.62
357.534	241.62
357.761	228.62
357.988	241.62
358.215	235.62
358.441	225.62
358.668	234.62
358.895	227.62
359.122	227.62
359.349	217.62
359.576	230.62
359.802	238.62
360.029	230.62
360.256	225.62
360.483	222.62
360.709	224.62
360.936	233.62
361.163	220.62
361.39	232.62
361.616	233.62
361.843	243.62
362.07	249.62
362.296	272.62
362.523	220.62
362.749	228.62
362.976	225.62
363.203	225.62
363.429	214.62
363.656	218.62
363.882	225.62
364.109	238.62
364.335	250.62
364.562	233.62
364.788	235.62
365.015	214.62
365.241	252.62
365.468	234.62
365.694	229.62
365.92	233.62
366.147	239.62
366.373	224.62
366.599	227.62
366.826	235.62
367.052	222.62
367.278	242.62
367.505	249.62
367.731	232.62
367.957	253.62
368.184	234.62
368.41	237.62
368.636	225.62
368.862	234.62
369.089	219.62
369.315	237.62
369.541	247.62
369.767	252.62
369.993	247.62
370.219	249.62
370.445	235.62
370.672	250.62
370.898	244.62
371.124	251.62
371.35	261.62
371.576	234.62
371.802	246.62
372.028	261.62
372.254	248.62
372.48	255.62
372.706	263.62
372.932	267.62
373.158	274.62
373.384	260.62
373.61	270.62
373.835	255.62
374.061	277.62
374.287	282.62
374.513	270.62
374.739	262.62
374.965	303.62
375.191	304.62
375.416	295.62
375.642	277.62
375.868	276.62
376.094	280.62
376.319	279.62
376.545	276.62
376.771	261.62
376.997	261.62
377.222	267.62
377.448	258.62
377.674	266.62
377.899	270.62
378.125	263.62
378.35	262.62
378.576	266.62
378.802	242.62
379.027	243.62
379.253	273.62
379.478	272.62
379.704	241.62
379.929	255.62
380.155	257.62
380.38	276.62
380.606	250.62
380.831	261.62
381.057	266.62
381.282	276.62
381.507	279.62
381.733	270.62
381.958	281.62
382.184	275.62
382.409	265.62
382.634	263.62
382.86	277.62
383.085	289.62
383.31	288.62
383.535	274.62
383.761	283.62
383.986	294.62
384.211	307.62
384.436	294.62
384.662	303.62
384.887	308.62
385.112	294.62
385.337	316.62
385.562	317.62
385.787	331.62
386.013	324.62
386.238	320.62
386.463	336.62
386.688	319.62
386.913	301.62
387.138	311.62
387.363	331.62
387.588	330.62
387.813	320.62
388.038	316.62
388.263	298.62
388.488	309.62
388.713	331.62
388.938	316.62
389.163	317.62
389.387	298.62
389.612	299.62
389.837	312.62
390.062	317.62
390.287	317.62
390.512	338.62
390.736	313.62
390.961	313.62
391.186	329.62
391.411	330.62
391.636	346.62
391.86	338.62
392.085	357.62
392.31	346.62
392.534	336.62
392.759	345.62
392.984	343.62
393.208	341.62
393.433	330.62
393.658	349.62
393.882	363.62
394.107	339.62
394.331	355.62
394.556	326.62
394.78	365.62
395.005	332.62
395.229	343.62
395.454	362.62
395.678	374.62
395.903	351.62
396.127	352.62
396.352	342.62
396.576	358.62
396.801	359.62
397.025	370.62
397.249	369.62
397.474	371.62
397.698	349.62
397.922	365.62
398.147	354.62
398.371	379.62
398.595	381.62
398.82	390.62
399.044	409.62
399.268	422.62
399.492	487.62
399.717	545.62
399.941	530.62
400.165	483.62
400.389	470.62
400.613	417.62
400.837	426.62
401.062	406.62
401.286	400.62
401.51	410.62
401.734	396.62
401.958	401.62
402.182	415.62
402.406	413.62
402.63	408.62
402.854	408.62
403.078	423.62
403.302	431.62
403.526	421.62
403.75	435.62
403.974	442.62
404.198	451.62
404.422	446.62
404.645	450.62
404.869	443.62
405.093	433.62
405.317	435.62
405.541	421.62
405.765	410.62
405.988	437.62
406.212	440.62
406.436	451.62
406.66	441.62
406.883	462.62
407.107	471.62
407.331	498.62
407.555	482.62
407.778	480.62
408.002	478.62
408.226	479.62
408.449	466.62
408.673	468.62
408.896	453.62
409.12	447.62
409.344	469.62
409.567	468.62
409.791	462.62
410.014	438.62
410.238	449.62
410.461	450.62
410.685	439.62
410.908	435.62
411.132	427.62
411.355	425.62
411.578	420.62
411.802	415.62
412.025	426.62
412.249	429.62
412.472	414.62
412.695	430.62
412.919	433.62
413.142	411.62
413.365	415.62
413.589	399.62
413.812	407.62
414.035	408.62
414.258	416.62
414.482	402.62
414.705	425.62
414.928	418.62
415.151	411.62
415.374	409.62
415.597	422.62
415.821	403.62
416.044	395.62
416.267	408.62
416.49	405.62
416.713	411.62
416.936	427.62
417.159	403.62
417.382	411.62
417.605	415.62
417.828	404.62
418.051	404.62
418.274	399.62
418.497	407.62
418.72	414.62
418.943	413.62
419.166	427.62
419.389	450.62
419.611	447.62
419.834	426.62
420.057	437.62
420.28	414.62
420.503	415.62
420.726	402.62
420.948	405.62
421.171	407.62
421.394	434.62
421.617	429.62
421.839	403.62
422.062	422.62
422.285	405.62
422.507	410.62
422.73	419.62
422.953	415.62
423.175	414.62
423.398	426.62
423.621	412.62
423.843	442.62
424.066	419.62
424.288	424.62
424.511	422.62
424.733	413.62
424.956	409.62
425.178	417.62
425.401	415.62
425.623	413.62
425.846	401.62
426.068	398.62
426.291	384.62
426.513	388.62
426.735	415.62
426.958	403.62
427.18	382.62
427.402	381.62
427.625	403.62
427.847	387.62
428.069	414.62
428.292	406.62
428.514	373.62
428.736	399.62
428.958	363.62
429.181	374.62
429.403	391.62
429.625	356.62
429.847	379.62
430.069	367.62
430.292	371.62
430.514	353.62
430.736	378.62
430.958	396.62
431.18	391.62
431.402	381.62
431.624	367.62
431.846	373.62
432.068	385.62
432.29	390.62
432.512	392.62
432.734	395.62
432.956	373.62
433.178	385.62
433.4	398.62
433.622	394.62
433.844	405.62
434.066	388.62
434.287	379.62
434.509	400.62
434.731	403.62
434.953	410.62
435.175	421.62
435.397	422.62
435.618	395.62
435.84	413.62
436.062	386.62
436.284	387.62
436.505	383.62
436.727	383.62
436.949	389.62
437.17	391.62
437.392	401.62
437.614	376.62
437.835	382.62
438.057	376.62
438.278	373.62
438.5	387.62
438.721	378.62
438.943	399.62
439.165	387.62
439.386	399.62
439.608	387.62
439.829	406.62
440.05	405.62
440.272	418.62
440.493	392.62
440.715	412.62
440.936	434.62
441.158	415.62
441.379	404.62
441.6	448.62
441.822	437.62
442.043	445.62
442.264	449.62
442.486	415.62
442.707	433.62
442.928	430.62
443.149	418.62
443.371	403.62
443.592	438.62
443.813	413.62
444.034	413.62
444.255	436.62
444.476	461.62
444.698	474.62
444.919	471.62
445.14	584.62
445.361	511.62
445.582	441.62
445.803	421.62
446.024	415.62
446.245	413.62
446.466	432.62
446.687	419.62
446.908	398.62
447.129	402.62
447.35	406.62
447.571	399.62
447.792	382.62
448.013	363.62
448.234	379.62
448.455	374.62
448.675	373.62
448.896	369.62
449.117	369.62
449.338	370.62
449.559	377.62
449.779	376.62
450	379.62
450.221	368.62
450.442	388.62
450.662	379.62
450.883	387.62
451.104	376.62
451.324	373.62
451.545	369.62
451.766	382.62
451.986	383.62
452.207	354.62
452.428	375.62
452.648	355.62
452.869	349.62
453.089	362.62
453.31	362.62
453.53	374.62
453.751	359.62
453.971	344.62
454.192	358.62
454.412	340.62
454.633	379.62
454.853	364.62
455.073	343.62
455.294	337.62
455.514	344.62
455.734	352.62
455.955	349.62
456.175	336.62
456.395	349.62
456.616	350.62
456.836	363.62
457.056	363.62
457.276	354.62
457.497	366.62
457.717	330.62
457.937	345.62
458.157	352.62
458.377	335.62
458.598	372.62
458.818	373.62
459.038	387.62
459.258	370.62
459.478	399.62
459.698	409.62
459.918	401.62
460.138	411.62
460.358	450.62
460.578	455.62
460.798	454.62
461.018	437.62
461.238	432.62
461.458	449.62
461.678	450.62
461.898	469.62
462.118	442.62
462.338	480.62
462.558	480.62
462.777	494.62
462.997	529.62
463.217	541.62
463.437	547.62
463.657	509.62
463.876	496.62
464.096	503.62
464.316	511.62
464.536	502.62
464.755	501.62
464.975	467.62
465.195	471.62
465.414	443.62
465.634	423.62
465.854	410.62
466.073	394.62
466.293	394.62
466.512	404.62
466.732	394.62
466.951	433.62
467.171	393.62
467.391	394.62
467.61	377.62
467.829	392.62
468.049	382.62
468.268	390.62
468.488	385.62
468.707	361.62
468.927	385.62
469.146	394.62
469.365	405.62
469.585	395.62
469.804	386.62
470.023	407.62
470.243	404.62
470.462	385.62
470.681	407.62
470.901	392.62
471.12	405.62
471.339	379.62
471.558	394.62
471.777	386.62
471.997	376.62
472.216	378.62
472.435	367.62
472.654	375.62
472.873	370.62
473.092	355.62
473.311	367.62
473.53	373.62
473.749	371.62
473.968	357.62
474.187	369.62
474.406	365.62
474.625	365.62
474.844	369.62
475.063	378.62
475.282	361.62
475.501	371.62
475.72	385.62
475.939	387.62
476.158	380.62
476.377	396.62
476.596	375.62
476.814	388.62
477.033	396.62
477.252	373.62
477.471	402.62
477.69	426.62
477.908	429.62
478.127	429.62
478.346	430.62
478.564	429.62
478.783	442.62
479.002	446.62
479.22	439.62
479.439	444.62
479.658	437.62
479.876	449.62
480.095	452.62
480.313	454.62
480.532	454.62
480.751	453.62
480.969	452.62
481.188	430.62
481.406	427.62
481.624	426.62
481.843	439.62
482.061	438.62
482.28	408.62
482.498	419.62
482.717	425.62
482.935	447.62
483.153	404.62
483.372	429.62
483.59	452.62
483.808	400.62
484.027	429.62
484.245	413.62
484.463	417.62
484.681	435.62
484.9	433.62
485.118	423.62
485.336	429.62
485.554	430.62
485.772	444.62
485.99	423.62
486.209	417.62
486.427	404.62
486.645	433.62
486.863	433.62
487.081	436.62
487.299	441.62
487.517	419.62
487.735	443.62
487.953	445.62
488.171	446.62
488.389	437.62
488.607	434.62
488.825	447.62
489.043	444.62
489.261	423.62
489.479	455.62
489.696	432.62
489.914	432.62
490.132	457.62
490.35	435.62
490.568	437.62
490.786	457.62
491.003	439.62
491.221	412.62
491.439	449.62
491.657	468.62
491.874	471.62
492.092	451.62
492.31	473.62
492.527	455.62
492.745	448.62
492.963	453.62
493.18	441.62
493.398	471.62
493.615	448.62
493.833	447.62
494.05	453.62
494.268	466.62
494.485	457.62
494.703	473.62
494.92	466.62
495.138	437.62
495.355	445.62
495.573	471.62
495.79	459.62
496.008	483.62
496.225	481.62
496.442	444.62
496.66	497.62
496.877	479.62
497.094	500.62
497.312	505.62
497.529	517.62
497.746	484.62
497.963	527.62
498.181	543.62
498.398	550.62
498.615	589.62
498.832	623.62
499.049	636.62
499.267	669.62
499.484	709.62
499.701	793.62
499.918	852.62
500.135	934.62
500.352	1011.62
500.569	1056.62
500.786	1016.62
501.003	957.62
501.22	897.62
501.437	821.62
501.654	750.62
501.871	683.62
502.088	640.62
