Data from Fe(NO3)3@0.1M.TitratingCurve.Agarose3%dH2O.NegLispCup.LampEnergy10.LIBS07252019_HRD10591_16-37-23-331.txt Node
Date: Thu Jul 25 16:37:23 EDT 2019
User: cochatt
Spectrometer: HR+D1059
Trigger mode: 1
Integration Time (sec): 1.000000E-1
Scans to average: 1
Electric dark correction enabled: true
Nonlinearity correction enabled: false
Boxcar width: 0
XAxis mode: Wavelengths
Number of Pixels in Spectrum: 2048
>>>>>Begin Spectral Data<<<<<
223.165	-22.19
223.4	-22.19
223.635	-22.19
223.869	-13.19
224.104	-20.19
224.338	-9.19
224.573	-18.19
224.808	-12.19
225.042	-4.19
225.277	-6.19
225.511	-14.19
225.746	-0.19
225.98	6.81
226.215	9.81
226.449	20.81
226.683	31.81
226.918	12.81
227.152	37.81
227.387	40.81
227.621	41.81
227.856	41.81
228.09	49.81
228.324	49.81
228.559	50.81
228.793	63.81
229.027	69.81
229.262	77.81
229.496	71.81
229.73	74.81
229.964	79.81
230.199	71.81
230.433	82.81
230.667	86.81
230.901	87.81
231.136	90.81
231.37	101.81
231.604	94.81
231.838	106.81
232.072	93.81
232.306	102.81
232.541	102.81
232.775	94.81
233.009	93.81
233.243	103.81
233.477	93.81
233.711	95.81
233.945	99.81
234.179	82.81
234.413	98.81
234.647	95.81
234.881	119.81
235.115	90.81
235.349	88.81
235.583	101.81
235.817	81.81
236.051	100.81
236.285	101.81
236.519	90.81
236.753	91.81
236.987	110.81
237.221	101.81
237.455	92.81
237.689	100.81
237.922	91.81
238.156	71.81
238.39	88.81
238.624	95.81
238.858	90.81
239.091	97.81
239.325	94.81
239.559	100.81
239.793	100.81
240.027	101.81
240.26	97.81
240.494	116.81
240.728	119.81
240.961	103.81
241.195	92.81
241.429	88.81
241.662	97.81
241.896	95.81
242.13	97.81
242.363	100.81
242.597	109.81
242.83	105.81
243.064	107.81
243.298	107.81
243.531	109.81
243.765	97.81
243.998	100.81
244.232	112.81
244.465	99.81
244.699	112.81
244.932	108.81
245.166	106.81
245.399	95.81
245.633	94.81
245.866	103.81
246.099	94.81
246.333	93.81
246.566	115.81
246.8	113.81
247.033	108.81
247.266	113.81
247.5	102.81
247.733	119.81
247.966	111.81
248.2	114.81
248.433	109.81
248.666	108.81
248.899	111.81
249.133	111.81
249.366	116.81
249.599	99.81
249.832	127.81
250.066	111.81
250.299	115.81
250.532	107.81
250.765	114.81
250.998	107.81
251.231	103.81
251.465	111.81
251.698	113.81
251.931	126.81
252.164	104.81
252.397	121.81
252.63	127.81
252.863	122.81
253.096	117.81
253.329	120.81
253.562	108.81
253.795	125.81
254.028	123.81
254.261	130.81
254.494	125.81
254.727	102.81
254.96	127.81
255.193	120.81
255.426	130.81
255.659	126.81
255.892	125.81
256.124	127.81
256.357	117.81
256.59	118.81
256.823	126.81
257.056	127.81
257.289	108.81
257.521	127.81
257.754	115.81
257.987	123.81
258.22	134.81
258.452	126.81
258.685	109.81
258.918	123.81
259.151	134.81
259.383	115.81
259.616	130.81
259.849	132.81
260.081	136.81
260.314	157.81
260.547	120.81
260.779	124.81
261.012	123.81
261.244	123.81
261.477	126.81
261.71	128.81
261.942	120.81
262.175	121.81
262.407	141.81
262.64	128.81
262.872	127.81
263.105	144.81
263.337	133.81
263.57	142.81
263.802	132.81
264.035	129.81
264.267	113.81
264.499	124.81
264.732	136.81
264.964	139.81
265.197	140.81
265.429	123.81
265.661	138.81
265.894	127.81
266.126	121.81
266.358	129.81
266.591	122.81
266.823	115.81
267.055	128.81
267.287	143.81
267.52	137.81
267.752	140.81
267.984	136.81
268.216	137.81
268.448	141.81
268.681	131.81
268.913	130.81
269.145	128.81
269.377	137.81
269.609	139.81
269.841	134.81
270.073	141.81
270.306	143.81
270.538	137.81
270.77	135.81
271.002	142.81
271.234	140.81
271.466	129.81
271.698	151.81
271.93	144.81
272.162	143.81
272.394	133.81
272.626	148.81
272.858	124.81
273.09	147.81
273.322	140.81
273.553	155.81
273.785	147.81
274.017	166.81
274.249	149.81
274.481	155.81
274.713	163.81
274.945	167.81
275.176	162.81
275.408	156.81
275.64	156.81
275.872	161.81
276.104	171.81
276.335	157.81
276.567	163.81
276.799	138.81
277.031	144.81
277.262	155.81
277.494	151.81
277.726	153.81
277.957	151.81
278.189	146.81
278.421	148.81
278.652	151.81
278.884	148.81
279.115	161.81
279.347	150.81
279.579	169.81
279.81	165.81
280.042	153.81
280.273	159.81
280.505	152.81
280.736	165.81
280.968	149.81
281.199	171.81
281.431	170.81
281.662	155.81
281.894	164.81
282.125	143.81
282.356	157.81
282.588	149.81
282.819	147.81
283.051	158.81
283.282	152.81
283.513	164.81
283.745	148.81
283.976	155.81
284.207	163.81
284.439	155.81
284.67	164.81
284.901	149.81
285.132	165.81
285.364	152.81
285.595	159.81
285.826	146.81
286.057	167.81
286.288	163.81
286.52	176.81
286.751	159.81
286.982	166.81
287.213	175.81
287.444	158.81
287.675	175.81
287.906	165.81
288.138	175.81
288.369	163.81
288.6	163.81
288.831	172.81
289.062	158.81
289.293	170.81
289.524	184.81
289.755	170.81
289.986	162.81
290.217	166.81
290.448	170.81
290.679	173.81
290.91	161.81
291.141	183.81
291.371	164.81
291.602	170.81
291.833	151.81
292.064	171.81
292.295	175.81
292.526	159.81
292.757	178.81
292.987	165.81
293.218	181.81
293.449	186.81
293.68	171.81
293.91	181.81
294.141	170.81
294.372	167.81
294.603	175.81
294.833	184.81
295.064	177.81
295.295	180.81
295.525	180.81
295.756	169.81
295.987	169.81
296.217	184.81
296.448	177.81
296.679	170.81
296.909	171.81
297.14	172.81
297.37	197.81
297.601	180.81
297.831	177.81
298.062	171.81
298.292	179.81
298.523	188.81
298.753	197.81
298.984	174.81
299.214	183.81
299.445	181.81
299.675	188.81
299.905	180.81
300.136	175.81
300.366	187.81
300.597	185.81
300.827	199.81
301.057	200.81
301.288	189.81
301.518	207.81
301.748	184.81
301.979	184.81
302.209	191.81
302.439	179.81
302.669	184.81
302.9	187.81
303.13	184.81
303.36	197.81
303.59	196.81
303.82	188.81
304.051	180.81
304.281	198.81
304.511	195.81
304.741	179.81
304.971	172.81
305.201	190.81
305.431	184.81
305.661	193.81
305.891	196.81
306.121	193.81
306.352	199.81
306.582	184.81
306.812	185.81
307.042	193.81
307.272	178.81
307.502	193.81
307.731	187.81
307.961	193.81
308.191	192.81
308.421	192.81
308.651	194.81
308.881	176.81
309.111	186.81
309.341	193.81
309.571	179.81
309.8	182.81
310.03	194.81
310.26	203.81
310.49	194.81
310.72	192.81
310.949	183.81
311.179	184.81
311.409	195.81
311.639	204.81
311.868	187.81
312.098	177.81
312.328	185.81
312.557	193.81
312.787	209.81
313.017	189.81
313.246	193.81
313.476	178.81
313.706	192.81
313.935	193.81
314.165	195.81
314.394	192.81
314.624	205.81
314.853	199.81
315.083	202.81
315.312	203.81
315.542	200.81
315.771	207.81
316.001	184.81
316.23	196.81
316.46	178.81
316.689	197.81
316.919	182.81
317.148	205.81
317.377	196.81
317.607	196.81
317.836	200.81
318.065	194.81
318.295	200.81
318.524	187.81
318.753	197.81
318.983	197.81
319.212	194.81
319.441	198.81
319.67	205.81
319.9	197.81
320.129	205.81
320.358	188.81
320.587	208.81
320.816	209.81
321.046	196.81
321.275	192.81
321.504	201.81
321.733	196.81
321.962	207.81
322.191	199.81
322.42	200.81
322.649	199.81
322.878	203.81
323.108	185.81
323.337	197.81
323.566	204.81
323.795	202.81
324.024	217.81
324.253	192.81
324.482	203.81
324.71	197.81
324.939	208.81
325.168	203.81
325.397	188.81
325.626	215.81
325.855	227.81
326.084	210.81
326.313	210.81
326.542	194.81
326.77	212.81
326.999	219.81
327.228	225.81
327.457	197.81
327.686	218.81
327.914	202.81
328.143	210.81
328.372	212.81
328.6	215.81
328.829	210.81
329.058	217.81
329.287	206.81
329.515	221.81
329.744	203.81
329.972	223.81
330.201	213.81
330.43	219.81
330.658	196.81
330.887	214.81
331.115	223.81
331.344	209.81
331.572	239.81
331.801	224.81
332.03	223.81
332.258	231.81
332.486	239.81
332.715	236.81
332.943	239.81
333.172	265.81
333.4	252.81
333.629	259.81
333.857	266.81
334.085	249.81
334.314	262.81
334.542	262.81
334.771	260.81
334.999	234.81
335.227	249.81
335.455	247.81
335.684	249.81
335.912	258.81
336.14	247.81
336.369	246.81
336.597	244.81
336.825	231.81
337.053	218.81
337.281	227.81
337.51	235.81
337.738	239.81
337.966	241.81
338.194	199.81
338.422	221.81
338.65	235.81
338.878	216.81
339.106	222.81
339.334	216.81
339.562	225.81
339.79	229.81
340.018	229.81
340.246	237.81
340.474	212.81
340.702	220.81
340.93	209.81
341.158	215.81
341.386	227.81
341.614	210.81
341.842	217.81
342.07	217.81
342.298	216.81
342.526	217.81
342.754	219.81
342.981	223.81
343.209	228.81
343.437	237.81
343.665	232.81
343.893	261.81
344.12	256.81
344.348	249.81
344.576	243.81
344.804	222.81
345.031	231.81
345.259	215.81
345.487	225.81
345.714	209.81
345.942	211.81
346.17	216.81
346.397	213.81
346.625	224.81
346.853	211.81
347.08	223.81
347.308	215.81
347.535	211.81
347.763	236.81
347.99	217.81
348.218	225.81
348.445	224.81
348.673	213.81
348.9	193.81
349.128	220.81
349.355	220.81
349.583	217.81
349.81	215.81
350.037	226.81
350.265	223.81
350.492	224.81
350.72	212.81
350.947	202.81
351.174	216.81
351.402	203.81
351.629	212.81
351.856	212.81
352.083	209.81
352.311	209.81
352.538	213.81
352.765	214.81
352.992	218.81
353.22	224.81
353.447	228.81
353.674	227.81
353.901	223.81
354.128	217.81
354.355	222.81
354.583	202.81
354.81	212.81
355.037	212.81
355.264	210.81
355.491	212.81
355.718	206.81
355.945	220.81
356.172	223.81
356.399	232.81
356.626	206.81
356.853	225.81
357.08	222.81
357.307	212.81
357.534	226.81
357.761	219.81
357.988	221.81
358.215	235.81
358.441	223.81
358.668	207.81
358.895	222.81
359.122	207.81
359.349	220.81
359.576	219.81
359.802	208.81
360.029	219.81
360.256	222.81
360.483	220.81
360.709	198.81
360.936	236.81
361.163	219.81
361.39	229.81
361.616	220.81
361.843	213.81
362.07	230.81
362.296	209.81
362.523	205.81
362.749	211.81
362.976	218.81
363.203	217.81
363.429	214.81
363.656	219.81
363.882	230.81
364.109	221.81
364.335	230.81
364.562	219.81
364.788	223.81
365.015	205.81
365.241	211.81
365.468	214.81
365.694	226.81
365.92	216.81
366.147	218.81
366.373	230.81
366.599	227.81
366.826	200.81
367.052	204.81
367.278	229.81
367.505	217.81
367.731	234.81
367.957	226.81
368.184	227.81
368.41	244.81
368.636	232.81
368.862	207.81
369.089	226.81
369.315	248.81
369.541	224.81
369.767	230.81
369.993	227.81
370.219	223.81
370.445	223.81
370.672	219.81
370.898	230.81
371.124	237.81
371.35	248.81
371.576	257.81
371.802	246.81
372.028	227.81
372.254	264.81
372.48	257.81
372.706	245.81
372.932	227.81
373.158	252.81
373.384	259.81
373.61	255.81
373.835	267.81
374.061	261.81
374.287	250.81
374.513	254.81
374.739	266.81
374.965	257.81
375.191	265.81
375.416	256.81
375.642	245.81
375.868	241.81
376.094	268.81
376.319	241.81
376.545	241.81
376.771	248.81
376.997	259.81
377.222	242.81
377.448	253.81
377.674	248.81
377.899	262.81
378.125	231.81
378.35	241.81
378.576	239.81
378.802	245.81
379.027	236.81
379.253	259.81
379.478	241.81
379.704	263.81
379.929	258.81
380.155	255.81
380.38	254.81
380.606	266.81
380.831	260.81
381.057	261.81
381.282	272.81
381.507	242.81
381.733	255.81
381.958	271.81
382.184	271.81
382.409	275.81
382.634	267.81
382.86	285.81
383.085	269.81
383.31	271.81
383.535	290.81
383.761	281.81
383.986	284.81
384.211	273.81
384.436	321.81
384.662	300.81
384.887	306.81
385.112	299.81
385.337	290.81
385.562	306.81
385.787	298.81
386.013	293.81
386.238	301.81
386.463	295.81
386.688	284.81
386.913	313.81
387.138	293.81
387.363	299.81
387.588	289.81
387.813	311.81
388.038	313.81
388.263	300.81
388.488	285.81
388.713	324.81
388.938	293.81
389.163	291.81
389.387	299.81
389.612	283.81
389.837	292.81
390.062	295.81
390.287	307.81
390.512	300.81
390.736	304.81
390.961	303.81
391.186	304.81
391.411	320.81
391.636	327.81
391.86	301.81
392.085	339.81
392.31	341.81
392.534	329.81
392.759	317.81
392.984	330.81
393.208	324.81
393.433	315.81
393.658	322.81
393.882	313.81
394.107	320.81
394.331	314.81
394.556	315.81
394.78	314.81
395.005	311.81
395.229	339.81
395.454	336.81
395.678	329.81
395.903	324.81
396.127	336.81
396.352	332.81
396.576	330.81
396.801	317.81
397.025	322.81
397.249	337.81
397.474	345.81
397.698	336.81
397.922	321.81
398.147	346.81
398.371	355.81
398.595	349.81
398.82	367.81
399.044	389.81
399.268	403.81
399.492	459.81
399.717	499.81
399.941	492.81
400.165	451.81
400.389	418.81
400.613	399.81
400.837	380.81
401.062	379.81
401.286	391.81
401.51	373.81
401.734	381.81
401.958	371.81
402.182	377.81
402.406	370.81
402.63	371.81
402.854	378.81
403.078	368.81
403.302	398.81
403.526	398.81
403.75	406.81
403.974	388.81
404.198	428.81
404.422	424.81
404.645	396.81
404.869	413.81
405.093	388.81
405.317	391.81
405.541	397.81
405.765	405.81
405.988	407.81
406.212	392.81
406.436	405.81
406.66	405.81
406.883	414.81
407.107	453.81
407.331	453.81
407.555	460.81
407.778	449.81
408.002	428.81
408.226	443.81
408.449	418.81
408.673	411.81
408.896	419.81
409.12	417.81
409.344	416.81
409.567	401.81
409.791	398.81
410.014	403.81
410.238	392.81
410.461	419.81
410.685	409.81
410.908	385.81
411.132	382.81
411.355	385.81
411.578	403.81
411.802	387.81
412.025	375.81
412.249	380.81
412.472	380.81
412.695	384.81
412.919	390.81
413.142	362.81
413.365	398.81
413.589	375.81
413.812	368.81
414.035	392.81
414.258	380.81
414.482	381.81
414.705	386.81
414.928	396.81
415.151	374.81
415.374	384.81
415.597	360.81
415.821	376.81
416.044	376.81
416.267	386.81
416.49	348.81
416.713	367.81
416.936	376.81
417.159	373.81
417.382	353.81
417.605	363.81
417.828	369.81
418.051	379.81
418.274	372.81
418.497	390.81
418.72	388.81
418.943	392.81
419.166	378.81
419.389	435.81
419.611	420.81
419.834	394.81
420.057	390.81
420.28	385.81
420.503	366.81
420.726	377.81
420.948	353.81
421.171	364.81
421.394	363.81
421.617	377.81
421.839	367.81
422.062	386.81
422.285	368.81
422.507	367.81
422.73	368.81
422.953	378.81
423.175	377.81
423.398	385.81
423.621	385.81
423.843	400.81
424.066	404.81
424.288	387.81
424.511	376.81
424.733	397.81
424.956	373.81
425.178	377.81
425.401	379.81
425.623	413.81
425.846	362.81
426.068	333.81
426.291	372.81
426.513	363.81
426.735	357.81
426.958	351.81
427.18	359.81
427.402	356.81
427.625	375.81
427.847	349.81
428.069	345.81
428.292	333.81
428.514	336.81
428.736	340.81
428.958	339.81
429.181	331.81
429.403	345.81
429.625	314.81
429.847	325.81
430.069	324.81
430.292	345.81
430.514	350.81
430.736	325.81
430.958	345.81
431.18	341.81
431.402	346.81
431.624	339.81
431.846	357.81
432.068	345.81
432.29	335.81
432.512	353.81
432.734	356.81
432.956	325.81
433.178	359.81
433.4	357.81
433.622	344.81
433.844	351.81
434.066	355.81
434.287	353.81
434.509	362.81
434.731	357.81
434.953	379.81
435.175	391.81
435.397	382.81
435.618	364.81
435.84	347.81
436.062	356.81
436.284	346.81
436.505	333.81
436.727	337.81
436.949	325.81
437.17	346.81
437.392	345.81
437.614	333.81
437.835	344.81
438.057	352.81
438.278	333.81
438.5	340.81
438.721	330.81
438.943	340.81
439.165	353.81
439.386	338.81
439.608	346.81
439.829	333.81
440.05	340.81
440.272	329.81
440.493	356.81
440.715	343.81
440.936	352.81
441.158	345.81
441.379	367.81
441.6	377.81
441.822	396.81
442.043	370.81
442.264	377.81
442.486	362.81
442.707	382.81
442.928	376.81
443.149	362.81
443.371	373.81
443.592	365.81
443.813	369.81
444.034	389.81
444.255	393.81
444.476	402.81
444.698	422.81
444.919	422.81
445.14	512.81
445.361	448.81
445.582	383.81
445.803	381.81
446.024	388.81
446.245	351.81
446.466	375.81
446.687	353.81
446.908	350.81
447.129	330.81
447.35	339.81
447.571	344.81
447.792	328.81
448.013	313.81
448.234	338.81
448.455	298.81
448.675	328.81
448.896	324.81
449.117	316.81
449.338	324.81
449.559	330.81
449.779	325.81
450	323.81
450.221	303.81
450.442	326.81
450.662	333.81
450.883	320.81
451.104	326.81
451.324	312.81
451.545	323.81
451.766	336.81
451.986	323.81
452.207	327.81
452.428	308.81
452.648	333.81
452.869	306.81
453.089	316.81
453.31	316.81
453.53	306.81
453.751	320.81
453.971	305.81
454.192	319.81
454.412	308.81
454.633	314.81
454.853	296.81
455.073	304.81
455.294	305.81
455.514	316.81
455.734	311.81
455.955	301.81
456.175	309.81
456.395	295.81
456.616	335.81
456.836	298.81
457.056	308.81
457.276	313.81
457.497	305.81
457.717	317.81
457.937	296.81
458.157	317.81
458.377	307.81
458.598	311.81
458.818	322.81
459.038	315.81
459.258	324.81
459.478	347.81
459.698	345.81
459.918	369.81
460.138	369.81
460.358	373.81
460.578	375.81
460.798	380.81
461.018	378.81
461.238	394.81
461.458	384.81
461.678	385.81
461.898	404.81
462.118	386.81
462.338	398.81
462.558	420.81
462.777	442.81
462.997	456.81
463.217	494.81
463.437	490.81
463.657	448.81
463.876	432.81
464.096	447.81
464.316	425.81
464.536	442.81
464.755	425.81
464.975	426.81
465.195	422.81
465.414	409.81
465.634	365.81
465.854	365.81
466.073	363.81
466.293	367.81
466.512	352.81
466.732	333.81
466.951	339.81
467.171	331.81
467.391	358.81
467.61	340.81
467.829	323.81
468.049	344.81
468.268	330.81
468.488	332.81
468.707	316.81
468.927	335.81
469.146	317.81
469.365	328.81
469.585	344.81
469.804	333.81
470.023	352.81
470.243	344.81
470.462	352.81
470.681	343.81
470.901	336.81
471.12	353.81
471.339	329.81
471.558	345.81
471.777	347.81
471.997	357.81
472.216	349.81
472.435	347.81
472.654	343.81
472.873	324.81
473.092	312.81
473.311	336.81
473.53	326.81
473.749	332.81
473.968	332.81
474.187	318.81
474.406	318.81
474.625	340.81
474.844	327.81
475.063	348.81
475.282	324.81
475.501	332.81
475.72	341.81
475.939	344.81
476.158	347.81
476.377	332.81
476.596	344.81
476.814	353.81
477.033	341.81
477.252	364.81
477.471	359.81
477.69	356.81
477.908	367.81
478.127	369.81
478.346	361.81
478.564	368.81
478.783	391.81
479.002	394.81
479.22	388.81
479.439	398.81
479.658	393.81
479.876	378.81
480.095	390.81
480.313	409.81
480.532	397.81
480.751	414.81
480.969	391.81
481.188	380.81
481.406	370.81
481.624	364.81
481.843	381.81
482.061	375.81
482.28	380.81
482.498	352.81
482.717	359.81
482.935	375.81
483.153	369.81
483.372	383.81
483.59	373.81
483.808	363.81
484.027	380.81
484.245	398.81
484.463	382.81
484.681	383.81
484.9	391.81
485.118	361.81
485.336	371.81
485.554	368.81
485.772	391.81
485.99	395.81
486.209	381.81
486.427	384.81
486.645	372.81
486.863	377.81
487.081	392.81
487.299	391.81
487.517	390.81
487.735	373.81
487.953	396.81
488.171	388.81
488.389	406.81
488.607	391.81
488.825	396.81
489.043	387.81
489.261	401.81
489.479	383.81
489.696	379.81
489.914	373.81
490.132	400.81
490.35	400.81
490.568	395.81
490.786	381.81
491.003	398.81
491.221	395.81
491.439	405.81
491.657	387.81
491.874	408.81
492.092	433.81
492.31	410.81
492.527	414.81
492.745	414.81
492.963	403.81
493.18	406.81
493.398	402.81
493.615	404.81
493.833	407.81
494.05	431.81
494.268	427.81
494.485	411.81
494.703	420.81
494.92	407.81
495.138	413.81
495.355	417.81
495.573	407.81
495.79	408.81
496.008	421.81
496.225	408.81
496.442	417.81
496.66	405.81
496.877	418.81
497.094	444.81
497.312	427.81
497.529	426.81
497.746	443.81
497.963	464.81
498.181	487.81
498.398	482.81
498.615	500.81
498.832	543.81
499.049	562.81
499.267	615.81
499.484	656.81
499.701	694.81
499.918	760.81
500.135	850.81
500.352	939.81
500.569	971.81
500.786	928.81
501.003	897.81
501.22	811.81
501.437	712.81
501.654	659.81
501.871	623.81
502.088	578.81
502.305	577.81
