Data from Fe(NO3)3@0.1M.TitratingCurve.Agarose3%dH2O.NegLispCup.LampEnergy10.LIBS07252019_HRD10591_16-37-26-331.txt Node
Date: Thu Jul 25 16:37:26 EDT 2019
User: cochatt
Spectrometer: HR+D1059
Trigger mode: 1
Integration Time (sec): 1.000000E-1
Scans to average: 1
Electric dark correction enabled: true
Nonlinearity correction enabled: false
Boxcar width: 0
XAxis mode: Wavelengths
Number of Pixels in Spectrum: 2048
>>>>>Begin Spectral Data<<<<<
223.165	-1.25
223.4	-1.25
223.635	-1.25
223.869	-27.25
224.104	-20.25
224.338	-15.25
224.573	-10.25
224.808	-9.25
225.042	-37.25
225.277	1.75
225.511	3.75
225.746	7.75
225.98	15.75
226.215	11.75
226.449	12.75
226.683	4.75
226.918	33.75
227.152	28.75
227.387	35.75
227.621	36.75
227.856	48.75
228.09	33.75
228.324	51.75
228.559	43.75
228.793	51.75
229.027	61.75
229.262	66.75
229.496	75.75
229.73	99.75
229.964	77.75
230.199	91.75
230.433	77.75
230.667	94.75
230.901	91.75
231.136	86.75
231.37	89.75
231.604	92.75
231.838	109.75
232.072	92.75
232.306	109.75
232.541	99.75
232.775	103.75
233.009	89.75
233.243	103.75
233.477	96.75
233.711	98.75
233.945	88.75
234.179	95.75
234.413	95.75
234.647	84.75
234.881	99.75
235.115	100.75
235.349	91.75
235.583	93.75
235.817	82.75
236.051	92.75
236.285	88.75
236.519	91.75
236.753	92.75
236.987	94.75
237.221	93.75
237.455	83.75
237.689	80.75
237.922	86.75
238.156	92.75
238.39	91.75
238.624	91.75
238.858	97.75
239.091	90.75
239.325	89.75
239.559	89.75
239.793	87.75
240.027	103.75
240.26	99.75
240.494	99.75
240.728	98.75
240.961	105.75
241.195	114.75
241.429	99.75
241.662	94.75
241.896	98.75
242.13	91.75
242.363	99.75
242.597	85.75
242.83	100.75
243.064	96.75
243.298	92.75
243.531	103.75
243.765	94.75
243.998	105.75
244.232	95.75
244.465	101.75
244.699	97.75
244.932	99.75
245.166	120.75
245.399	113.75
245.633	98.75
245.866	113.75
246.099	99.75
246.333	110.75
246.566	117.75
246.8	105.75
247.033	111.75
247.266	100.75
247.5	109.75
247.733	104.75
247.966	106.75
248.2	103.75
248.433	107.75
248.666	130.75
248.899	110.75
249.133	121.75
249.366	95.75
249.599	110.75
249.832	110.75
250.066	111.75
250.299	115.75
250.532	132.75
250.765	118.75
250.998	104.75
251.231	113.75
251.465	113.75
251.698	106.75
251.931	108.75
252.164	113.75
252.397	123.75
252.63	113.75
252.863	112.75
253.096	115.75
253.329	118.75
253.562	110.75
253.795	113.75
254.028	117.75
254.261	116.75
254.494	124.75
254.727	135.75
254.96	118.75
255.193	126.75
255.426	110.75
255.659	116.75
255.892	111.75
256.124	122.75
256.357	122.75
256.59	128.75
256.823	117.75
257.056	107.75
257.289	125.75
257.521	107.75
257.754	98.75
257.987	113.75
258.22	121.75
258.452	118.75
258.685	129.75
258.918	119.75
259.151	126.75
259.383	117.75
259.616	116.75
259.849	138.75
260.081	139.75
260.314	147.75
260.547	140.75
260.779	140.75
261.012	119.75
261.244	126.75
261.477	137.75
261.71	121.75
261.942	122.75
262.175	144.75
262.407	130.75
262.64	127.75
262.872	127.75
263.105	131.75
263.337	128.75
263.57	133.75
263.802	132.75
264.035	118.75
264.267	119.75
264.499	135.75
264.732	141.75
264.964	122.75
265.197	138.75
265.429	125.75
265.661	118.75
265.894	137.75
266.126	146.75
266.358	125.75
266.591	135.75
266.823	128.75
267.055	122.75
267.287	129.75
267.52	125.75
267.752	125.75
267.984	130.75
268.216	149.75
268.448	133.75
268.681	129.75
268.913	141.75
269.145	137.75
269.377	122.75
269.609	149.75
269.841	149.75
270.073	131.75
270.306	117.75
270.538	125.75
270.77	136.75
271.002	151.75
271.234	131.75
271.466	130.75
271.698	141.75
271.93	125.75
272.162	143.75
272.394	137.75
272.626	136.75
272.858	134.75
273.09	136.75
273.322	138.75
273.553	137.75
273.785	149.75
274.017	154.75
274.249	150.75
274.481	156.75
274.713	152.75
274.945	149.75
275.176	146.75
275.408	137.75
275.64	156.75
275.872	143.75
276.104	131.75
276.335	148.75
276.567	149.75
276.799	156.75
277.031	141.75
277.262	141.75
277.494	154.75
277.726	148.75
277.957	149.75
278.189	138.75
278.421	147.75
278.652	153.75
278.884	138.75
279.115	155.75
279.347	173.75
279.579	172.75
279.81	151.75
280.042	153.75
280.273	137.75
280.505	152.75
280.736	142.75
280.968	153.75
281.199	154.75
281.431	139.75
281.662	142.75
281.894	157.75
282.125	149.75
282.356	143.75
282.588	139.75
282.819	162.75
283.051	142.75
283.282	161.75
283.513	144.75
283.745	151.75
283.976	157.75
284.207	165.75
284.439	160.75
284.67	166.75
284.901	161.75
285.132	171.75
285.364	149.75
285.595	142.75
285.826	165.75
286.057	144.75
286.288	162.75
286.52	164.75
286.751	173.75
286.982	167.75
287.213	166.75
287.444	165.75
287.675	163.75
287.906	168.75
288.138	180.75
288.369	169.75
288.6	180.75
288.831	167.75
289.062	165.75
289.293	169.75
289.524	167.75
289.755	168.75
289.986	171.75
290.217	162.75
290.448	171.75
290.679	161.75
290.91	161.75
291.141	172.75
291.371	169.75
291.602	175.75
291.833	166.75
292.064	165.75
292.295	151.75
292.526	169.75
292.757	167.75
292.987	167.75
293.218	173.75
293.449	158.75
293.68	173.75
293.91	168.75
294.141	167.75
294.372	150.75
294.603	169.75
294.833	152.75
295.064	162.75
295.295	170.75
295.525	169.75
295.756	172.75
295.987	170.75
296.217	187.75
296.448	165.75
296.679	177.75
296.909	173.75
297.14	168.75
297.37	183.75
297.601	174.75
297.831	172.75
298.062	163.75
298.292	174.75
298.523	164.75
298.753	168.75
298.984	164.75
299.214	177.75
299.445	179.75
299.675	176.75
299.905	163.75
300.136	169.75
300.366	172.75
300.597	176.75
300.827	189.75
301.057	175.75
301.288	182.75
301.518	188.75
301.748	186.75
301.979	193.75
302.209	179.75
302.439	189.75
302.669	196.75
302.9	183.75
303.13	190.75
303.36	181.75
303.59	178.75
303.82	195.75
304.051	177.75
304.281	180.75
304.511	183.75
304.741	204.75
304.971	203.75
305.201	184.75
305.431	167.75
305.661	181.75
305.891	157.75
306.121	177.75
306.352	185.75
306.582	188.75
306.812	166.75
307.042	181.75
307.272	170.75
307.502	194.75
307.731	181.75
307.961	185.75
308.191	196.75
308.421	185.75
308.651	193.75
308.881	187.75
309.111	177.75
309.341	191.75
309.571	193.75
309.8	188.75
310.03	179.75
310.26	190.75
310.49	186.75
310.72	188.75
310.949	184.75
311.179	182.75
311.409	192.75
311.639	196.75
311.868	184.75
312.098	186.75
312.328	186.75
312.557	185.75
312.787	192.75
313.017	200.75
313.246	202.75
313.476	184.75
313.706	193.75
313.935	199.75
314.165	191.75
314.394	187.75
314.624	184.75
314.853	181.75
315.083	197.75
315.312	193.75
315.542	204.75
315.771	195.75
316.001	177.75
316.23	186.75
316.46	195.75
316.689	204.75
316.919	198.75
317.148	188.75
317.377	209.75
317.607	194.75
317.836	189.75
318.065	195.75
318.295	200.75
318.524	188.75
318.753	182.75
318.983	187.75
319.212	179.75
319.441	198.75
319.67	196.75
319.9	179.75
320.129	197.75
320.358	198.75
320.587	201.75
320.816	180.75
321.046	180.75
321.275	197.75
321.504	189.75
321.733	182.75
321.962	202.75
322.191	206.75
322.42	183.75
322.649	198.75
322.878	191.75
323.108	182.75
323.337	180.75
323.566	184.75
323.795	181.75
324.024	212.75
324.253	196.75
324.482	196.75
324.71	170.75
324.939	195.75
325.168	197.75
325.397	204.75
325.626	210.75
325.855	196.75
326.084	184.75
326.313	196.75
326.542	197.75
326.77	194.75
326.999	201.75
327.228	212.75
327.457	205.75
327.686	213.75
327.914	202.75
328.143	197.75
328.372	197.75
328.6	200.75
328.829	213.75
329.058	215.75
329.287	208.75
329.515	206.75
329.744	218.75
329.972	211.75
330.201	198.75
330.43	210.75
330.658	195.75
330.887	217.75
331.115	217.75
331.344	200.75
331.572	211.75
331.801	225.75
332.03	234.75
332.258	217.75
332.486	236.75
332.715	234.75
332.943	226.75
333.172	243.75
333.4	239.75
333.629	241.75
333.857	249.75
334.085	227.75
334.314	246.75
334.542	233.75
334.771	232.75
334.999	235.75
335.227	238.75
335.455	231.75
335.684	258.75
335.912	231.75
336.14	220.75
336.369	237.75
336.597	235.75
336.825	222.75
337.053	229.75
337.281	244.75
337.51	222.75
337.738	228.75
337.966	224.75
338.194	208.75
338.422	195.75
338.65	218.75
338.878	225.75
339.106	218.75
339.334	215.75
339.562	217.75
339.79	232.75
340.018	210.75
340.246	205.75
340.474	216.75
340.702	216.75
340.93	211.75
341.158	207.75
341.386	217.75
341.614	193.75
341.842	217.75
342.07	217.75
342.298	200.75
342.526	205.75
342.754	216.75
342.981	202.75
343.209	209.75
343.437	223.75
343.665	226.75
343.893	250.75
344.12	259.75
344.348	242.75
344.576	238.75
344.804	220.75
345.031	228.75
345.259	216.75
345.487	216.75
345.714	202.75
345.942	213.75
346.17	220.75
346.397	212.75
346.625	217.75
346.853	206.75
347.08	201.75
347.308	213.75
347.535	213.75
347.763	210.75
347.99	212.75
348.218	233.75
348.445	197.75
348.673	197.75
348.9	218.75
349.128	211.75
349.355	199.75
349.583	207.75
349.81	213.75
350.037	221.75
350.265	204.75
350.492	206.75
350.72	202.75
350.947	222.75
351.174	208.75
351.402	216.75
351.629	211.75
351.856	212.75
352.083	211.75
352.311	209.75
352.538	210.75
352.765	205.75
352.992	200.75
353.22	196.75
353.447	213.75
353.674	208.75
353.901	211.75
354.128	198.75
354.355	197.75
354.583	194.75
354.81	214.75
355.037	212.75
355.264	212.75
355.491	213.75
355.718	215.75
355.945	220.75
356.172	207.75
356.399	194.75
356.626	207.75
356.853	213.75
357.08	219.75
357.307	214.75
357.534	206.75
357.761	206.75
357.988	224.75
358.215	221.75
358.441	206.75
358.668	218.75
358.895	220.75
359.122	203.75
359.349	210.75
359.576	209.75
359.802	195.75
360.029	219.75
360.256	216.75
360.483	219.75
360.709	218.75
360.936	206.75
361.163	220.75
361.39	216.75
361.616	210.75
361.843	222.75
362.07	233.75
362.296	214.75
362.523	213.75
362.749	214.75
362.976	213.75
363.203	211.75
363.429	206.75
363.656	206.75
363.882	206.75
364.109	220.75
364.335	217.75
364.562	212.75
364.788	206.75
365.015	219.75
365.241	206.75
365.468	211.75
365.694	203.75
365.92	204.75
366.147	218.75
366.373	215.75
366.599	210.75
366.826	219.75
367.052	214.75
367.278	193.75
367.505	206.75
367.731	233.75
367.957	216.75
368.184	203.75
368.41	206.75
368.636	212.75
368.862	203.75
369.089	215.75
369.315	223.75
369.541	216.75
369.767	225.75
369.993	235.75
370.219	232.75
370.445	215.75
370.672	225.75
370.898	234.75
371.124	221.75
371.35	225.75
371.576	228.75
371.802	235.75
372.028	241.75
372.254	253.75
372.48	246.75
372.706	244.75
372.932	233.75
373.158	252.75
373.384	230.75
373.61	238.75
373.835	257.75
374.061	246.75
374.287	232.75
374.513	257.75
374.739	246.75
374.965	260.75
375.191	260.75
375.416	235.75
375.642	243.75
375.868	247.75
376.094	256.75
376.319	250.75
376.545	234.75
376.771	222.75
376.997	224.75
377.222	253.75
377.448	238.75
377.674	229.75
377.899	237.75
378.125	242.75
378.35	261.75
378.576	231.75
378.802	223.75
379.027	225.75
379.253	246.75
379.478	257.75
379.704	237.75
379.929	237.75
380.155	246.75
380.38	257.75
380.606	251.75
380.831	249.75
381.057	265.75
381.282	237.75
381.507	251.75
381.733	263.75
381.958	258.75
382.184	251.75
382.409	249.75
382.634	250.75
382.86	263.75
383.085	248.75
383.31	269.75
383.535	270.75
383.761	283.75
383.986	273.75
384.211	281.75
384.436	269.75
384.662	277.75
384.887	267.75
385.112	264.75
385.337	311.75
385.562	279.75
385.787	289.75
386.013	294.75
386.238	294.75
386.463	290.75
386.688	300.75
386.913	298.75
387.138	274.75
387.363	298.75
387.588	287.75
387.813	292.75
388.038	282.75
388.263	291.75
388.488	295.75
388.713	267.75
388.938	283.75
389.163	270.75
389.387	298.75
389.612	278.75
389.837	274.75
390.062	275.75
390.287	285.75
390.512	279.75
390.736	271.75
390.961	284.75
391.186	304.75
391.411	294.75
391.636	316.75
391.86	315.75
392.085	322.75
392.31	331.75
392.534	330.75
392.759	310.75
392.984	293.75
393.208	307.75
393.433	321.75
393.658	298.75
393.882	316.75
394.107	289.75
394.331	323.75
394.556	308.75
394.78	308.75
395.005	295.75
395.229	311.75
395.454	316.75
395.678	326.75
395.903	330.75
396.127	324.75
396.352	311.75
396.576	332.75
396.801	315.75
397.025	332.75
397.249	315.75
397.474	311.75
397.698	323.75
397.922	346.75
398.147	332.75
398.371	332.75
398.595	334.75
398.82	360.75
399.044	394.75
399.268	411.75
399.492	450.75
399.717	474.75
399.941	490.75
400.165	436.75
400.389	426.75
400.613	398.75
400.837	381.75
401.062	357.75
401.286	369.75
401.51	357.75
401.734	353.75
401.958	372.75
402.182	369.75
402.406	358.75
402.63	364.75
402.854	379.75
403.078	380.75
403.302	385.75
403.526	390.75
403.75	391.75
403.974	387.75
404.198	381.75
404.422	380.75
404.645	407.75
404.869	400.75
405.093	389.75
405.317	403.75
405.541	384.75
405.765	375.75
405.988	390.75
406.212	390.75
406.436	370.75
406.66	386.75
406.883	396.75
407.107	428.75
407.331	434.75
407.555	413.75
407.778	431.75
408.002	411.75
408.226	399.75
408.449	401.75
408.673	383.75
408.896	387.75
409.12	369.75
409.344	375.75
409.567	392.75
409.791	395.75
410.014	377.75
410.238	382.75
410.461	387.75
410.685	373.75
410.908	371.75
411.132	367.75
411.355	366.75
411.578	366.75
411.802	367.75
412.025	364.75
412.249	366.75
412.472	366.75
412.695	365.75
412.919	361.75
413.142	366.75
413.365	359.75
413.589	343.75
413.812	350.75
414.035	347.75
414.258	351.75
414.482	369.75
414.705	377.75
414.928	354.75
415.151	365.75
415.374	350.75
415.597	367.75
415.821	339.75
416.044	337.75
416.267	346.75
416.49	346.75
416.713	343.75
416.936	347.75
417.159	360.75
417.382	335.75
417.605	353.75
417.828	331.75
418.051	357.75
418.274	344.75
418.497	355.75
418.72	353.75
418.943	355.75
419.166	361.75
419.389	374.75
419.611	371.75
419.834	379.75
420.057	376.75
420.28	352.75
420.503	377.75
420.726	342.75
420.948	339.75
421.171	345.75
421.394	339.75
421.617	360.75
421.839	336.75
422.062	339.75
422.285	366.75
422.507	361.75
422.73	363.75
422.953	366.75
423.175	385.75
423.398	365.75
423.621	374.75
423.843	378.75
424.066	366.75
424.288	369.75
424.511	381.75
424.733	359.75
424.956	351.75
425.178	369.75
425.401	353.75
425.623	343.75
425.846	341.75
426.068	351.75
426.291	363.75
426.513	339.75
426.735	340.75
426.958	357.75
427.18	338.75
427.402	358.75
427.625	333.75
427.847	332.75
428.069	332.75
428.292	317.75
428.514	338.75
428.736	318.75
428.958	327.75
429.181	318.75
429.403	305.75
429.625	323.75
429.847	327.75
430.069	330.75
430.292	334.75
430.514	309.75
430.736	330.75
430.958	335.75
431.18	330.75
431.402	323.75
431.624	318.75
431.846	333.75
432.068	342.75
432.29	341.75
432.512	324.75
432.734	332.75
432.956	346.75
433.178	311.75
433.4	299.75
433.622	322.75
433.844	323.75
434.066	323.75
434.287	313.75
434.509	341.75
434.731	330.75
434.953	335.75
435.175	341.75
435.397	349.75
435.618	364.75
435.84	345.75
436.062	340.75
436.284	334.75
436.505	325.75
436.727	335.75
436.949	338.75
437.17	337.75
437.392	328.75
437.614	330.75
437.835	321.75
438.057	320.75
438.278	329.75
438.5	303.75
438.721	323.75
438.943	344.75
439.165	318.75
439.386	316.75
439.608	325.75
439.829	329.75
440.05	337.75
440.272	338.75
440.493	338.75
440.715	334.75
440.936	333.75
441.158	330.75
441.379	350.75
441.6	361.75
441.822	359.75
442.043	369.75
442.264	353.75
442.486	357.75
442.707	358.75
442.928	345.75
443.149	347.75
443.371	361.75
443.592	372.75
443.813	364.75
444.034	345.75
444.255	359.75
444.476	379.75
444.698	409.75
444.919	408.75
445.14	514.75
445.361	412.75
445.582	364.75
445.803	340.75
446.024	366.75
446.245	374.75
446.466	323.75
446.687	327.75
446.908	341.75
447.129	333.75
447.35	330.75
447.571	329.75
447.792	313.75
448.013	314.75
448.234	318.75
448.455	313.75
448.675	312.75
448.896	325.75
449.117	302.75
449.338	326.75
449.559	291.75
449.779	301.75
450	305.75
450.221	310.75
450.442	300.75
450.662	309.75
450.883	313.75
451.104	326.75
451.324	311.75
451.545	300.75
451.766	298.75
451.986	289.75
452.207	310.75
452.428	294.75
452.648	291.75
452.869	302.75
453.089	297.75
453.31	306.75
453.53	299.75
453.751	289.75
453.971	290.75
454.192	305.75
454.412	294.75
454.633	301.75
454.853	280.75
455.073	303.75
455.294	296.75
455.514	297.75
455.734	287.75
455.955	306.75
456.175	285.75
456.395	294.75
456.616	309.75
456.836	279.75
457.056	297.75
457.276	291.75
457.497	300.75
457.717	286.75
457.937	285.75
458.157	284.75
458.377	327.75
458.598	305.75
458.818	283.75
459.038	295.75
459.258	336.75
459.478	323.75
459.698	330.75
459.918	354.75
460.138	356.75
460.358	381.75
460.578	374.75
460.798	362.75
461.018	383.75
461.238	375.75
461.458	376.75
461.678	362.75
461.898	385.75
462.118	378.75
462.338	403.75
462.558	411.75
462.777	410.75
462.997	431.75
463.217	486.75
463.437	476.75
463.657	429.75
463.876	434.75
464.096	421.75
464.316	433.75
464.536	411.75
464.755	405.75
464.975	412.75
465.195	391.75
465.414	373.75
465.634	354.75
465.854	353.75
466.073	331.75
466.293	327.75
466.512	319.75
466.732	306.75
466.951	324.75
467.171	323.75
467.391	348.75
467.61	324.75
467.829	329.75
468.049	330.75
468.268	329.75
468.488	325.75
468.707	308.75
468.927	293.75
469.146	310.75
469.365	314.75
469.585	297.75
469.804	321.75
470.023	330.75
470.243	325.75
470.462	310.75
470.681	341.75
470.901	330.75
471.12	335.75
471.339	332.75
471.558	311.75
471.777	324.75
471.997	333.75
472.216	316.75
472.435	324.75
472.654	298.75
472.873	319.75
473.092	324.75
473.311	305.75
473.53	317.75
473.749	295.75
473.968	323.75
474.187	311.75
474.406	292.75
474.625	322.75
474.844	312.75
475.063	322.75
475.282	310.75
475.501	308.75
475.72	326.75
475.939	327.75
476.158	323.75
476.377	325.75
476.596	329.75
476.814	328.75
477.033	328.75
477.252	329.75
477.471	335.75
477.69	329.75
477.908	343.75
478.127	346.75
478.346	377.75
478.564	361.75
478.783	378.75
479.002	371.75
479.22	383.75
479.439	389.75
479.658	361.75
479.876	373.75
480.095	368.75
480.313	393.75
480.532	418.75
480.751	385.75
480.969	378.75
481.188	370.75
481.406	366.75
481.624	337.75
481.843	354.75
482.061	328.75
482.28	346.75
482.498	343.75
482.717	366.75
482.935	341.75
483.153	333.75
483.372	367.75
483.59	358.75
483.808	359.75
484.027	355.75
484.245	345.75
484.463	358.75
484.681	363.75
484.9	372.75
485.118	365.75
485.336	371.75
485.554	365.75
485.772	355.75
485.99	373.75
486.209	375.75
486.427	372.75
486.645	373.75
486.863	372.75
487.081	371.75
487.299	355.75
487.517	356.75
487.735	351.75
487.953	360.75
488.171	380.75
488.389	361.75
488.607	369.75
488.825	387.75
489.043	367.75
489.261	368.75
489.479	345.75
489.696	353.75
489.914	375.75
490.132	381.75
490.35	367.75
490.568	385.75
490.786	363.75
491.003	373.75
491.221	355.75
491.439	376.75
491.657	382.75
491.874	374.75
492.092	375.75
492.31	382.75
492.527	381.75
492.745	386.75
492.963	388.75
493.18	389.75
493.398	384.75
493.615	378.75
493.833	397.75
494.05	390.75
494.268	399.75
494.485	396.75
494.703	409.75
494.92	386.75
495.138	409.75
495.355	405.75
495.573	389.75
495.79	403.75
496.008	409.75
496.225	387.75
496.442	404.75
496.66	417.75
496.877	411.75
497.094	419.75
497.312	417.75
497.529	413.75
497.746	425.75
497.963	446.75
498.181	457.75
498.398	462.75
498.615	491.75
498.832	504.75
499.049	565.75
499.267	588.75
499.484	635.75
499.701	678.75
499.918	741.75
500.135	805.75
500.352	901.75
500.569	917.75
500.786	916.75
501.003	841.75
501.22	819.75
501.437	705.75
501.654	646.75
501.871	588.75
502.088	561.75
502.305	525.75
502.522	521.75
