Data from Fe(NO3)3@0.0125M.TitratingCurve.Agarose3%dH2O.NegLispCup.LampEnergy10.LIBS07252019_HRD10591_17-01-05-336.txt Node
Date: Thu Jul 25 17:01:05 EDT 2019
User: cochatt
Spectrometer: HR+D1059
Trigger mode: 1
Integration Time (sec): 1.000000E-1
Scans to average: 1
Electric dark correction enabled: true
Nonlinearity correction enabled: false
Boxcar width: 0
XAxis mode: Wavelengths
Number of Pixels in Spectrum: 2048
>>>>>Begin Spectral Data<<<<<
223.165	-14.25
223.4	-14.25
223.635	-14.25
223.869	-24.25
224.104	-9.25
224.338	-8.25
224.573	-12.25
224.808	-12.25
225.042	-10.25
225.277	-5.25
225.511	-7.25
225.746	6.75
225.98	22.75
226.215	13.75
226.449	6.75
226.683	12.75
226.918	14.75
227.152	25.75
227.387	34.75
227.621	32.75
227.856	46.75
228.09	43.75
228.324	51.75
228.559	55.75
228.793	68.75
229.027	68.75
229.262	89.75
229.496	81.75
229.73	81.75
229.964	87.75
230.199	101.75
230.433	94.75
230.667	91.75
230.901	98.75
231.136	82.75
231.37	105.75
231.604	113.75
231.838	100.75
232.072	108.75
232.306	103.75
232.541	106.75
232.775	98.75
233.009	100.75
233.243	102.75
233.477	93.75
233.711	115.75
233.945	114.75
234.179	112.75
234.413	100.75
234.647	96.75
234.881	98.75
235.115	110.75
235.349	97.75
235.583	105.75
235.817	104.75
236.051	107.75
236.285	109.75
236.519	103.75
236.753	107.75
236.987	105.75
237.221	102.75
237.455	107.75
237.689	102.75
237.922	104.75
238.156	115.75
238.39	121.75
238.624	120.75
238.858	109.75
239.091	125.75
239.325	115.75
239.559	118.75
239.793	128.75
240.027	132.75
240.26	112.75
240.494	126.75
240.728	119.75
240.961	108.75
241.195	120.75
241.429	118.75
241.662	117.75
241.896	109.75
242.13	120.75
242.363	113.75
242.597	109.75
242.83	130.75
243.064	126.75
243.298	116.75
243.531	116.75
243.765	129.75
243.998	131.75
244.232	134.75
244.465	128.75
244.699	113.75
244.932	134.75
245.166	122.75
245.399	116.75
245.633	125.75
245.866	118.75
246.099	128.75
246.333	137.75
246.566	127.75
246.8	116.75
247.033	134.75
247.266	129.75
247.5	143.75
247.733	143.75
247.966	135.75
248.2	130.75
248.433	137.75
248.666	141.75
248.899	150.75
249.133	151.75
249.366	148.75
249.599	140.75
249.832	146.75
250.066	140.75
250.299	131.75
250.532	142.75
250.765	149.75
250.998	143.75
251.231	142.75
251.465	133.75
251.698	119.75
251.931	149.75
252.164	157.75
252.397	153.75
252.63	146.75
252.863	148.75
253.096	152.75
253.329	161.75
253.562	140.75
253.795	148.75
254.028	142.75
254.261	161.75
254.494	156.75
254.727	145.75
254.96	163.75
255.193	146.75
255.426	134.75
255.659	151.75
255.892	158.75
256.124	155.75
256.357	147.75
256.59	162.75
256.823	161.75
257.056	145.75
257.289	153.75
257.521	158.75
257.754	147.75
257.987	155.75
258.22	163.75
258.452	165.75
258.685	170.75
258.918	164.75
259.151	148.75
259.383	167.75
259.616	177.75
259.849	186.75
260.081	177.75
260.314	193.75
260.547	181.75
260.779	170.75
261.012	172.75
261.244	169.75
261.477	174.75
261.71	186.75
261.942	158.75
262.175	168.75
262.407	166.75
262.64	171.75
262.872	196.75
263.105	176.75
263.337	176.75
263.57	196.75
263.802	171.75
264.035	160.75
264.267	160.75
264.499	177.75
264.732	176.75
264.964	179.75
265.197	185.75
265.429	163.75
265.661	191.75
265.894	177.75
266.126	179.75
266.358	174.75
266.591	204.75
266.823	170.75
267.055	164.75
267.287	181.75
267.52	179.75
267.752	171.75
267.984	176.75
268.216	181.75
268.448	195.75
268.681	205.75
268.913	177.75
269.145	188.75
269.377	187.75
269.609	201.75
269.841	197.75
270.073	193.75
270.306	201.75
270.538	180.75
270.77	178.75
271.002	184.75
271.234	195.75
271.466	208.75
271.698	202.75
271.93	197.75
272.162	196.75
272.394	201.75
272.626	199.75
272.858	212.75
273.09	195.75
273.322	204.75
273.553	212.75
273.785	208.75
274.017	206.75
274.249	202.75
274.481	201.75
274.713	233.75
274.945	226.75
275.176	236.75
275.408	236.75
275.64	217.75
275.872	216.75
276.104	214.75
276.335	203.75
276.567	200.75
276.799	199.75
277.031	221.75
277.262	224.75
277.494	208.75
277.726	219.75
277.957	209.75
278.189	221.75
278.421	198.75
278.652	201.75
278.884	215.75
279.115	220.75
279.347	202.75
279.579	208.75
279.81	213.75
280.042	219.75
280.273	216.75
280.505	235.75
280.736	216.75
280.968	235.75
281.199	217.75
281.431	218.75
281.662	226.75
281.894	212.75
282.125	241.75
282.356	226.75
282.588	231.75
282.819	227.75
283.051	229.75
283.282	228.75
283.513	227.75
283.745	232.75
283.976	225.75
284.207	231.75
284.439	236.75
284.67	237.75
284.901	233.75
285.132	228.75
285.364	218.75
285.595	225.75
285.826	232.75
286.057	236.75
286.288	243.75
286.52	232.75
286.751	218.75
286.982	241.75
287.213	242.75
287.444	231.75
287.675	228.75
287.906	243.75
288.138	248.75
288.369	227.75
288.6	246.75
288.831	251.75
289.062	242.75
289.293	236.75
289.524	242.75
289.755	259.75
289.986	246.75
290.217	242.75
290.448	234.75
290.679	254.75
290.91	244.75
291.141	244.75
291.371	241.75
291.602	241.75
291.833	244.75
292.064	253.75
292.295	258.75
292.526	236.75
292.757	252.75
292.987	256.75
293.218	246.75
293.449	263.75
293.68	255.75
293.91	255.75
294.141	250.75
294.372	246.75
294.603	252.75
294.833	258.75
295.064	256.75
295.295	259.75
295.525	268.75
295.756	256.75
295.987	245.75
296.217	264.75
296.448	256.75
296.679	249.75
296.909	256.75
297.14	261.75
297.37	264.75
297.601	262.75
297.831	274.75
298.062	277.75
298.292	278.75
298.523	276.75
298.753	269.75
298.984	274.75
299.214	260.75
299.445	270.75
299.675	270.75
299.905	285.75
300.136	269.75
300.366	261.75
300.597	280.75
300.827	276.75
301.057	275.75
301.288	278.75
301.518	288.75
301.748	279.75
301.979	270.75
302.209	287.75
302.439	284.75
302.669	278.75
302.9	292.75
303.13	265.75
303.36	277.75
303.59	277.75
303.82	301.75
304.051	294.75
304.281	267.75
304.511	276.75
304.741	289.75
304.971	299.75
305.201	292.75
305.431	290.75
305.661	276.75
305.891	276.75
306.121	282.75
306.352	278.75
306.582	288.75
306.812	289.75
307.042	282.75
307.272	282.75
307.502	298.75
307.731	288.75
307.961	287.75
308.191	292.75
308.421	289.75
308.651	290.75
308.881	292.75
309.111	296.75
309.341	297.75
309.571	296.75
309.8	300.75
310.03	318.75
310.26	285.75
310.49	304.75
310.72	288.75
310.949	299.75
311.179	300.75
311.409	310.75
311.639	307.75
311.868	300.75
312.098	295.75
312.328	285.75
312.557	300.75
312.787	316.75
313.017	290.75
313.246	313.75
313.476	321.75
313.706	301.75
313.935	316.75
314.165	280.75
314.394	304.75
314.624	325.75
314.853	298.75
315.083	308.75
315.312	320.75
315.542	306.75
315.771	321.75
316.001	313.75
316.23	317.75
316.46	307.75
316.689	305.75
316.919	311.75
317.148	308.75
317.377	320.75
317.607	309.75
317.836	334.75
318.065	321.75
318.295	331.75
318.524	315.75
318.753	310.75
318.983	302.75
319.212	324.75
319.441	336.75
319.67	299.75
319.9	300.75
320.129	308.75
320.358	331.75
320.587	316.75
320.816	312.75
321.046	312.75
321.275	307.75
321.504	334.75
321.733	320.75
321.962	345.75
322.191	320.75
322.42	336.75
322.649	325.75
322.878	314.75
323.108	338.75
323.337	330.75
323.566	317.75
323.795	323.75
324.024	324.75
324.253	333.75
324.482	329.75
324.71	334.75
324.939	337.75
325.168	322.75
325.397	348.75
325.626	341.75
325.855	337.75
326.084	353.75
326.313	343.75
326.542	345.75
326.77	330.75
326.999	333.75
327.228	341.75
327.457	357.75
327.686	350.75
327.914	347.75
328.143	357.75
328.372	343.75
328.6	329.75
328.829	334.75
329.058	352.75
329.287	345.75
329.515	348.75
329.744	360.75
329.972	361.75
330.201	344.75
330.43	363.75
330.658	344.75
330.887	341.75
331.115	373.75
331.344	356.75
331.572	331.75
331.801	357.75
332.03	357.75
332.258	343.75
332.486	355.75
332.715	368.75
332.943	370.75
333.172	373.75
333.4	369.75
333.629	376.75
333.857	388.75
334.085	377.75
334.314	395.75
334.542	397.75
334.771	396.75
334.999	405.75
335.227	388.75
335.455	364.75
335.684	408.75
335.912	411.75
336.14	401.75
336.369	395.75
336.597	385.75
336.825	391.75
337.053	390.75
337.281	399.75
337.51	409.75
337.738	391.75
337.966	380.75
338.194	370.75
338.422	358.75
338.65	392.75
338.878	388.75
339.106	393.75
339.334	374.75
339.562	361.75
339.79	353.75
340.018	397.75
340.246	388.75
340.474	363.75
340.702	382.75
340.93	377.75
341.158	365.75
341.386	375.75
341.614	366.75
341.842	361.75
342.07	376.75
342.298	364.75
342.526	351.75
342.754	388.75
342.981	378.75
343.209	396.75
343.437	396.75
343.665	377.75
343.893	399.75
344.12	408.75
344.348	395.75
344.576	394.75
344.804	364.75
345.031	392.75
345.259	379.75
345.487	374.75
345.714	377.75
345.942	378.75
346.17	381.75
346.397	375.75
346.625	354.75
346.853	381.75
347.08	365.75
347.308	376.75
347.535	384.75
347.763	359.75
347.99	354.75
348.218	352.75
348.445	358.75
348.673	363.75
348.9	349.75
349.128	368.75
349.355	362.75
349.583	363.75
349.81	360.75
350.037	356.75
350.265	368.75
350.492	370.75
350.72	344.75
350.947	344.75
351.174	349.75
351.402	352.75
351.629	371.75
351.856	362.75
352.083	370.75
352.311	366.75
352.538	352.75
352.765	360.75
352.992	369.75
353.22	359.75
353.447	340.75
353.674	352.75
353.901	360.75
354.128	342.75
354.355	345.75
354.583	346.75
354.81	359.75
355.037	365.75
355.264	368.75
355.491	351.75
355.718	353.75
355.945	363.75
356.172	359.75
356.399	338.75
356.626	343.75
356.853	361.75
357.08	372.75
357.307	356.75
357.534	350.75
357.761	359.75
357.988	366.75
358.215	365.75
358.441	372.75
358.668	372.75
358.895	351.75
359.122	377.75
359.349	356.75
359.576	358.75
359.802	360.75
360.029	353.75
360.256	365.75
360.483	353.75
360.709	361.75
360.936	376.75
361.163	351.75
361.39	352.75
361.616	348.75
361.843	365.75
362.07	368.75
362.296	370.75
362.523	368.75
362.749	373.75
362.976	381.75
363.203	358.75
363.429	382.75
363.656	362.75
363.882	360.75
364.109	377.75
364.335	388.75
364.562	363.75
364.788	365.75
365.015	369.75
365.241	357.75
365.468	368.75
365.694	363.75
365.92	376.75
366.147	366.75
366.373	376.75
366.599	372.75
366.826	380.75
367.052	374.75
367.278	376.75
367.505	374.75
367.731	349.75
367.957	367.75
368.184	377.75
368.41	374.75
368.636	365.75
368.862	379.75
369.089	397.75
369.315	394.75
369.541	387.75
369.767	375.75
369.993	386.75
370.219	381.75
370.445	379.75
370.672	399.75
370.898	370.75
371.124	377.75
371.35	379.75
371.576	404.75
371.802	395.75
372.028	384.75
372.254	392.75
372.48	395.75
372.706	392.75
372.932	371.75
373.158	380.75
373.384	420.75
373.61	406.75
373.835	391.75
374.061	387.75
374.287	393.75
374.513	414.75
374.739	418.75
374.965	425.75
375.191	419.75
375.416	421.75
375.642	403.75
375.868	405.75
376.094	418.75
376.319	418.75
376.545	380.75
376.771	400.75
376.997	387.75
377.222	391.75
377.448	386.75
377.674	396.75
377.899	379.75
378.125	385.75
378.35	402.75
378.576	398.75
378.802	384.75
379.027	370.75
379.253	398.75
379.478	376.75
379.704	374.75
379.929	384.75
380.155	404.75
380.38	407.75
380.606	381.75
380.831	393.75
381.057	385.75
381.282	425.75
381.507	405.75
381.733	407.75
381.958	410.75
382.184	408.75
382.409	405.75
382.634	402.75
382.86	408.75
383.085	399.75
383.31	408.75
383.535	410.75
383.761	419.75
383.986	411.75
384.211	421.75
384.436	435.75
384.662	410.75
384.887	413.75
385.112	417.75
385.337	444.75
385.562	418.75
385.787	447.75
386.013	434.75
386.238	445.75
386.463	439.75
386.688	425.75
386.913	450.75
387.138	438.75
387.363	450.75
387.588	439.75
387.813	462.75
388.038	436.75
388.263	451.75
388.488	458.75
388.713	425.75
388.938	437.75
389.163	424.75
389.387	442.75
389.612	433.75
389.837	457.75
390.062	420.75
390.287	435.75
390.512	439.75
390.736	447.75
390.961	457.75
391.186	468.75
391.411	456.75
391.636	458.75
391.86	464.75
392.085	464.75
392.31	453.75
392.534	470.75
392.759	450.75
392.984	456.75
393.208	482.75
393.433	470.75
393.658	473.75
393.882	462.75
394.107	471.75
394.331	472.75
394.556	446.75
394.78	477.75
395.005	477.75
395.229	455.75
395.454	490.75
395.678	476.75
395.903	463.75
396.127	484.75
396.352	488.75
396.576	464.75
396.801	487.75
397.025	490.75
397.249	482.75
397.474	496.75
397.698	483.75
397.922	506.75
398.147	480.75
398.371	464.75
398.595	493.75
398.82	515.75
399.044	508.75
399.268	551.75
399.492	584.75
399.717	570.75
399.941	601.75
400.165	555.75
400.389	579.75
400.613	555.75
400.837	539.75
401.062	535.75
401.286	533.75
401.51	512.75
401.734	551.75
401.958	536.75
402.182	507.75
402.406	516.75
402.63	507.75
402.854	537.75
403.078	510.75
403.302	514.75
403.526	535.75
403.75	504.75
403.974	534.75
404.198	509.75
404.422	539.75
404.645	546.75
404.869	536.75
405.093	515.75
405.317	516.75
405.541	547.75
405.765	523.75
405.988	544.75
406.212	551.75
406.436	546.75
406.66	568.75
406.883	568.75
407.107	566.75
407.331	570.75
407.555	615.75
407.778	592.75
408.002	578.75
408.226	599.75
408.449	590.75
408.673	595.75
408.896	573.75
409.12	561.75
409.344	567.75
409.567	557.75
409.791	552.75
410.014	538.75
410.238	542.75
410.461	545.75
410.685	572.75
410.908	571.75
411.132	554.75
411.355	548.75
411.578	520.75
411.802	542.75
412.025	544.75
412.249	534.75
412.472	546.75
412.695	513.75
412.919	523.75
413.142	523.75
413.365	518.75
413.589	515.75
413.812	541.75
414.035	528.75
414.258	514.75
414.482	513.75
414.705	519.75
414.928	525.75
415.151	522.75
415.374	506.75
415.597	522.75
415.821	499.75
416.044	520.75
416.267	499.75
416.49	490.75
416.713	494.75
416.936	519.75
417.159	482.75
417.382	488.75
417.605	489.75
417.828	511.75
418.051	501.75
418.274	504.75
418.497	482.75
418.72	500.75
418.943	499.75
419.166	521.75
419.389	536.75
419.611	515.75
419.834	510.75
420.057	517.75
420.28	504.75
420.503	509.75
420.726	472.75
420.948	480.75
421.171	491.75
421.394	500.75
421.617	512.75
421.839	499.75
422.062	493.75
422.285	493.75
422.507	499.75
422.73	488.75
422.953	506.75
423.175	489.75
423.398	521.75
423.621	500.75
423.843	507.75
424.066	491.75
424.288	470.75
424.511	466.75
424.733	485.75
424.956	497.75
425.178	476.75
425.401	494.75
425.623	493.75
425.846	469.75
426.068	496.75
426.291	500.75
426.513	482.75
426.735	470.75
426.958	489.75
427.18	468.75
427.402	478.75
427.625	475.75
427.847	474.75
428.069	449.75
428.292	467.75
428.514	485.75
428.736	485.75
428.958	476.75
429.181	475.75
429.403	477.75
429.625	489.75
429.847	474.75
430.069	469.75
430.292	466.75
430.514	485.75
430.736	485.75
430.958	473.75
431.18	461.75
431.402	484.75
431.624	468.75
431.846	476.75
432.068	440.75
432.29	472.75
432.512	482.75
432.734	462.75
432.956	467.75
433.178	494.75
433.4	478.75
433.622	476.75
433.844	477.75
434.066	487.75
434.287	486.75
434.509	500.75
434.731	494.75
434.953	486.75
435.175	482.75
435.397	491.75
435.618	480.75
435.84	479.75
436.062	470.75
436.284	467.75
436.505	482.75
436.727	469.75
436.949	482.75
437.17	478.75
437.392	481.75
437.614	477.75
437.835	453.75
438.057	452.75
438.278	448.75
438.5	480.75
438.721	462.75
438.943	467.75
439.165	465.75
439.386	460.75
439.608	480.75
439.829	467.75
440.05	478.75
440.272	466.75
440.493	476.75
440.715	457.75
440.936	469.75
441.158	484.75
441.379	489.75
441.6	466.75
441.822	488.75
442.043	501.75
442.264	488.75
442.486	491.75
442.707	482.75
442.928	509.75
443.149	479.75
443.371	496.75
443.592	496.75
443.813	476.75
444.034	490.75
444.255	478.75
444.476	497.75
444.698	519.75
444.919	497.75
445.14	580.75
445.361	554.75
445.582	474.75
445.803	469.75
446.024	480.75
446.245	479.75
446.466	471.75
446.687	468.75
446.908	473.75
447.129	468.75
447.35	471.75
447.571	465.75
447.792	449.75
448.013	432.75
448.234	460.75
448.455	437.75
448.675	460.75
448.896	458.75
449.117	429.75
449.338	424.75
449.559	451.75
449.779	452.75
450	448.75
450.221	428.75
450.442	466.75
450.662	432.75
450.883	420.75
451.104	417.75
451.324	440.75
451.545	430.75
451.766	450.75
451.986	426.75
452.207	429.75
452.428	440.75
452.648	424.75
452.869	406.75
453.089	405.75
453.31	418.75
453.53	404.75
453.751	412.75
453.971	414.75
454.192	456.75
454.412	421.75
454.633	402.75
454.853	438.75
455.073	418.75
455.294	424.75
455.514	420.75
455.734	408.75
455.955	419.75
456.175	422.75
456.395	422.75
456.616	434.75
456.836	417.75
457.056	417.75
457.276	403.75
457.497	424.75
457.717	419.75
457.937	424.75
458.157	421.75
458.377	430.75
458.598	443.75
458.818	436.75
459.038	448.75
459.258	465.75
459.478	475.75
459.698	438.75
459.918	453.75
460.138	473.75
460.358	455.75
460.578	507.75
460.798	494.75
461.018	488.75
461.238	493.75
461.458	514.75
461.678	512.75
461.898	516.75
462.118	512.75
462.338	514.75
462.558	518.75
462.777	536.75
462.997	535.75
463.217	550.75
463.437	563.75
463.657	554.75
463.876	535.75
464.096	536.75
464.316	526.75
464.536	544.75
464.755	531.75
464.975	535.75
465.195	509.75
465.414	530.75
465.634	473.75
465.854	494.75
466.073	463.75
466.293	455.75
466.512	464.75
466.732	470.75
466.951	470.75
467.171	468.75
467.391	467.75
467.61	456.75
467.829	459.75
468.049	472.75
468.268	460.75
468.488	463.75
468.707	482.75
468.927	451.75
469.146	463.75
469.365	462.75
469.585	452.75
469.804	458.75
470.023	455.75
470.243	465.75
470.462	457.75
470.681	450.75
470.901	473.75
471.12	475.75
471.339	466.75
471.558	445.75
471.777	469.75
471.997	473.75
472.216	450.75
472.435	437.75
472.654	457.75
472.873	468.75
473.092	450.75
473.311	448.75
473.53	477.75
473.749	476.75
473.968	473.75
474.187	473.75
474.406	464.75
474.625	452.75
474.844	469.75
475.063	480.75
475.282	477.75
475.501	484.75
475.72	483.75
475.939	483.75
476.158	488.75
476.377	473.75
476.596	476.75
476.814	492.75
477.033	496.75
477.252	490.75
477.471	506.75
477.69	499.75
477.908	497.75
478.127	541.75
478.346	535.75
478.564	541.75
478.783	516.75
479.002	538.75
479.22	536.75
479.439	570.75
479.658	538.75
479.876	539.75
480.095	562.75
480.313	569.75
480.532	566.75
480.751	555.75
480.969	534.75
481.188	538.75
481.406	558.75
481.624	557.75
481.843	553.75
482.061	561.75
482.28	539.75
482.498	542.75
482.717	544.75
482.935	545.75
483.153	532.75
483.372	553.75
483.59	557.75
483.808	551.75
484.027	546.75
484.245	568.75
484.463	564.75
484.681	585.75
484.9	569.75
485.118	573.75
485.336	569.75
485.554	553.75
485.772	563.75
485.99	566.75
486.209	553.75
486.427	577.75
486.645	572.75
486.863	568.75
487.081	599.75
487.299	567.75
487.517	571.75
487.735	572.75
487.953	573.75
488.171	573.75
488.389	561.75
488.607	564.75
488.825	576.75
489.043	576.75
489.261	555.75
489.479	578.75
489.696	558.75
489.914	576.75
490.132	581.75
490.35	576.75
490.568	584.75
490.786	592.75
491.003	566.75
491.221	579.75
491.439	573.75
491.657	563.75
491.874	587.75
492.092	594.75
492.31	592.75
492.527	582.75
492.745	560.75
492.963	583.75
493.18	583.75
493.398	586.75
493.615	598.75
493.833	572.75
494.05	595.75
494.268	615.75
494.485	605.75
494.703	586.75
494.92	601.75
495.138	593.75
495.355	608.75
495.573	598.75
495.79	611.75
496.008	600.75
496.225	599.75
496.442	612.75
496.66	613.75
496.877	630.75
497.094	646.75
497.312	651.75
497.529	661.75
497.746	635.75
497.963	681.75
498.181	677.75
498.398	698.75
498.615	725.75
498.832	725.75
499.049	766.75
499.267	766.75
499.484	805.75
499.701	843.75
499.918	874.75
500.135	899.75
500.352	908.75
500.569	914.75
500.786	942.75
501.003	923.75
501.22	888.75
501.437	844.75
501.654	807.75
