Data from Fe(NO3)3@0.05M.TitratingCurve.Agarose3%dH2O.NegLispCup.LampEnergy10.LIBS07252019_HRD10591_16-46-48-334.txt Node
Date: Thu Jul 25 16:46:48 EDT 2019
User: cochatt
Spectrometer: HR+D1059
Trigger mode: 1
Integration Time (sec): 1.000000E-1
Scans to average: 1
Electric dark correction enabled: true
Nonlinearity correction enabled: false
Boxcar width: 0
XAxis mode: Wavelengths
Number of Pixels in Spectrum: 2048
>>>>>Begin Spectral Data<<<<<
223.165	-13.75
223.4	-13.75
223.635	-13.75
223.869	-15.75
224.104	-17.75
224.338	-22.75
224.573	-15.75
224.808	-14.75
225.042	-1.75
225.277	-0.75
225.511	-7.75
225.746	14.25
225.98	3.25
226.215	10.25
226.449	12.25
226.683	23.25
226.918	12.25
227.152	35.25
227.387	39.25
227.621	35.25
227.856	44.25
228.09	62.25
228.324	44.25
228.559	59.25
228.793	75.25
229.027	98.25
229.262	114.25
229.496	117.25
229.73	126.25
229.964	133.25
230.199	127.25
230.433	119.25
230.667	138.25
230.901	135.25
231.136	140.25
231.37	136.25
231.604	136.25
231.838	146.25
232.072	138.25
232.306	159.25
232.541	145.25
232.775	137.25
233.009	151.25
233.243	155.25
233.477	167.25
233.711	156.25
233.945	169.25
234.179	168.25
234.413	165.25
234.647	159.25
234.881	169.25
235.115	178.25
235.349	177.25
235.583	180.25
235.817	172.25
236.051	170.25
236.285	180.25
236.519	180.25
236.753	200.25
236.987	166.25
237.221	167.25
237.455	162.25
237.689	190.25
237.922	173.25
238.156	200.25
238.39	207.25
238.624	227.25
238.858	214.25
239.091	203.25
239.325	181.25
239.559	190.25
239.793	216.25
240.027	225.25
240.26	208.25
240.494	217.25
240.728	214.25
240.961	212.25
241.195	228.25
241.429	232.25
241.662	224.25
241.896	190.25
242.13	217.25
242.363	209.25
242.597	233.25
242.83	234.25
243.064	227.25
243.298	232.25
243.531	226.25
243.765	232.25
243.998	235.25
244.232	230.25
244.465	241.25
244.699	213.25
244.932	255.25
245.166	228.25
245.399	245.25
245.633	221.25
245.866	227.25
246.099	217.25
246.333	267.25
246.566	267.25
246.8	262.25
247.033	262.25
247.266	259.25
247.5	261.25
247.733	266.25
247.966	263.25
248.2	269.25
248.433	294.25
248.666	280.25
248.899	277.25
249.133	282.25
249.366	297.25
249.599	310.25
249.832	290.25
250.066	283.25
250.299	283.25
250.532	299.25
250.765	276.25
250.998	275.25
251.231	284.25
251.465	302.25
251.698	306.25
251.931	313.25
252.164	289.25
252.397	303.25
252.63	299.25
252.863	315.25
253.096	334.25
253.329	315.25
253.562	305.25
253.795	327.25
254.028	346.25
254.261	336.25
254.494	339.25
254.727	332.25
254.96	319.25
255.193	346.25
255.426	339.25
255.659	324.25
255.892	312.25
256.124	342.25
256.357	347.25
256.59	323.25
256.823	321.25
257.056	332.25
257.289	332.25
257.521	330.25
257.754	349.25
257.987	354.25
258.22	347.25
258.452	365.25
258.685	373.25
258.918	378.25
259.151	361.25
259.383	377.25
259.616	368.25
259.849	379.25
260.081	437.25
260.314	453.25
260.547	368.25
260.779	373.25
261.012	393.25
261.244	391.25
261.477	404.25
261.71	393.25
261.942	387.25
262.175	385.25
262.407	379.25
262.64	390.25
262.872	392.25
263.105	411.25
263.337	428.25
263.57	442.25
263.802	377.25
264.035	395.25
264.267	359.25
264.499	374.25
264.732	379.25
264.964	391.25
265.197	377.25
265.429	381.25
265.661	369.25
265.894	390.25
266.126	376.25
266.358	401.25
266.591	403.25
266.823	433.25
267.055	417.25
267.287	415.25
267.52	392.25
267.752	407.25
267.984	396.25
268.216	411.25
268.448	409.25
268.681	407.25
268.913	416.25
269.145	415.25
269.377	403.25
269.609	425.25
269.841	426.25
270.073	415.25
270.306	447.25
270.538	423.25
270.77	417.25
271.002	428.25
271.234	445.25
271.466	464.25
271.698	463.25
271.93	448.25
272.162	451.25
272.394	449.25
272.626	448.25
272.858	475.25
273.09	459.25
273.322	458.25
273.553	474.25
273.785	467.25
274.017	501.25
274.249	525.25
274.481	528.25
274.713	550.25
274.945	580.25
275.176	572.25
275.408	560.25
275.64	561.25
275.872	573.25
276.104	512.25
276.335	474.25
276.567	503.25
276.799	492.25
277.031	523.25
277.262	516.25
277.494	506.25
277.726	499.25
277.957	490.25
278.189	482.25
278.421	488.25
278.652	501.25
278.884	498.25
279.115	509.25
279.347	487.25
279.579	511.25
279.81	504.25
280.042	487.25
280.273	473.25
280.505	504.25
280.736	504.25
280.968	510.25
281.199	494.25
281.431	511.25
281.662	519.25
281.894	518.25
282.125	524.25
282.356	513.25
282.588	512.25
282.819	532.25
283.051	540.25
283.282	529.25
283.513	522.25
283.745	531.25
283.976	556.25
284.207	558.25
284.439	529.25
284.67	549.25
284.901	563.25
285.132	537.25
285.364	556.25
285.595	562.25
285.826	551.25
286.057	566.25
286.288	558.25
286.52	552.25
286.751	581.25
286.982	553.25
287.213	565.25
287.444	571.25
287.675	560.25
287.906	557.25
288.138	567.25
288.369	561.25
288.6	573.25
288.831	575.25
289.062	584.25
289.293	564.25
289.524	561.25
289.755	589.25
289.986	564.25
290.217	577.25
290.448	570.25
290.679	579.25
290.91	571.25
291.141	574.25
291.371	608.25
291.602	575.25
291.833	570.25
292.064	577.25
292.295	562.25
292.526	597.25
292.757	588.25
292.987	567.25
293.218	583.25
293.449	601.25
293.68	599.25
293.91	580.25
294.141	581.25
294.372	603.25
294.603	577.25
294.833	599.25
295.064	566.25
295.295	593.25
295.525	595.25
295.756	604.25
295.987	586.25
296.217	621.25
296.448	610.25
296.679	611.25
296.909	602.25
297.14	593.25
297.37	643.25
297.601	607.25
297.831	612.25
298.062	623.25
298.292	616.25
298.523	641.25
298.753	647.25
298.984	623.25
299.214	643.25
299.445	641.25
299.675	630.25
299.905	637.25
300.136	620.25
300.366	643.25
300.597	661.25
300.827	660.25
301.057	644.25
301.288	663.25
301.518	639.25
301.748	657.25
301.979	655.25
302.209	671.25
302.439	672.25
302.669	648.25
302.9	660.25
303.13	660.25
303.36	651.25
303.59	650.25
303.82	675.25
304.051	656.25
304.281	669.25
304.511	701.25
304.741	678.25
304.971	664.25
305.201	657.25
305.431	657.25
305.661	684.25
305.891	685.25
306.121	683.25
306.352	653.25
306.582	654.25
306.812	657.25
307.042	660.25
307.272	677.25
307.502	683.25
307.731	676.25
307.961	660.25
308.191	661.25
308.421	663.25
308.651	681.25
308.881	656.25
309.111	668.25
309.341	639.25
309.571	683.25
309.8	681.25
310.03	641.25
310.26	668.25
310.49	677.25
310.72	671.25
310.949	676.25
311.179	695.25
311.409	683.25
311.639	690.25
311.868	682.25
312.098	705.25
312.328	714.25
312.557	695.25
312.787	709.25
313.017	677.25
313.246	720.25
313.476	709.25
313.706	719.25
313.935	700.25
314.165	728.25
314.394	704.25
314.624	733.25
314.853	717.25
315.083	705.25
315.312	729.25
315.542	745.25
315.771	739.25
316.001	717.25
316.23	727.25
316.46	725.25
316.689	715.25
316.919	735.25
317.148	746.25
317.377	721.25
317.607	747.25
317.836	757.25
318.065	733.25
318.295	756.25
318.524	771.25
318.753	760.25
318.983	721.25
319.212	724.25
319.441	718.25
319.67	739.25
319.9	732.25
320.129	733.25
320.358	747.25
320.587	735.25
320.816	756.25
321.046	744.25
321.275	746.25
321.504	740.25
321.733	739.25
321.962	743.25
322.191	761.25
322.42	746.25
322.649	780.25
322.878	768.25
323.108	753.25
323.337	754.25
323.566	749.25
323.795	819.25
324.024	766.25
324.253	770.25
324.482	784.25
324.71	795.25
324.939	797.25
325.168	762.25
325.397	771.25
325.626	793.25
325.855	786.25
326.084	790.25
326.313	789.25
326.542	777.25
326.77	812.25
326.999	796.25
327.228	789.25
327.457	788.25
327.686	773.25
327.914	783.25
328.143	805.25
328.372	809.25
328.6	825.25
328.829	779.25
329.058	799.25
329.287	825.25
329.515	800.25
329.744	807.25
329.972	806.25
330.201	802.25
330.43	800.25
330.658	839.25
330.887	811.25
331.115	818.25
331.344	820.25
331.572	811.25
331.801	844.25
332.03	843.25
332.258	853.25
332.486	871.25
332.715	876.25
332.943	863.25
333.172	911.25
333.4	906.25
333.629	913.25
333.857	933.25
334.085	920.25
334.314	936.25
334.542	955.25
334.771	926.25
334.999	948.25
335.227	921.25
335.455	951.25
335.684	936.25
335.912	940.25
336.14	940.25
336.369	916.25
336.597	928.25
336.825	920.25
337.053	925.25
337.281	908.25
337.51	897.25
337.738	904.25
337.966	896.25
338.194	918.25
338.422	879.25
338.65	892.25
338.878	885.25
339.106	872.25
339.334	891.25
339.562	873.25
339.79	870.25
340.018	880.25
340.246	871.25
340.474	859.25
340.702	885.25
340.93	857.25
341.158	863.25
341.386	857.25
341.614	901.25
341.842	879.25
342.07	844.25
342.298	845.25
342.526	845.25
342.754	874.25
342.981	866.25
343.209	882.25
343.437	911.25
343.665	911.25
343.893	900.25
344.12	951.25
344.348	933.25
344.576	938.25
344.804	920.25
345.031	875.25
345.259	872.25
345.487	856.25
345.714	844.25
345.942	852.25
346.17	858.25
346.397	845.25
346.625	836.25
346.853	847.25
347.08	835.25
347.308	815.25
347.535	844.25
347.763	845.25
347.99	804.25
348.218	824.25
348.445	815.25
348.673	813.25
348.9	804.25
349.128	828.25
349.355	817.25
349.583	829.25
349.81	812.25
350.037	788.25
350.265	819.25
350.492	806.25
350.72	817.25
350.947	790.25
351.174	799.25
351.402	815.25
351.629	789.25
351.856	800.25
352.083	791.25
352.311	799.25
352.538	818.25
352.765	807.25
352.992	818.25
353.22	796.25
353.447	802.25
353.674	789.25
353.901	824.25
354.128	821.25
354.355	788.25
354.583	795.25
354.81	822.25
355.037	842.25
355.264	796.25
355.491	792.25
355.718	833.25
355.945	805.25
356.172	841.25
356.399	839.25
356.626	833.25
356.853	840.25
357.08	844.25
357.307	824.25
357.534	839.25
357.761	808.25
357.988	819.25
358.215	837.25
358.441	848.25
358.668	834.25
358.895	848.25
359.122	837.25
359.349	810.25
359.576	835.25
359.802	819.25
360.029	817.25
360.256	835.25
360.483	839.25
360.709	828.25
360.936	847.25
361.163	840.25
361.39	840.25
361.616	830.25
361.843	825.25
362.07	855.25
362.296	828.25
362.523	820.25
362.749	833.25
362.976	839.25
363.203	866.25
363.429	842.25
363.656	853.25
363.882	828.25
364.109	847.25
364.335	838.25
364.562	842.25
364.788	859.25
365.015	851.25
365.241	834.25
365.468	829.25
365.694	825.25
365.92	836.25
366.147	853.25
366.373	841.25
366.599	839.25
366.826	821.25
367.052	854.25
367.278	827.25
367.505	849.25
367.731	849.25
367.957	846.25
368.184	868.25
368.41	853.25
368.636	864.25
368.862	877.25
369.089	870.25
369.315	871.25
369.541	869.25
369.767	859.25
369.993	893.25
370.219	871.25
370.445	895.25
370.672	879.25
370.898	908.25
371.124	908.25
371.35	901.25
371.576	865.25
371.802	910.25
372.028	935.25
372.254	930.25
372.48	935.25
372.706	876.25
372.932	931.25
373.158	938.25
373.384	895.25
373.61	953.25
373.835	950.25
374.061	938.25
374.287	950.25
374.513	940.25
374.739	955.25
374.965	968.25
375.191	1018.25
375.416	981.25
375.642	953.25
375.868	943.25
376.094	955.25
376.319	938.25
376.545	937.25
376.771	920.25
376.997	928.25
377.222	907.25
377.448	915.25
377.674	900.25
377.899	909.25
378.125	891.25
378.35	891.25
378.576	890.25
378.802	920.25
379.027	897.25
379.253	913.25
379.478	915.25
379.704	933.25
379.929	916.25
380.155	948.25
380.38	943.25
380.606	915.25
380.831	924.25
381.057	965.25
381.282	934.25
381.507	931.25
381.733	971.25
381.958	966.25
382.184	954.25
382.409	976.25
382.634	970.25
382.86	978.25
383.085	983.25
383.31	964.25
383.535	965.25
383.761	968.25
383.986	997.25
384.211	1045.25
384.436	988.25
384.662	1014.25
384.887	1031.25
385.112	1046.25
385.337	1034.25
385.562	1031.25
385.787	1053.25
386.013	1092.25
386.238	1071.25
386.463	1071.25
386.688	1075.25
386.913	1059.25
387.138	1038.25
387.363	1090.25
387.588	1094.25
387.813	1089.25
388.038	1064.25
388.263	1087.25
388.488	1064.25
388.713	1093.25
388.938	1071.25
389.163	1081.25
389.387	1110.25
389.612	1073.25
389.837	1091.25
390.062	1087.25
390.287	1089.25
390.512	1100.25
390.736	1099.25
390.961	1096.25
391.186	1112.25
391.411	1127.25
391.636	1135.25
391.86	1171.25
392.085	1161.25
392.31	1139.25
392.534	1153.25
392.759	1150.25
392.984	1144.25
393.208	1133.25
393.433	1139.25
393.658	1118.25
393.882	1121.25
394.107	1110.25
394.331	1165.25
394.556	1122.25
394.78	1151.25
395.005	1161.25
395.229	1153.25
395.454	1181.25
395.678	1201.25
395.903	1157.25
396.127	1184.25
396.352	1206.25
396.576	1176.25
396.801	1170.25
397.025	1189.25
397.249	1188.25
397.474	1227.25
397.698	1220.25
397.922	1234.25
398.147	1230.25
398.371	1297.25
398.595	1288.25
398.82	1281.25
399.044	1354.25
399.268	1423.25
399.492	1479.25
399.717	1540.25
399.941	1585.25
400.165	1523.25
400.389	1458.25
400.613	1433.25
400.837	1427.25
401.062	1372.25
401.286	1353.25
401.51	1328.25
401.734	1332.25
401.958	1310.25
402.182	1313.25
402.406	1355.25
402.63	1339.25
402.854	1323.25
403.078	1289.25
403.302	1351.25
403.526	1338.25
403.75	1354.25
403.974	1355.25
404.198	1312.25
404.422	1333.25
404.645	1363.25
404.869	1391.25
405.093	1362.25
405.317	1337.25
405.541	1364.25
405.765	1334.25
405.988	1373.25
406.212	1393.25
406.436	1419.25
406.66	1446.25
406.883	1421.25
407.107	1481.25
407.331	1491.25
407.555	1538.25
407.778	1509.25
408.002	1497.25
408.226	1469.25
408.449	1524.25
408.673	1436.25
408.896	1409.25
409.12	1442.25
409.344	1465.25
409.567	1415.25
409.791	1411.25
410.014	1388.25
410.238	1403.25
410.461	1391.25
410.685	1386.25
410.908	1395.25
411.132	1346.25
411.355	1339.25
411.578	1361.25
411.802	1354.25
412.025	1329.25
412.249	1336.25
412.472	1366.25
412.695	1354.25
412.919	1327.25
413.142	1370.25
413.365	1328.25
413.589	1361.25
413.812	1319.25
414.035	1318.25
414.258	1344.25
414.482	1283.25
414.705	1331.25
414.928	1352.25
415.151	1313.25
415.374	1321.25
415.597	1284.25
415.821	1249.25
416.044	1288.25
416.267	1265.25
416.49	1300.25
416.713	1290.25
416.936	1273.25
417.159	1257.25
417.382	1269.25
417.605	1256.25
417.828	1260.25
418.051	1272.25
418.274	1249.25
418.497	1218.25
418.72	1281.25
418.943	1279.25
419.166	1333.25
419.389	1381.25
419.611	1375.25
419.834	1357.25
420.057	1347.25
420.28	1290.25
420.503	1244.25
420.726	1252.25
420.948	1252.25
421.171	1248.25
421.394	1274.25
421.617	1228.25
421.839	1235.25
422.062	1258.25
422.285	1243.25
422.507	1262.25
422.73	1240.25
422.953	1251.25
423.175	1271.25
423.398	1271.25
423.621	1263.25
423.843	1247.25
424.066	1285.25
424.288	1252.25
424.511	1285.25
424.733	1257.25
424.956	1260.25
425.178	1266.25
425.401	1243.25
425.623	1257.25
425.846	1223.25
426.068	1233.25
426.291	1249.25
426.513	1220.25
426.735	1246.25
426.958	1224.25
427.18	1207.25
427.402	1228.25
427.625	1211.25
427.847	1188.25
428.069	1175.25
428.292	1208.25
428.514	1189.25
428.736	1214.25
428.958	1217.25
429.181	1181.25
429.403	1196.25
429.625	1173.25
429.847	1154.25
430.069	1193.25
430.292	1214.25
430.514	1175.25
430.736	1193.25
430.958	1193.25
431.18	1183.25
431.402	1171.25
431.624	1170.25
431.846	1165.25
432.068	1177.25
432.29	1204.25
432.512	1232.25
432.734	1213.25
432.956	1202.25
433.178	1190.25
433.4	1203.25
433.622	1226.25
433.844	1223.25
434.066	1200.25
434.287	1225.25
434.509	1240.25
434.731	1239.25
434.953	1257.25
435.175	1263.25
435.397	1286.25
435.618	1234.25
435.84	1225.25
436.062	1210.25
436.284	1205.25
436.505	1193.25
436.727	1205.25
436.949	1231.25
437.17	1183.25
437.392	1176.25
437.614	1135.25
437.835	1173.25
438.057	1170.25
438.278	1137.25
438.5	1183.25
438.721	1189.25
438.943	1174.25
439.165	1145.25
439.386	1183.25
439.608	1183.25
439.829	1211.25
440.05	1192.25
440.272	1179.25
440.493	1205.25
440.715	1225.25
440.936	1215.25
441.158	1222.25
441.379	1184.25
441.6	1253.25
441.822	1248.25
442.043	1246.25
442.264	1223.25
442.486	1234.25
442.707	1247.25
442.928	1232.25
443.149	1234.25
443.371	1261.25
443.592	1248.25
443.813	1301.25
444.034	1271.25
444.255	1280.25
444.476	1273.25
444.698	1303.25
444.919	1319.25
445.14	1400.25
445.361	1363.25
445.582	1259.25
445.803	1272.25
446.024	1226.25
446.245	1232.25
446.466	1208.25
446.687	1189.25
446.908	1225.25
447.129	1164.25
447.35	1143.25
447.571	1148.25
447.792	1128.25
448.013	1098.25
448.234	1115.25
448.455	1146.25
448.675	1113.25
448.896	1087.25
449.117	1115.25
449.338	1112.25
449.559	1115.25
449.779	1077.25
450	1107.25
450.221	1069.25
450.442	1088.25
450.662	1083.25
450.883	1065.25
451.104	1077.25
451.324	1072.25
451.545	1100.25
451.766	1101.25
451.986	1082.25
452.207	1041.25
452.428	1043.25
452.648	1084.25
452.869	1053.25
453.089	1045.25
453.31	1039.25
453.53	1040.25
453.751	1054.25
453.971	1067.25
454.192	1074.25
454.412	1024.25
454.633	1065.25
454.853	1054.25
455.073	1045.25
455.294	1047.25
455.514	1043.25
455.734	1042.25
455.955	1035.25
456.175	1064.25
456.395	1035.25
456.616	1052.25
456.836	1055.25
457.056	1069.25
457.276	1039.25
457.497	1063.25
457.717	1057.25
457.937	1073.25
458.157	1089.25
458.377	1080.25
458.598	1091.25
458.818	1128.25
459.038	1126.25
459.258	1139.25
459.478	1181.25
459.698	1205.25
459.918	1169.25
460.138	1226.25
460.358	1245.25
460.578	1263.25
460.798	1280.25
461.018	1294.25
461.238	1294.25
461.458	1296.25
461.678	1333.25
461.898	1350.25
462.118	1341.25
462.338	1350.25
462.558	1351.25
462.777	1426.25
462.997	1415.25
463.217	1477.25
463.437	1536.25
463.657	1447.25
463.876	1434.25
464.096	1424.25
464.316	1404.25
464.536	1408.25
464.755	1450.25
464.975	1398.25
465.195	1325.25
465.414	1272.25
465.634	1250.25
465.854	1203.25
466.073	1202.25
466.293	1164.25
466.512	1178.25
466.732	1174.25
466.951	1205.25
467.171	1169.25
467.391	1178.25
467.61	1152.25
467.829	1140.25
468.049	1170.25
468.268	1135.25
468.488	1166.25
468.707	1149.25
468.927	1148.25
469.146	1155.25
469.365	1150.25
469.585	1141.25
469.804	1190.25
470.023	1173.25
470.243	1167.25
470.462	1157.25
470.681	1187.25
470.901	1144.25
471.12	1171.25
471.339	1175.25
471.558	1155.25
471.777	1183.25
471.997	1158.25
472.216	1170.25
472.435	1173.25
472.654	1132.25
472.873	1147.25
473.092	1153.25
473.311	1171.25
473.53	1171.25
473.749	1157.25
473.968	1148.25
474.187	1164.25
474.406	1125.25
474.625	1155.25
474.844	1155.25
475.063	1163.25
475.282	1183.25
475.501	1168.25
475.72	1176.25
475.939	1211.25
476.158	1206.25
476.377	1239.25
476.596	1244.25
476.814	1292.25
477.033	1246.25
477.252	1255.25
477.471	1232.25
477.69	1297.25
477.908	1269.25
478.127	1347.25
478.346	1306.25
478.564	1329.25
478.783	1340.25
479.002	1375.25
479.22	1369.25
479.439	1384.25
479.658	1371.25
479.876	1391.25
480.095	1376.25
480.313	1411.25
480.532	1442.25
480.751	1410.25
480.969	1404.25
481.188	1401.25
481.406	1370.25
481.624	1371.25
481.843	1378.25
482.061	1358.25
482.28	1379.25
482.498	1366.25
482.717	1345.25
482.935	1364.25
483.153	1362.25
483.372	1378.25
483.59	1353.25
483.808	1369.25
484.027	1369.25
484.245	1391.25
484.463	1387.25
484.681	1389.25
484.9	1414.25
485.118	1394.25
485.336	1396.25
485.554	1387.25
485.772	1400.25
485.99	1407.25
486.209	1401.25
486.427	1383.25
486.645	1405.25
486.863	1412.25
487.081	1422.25
487.299	1390.25
487.517	1426.25
487.735	1405.25
487.953	1364.25
488.171	1411.25
488.389	1381.25
488.607	1431.25
488.825	1405.25
489.043	1372.25
489.261	1400.25
489.479	1391.25
489.696	1401.25
489.914	1417.25
490.132	1395.25
490.35	1383.25
490.568	1386.25
490.786	1428.25
491.003	1439.25
491.221	1433.25
491.439	1453.25
491.657	1413.25
491.874	1420.25
492.092	1447.25
492.31	1471.25
492.527	1465.25
492.745	1455.25
492.963	1450.25
493.18	1455.25
493.398	1470.25
493.615	1486.25
493.833	1463.25
494.05	1489.25
494.268	1436.25
494.485	1471.25
494.703	1457.25
