Data from Fe(NO3)3@0.1M.TitratingCurve.Agarose3%dH2O.NegLispCup.LampEnergy10.LIBS07252019_HRD10591_16-41-34-333.txt Node
Date: Thu Jul 25 16:41:34 EDT 2019
User: cochatt
Spectrometer: HR+D1059
Trigger mode: 1
Integration Time (sec): 1.000000E-1
Scans to average: 1
Electric dark correction enabled: true
Nonlinearity correction enabled: false
Boxcar width: 0
XAxis mode: Wavelengths
Number of Pixels in Spectrum: 2048
>>>>>Begin Spectral Data<<<<<
223.165	-12
223.4	-12
223.635	-12
223.869	-22
224.104	-16
224.338	-18
224.573	-5
224.808	-14
225.042	-6
225.277	-11
225.511	-2
225.746	8
225.98	-3
226.215	10
226.449	17
226.683	20
226.918	28
227.152	26
227.387	40
227.621	27
227.856	36
228.09	56
228.324	71
228.559	52
228.793	67
229.027	78
229.262	82
229.496	89
229.73	76
229.964	97
230.199	91
230.433	99
230.667	92
230.901	80
231.136	85
231.37	98
231.604	110
231.838	102
232.072	115
232.306	105
232.541	98
232.775	90
233.009	106
233.243	100
233.477	91
233.711	111
233.945	114
234.179	85
234.413	96
234.647	98
234.881	95
235.115	101
235.349	98
235.583	102
235.817	96
236.051	110
236.285	96
236.519	101
236.753	101
236.987	81
237.221	97
237.455	123
237.689	91
237.922	105
238.156	107
238.39	103
238.624	116
238.858	102
239.091	114
239.325	102
239.559	116
239.793	104
240.027	123
240.26	118
240.494	95
240.728	108
240.961	114
241.195	112
241.429	128
241.662	114
241.896	115
242.13	122
242.363	106
242.597	109
242.83	100
243.064	108
243.298	119
243.531	123
243.765	130
243.998	122
244.232	118
244.465	112
244.699	122
244.932	116
245.166	107
245.399	136
245.633	130
245.866	121
246.099	120
246.333	117
246.566	144
246.8	111
247.033	134
247.266	126
247.5	124
247.733	125
247.966	123
248.2	128
248.433	124
248.666	114
248.899	122
249.133	132
249.366	134
249.599	139
249.832	138
250.066	148
250.299	131
250.532	136
250.765	141
250.998	135
251.231	134
251.465	141
251.698	140
251.931	151
252.164	143
252.397	141
252.63	138
252.863	130
253.096	119
253.329	139
253.562	148
253.795	144
254.028	150
254.261	144
254.494	148
254.727	165
254.96	143
255.193	139
255.426	145
255.659	134
255.892	138
256.124	133
256.357	152
256.59	138
256.823	156
257.056	150
257.289	139
257.521	152
257.754	152
257.987	156
258.22	153
258.452	146
258.685	133
258.918	134
259.151	163
259.383	156
259.616	157
259.849	157
260.081	159
260.314	148
260.547	147
260.779	148
261.012	155
261.244	158
261.477	165
261.71	165
261.942	148
262.175	148
262.407	156
262.64	164
262.872	160
263.105	157
263.337	153
263.57	156
263.802	170
264.035	152
264.267	164
264.499	156
264.732	160
264.964	171
265.197	163
265.429	161
265.661	151
265.894	155
266.126	156
266.358	165
266.591	155
266.823	156
267.055	150
267.287	180
267.52	168
267.752	180
267.984	168
268.216	170
268.448	162
268.681	166
268.913	184
269.145	170
269.377	157
269.609	165
269.841	174
270.073	180
270.306	171
270.538	162
270.77	175
271.002	163
271.234	182
271.466	180
271.698	176
271.93	166
272.162	172
272.394	191
272.626	162
272.858	165
273.09	182
273.322	174
273.553	163
273.785	176
274.017	180
274.249	186
274.481	182
274.713	178
274.945	181
275.176	190
275.408	176
275.64	178
275.872	184
276.104	187
276.335	180
276.567	184
276.799	186
277.031	165
277.262	196
277.494	202
277.726	181
277.957	198
278.189	188
278.421	184
278.652	194
278.884	198
279.115	189
279.347	194
279.579	193
279.81	198
280.042	195
280.273	199
280.505	178
280.736	198
280.968	197
281.199	180
281.431	208
281.662	193
281.894	188
282.125	205
282.356	204
282.588	215
282.819	189
283.051	206
283.282	202
283.513	209
283.745	220
283.976	191
284.207	219
284.439	199
284.67	210
284.901	211
285.132	204
285.364	196
285.595	213
285.826	212
286.057	205
286.288	213
286.52	220
286.751	197
286.982	204
287.213	188
287.444	211
287.675	194
287.906	217
288.138	214
288.369	200
288.6	225
288.831	225
289.062	228
289.293	218
289.524	214
289.755	207
289.986	208
290.217	207
290.448	218
290.679	217
290.91	220
291.141	200
291.371	214
291.602	215
291.833	219
292.064	202
292.295	212
292.526	228
292.757	212
292.987	226
293.218	217
293.449	204
293.68	232
293.91	224
294.141	230
294.372	194
294.603	229
294.833	222
295.064	222
295.295	204
295.525	219
295.756	218
295.987	223
296.217	233
296.448	232
296.679	230
296.909	243
297.14	220
297.37	239
297.601	237
297.831	229
298.062	215
298.292	218
298.523	247
298.753	252
298.984	237
299.214	239
299.445	242
299.675	228
299.905	233
300.136	230
300.366	231
300.597	232
300.827	223
301.057	243
301.288	253
301.518	223
301.748	232
301.979	237
302.209	231
302.439	244
302.669	255
302.9	249
303.13	256
303.36	234
303.59	234
303.82	235
304.051	243
304.281	250
304.511	242
304.741	246
304.971	237
305.201	241
305.431	240
305.661	256
305.891	252
306.121	232
306.352	236
306.582	250
306.812	217
307.042	238
307.272	237
307.502	229
307.731	252
307.961	252
308.191	239
308.421	241
308.651	244
308.881	211
309.111	233
309.341	241
309.571	240
309.8	256
310.03	243
310.26	242
310.49	254
310.72	246
310.949	238
311.179	235
311.409	234
311.639	268
311.868	263
312.098	251
312.328	277
312.557	265
312.787	253
313.017	260
313.246	254
313.476	236
313.706	256
313.935	246
314.165	265
314.394	258
314.624	254
314.853	262
315.083	251
315.312	245
315.542	278
315.771	253
316.001	257
316.23	250
316.46	263
316.689	249
316.919	254
317.148	261
317.377	262
317.607	257
317.836	268
318.065	261
318.295	263
318.524	260
318.753	258
318.983	251
319.212	250
319.441	248
319.67	261
319.9	288
320.129	256
320.358	250
320.587	250
320.816	267
321.046	250
321.275	268
321.504	232
321.733	276
321.962	258
322.191	268
322.42	257
322.649	262
322.878	271
323.108	255
323.337	263
323.566	260
323.795	277
324.024	282
324.253	271
324.482	260
324.71	258
324.939	267
325.168	260
325.397	273
325.626	278
325.855	298
326.084	272
326.313	282
326.542	272
326.77	275
326.999	280
327.228	271
327.457	277
327.686	262
327.914	289
328.143	282
328.372	260
328.6	285
328.829	282
329.058	288
329.287	281
329.515	280
329.744	270
329.972	273
330.201	306
330.43	293
330.658	282
330.887	272
331.115	307
331.344	308
331.572	288
331.801	298
332.03	306
332.258	310
332.486	334
332.715	304
332.943	318
333.172	331
333.4	352
333.629	334
333.857	342
334.085	345
334.314	341
334.542	337
334.771	325
334.999	339
335.227	332
335.455	358
335.684	326
335.912	336
336.14	341
336.369	329
336.597	311
336.825	330
337.053	332
337.281	344
337.51	344
337.738	315
337.966	320
338.194	307
338.422	306
338.65	300
338.878	296
339.106	323
339.334	303
339.562	301
339.79	286
340.018	297
340.246	309
340.474	301
340.702	320
340.93	285
341.158	285
341.386	287
341.614	289
341.842	286
342.07	269
342.298	306
342.526	288
342.754	312
342.981	284
343.209	299
343.437	306
343.665	312
343.893	315
344.12	347
344.348	336
344.576	322
344.804	311
345.031	300
345.259	291
345.487	300
345.714	297
345.942	287
346.17	278
346.397	269
346.625	299
346.853	274
347.08	283
347.308	295
347.535	299
347.763	290
347.99	291
348.218	276
348.445	279
348.673	268
348.9	280
349.128	285
349.355	277
349.583	262
349.81	274
350.037	285
350.265	284
350.492	287
350.72	271
350.947	291
351.174	274
351.402	275
351.629	278
351.856	273
352.083	262
352.311	288
352.538	283
352.765	275
352.992	286
353.22	269
353.447	278
353.674	279
353.901	285
354.128	271
354.355	308
354.583	292
354.81	307
355.037	293
355.264	299
355.491	282
355.718	282
355.945	282
356.172	286
356.399	268
356.626	294
356.853	273
357.08	277
357.307	270
357.534	278
357.761	287
357.988	297
358.215	286
358.441	286
358.668	283
358.895	269
359.122	275
359.349	278
359.576	282
359.802	276
360.029	280
360.256	296
360.483	295
360.709	255
360.936	278
361.163	286
361.39	272
361.616	282
361.843	293
362.07	265
362.296	287
362.523	284
362.749	292
362.976	300
363.203	298
363.429	287
363.656	288
363.882	262
364.109	297
364.335	290
364.562	261
364.788	282
365.015	281
365.241	275
365.468	293
365.694	292
365.92	276
366.147	285
366.373	272
366.599	280
366.826	288
367.052	268
367.278	265
367.505	269
367.731	284
367.957	298
368.184	284
368.41	307
368.636	303
368.862	292
369.089	294
369.315	294
369.541	296
369.767	304
369.993	289
370.219	302
370.445	295
370.672	297
370.898	298
371.124	287
371.35	287
371.576	281
371.802	326
372.028	312
372.254	326
372.48	309
372.706	322
372.932	313
373.158	311
373.384	308
373.61	302
373.835	304
374.061	332
374.287	299
374.513	307
374.739	326
374.965	319
375.191	324
375.416	308
375.642	332
375.868	317
376.094	306
376.319	308
376.545	322
376.771	300
376.997	295
377.222	317
377.448	312
377.674	313
377.899	303
378.125	300
378.35	317
378.576	299
378.802	303
379.027	306
379.253	315
379.478	299
379.704	323
379.929	294
380.155	292
380.38	298
380.606	310
380.831	283
381.057	319
381.282	319
381.507	295
381.733	311
381.958	319
382.184	332
382.409	333
382.634	316
382.86	302
383.085	313
383.31	348
383.535	333
383.761	330
383.986	330
384.211	332
384.436	334
384.662	324
384.887	372
385.112	338
385.337	370
385.562	361
385.787	348
386.013	376
386.238	363
386.463	342
386.688	348
386.913	355
387.138	355
387.363	366
387.588	349
387.813	339
388.038	350
388.263	355
388.488	378
388.713	363
388.938	350
389.163	355
389.387	371
389.612	334
389.837	364
390.062	339
390.287	372
390.512	360
390.736	351
390.961	372
391.186	369
391.411	380
391.636	404
391.86	394
392.085	382
392.31	392
392.534	393
392.759	363
392.984	378
393.208	376
393.433	358
393.658	385
393.882	379
394.107	376
394.331	356
394.556	384
394.78	390
395.005	392
395.229	378
395.454	391
395.678	408
395.903	379
396.127	388
396.352	396
396.576	380
396.801	367
397.025	378
397.249	392
397.474	398
397.698	405
397.922	392
398.147	386
398.371	417
398.595	429
398.82	428
399.044	453
399.268	484
399.492	533
399.717	565
399.941	550
400.165	547
400.389	500
400.613	478
400.837	454
401.062	458
401.286	455
401.51	451
401.734	436
401.958	446
402.182	442
402.406	440
402.63	440
402.854	453
403.078	442
403.302	472
403.526	460
403.75	470
403.974	489
404.198	464
404.422	486
404.645	486
404.869	466
405.093	476
405.317	454
405.541	468
405.765	469
405.988	431
406.212	476
406.436	462
406.66	484
406.883	490
407.107	521
407.331	505
407.555	536
407.778	536
408.002	506
408.226	501
408.449	508
408.673	494
408.896	495
409.12	518
409.344	512
409.567	474
409.791	470
410.014	495
410.238	496
410.461	492
410.685	479
410.908	468
411.132	472
411.355	464
411.578	450
411.802	444
412.025	481
412.249	465
412.472	475
412.695	452
412.919	453
413.142	464
413.365	423
413.589	434
413.812	438
414.035	451
414.258	458
414.482	442
414.705	449
414.928	447
415.151	448
415.374	456
415.597	464
415.821	435
416.044	438
416.267	478
416.49	448
416.713	418
416.936	429
417.159	437
417.382	430
417.605	410
417.828	445
418.051	448
418.274	454
418.497	462
418.72	436
418.943	447
419.166	458
419.389	500
419.611	474
419.834	456
420.057	464
420.28	439
420.503	454
420.726	426
420.948	444
421.171	450
421.394	447
421.617	440
421.839	446
422.062	440
422.285	448
422.507	443
422.73	463
422.953	437
423.175	451
423.398	453
423.621	454
423.843	458
424.066	429
424.288	439
424.511	446
424.733	446
424.956	442
425.178	431
425.401	418
425.623	443
425.846	423
426.068	435
426.291	430
426.513	408
426.735	403
426.958	416
427.18	416
427.402	427
427.625	408
427.847	412
428.069	400
428.292	398
428.514	414
428.736	405
428.958	405
429.181	402
429.403	380
429.625	398
429.847	370
430.069	390
430.292	409
430.514	389
430.736	389
430.958	394
431.18	367
431.402	374
431.624	401
431.846	399
432.068	404
432.29	417
432.512	398
432.734	392
432.956	400
433.178	401
433.4	400
433.622	435
433.844	407
434.066	423
434.287	407
434.509	409
434.731	420
434.953	447
435.175	447
435.397	436
435.618	438
435.84	418
436.062	419
436.284	398
436.505	406
436.727	417
436.949	401
437.17	424
437.392	403
437.614	405
437.835	404
438.057	396
438.278	386
438.5	405
438.721	395
438.943	407
439.165	396
439.386	421
439.608	405
439.829	423
440.05	423
440.272	426
440.493	437
440.715	422
440.936	392
441.158	431
441.379	435
441.6	440
441.822	455
442.043	444
442.264	455
442.486	429
442.707	446
442.928	442
443.149	437
443.371	440
443.592	435
443.813	453
444.034	452
444.255	453
444.476	490
444.698	478
444.919	502
445.14	564
445.361	516
445.582	451
445.803	458
446.024	417
446.245	438
446.466	436
446.687	414
446.908	424
447.129	412
447.35	399
447.571	426
447.792	402
448.013	414
448.234	379
448.455	384
448.675	394
448.896	381
449.117	384
449.338	385
449.559	364
449.779	376
450	368
450.221	376
450.442	402
450.662	387
450.883	390
451.104	398
451.324	383
451.545	396
451.766	394
451.986	395
452.207	409
452.428	364
452.648	370
452.869	389
453.089	391
453.31	372
453.53	369
453.751	375
453.971	363
454.192	362
454.412	364
454.633	373
454.853	382
455.073	365
455.294	357
455.514	353
455.734	357
455.955	368
456.175	349
456.395	367
456.616	356
456.836	370
457.056	358
457.276	361
457.497	354
457.717	365
457.937	362
458.157	370
458.377	368
458.598	355
458.818	381
459.038	375
459.258	398
459.478	396
459.698	408
459.918	445
460.138	422
460.358	456
460.578	454
460.798	464
461.018	466
461.238	452
461.458	458
461.678	469
461.898	469
462.118	466
462.338	489
462.558	502
462.777	534
462.997	556
463.217	562
463.437	546
463.657	546
463.876	533
464.096	521
464.316	513
464.536	506
464.755	509
464.975	464
465.195	475
465.414	445
465.634	411
465.854	428
466.073	416
466.293	416
466.512	398
466.732	407
466.951	412
467.171	400
467.391	399
467.61	404
467.829	404
468.049	408
468.268	385
468.488	391
468.707	380
468.927	396
469.146	376
469.365	384
469.585	399
469.804	405
470.023	415
470.243	400
470.462	382
470.681	424
470.901	402
471.12	395
471.339	414
471.558	383
471.777	385
471.997	372
472.216	396
472.435	384
472.654	368
472.873	359
473.092	378
473.311	386
473.53	386
473.749	391
473.968	372
474.187	378
474.406	366
474.625	370
474.844	388
475.063	382
475.282	388
475.501	356
475.72	395
475.939	379
476.158	385
476.377	380
476.596	408
476.814	389
477.033	410
477.252	386
477.471	388
477.69	409
477.908	428
478.127	428
478.346	441
478.564	453
478.783	449
479.002	428
479.22	465
479.439	442
479.658	421
479.876	458
480.095	426
480.313	462
480.532	441
480.751	470
480.969	443
481.188	429
481.406	414
481.624	436
481.843	429
482.061	421
482.28	400
482.498	418
482.717	418
482.935	428
483.153	424
483.372	399
483.59	428
483.808	429
484.027	417
484.245	431
484.463	409
484.681	410
484.9	423
485.118	427
485.336	430
485.554	402
485.772	441
485.99	405
486.209	422
486.427	424
486.645	427
486.863	421
487.081	422
487.299	410
487.517	397
487.735	437
487.953	438
488.171	444
488.389	424
488.607	410
488.825	422
489.043	417
489.261	430
489.479	415
489.696	414
489.914	430
490.132	413
490.35	444
490.568	430
490.786	415
491.003	449
491.221	446
491.439	457
491.657	424
491.874	434
492.092	456
492.31	470
492.527	449
492.745	449
492.963	457
493.18	453
493.398	459
493.615	455
493.833	432
494.05	462
494.268	446
494.485	446
494.703	447
494.92	445
495.138	453
495.355	459
495.573	464
495.79	452
496.008	441
496.225	471
496.442	472
496.66	484
496.877	491
497.094	488
497.312	491
497.529	485
497.746	518
497.963	515
498.181	538
498.398	563
498.615	550
498.832	600
499.049	635
499.267	690
499.484	723
499.701	760
499.918	844
500.135	919
500.352	1005
500.569	1037
500.786	1069
501.003	964
501.22	912
501.437	851
501.654	774
501.871	695
502.088	671
502.305	630
502.522	604
502.739	581
502.956	565
503.172	558
503.389	517
503.606	499
503.823	486
504.04	483
504.256	498
504.473	490
504.69	518
504.907	500
505.123	472
505.34	472
505.557	448
505.773	455
505.99	446
506.207	422
506.423	431
506.64	407
506.856	392
507.073	392
507.289	417
507.506	406
507.722	400
507.939	382
508.155	394
508.372	399
508.588	373
508.805	374
509.021	367
509.238	389
509.454	388
509.67	376
509.887	368
510.103	404
510.319	378
510.536	374
510.752	367
510.968	370
511.184	376
511.401	379
511.617	380
511.833	367
512.049	351
512.265	378
512.481	374
512.698	391
512.914	350
513.13	356
513.346	362
513.562	372
513.778	368
513.994	382
514.21	378
514.426	377
514.642	349
514.858	384
515.074	398
515.29	407
515.506	387
515.721	392
515.937	410
516.153	394
516.369	397
516.585	419
516.801	414
517.016	428
517.232	446
517.448	460
517.664	453
517.879	458
518.095	490
518.311	481
518.527	448
518.742	426
518.958	429
519.173	404
519.389	394
519.605	397
519.82	386
520.036	373
520.251	385
520.467	377
520.682	374
520.898	367
521.113	386
521.329	374
521.544	372
521.76	365
521.975	355
522.19	365
522.406	358
522.621	342
522.836	345
523.052	354
523.267	345
523.482	367
523.698	354
523.913	338
524.128	347
524.343	345
524.559	325
524.774	346
524.989	337
525.204	355
525.419	339
525.634	341
525.849	351
526.064	338
526.28	345
526.495	338
526.71	346
526.925	341
527.14	325
527.355	346
527.57	339
527.785	334
527.999	343
528.214	345
528.429	349
528.644	344
528.859	351
529.074	347
529.289	361
529.503	321
529.718	326
529.933	345
530.148	312
530.363	326
530.577	342
530.792	324
531.007	349
531.221	339
531.436	338
531.651	344
531.865	340
532.08	350
532.295	333
532.509	309
532.724	324
532.938	337
533.153	340
533.367	356
533.582	332
533.796	371
534.011	350
534.225	317
534.44	328
534.654	337
534.868	348
535.083	318
535.297	326
535.511	347
535.726	324
535.94	326
536.154	322
536.369	333
536.583	323
536.797	313
537.011	316
537.225	319
537.44	322
537.654	318
537.868	309
538.082	327
538.296	318
538.51	318
538.724	312
538.938	318
539.153	319
539.367	338
539.581	299
539.795	308
540.009	310
540.222	304
540.436	306
540.65	316
540.864	321
541.078	318
541.292	299
541.506	326
541.72	317
541.934	310
542.147	345
542.361	310
542.575	320
542.789	315
543.002	281
543.216	300
543.43	291
543.644	314
543.857	306
544.071	311
544.285	316
544.498	321
544.712	308
544.925	314
545.139	317
545.352	315
545.566	318
545.779	320
545.993	306
546.206	317
546.42	324
546.633	299
546.847	324
547.06	318
547.274	314
547.487	330
547.7	329
547.914	324
548.127	325
548.34	312
548.554	315
548.767	303
548.98	329
549.193	314
549.407	326
549.62	331
549.833	307
550.046	306
550.259	315
550.473	303
550.686	316
550.899	295
551.112	310
551.325	316
551.538	324
551.751	327
551.964	329
552.177	324
552.39	317
552.603	304
552.816	334
553.029	331
553.242	347
553.455	337
553.667	350
553.88	330
554.093	324
554.306	327
554.519	322
554.732	314
554.944	325
555.157	300
555.37	301
555.583	300
555.795	316
556.008	303
556.221	288
556.433	288
556.646	287
556.859	300
557.071	281
557.284	293
557.496	280
557.709	300
557.921	293
558.134	294
558.346	281
558.559	276
558.771	276
558.984	271
559.196	287
559.409	280
559.621	278
559.833	278
560.046	278
560.258	273
560.47	264
560.683	258
560.895	269
561.107	278
561.32	278
561.532	284
561.744	274
561.956	270
562.168	287
562.381	280
562.593	289
562.805	287
563.017	266
563.229	286
563.441	270
