Data from Fe(NO3)3@0.0125M.TitratingCurve.Agarose3%dH2O.NegLispCup.LampEnergy10.LIBS07252019_HRD10591_16-59-35-337.txt Node
Date: Thu Jul 25 16:59:35 EDT 2019
User: cochatt
Spectrometer: HR+D1059
Trigger mode: 1
Integration Time (sec): 1.000000E-1
Scans to average: 1
Electric dark correction enabled: true
Nonlinearity correction enabled: false
Boxcar width: 0
XAxis mode: Wavelengths
Number of Pixels in Spectrum: 2048
>>>>>Begin Spectral Data<<<<<
223.165	-21.44
223.4	-21.44
223.635	-21.44
223.869	-16.44
224.104	-12.44
224.338	-33.44
224.573	-5.44
224.808	12.56
225.042	-16.44
225.277	-16.44
225.511	-5.44
225.746	2.56
225.98	19.56
226.215	20.56
226.449	9.56
226.683	16.56
226.918	26.56
227.152	19.56
227.387	27.56
227.621	50.56
227.856	31.56
228.09	41.56
228.324	51.56
228.559	67.56
228.793	62.56
229.027	71.56
229.262	67.56
229.496	71.56
229.73	90.56
229.964	76.56
230.199	71.56
230.433	90.56
230.667	98.56
230.901	73.56
231.136	85.56
231.37	94.56
231.604	71.56
231.838	68.56
232.072	82.56
232.306	96.56
232.541	99.56
232.775	104.56
233.009	98.56
233.243	85.56
233.477	90.56
233.711	98.56
233.945	93.56
234.179	105.56
234.413	83.56
234.647	95.56
234.881	94.56
235.115	94.56
235.349	81.56
235.583	95.56
235.817	84.56
236.051	95.56
236.285	110.56
236.519	78.56
236.753	99.56
236.987	86.56
237.221	81.56
237.455	96.56
237.689	91.56
237.922	102.56
238.156	91.56
238.39	93.56
238.624	98.56
238.858	94.56
239.091	79.56
239.325	87.56
239.559	92.56
239.793	102.56
240.027	90.56
240.26	104.56
240.494	100.56
240.728	88.56
240.961	109.56
241.195	94.56
241.429	108.56
241.662	99.56
241.896	113.56
242.13	89.56
242.363	99.56
242.597	78.56
242.83	91.56
243.064	98.56
243.298	107.56
243.531	87.56
243.765	92.56
243.998	96.56
244.232	99.56
244.465	120.56
244.699	100.56
244.932	108.56
245.166	100.56
245.399	106.56
245.633	114.56
245.866	102.56
246.099	114.56
246.333	94.56
246.566	97.56
246.8	111.56
247.033	108.56
247.266	120.56
247.5	94.56
247.733	95.56
247.966	106.56
248.2	126.56
248.433	110.56
248.666	122.56
248.899	101.56
249.133	117.56
249.366	120.56
249.599	114.56
249.832	122.56
250.066	108.56
250.299	98.56
250.532	107.56
250.765	103.56
250.998	120.56
251.231	103.56
251.465	116.56
251.698	118.56
251.931	112.56
252.164	112.56
252.397	121.56
252.63	133.56
252.863	122.56
253.096	121.56
253.329	121.56
253.562	137.56
253.795	130.56
254.028	132.56
254.261	134.56
254.494	116.56
254.727	109.56
254.96	106.56
255.193	135.56
255.426	130.56
255.659	135.56
255.892	130.56
256.124	128.56
256.357	122.56
256.59	138.56
256.823	134.56
257.056	139.56
257.289	124.56
257.521	120.56
257.754	124.56
257.987	129.56
258.22	133.56
258.452	129.56
258.685	120.56
258.918	119.56
259.151	125.56
259.383	140.56
259.616	140.56
259.849	130.56
260.081	155.56
260.314	144.56
260.547	132.56
260.779	146.56
261.012	129.56
261.244	143.56
261.477	136.56
261.71	140.56
261.942	134.56
262.175	154.56
262.407	145.56
262.64	137.56
262.872	157.56
263.105	152.56
263.337	154.56
263.57	162.56
263.802	155.56
264.035	135.56
264.267	153.56
264.499	142.56
264.732	150.56
264.964	134.56
265.197	139.56
265.429	145.56
265.661	150.56
265.894	161.56
266.126	147.56
266.358	162.56
266.591	161.56
266.823	154.56
267.055	142.56
267.287	159.56
267.52	155.56
267.752	140.56
267.984	154.56
268.216	149.56
268.448	152.56
268.681	174.56
268.913	150.56
269.145	152.56
269.377	152.56
269.609	159.56
269.841	150.56
270.073	161.56
270.306	143.56
270.538	159.56
270.77	158.56
271.002	151.56
271.234	156.56
271.466	167.56
271.698	179.56
271.93	174.56
272.162	155.56
272.394	179.56
272.626	160.56
272.858	172.56
273.09	185.56
273.322	180.56
273.553	171.56
273.785	190.56
274.017	178.56
274.249	189.56
274.481	180.56
274.713	182.56
274.945	178.56
275.176	192.56
275.408	197.56
275.64	191.56
275.872	184.56
276.104	168.56
276.335	199.56
276.567	194.56
276.799	193.56
277.031	185.56
277.262	186.56
277.494	209.56
277.726	178.56
277.957	209.56
278.189	216.56
278.421	195.56
278.652	203.56
278.884	191.56
279.115	184.56
279.347	194.56
279.579	198.56
279.81	208.56
280.042	197.56
280.273	208.56
280.505	203.56
280.736	192.56
280.968	199.56
281.199	235.56
281.431	204.56
281.662	217.56
281.894	213.56
282.125	209.56
282.356	200.56
282.588	227.56
282.819	213.56
283.051	221.56
283.282	219.56
283.513	230.56
283.745	225.56
283.976	217.56
284.207	224.56
284.439	220.56
284.67	226.56
284.901	233.56
285.132	224.56
285.364	234.56
285.595	220.56
285.826	219.56
286.057	236.56
286.288	233.56
286.52	255.56
286.751	232.56
286.982	225.56
287.213	233.56
287.444	249.56
287.675	245.56
287.906	233.56
288.138	239.56
288.369	230.56
288.6	244.56
288.831	243.56
289.062	251.56
289.293	256.56
289.524	232.56
289.755	246.56
289.986	240.56
290.217	261.56
290.448	266.56
290.679	265.56
290.91	284.56
291.141	267.56
291.371	260.56
291.602	265.56
291.833	286.56
292.064	271.56
292.295	273.56
292.526	280.56
292.757	268.56
292.987	269.56
293.218	267.56
293.449	268.56
293.68	287.56
293.91	257.56
294.141	290.56
294.372	272.56
294.603	276.56
294.833	278.56
295.064	268.56
295.295	278.56
295.525	283.56
295.756	288.56
295.987	288.56
296.217	287.56
296.448	275.56
296.679	304.56
296.909	282.56
297.14	296.56
297.37	292.56
297.601	293.56
297.831	300.56
298.062	306.56
298.292	274.56
298.523	310.56
298.753	303.56
298.984	315.56
299.214	289.56
299.445	299.56
299.675	288.56
299.905	296.56
300.136	315.56
300.366	312.56
300.597	312.56
300.827	316.56
301.057	308.56
301.288	316.56
301.518	334.56
301.748	310.56
301.979	308.56
302.209	322.56
302.439	336.56
302.669	335.56
302.9	338.56
303.13	329.56
303.36	312.56
303.59	328.56
303.82	337.56
304.051	330.56
304.281	344.56
304.511	347.56
304.741	333.56
304.971	336.56
305.201	329.56
305.431	337.56
305.661	339.56
305.891	331.56
306.121	346.56
306.352	336.56
306.582	336.56
306.812	331.56
307.042	350.56
307.272	342.56
307.502	321.56
307.731	366.56
307.961	346.56
308.191	349.56
308.421	341.56
308.651	342.56
308.881	352.56
309.111	363.56
309.341	348.56
309.571	344.56
309.8	348.56
310.03	340.56
310.26	342.56
310.49	358.56
310.72	374.56
310.949	354.56
311.179	364.56
311.409	344.56
311.639	350.56
311.868	346.56
312.098	370.56
312.328	346.56
312.557	386.56
312.787	350.56
313.017	357.56
313.246	371.56
313.476	357.56
313.706	386.56
313.935	376.56
314.165	375.56
314.394	391.56
314.624	387.56
314.853	379.56
315.083	394.56
315.312	400.56
315.542	394.56
315.771	414.56
316.001	390.56
316.23	378.56
316.46	394.56
316.689	387.56
316.919	409.56
317.148	406.56
317.377	415.56
317.607	408.56
317.836	404.56
318.065	388.56
318.295	391.56
318.524	382.56
318.753	400.56
318.983	414.56
319.212	414.56
319.441	421.56
319.67	404.56
319.9	410.56
320.129	414.56
320.358	411.56
320.587	403.56
320.816	420.56
321.046	421.56
321.275	416.56
321.504	411.56
321.733	422.56
321.962	415.56
322.191	414.56
322.42	422.56
322.649	416.56
322.878	425.56
323.108	414.56
323.337	425.56
323.566	420.56
323.795	430.56
324.024	423.56
324.253	421.56
324.482	416.56
324.71	433.56
324.939	449.56
325.168	453.56
325.397	472.56
325.626	457.56
325.855	436.56
326.084	459.56
326.313	423.56
326.542	436.56
326.77	443.56
326.999	480.56
327.228	454.56
327.457	453.56
327.686	427.56
327.914	418.56
328.143	435.56
328.372	459.56
328.6	442.56
328.829	425.56
329.058	447.56
329.287	456.56
329.515	465.56
329.744	458.56
329.972	480.56
330.201	426.56
330.43	462.56
330.658	454.56
330.887	472.56
331.115	462.56
331.344	471.56
331.572	458.56
331.801	442.56
332.03	447.56
332.258	450.56
332.486	477.56
332.715	474.56
332.943	463.56
333.172	482.56
333.4	482.56
333.629	463.56
333.857	474.56
334.085	452.56
334.314	463.56
334.542	470.56
334.771	473.56
334.999	471.56
335.227	481.56
335.455	491.56
335.684	481.56
335.912	466.56
336.14	470.56
336.369	490.56
336.597	482.56
336.825	494.56
337.053	481.56
337.281	478.56
337.51	499.56
337.738	485.56
337.966	497.56
338.194	482.56
338.422	473.56
338.65	473.56
338.878	493.56
339.106	475.56
339.334	488.56
339.562	481.56
339.79	465.56
340.018	473.56
340.246	494.56
340.474	473.56
340.702	495.56
340.93	496.56
341.158	488.56
341.386	473.56
341.614	498.56
341.842	488.56
342.07	496.56
342.298	502.56
342.526	490.56
342.754	494.56
342.981	485.56
343.209	511.56
343.437	501.56
343.665	484.56
343.893	494.56
344.12	487.56
344.348	501.56
344.576	466.56
344.804	500.56
345.031	471.56
345.259	500.56
345.487	479.56
345.714	503.56
345.942	480.56
346.17	504.56
346.397	487.56
346.625	490.56
346.853	503.56
347.08	490.56
347.308	495.56
347.535	498.56
347.763	493.56
347.99	497.56
348.218	507.56
348.445	517.56
348.673	495.56
348.9	498.56
349.128	482.56
349.355	487.56
349.583	509.56
349.81	495.56
350.037	485.56
350.265	489.56
350.492	511.56
350.72	499.56
350.947	503.56
351.174	496.56
351.402	490.56
351.629	498.56
351.856	492.56
352.083	503.56
352.311	491.56
352.538	494.56
352.765	461.56
352.992	492.56
353.22	496.56
353.447	497.56
353.674	498.56
353.901	523.56
354.128	514.56
354.355	521.56
354.583	491.56
354.81	490.56
355.037	523.56
355.264	500.56
355.491	508.56
355.718	497.56
355.945	496.56
356.172	499.56
356.399	513.56
356.626	510.56
356.853	526.56
357.08	506.56
357.307	496.56
357.534	519.56
357.761	512.56
357.988	509.56
358.215	495.56
358.441	522.56
358.668	490.56
358.895	508.56
359.122	505.56
359.349	500.56
359.576	490.56
359.802	518.56
360.029	516.56
360.256	516.56
360.483	507.56
360.709	498.56
360.936	510.56
361.163	496.56
361.39	508.56
361.616	513.56
361.843	520.56
362.07	516.56
362.296	511.56
362.523	512.56
362.749	495.56
362.976	508.56
363.203	506.56
363.429	501.56
363.656	525.56
363.882	519.56
364.109	526.56
364.335	525.56
364.562	528.56
364.788	520.56
365.015	520.56
365.241	539.56
365.468	521.56
365.694	540.56
365.92	523.56
366.147	496.56
366.373	508.56
366.599	539.56
366.826	526.56
367.052	530.56
367.278	540.56
367.505	533.56
367.731	519.56
367.957	540.56
368.184	524.56
368.41	543.56
368.636	541.56
368.862	532.56
369.089	558.56
369.315	550.56
369.541	533.56
369.767	559.56
369.993	547.56
370.219	536.56
370.445	548.56
370.672	534.56
370.898	513.56
371.124	541.56
371.35	550.56
371.576	553.56
371.802	540.56
372.028	564.56
372.254	553.56
372.48	538.56
372.706	505.56
372.932	547.56
373.158	543.56
373.384	555.56
373.61	527.56
373.835	560.56
374.061	553.56
374.287	552.56
374.513	542.56
374.739	524.56
374.965	554.56
375.191	534.56
375.416	544.56
375.642	540.56
375.868	550.56
376.094	560.56
376.319	529.56
376.545	546.56
376.771	540.56
376.997	550.56
377.222	586.56
377.448	544.56
377.674	534.56
377.899	538.56
378.125	523.56
378.35	549.56
378.576	560.56
378.802	553.56
379.027	553.56
379.253	551.56
379.478	539.56
379.704	551.56
379.929	545.56
380.155	532.56
380.38	551.56
380.606	537.56
380.831	539.56
381.057	549.56
381.282	549.56
381.507	562.56
381.733	571.56
381.958	546.56
382.184	544.56
382.409	567.56
382.634	548.56
382.86	544.56
383.085	548.56
383.31	553.56
383.535	570.56
383.761	543.56
383.986	551.56
384.211	539.56
384.436	547.56
384.662	548.56
384.887	556.56
385.112	571.56
385.337	567.56
385.562	581.56
385.787	576.56
386.013	593.56
386.238	568.56
386.463	599.56
386.688	600.56
386.913	591.56
387.138	560.56
387.363	563.56
387.588	583.56
387.813	565.56
388.038	592.56
388.263	587.56
388.488	562.56
388.713	564.56
388.938	583.56
389.163	566.56
389.387	583.56
389.612	558.56
389.837	566.56
390.062	552.56
390.287	571.56
390.512	568.56
390.736	578.56
390.961	587.56
391.186	587.56
391.411	572.56
391.636	597.56
391.86	582.56
392.085	581.56
392.31	572.56
392.534	586.56
392.759	588.56
392.984	581.56
393.208	572.56
393.433	564.56
393.658	587.56
393.882	593.56
394.107	600.56
394.331	583.56
394.556	565.56
394.78	610.56
395.005	577.56
395.229	572.56
395.454	591.56
395.678	596.56
395.903	571.56
396.127	600.56
396.352	618.56
396.576	588.56
396.801	611.56
397.025	596.56
397.249	627.56
397.474	603.56
397.698	595.56
397.922	590.56
398.147	598.56
398.371	586.56
398.595	614.56
398.82	604.56
399.044	626.56
399.268	601.56
399.492	593.56
399.717	619.56
399.941	619.56
400.165	599.56
400.389	603.56
400.613	607.56
400.837	617.56
401.062	622.56
401.286	624.56
401.51	629.56
401.734	627.56
401.958	617.56
402.182	626.56
402.406	623.56
402.63	649.56
402.854	642.56
403.078	638.56
403.302	618.56
403.526	619.56
403.75	623.56
403.974	618.56
404.198	614.56
404.422	618.56
404.645	614.56
404.869	624.56
405.093	636.56
405.317	616.56
405.541	617.56
405.765	624.56
405.988	625.56
406.212	624.56
406.436	629.56
406.66	628.56
406.883	627.56
407.107	631.56
407.331	642.56
407.555	650.56
407.778	634.56
408.002	625.56
408.226	612.56
408.449	627.56
408.673	622.56
408.896	646.56
409.12	632.56
409.344	649.56
409.567	625.56
409.791	622.56
410.014	645.56
410.238	641.56
410.461	632.56
410.685	629.56
410.908	626.56
411.132	627.56
411.355	622.56
411.578	629.56
411.802	647.56
412.025	646.56
412.249	634.56
412.472	633.56
412.695	609.56
412.919	606.56
413.142	599.56
413.365	640.56
413.589	630.56
413.812	611.56
414.035	646.56
414.258	597.56
414.482	588.56
414.705	616.56
414.928	613.56
415.151	622.56
415.374	610.56
415.597	605.56
415.821	612.56
416.044	616.56
416.267	606.56
416.49	618.56
416.713	586.56
416.936	604.56
417.159	595.56
417.382	595.56
417.605	587.56
417.828	600.56
418.051	601.56
418.274	604.56
418.497	599.56
418.72	598.56
418.943	586.56
419.166	598.56
419.389	639.56
419.611	624.56
419.834	630.56
420.057	626.56
420.28	590.56
420.503	585.56
420.726	593.56
420.948	598.56
421.171	586.56
421.394	591.56
421.617	578.56
421.839	590.56
422.062	611.56
422.285	584.56
422.507	589.56
422.73	591.56
422.953	617.56
423.175	592.56
423.398	585.56
423.621	589.56
423.843	618.56
424.066	599.56
424.288	593.56
424.511	599.56
424.733	612.56
424.956	594.56
425.178	602.56
425.401	627.56
425.623	590.56
425.846	577.56
426.068	608.56
426.291	615.56
426.513	604.56
426.735	601.56
426.958	591.56
427.18	591.56
427.402	600.56
427.625	608.56
427.847	579.56
428.069	595.56
428.292	596.56
428.514	600.56
428.736	596.56
428.958	623.56
429.181	596.56
429.403	599.56
429.625	590.56
429.847	589.56
430.069	594.56
430.292	615.56
430.514	585.56
430.736	608.56
430.958	617.56
431.18	578.56
431.402	598.56
431.624	590.56
431.846	585.56
432.068	580.56
432.29	607.56
432.512	578.56
432.734	598.56
432.956	584.56
433.178	585.56
433.4	607.56
433.622	600.56
433.844	586.56
434.066	605.56
434.287	599.56
434.509	594.56
434.731	558.56
434.953	584.56
435.175	607.56
435.397	587.56
435.618	581.56
435.84	577.56
436.062	593.56
436.284	603.56
436.505	589.56
436.727	599.56
436.949	605.56
437.17	590.56
437.392	594.56
437.614	580.56
437.835	590.56
438.057	590.56
438.278	591.56
438.5	601.56
438.721	571.56
438.943	584.56
439.165	585.56
439.386	588.56
439.608	593.56
439.829	594.56
440.05	601.56
440.272	588.56
440.493	596.56
440.715	586.56
440.936	589.56
441.158	578.56
441.379	603.56
441.6	606.56
441.822	578.56
442.043	569.56
442.264	588.56
442.486	555.56
442.707	588.56
442.928	579.56
443.149	583.56
443.371	576.56
443.592	568.56
443.813	582.56
444.034	583.56
444.255	565.56
444.476	592.56
444.698	569.56
444.919	586.56
445.14	674.56
445.361	617.56
445.582	602.56
445.803	620.56
446.024	588.56
446.245	595.56
446.466	584.56
446.687	572.56
446.908	574.56
447.129	586.56
447.35	577.56
447.571	560.56
447.792	577.56
448.013	562.56
448.234	574.56
448.455	571.56
448.675	550.56
448.896	567.56
449.117	566.56
449.338	559.56
449.559	578.56
449.779	568.56
450	551.56
450.221	592.56
450.442	579.56
450.662	558.56
450.883	538.56
451.104	566.56
451.324	547.56
451.545	561.56
451.766	576.56
451.986	543.56
452.207	555.56
452.428	553.56
452.648	570.56
452.869	546.56
453.089	544.56
453.31	565.56
453.53	544.56
453.751	549.56
453.971	554.56
454.192	553.56
454.412	546.56
454.633	556.56
454.853	570.56
455.073	550.56
455.294	530.56
455.514	552.56
455.734	577.56
455.955	555.56
456.175	566.56
456.395	542.56
456.616	546.56
456.836	542.56
457.056	546.56
457.276	558.56
457.497	577.56
457.717	567.56
457.937	546.56
458.157	558.56
458.377	548.56
458.598	558.56
458.818	551.56
459.038	574.56
459.258	540.56
459.478	579.56
459.698	556.56
459.918	576.56
460.138	569.56
460.358	582.56
460.578	572.56
460.798	571.56
461.018	574.56
461.238	596.56
461.458	595.56
461.678	573.56
461.898	564.56
462.118	587.56
462.338	612.56
462.558	595.56
462.777	599.56
462.997	601.56
463.217	606.56
463.437	580.56
463.657	581.56
463.876	590.56
464.096	600.56
464.316	605.56
464.536	604.56
464.755	611.56
464.975	604.56
465.195	579.56
465.414	600.56
465.634	590.56
465.854	595.56
466.073	599.56
466.293	592.56
466.512	582.56
466.732	588.56
466.951	615.56
467.171	614.56
467.391	604.56
467.61	593.56
467.829	590.56
468.049	591.56
468.268	606.56
468.488	602.56
468.707	585.56
468.927	599.56
469.146	617.56
469.365	613.56
469.585	571.56
469.804	617.56
470.023	595.56
470.243	590.56
470.462	611.56
470.681	611.56
470.901	624.56
471.12	599.56
471.339	612.56
471.558	603.56
471.777	606.56
471.997	626.56
472.216	598.56
472.435	619.56
472.654	620.56
472.873	646.56
473.092	625.56
473.311	636.56
473.53	643.56
473.749	644.56
473.968	642.56
474.187	650.56
474.406	638.56
474.625	634.56
474.844	633.56
475.063	657.56
475.282	660.56
475.501	648.56
475.72	671.56
475.939	671.56
476.158	657.56
476.377	697.56
476.596	653.56
476.814	682.56
477.033	687.56
477.252	692.56
477.471	705.56
477.69	681.56
477.908	664.56
478.127	699.56
478.346	701.56
478.564	716.56
478.783	714.56
479.002	709.56
479.22	720.56
479.439	719.56
479.658	709.56
479.876	751.56
480.095	745.56
480.313	738.56
480.532	722.56
480.751	736.56
480.969	734.56
481.188	752.56
481.406	757.56
481.624	758.56
481.843	740.56
482.061	750.56
482.28	773.56
482.498	776.56
482.717	752.56
482.935	774.56
483.153	798.56
483.372	793.56
483.59	791.56
483.808	774.56
484.027	771.56
484.245	785.56
484.463	791.56
484.681	823.56
484.9	808.56
485.118	799.56
485.336	804.56
485.554	800.56
485.772	791.56
485.99	794.56
486.209	789.56
486.427	800.56
486.645	791.56
486.863	818.56
487.081	786.56
487.299	793.56
487.517	798.56
487.735	795.56
487.953	814.56
488.171	826.56
488.389	814.56
488.607	806.56
488.825	813.56
489.043	799.56
489.261	804.56
489.479	815.56
489.696	810.56
489.914	794.56
490.132	798.56
490.35	802.56
490.568	819.56
490.786	810.56
491.003	793.56
491.221	818.56
491.439	858.56
491.657	823.56
491.874	832.56
492.092	816.56
492.31	843.56
492.527	817.56
492.745	803.56
492.963	810.56
493.18	819.56
493.398	808.56
493.615	836.56
493.833	824.56
494.05	842.56
494.268	836.56
494.485	821.56
494.703	851.56
494.92	838.56
495.138	844.56
495.355	829.56
495.573	832.56
495.79	840.56
496.008	866.56
496.225	822.56
496.442	836.56
496.66	830.56
496.877	836.56
497.094	828.56
497.312	836.56
497.529	835.56
497.746	847.56
497.963	863.56
498.181	834.56
498.398	850.56
498.615	868.56
498.832	847.56
499.049	848.56
499.267	838.56
499.484	850.56
499.701	870.56
499.918	857.56
500.135	866.56
500.352	875.56
500.569	865.56
500.786	880.56
501.003	894.56
501.22	862.56
501.437	857.56
501.654	856.56
501.871	874.56
502.088	883.56
502.305	826.56
