Data from Fe(NO3)3@0.025M.TitratingCurve.Agarose3%dH2O.NegLispCup.LampEnergy10.LIBS07252019_HRD10591_16-55-44-335.txt Node
Date: Thu Jul 25 16:55:44 EDT 2019
User: cochatt
Spectrometer: HR+D1059
Trigger mode: 1
Integration Time (sec): 1.000000E-1
Scans to average: 1
Electric dark correction enabled: true
Nonlinearity correction enabled: false
Boxcar width: 0
XAxis mode: Wavelengths
Number of Pixels in Spectrum: 2048
>>>>>Begin Spectral Data<<<<<
223.165	-17
223.4	-17
223.635	-17
223.869	-11
224.104	-24
224.338	-16
224.573	-10
224.808	-8
225.042	-1
225.277	-5
225.511	-4
225.746	-1
225.98	6
226.215	10
226.449	26
226.683	10
226.918	14
227.152	31
227.387	35
227.621	38
227.856	56
228.09	42
228.324	46
228.559	49
228.793	63
229.027	76
229.262	75
229.496	76
229.73	87
229.964	65
230.199	80
230.433	62
230.667	81
230.901	97
231.136	78
231.37	82
231.604	97
231.838	94
232.072	90
232.306	94
232.541	99
232.775	94
233.009	105
233.243	85
233.477	82
233.711	102
233.945	89
234.179	81
234.413	89
234.647	90
234.881	92
235.115	87
235.349	98
235.583	81
235.817	92
236.051	110
236.285	83
236.519	99
236.753	94
236.987	89
237.221	84
237.455	101
237.689	87
237.922	97
238.156	100
238.39	108
238.624	86
238.858	88
239.091	94
239.325	97
239.559	93
239.793	82
240.027	93
240.26	87
240.494	99
240.728	96
240.961	106
241.195	102
241.429	83
241.662	97
241.896	96
242.13	105
242.363	105
242.597	99
242.83	106
243.064	98
243.298	119
243.531	113
243.765	109
243.998	104
244.232	92
244.465	97
244.699	114
244.932	93
245.166	109
245.399	106
245.633	112
245.866	102
246.099	104
246.333	98
246.566	116
246.8	96
247.033	106
247.266	110
247.5	117
247.733	110
247.966	119
248.2	121
248.433	106
248.666	100
248.899	104
249.133	95
249.366	101
249.599	112
249.832	115
250.066	103
250.299	101
250.532	118
250.765	118
250.998	110
251.231	113
251.465	115
251.698	127
251.931	116
252.164	125
252.397	120
252.63	117
252.863	101
253.096	119
253.329	119
253.562	123
253.795	110
254.028	118
254.261	114
254.494	119
254.727	115
254.96	119
255.193	130
255.426	129
255.659	129
255.892	130
256.124	111
256.357	131
256.59	121
256.823	117
257.056	118
257.289	126
257.521	127
257.754	123
257.987	113
258.22	126
258.452	111
258.685	121
258.918	132
259.151	148
259.383	127
259.616	131
259.849	124
260.081	125
260.314	120
260.547	111
260.779	138
261.012	121
261.244	121
261.477	138
261.71	121
261.942	111
262.175	133
262.407	115
262.64	125
262.872	143
263.105	142
263.337	139
263.57	125
263.802	140
264.035	138
264.267	141
264.499	131
264.732	133
264.964	130
265.197	117
265.429	133
265.661	139
265.894	129
266.126	136
266.358	136
266.591	131
266.823	145
267.055	127
267.287	143
267.52	136
267.752	143
267.984	151
268.216	143
268.448	148
268.681	141
268.913	139
269.145	145
269.377	145
269.609	139
269.841	155
270.073	145
270.306	152
270.538	152
270.77	148
271.002	139
271.234	147
271.466	131
271.698	167
271.93	130
272.162	149
272.394	139
272.626	150
272.858	150
273.09	131
273.322	136
273.553	161
273.785	149
274.017	145
274.249	162
274.481	137
274.713	159
274.945	159
275.176	151
275.408	150
275.64	147
275.872	153
276.104	170
276.335	154
276.567	160
276.799	151
277.031	146
277.262	150
277.494	159
277.726	154
277.957	160
278.189	164
278.421	167
278.652	163
278.884	151
279.115	156
279.347	137
279.579	167
279.81	163
280.042	164
280.273	173
280.505	157
280.736	158
280.968	171
281.199	155
281.431	151
281.662	153
281.894	177
282.125	177
282.356	177
282.588	155
282.819	162
283.051	163
283.282	166
283.513	161
283.745	168
283.976	183
284.207	164
284.439	166
284.67	197
284.901	178
285.132	164
285.364	169
285.595	158
285.826	171
286.057	176
286.288	169
286.52	189
286.751	177
286.982	165
287.213	164
287.444	183
287.675	183
287.906	180
288.138	168
288.369	176
288.6	193
288.831	180
289.062	186
289.293	193
289.524	171
289.755	182
289.986	187
290.217	186
290.448	177
290.679	179
290.91	181
291.141	192
291.371	184
291.602	182
291.833	193
292.064	186
292.295	192
292.526	195
292.757	185
292.987	185
293.218	180
293.449	181
293.68	183
293.91	175
294.141	174
294.372	193
294.603	178
294.833	173
295.064	190
295.295	183
295.525	197
295.756	187
295.987	201
296.217	194
296.448	185
296.679	179
296.909	193
297.14	190
297.37	198
297.601	194
297.831	184
298.062	207
298.292	195
298.523	194
298.753	202
298.984	186
299.214	200
299.445	195
299.675	196
299.905	197
300.136	199
300.366	191
300.597	198
300.827	210
301.057	203
301.288	211
301.518	205
301.748	213
301.979	207
302.209	213
302.439	208
302.669	203
302.9	212
303.13	193
303.36	212
303.59	193
303.82	202
304.051	210
304.281	219
304.511	199
304.741	211
304.971	206
305.201	215
305.431	199
305.661	208
305.891	199
306.121	212
306.352	213
306.582	212
306.812	221
307.042	211
307.272	218
307.502	186
307.731	204
307.961	202
308.191	193
308.421	212
308.651	211
308.881	224
309.111	215
309.341	210
309.571	194
309.8	211
310.03	221
310.26	199
310.49	216
310.72	223
310.949	212
311.179	231
311.409	228
311.639	225
311.868	226
312.098	223
312.328	214
312.557	206
312.787	218
313.017	224
313.246	223
313.476	227
313.706	227
313.935	245
314.165	224
314.394	220
314.624	238
314.853	227
315.083	217
315.312	223
315.542	234
315.771	220
316.001	207
316.23	229
316.46	222
316.689	232
316.919	229
317.148	222
317.377	241
317.607	237
317.836	215
318.065	203
318.295	218
318.524	214
318.753	235
318.983	247
319.212	232
319.441	214
319.67	224
319.9	227
320.129	223
320.358	223
320.587	219
320.816	239
321.046	227
321.275	217
321.504	222
321.733	219
321.962	227
322.191	249
322.42	239
322.649	231
322.878	251
323.108	229
323.337	244
323.566	234
323.795	236
324.024	239
324.253	238
324.482	222
324.71	241
324.939	237
325.168	223
325.397	227
325.626	247
325.855	241
326.084	229
326.313	253
326.542	242
326.77	257
326.999	229
327.228	246
327.457	253
327.686	247
327.914	254
328.143	244
328.372	224
328.6	231
328.829	240
329.058	244
329.287	262
329.515	260
329.744	256
329.972	241
330.201	257
330.43	266
330.658	260
330.887	279
331.115	265
331.344	257
331.572	264
331.801	271
332.03	266
332.258	275
332.486	281
332.715	288
332.943	297
333.172	293
333.4	280
333.629	287
333.857	288
334.085	298
334.314	307
334.542	282
334.771	285
334.999	277
335.227	280
335.455	298
335.684	300
335.912	291
336.14	305
336.369	293
336.597	301
336.825	285
337.053	276
337.281	259
337.51	267
337.738	278
337.966	244
338.194	276
338.422	276
338.65	265
338.878	285
339.106	274
339.334	290
339.562	289
339.79	267
340.018	256
340.246	257
340.474	245
340.702	283
340.93	266
341.158	267
341.386	260
341.614	275
341.842	265
342.07	237
342.298	261
342.526	263
342.754	256
342.981	259
343.209	277
343.437	273
343.665	297
343.893	288
344.12	294
344.348	313
344.576	282
344.804	298
345.031	262
345.259	258
345.487	250
345.714	253
345.942	250
346.17	247
346.397	267
346.625	262
346.853	245
347.08	267
347.308	277
347.535	259
347.763	266
347.99	253
348.218	264
348.445	248
348.673	277
348.9	268
349.128	269
349.355	256
349.583	265
349.81	230
350.037	249
350.265	257
350.492	227
350.72	267
350.947	265
351.174	250
351.402	243
351.629	237
351.856	263
352.083	256
352.311	256
352.538	266
352.765	262
352.992	259
353.22	246
353.447	275
353.674	269
353.901	261
354.128	239
354.355	264
354.583	262
354.81	289
355.037	259
355.264	258
355.491	238
355.718	240
355.945	252
356.172	255
356.399	253
356.626	269
356.853	273
357.08	250
357.307	256
357.534	258
357.761	272
357.988	281
358.215	275
358.441	246
358.668	253
358.895	274
359.122	244
359.349	264
359.576	249
359.802	275
360.029	262
360.256	280
360.483	237
360.709	251
360.936	266
361.163	263
361.39	250
361.616	279
361.843	260
362.07	256
362.296	255
362.523	251
362.749	258
362.976	270
363.203	265
363.429	272
363.656	273
363.882	280
364.109	265
364.335	263
364.562	265
364.788	278
365.015	264
365.241	247
365.468	250
365.694	266
365.92	262
366.147	275
366.373	248
366.599	259
366.826	269
367.052	260
367.278	259
367.505	275
367.731	280
367.957	242
368.184	250
368.41	277
368.636	276
368.862	270
369.089	262
369.315	259
369.541	268
369.767	294
369.993	263
370.219	289
370.445	276
370.672	274
370.898	275
371.124	291
371.35	286
371.576	270
371.802	274
372.028	277
372.254	280
372.48	292
372.706	287
372.932	279
373.158	301
373.384	284
373.61	290
373.835	274
374.061	299
374.287	306
374.513	283
374.739	299
374.965	289
375.191	304
375.416	295
375.642	298
375.868	289
376.094	280
376.319	281
376.545	297
376.771	278
376.997	273
377.222	294
377.448	280
377.674	296
377.899	275
378.125	280
378.35	267
378.576	282
378.802	275
379.027	281
379.253	303
379.478	267
379.704	279
379.929	289
380.155	267
380.38	289
380.606	274
380.831	285
381.057	288
381.282	285
381.507	288
381.733	280
381.958	293
382.184	294
382.409	291
382.634	280
382.86	282
383.085	289
383.31	310
383.535	291
383.761	302
383.986	305
384.211	307
384.436	306
384.662	302
384.887	302
385.112	312
385.337	325
385.562	313
385.787	287
386.013	307
386.238	314
386.463	326
386.688	334
386.913	310
387.138	312
387.363	325
387.588	345
387.813	337
388.038	310
388.263	305
388.488	328
388.713	312
388.938	327
389.163	320
389.387	317
389.612	321
389.837	303
390.062	328
390.287	327
390.512	319
390.736	322
390.961	325
391.186	319
391.411	352
391.636	343
391.86	335
392.085	345
392.31	365
392.534	343
392.759	337
392.984	347
393.208	340
393.433	335
393.658	343
393.882	344
394.107	337
394.331	340
394.556	331
394.78	338
395.005	350
395.229	352
395.454	345
395.678	350
395.903	340
396.127	356
396.352	342
396.576	350
396.801	350
397.025	360
397.249	361
397.474	355
397.698	368
397.922	341
398.147	351
398.371	381
398.595	380
398.82	378
399.044	424
399.268	448
399.492	463
399.717	501
399.941	491
400.165	456
400.389	434
400.613	413
400.837	400
401.062	416
401.286	394
401.51	404
401.734	400
401.958	393
402.182	408
402.406	402
402.63	390
402.854	393
403.078	411
403.302	393
403.526	424
403.75	432
403.974	417
404.198	396
404.422	417
404.645	406
404.869	409
405.093	413
405.317	420
405.541	423
405.765	418
405.988	424
406.212	429
406.436	405
406.66	427
406.883	418
407.107	450
407.331	461
407.555	440
407.778	459
408.002	476
408.226	434
408.449	437
408.673	416
408.896	425
409.12	403
409.344	410
409.567	410
409.791	429
410.014	414
410.238	402
410.461	414
410.685	411
410.908	374
411.132	416
411.355	403
411.578	394
411.802	408
412.025	402
412.249	404
412.472	398
412.695	379
412.919	391
413.142	383
413.365	396
413.589	387
413.812	374
414.035	397
414.258	367
414.482	387
414.705	390
414.928	383
415.151	392
415.374	395
415.597	382
415.821	369
416.044	373
416.267	359
416.49	375
416.713	385
416.936	381
417.159	377
417.382	391
417.605	377
417.828	370
418.051	385
418.274	372
418.497	377
418.72	384
418.943	378
419.166	387
419.389	402
419.611	399
419.834	390
420.057	403
420.28	395
420.503	378
420.726	366
420.948	396
421.171	372
421.394	359
421.617	373
421.839	369
422.062	368
422.285	369
422.507	354
422.73	363
422.953	375
423.175	383
423.398	384
423.621	380
423.843	383
424.066	380
424.288	388
424.511	383
424.733	378
424.956	379
425.178	371
425.401	367
425.623	383
425.846	359
426.068	357
426.291	368
426.513	345
426.735	383
426.958	368
427.18	365
427.402	357
427.625	356
427.847	334
428.069	353
428.292	340
428.514	363
428.736	341
428.958	367
429.181	347
429.403	344
429.625	328
429.847	344
430.069	345
430.292	343
430.514	318
430.736	339
430.958	346
431.18	351
431.402	331
431.624	343
431.846	332
432.068	348
432.29	349
432.512	330
432.734	347
432.956	352
433.178	344
433.4	342
433.622	362
433.844	350
434.066	361
434.287	336
434.509	354
434.731	377
434.953	367
435.175	378
435.397	368
435.618	346
435.84	349
436.062	372
436.284	341
436.505	345
436.727	343
436.949	360
437.17	332
437.392	332
437.614	339
437.835	325
438.057	328
438.278	324
438.5	336
438.721	329
438.943	321
439.165	344
439.386	319
439.608	370
439.829	362
440.05	343
440.272	334
440.493	330
440.715	352
440.936	350
441.158	380
441.379	375
441.6	390
441.822	357
442.043	371
442.264	361
442.486	363
442.707	362
442.928	388
443.149	371
443.371	374
443.592	360
443.813	380
444.034	369
444.255	396
444.476	403
444.698	405
444.919	409
445.14	461
445.361	416
445.582	382
445.803	369
446.024	367
446.245	365
446.466	344
446.687	366
446.908	338
447.129	341
447.35	347
447.571	329
447.792	341
448.013	334
448.234	331
448.455	310
448.675	336
448.896	342
449.117	319
449.338	330
449.559	301
449.779	312
450	302
450.221	320
450.442	334
450.662	330
450.883	317
451.104	316
451.324	328
451.545	328
451.766	336
451.986	317
452.207	314
452.428	331
452.648	308
452.869	324
453.089	308
453.31	307
453.53	318
453.751	317
453.971	313
454.192	305
454.412	309
454.633	309
454.853	311
455.073	298
455.294	297
455.514	310
455.734	315
455.955	307
456.175	315
456.395	338
456.616	319
456.836	305
457.056	312
457.276	286
457.497	298
457.717	310
457.937	314
458.157	310
458.377	326
458.598	326
458.818	345
459.038	323
459.258	329
459.478	345
459.698	335
459.918	368
460.138	350
460.358	360
460.578	396
460.798	391
461.018	397
461.238	385
461.458	388
461.678	380
461.898	389
462.118	377
462.338	404
462.558	416
462.777	429
462.997	440
463.217	469
463.437	468
463.657	452
463.876	424
464.096	443
464.316	427
464.536	429
464.755	419
464.975	396
465.195	385
465.414	375
465.634	375
465.854	358
466.073	359
466.293	347
466.512	331
466.732	352
466.951	329
467.171	342
467.391	342
467.61	339
467.829	334
468.049	330
468.268	342
468.488	333
468.707	339
468.927	336
469.146	320
469.365	330
469.585	320
469.804	343
470.023	346
470.243	332
470.462	343
470.681	323
470.901	338
471.12	360
471.339	344
471.558	337
471.777	321
471.997	330
472.216	345
472.435	322
472.654	309
472.873	338
473.092	319
473.311	325
473.53	325
473.749	325
473.968	348
474.187	321
474.406	340
474.625	325
474.844	324
475.063	300
475.282	326
475.501	334
475.72	352
475.939	363
476.158	327
476.377	317
476.596	336
476.814	349
477.033	348
477.252	347
477.471	342
477.69	346
477.908	368
478.127	369
478.346	379
478.564	372
478.783	403
479.002	387
479.22	390
479.439	395
479.658	390
479.876	391
480.095	377
480.313	392
480.532	414
480.751	407
480.969	391
481.188	401
481.406	375
481.624	372
481.843	376
482.061	376
482.28	358
482.498	361
482.717	345
482.935	366
483.153	369
483.372	358
483.59	361
483.808	361
484.027	359
484.245	355
484.463	376
484.681	377
484.9	370
485.118	392
485.336	377
485.554	381
485.772	401
485.99	381
486.209	365
486.427	358
486.645	373
486.863	381
487.081	392
487.299	380
487.517	390
487.735	354
487.953	379
488.171	387
488.389	391
488.607	378
488.825	386
489.043	385
489.261	370
489.479	371
489.696	404
489.914	405
490.132	376
490.35	376
490.568	380
490.786	391
491.003	377
491.221	374
491.439	375
491.657	392
491.874	391
492.092	393
492.31	389
492.527	389
492.745	394
492.963	387
493.18	394
493.398	389
493.615	402
493.833	403
494.05	417
494.268	386
494.485	389
494.703	417
494.92	399
495.138	405
495.355	407
495.573	400
495.79	414
496.008	415
496.225	411
496.442	413
496.66	432
496.877	442
497.094	432
497.312	452
497.529	463
497.746	462
497.963	467
498.181	511
498.398	519
498.615	527
498.832	552
499.049	578
499.267	602
499.484	664
499.701	712
499.918	754
500.135	789
500.352	882
500.569	901
500.786	870
501.003	819
501.22	743
501.437	705
501.654	633
501.871	621
502.088	578
502.305	549
502.522	535
502.739	513
502.956	521
503.172	498
503.389	486
503.606	467
503.823	462
504.04	447
504.256	463
504.473	465
504.69	448
504.907	445
505.123	437
505.34	396
505.557	399
505.773	399
505.99	377
506.207	386
506.423	388
506.64	380
506.856	409
507.073	400
507.289	383
507.506	375
507.722	358
507.939	377
508.155	351
508.372	371
508.588	345
508.805	359
509.021	342
509.238	337
509.454	344
509.67	365
509.887	339
510.103	349
510.319	356
510.536	339
510.752	330
510.968	330
511.184	346
511.401	329
511.617	317
511.833	338
512.049	346
512.265	363
512.481	358
512.698	338
512.914	339
513.13	328
513.346	342
513.562	346
513.778	351
513.994	349
514.21	352
514.426	352
514.642	369
514.858	351
515.074	357
515.29	333
515.506	346
515.721	332
515.937	382
516.153	373
516.369	383
516.585	377
516.801	408
517.016	403
517.232	411
517.448	411
517.664	432
517.879	424
518.095	419
518.311	416
518.527	393
518.742	391
518.958	379
519.173	392
519.389	375
519.605	354
519.82	344
520.036	366
520.251	365
520.467	327
520.682	343
520.898	337
521.113	338
521.329	336
521.544	339
521.76	332
521.975	320
522.19	331
522.406	331
522.621	330
522.836	326
523.052	321
523.267	335
523.482	334
523.698	313
523.913	320
524.128	323
524.343	331
524.559	312
524.774	322
524.989	320
525.204	324
525.419	307
525.634	306
525.849	329
526.064	311
526.28	320
526.495	323
526.71	311
526.925	305
527.14	309
527.355	332
527.57	298
527.785	314
527.999	311
528.214	320
528.429	298
528.644	320
528.859	310
529.074	333
529.289	308
529.503	298
529.718	303
529.933	322
530.148	327
530.363	321
530.577	313
530.792	307
531.007	328
531.221	323
531.436	327
531.651	316
531.865	306
532.08	331
532.295	304
532.509	337
532.724	311
532.938	306
533.153	318
533.367	318
533.582	318
533.796	311
534.011	303
534.225	309
534.44	291
534.654	301
534.868	302
535.083	321
535.297	307
535.511	299
535.726	302
535.94	298
536.154	289
536.369	294
536.583	295
536.797	285
537.011	306
537.225	277
537.44	288
537.654	295
537.868	307
538.082	279
538.296	273
538.51	299
538.724	298
538.938	288
539.153	297
539.367	286
539.581	275
539.795	280
540.009	282
540.222	296
540.436	310
540.65	289
540.864	273
541.078	296
541.292	302
541.506	285
541.72	276
541.934	279
542.147	302
542.361	296
542.575	294
542.789	289
543.002	285
543.216	294
543.43	288
543.644	294
543.857	282
544.071	319
544.285	287
544.498	299
544.712	285
544.925	310
545.139	288
545.352	284
545.566	286
545.779	299
545.993	293
546.206	282
546.42	290
546.633	291
546.847	280
547.06	287
547.274	287
547.487	306
547.7	287
547.914	297
548.127	321
548.34	305
548.554	298
548.767	301
548.98	307
549.193	292
549.407	273
549.62	296
549.833	291
550.046	289
550.259	290
550.473	321
550.686	297
550.899	283
551.112	293
551.325	316
551.538	279
551.751	298
551.964	296
552.177	288
552.39	281
552.603	306
552.816	281
553.029	289
553.242	317
553.455	299
553.667	293
553.88	320
554.093	299
554.306	309
554.519	292
554.732	292
554.944	274
555.157	279
555.37	298
555.583	285
555.795	278
556.008	279
556.221	259
556.433	273
556.646	269
556.859	260
557.071	266
557.284	269
557.496	273
557.709	266
557.921	273
558.134	271
558.346	263
558.559	258
558.771	259
558.984	257
559.196	266
559.409	264
559.621	268
559.833	264
560.046	257
560.258	262
560.47	262
560.683	268
560.895	262
561.107	261
561.32	249
561.532	245
561.744	262
561.956	249
562.168	269
562.381	253
562.593	242
562.805	268
563.017	267
563.229	253
563.441	259
563.653	258
563.865	266
564.077	263
