Data from Fe(NO3)3@0.05M.TitratingCurve.Agarose3%dH2O.NegLispCup.LampEnergy10.LIBS07252019_HRD10591_16-47-58-335.txt Node
Date: Thu Jul 25 16:47:58 EDT 2019
User: cochatt
Spectrometer: HR+D1059
Trigger mode: 1
Integration Time (sec): 1.000000E-1
Scans to average: 1
Electric dark correction enabled: true
Nonlinearity correction enabled: false
Boxcar width: 0
XAxis mode: Wavelengths
Number of Pixels in Spectrum: 2048
>>>>>Begin Spectral Data<<<<<
223.165	-10.69
223.4	-10.69
223.635	-10.69
223.869	-27.69
224.104	-18.69
224.338	-19.69
224.573	-16.69
224.808	-10.69
225.042	-12.69
225.277	1.31
225.511	-0.69
225.746	-1.69
225.98	11.31
226.215	-0.69
226.449	22.31
226.683	15.31
226.918	28.31
227.152	41.31
227.387	52.31
227.621	34.31
227.856	35.31
228.09	54.31
228.324	61.31
228.559	51.31
228.793	78.31
229.027	81.31
229.262	82.31
229.496	88.31
229.73	94.31
229.964	108.31
230.199	86.31
230.433	85.31
230.667	94.31
230.901	96.31
231.136	86.31
231.37	97.31
231.604	107.31
231.838	85.31
232.072	106.31
232.306	105.31
232.541	100.31
232.775	96.31
233.009	113.31
233.243	94.31
233.477	114.31
233.711	107.31
233.945	102.31
234.179	120.31
234.413	107.31
234.647	109.31
234.881	102.31
235.115	114.31
235.349	107.31
235.583	106.31
235.817	97.31
236.051	105.31
236.285	101.31
236.519	97.31
236.753	90.31
236.987	101.31
237.221	94.31
237.455	105.31
237.689	105.31
237.922	104.31
238.156	92.31
238.39	113.31
238.624	119.31
238.858	112.31
239.091	99.31
239.325	103.31
239.559	91.31
239.793	121.31
240.027	105.31
240.26	118.31
240.494	107.31
240.728	119.31
240.961	114.31
241.195	110.31
241.429	124.31
241.662	100.31
241.896	118.31
242.13	127.31
242.363	128.31
242.597	106.31
242.83	110.31
243.064	116.31
243.298	118.31
243.531	126.31
243.765	112.31
243.998	122.31
244.232	122.31
244.465	121.31
244.699	128.31
244.932	123.31
245.166	128.31
245.399	128.31
245.633	126.31
245.866	123.31
246.099	127.31
246.333	128.31
246.566	128.31
246.8	140.31
247.033	109.31
247.266	120.31
247.5	125.31
247.733	126.31
247.966	131.31
248.2	134.31
248.433	132.31
248.666	143.31
248.899	131.31
249.133	125.31
249.366	122.31
249.599	133.31
249.832	132.31
250.066	153.31
250.299	122.31
250.532	129.31
250.765	149.31
250.998	140.31
251.231	137.31
251.465	150.31
251.698	140.31
251.931	154.31
252.164	147.31
252.397	132.31
252.63	128.31
252.863	143.31
253.096	148.31
253.329	133.31
253.562	133.31
253.795	145.31
254.028	133.31
254.261	161.31
254.494	147.31
254.727	139.31
254.96	142.31
255.193	162.31
255.426	144.31
255.659	142.31
255.892	143.31
256.124	148.31
256.357	156.31
256.59	148.31
256.823	150.31
257.056	156.31
257.289	142.31
257.521	154.31
257.754	149.31
257.987	139.31
258.22	162.31
258.452	165.31
258.685	161.31
258.918	139.31
259.151	157.31
259.383	155.31
259.616	149.31
259.849	157.31
260.081	151.31
260.314	152.31
260.547	165.31
260.779	160.31
261.012	180.31
261.244	167.31
261.477	176.31
261.71	154.31
261.942	164.31
262.175	163.31
262.407	158.31
262.64	171.31
262.872	178.31
263.105	153.31
263.337	159.31
263.57	160.31
263.802	169.31
264.035	164.31
264.267	177.31
264.499	166.31
264.732	163.31
264.964	168.31
265.197	172.31
265.429	170.31
265.661	172.31
265.894	161.31
266.126	180.31
266.358	173.31
266.591	177.31
266.823	160.31
267.055	170.31
267.287	163.31
267.52	173.31
267.752	191.31
267.984	165.31
268.216	179.31
268.448	197.31
268.681	179.31
268.913	185.31
269.145	193.31
269.377	183.31
269.609	179.31
269.841	174.31
270.073	187.31
270.306	173.31
270.538	184.31
270.77	192.31
271.002	181.31
271.234	184.31
271.466	177.31
271.698	186.31
271.93	183.31
272.162	183.31
272.394	186.31
272.626	193.31
272.858	191.31
273.09	208.31
273.322	190.31
273.553	192.31
273.785	183.31
274.017	200.31
274.249	207.31
274.481	197.31
274.713	205.31
274.945	207.31
275.176	214.31
275.408	213.31
275.64	196.31
275.872	220.31
276.104	199.31
276.335	203.31
276.567	193.31
276.799	207.31
277.031	227.31
277.262	200.31
277.494	189.31
277.726	195.31
277.957	203.31
278.189	205.31
278.421	198.31
278.652	197.31
278.884	210.31
279.115	213.31
279.347	212.31
279.579	202.31
279.81	201.31
280.042	199.31
280.273	212.31
280.505	219.31
280.736	216.31
280.968	203.31
281.199	214.31
281.431	214.31
281.662	208.31
281.894	206.31
282.125	217.31
282.356	219.31
282.588	218.31
282.819	215.31
283.051	221.31
283.282	218.31
283.513	236.31
283.745	238.31
283.976	198.31
284.207	213.31
284.439	217.31
284.67	218.31
284.901	220.31
285.132	218.31
285.364	227.31
285.595	230.31
285.826	214.31
286.057	232.31
286.288	214.31
286.52	223.31
286.751	221.31
286.982	222.31
287.213	242.31
287.444	227.31
287.675	224.31
287.906	218.31
288.138	215.31
288.369	219.31
288.6	234.31
288.831	197.31
289.062	228.31
289.293	216.31
289.524	233.31
289.755	255.31
289.986	232.31
290.217	234.31
290.448	228.31
290.679	239.31
290.91	226.31
291.141	208.31
291.371	234.31
291.602	251.31
291.833	225.31
292.064	255.31
292.295	230.31
292.526	224.31
292.757	225.31
292.987	219.31
293.218	242.31
293.449	240.31
293.68	243.31
293.91	242.31
294.141	238.31
294.372	233.31
294.603	237.31
294.833	226.31
295.064	232.31
295.295	237.31
295.525	257.31
295.756	245.31
295.987	242.31
296.217	241.31
296.448	250.31
296.679	230.31
296.909	237.31
297.14	254.31
297.37	248.31
297.601	235.31
297.831	253.31
298.062	251.31
298.292	223.31
298.523	252.31
298.753	232.31
298.984	244.31
299.214	250.31
299.445	237.31
299.675	247.31
299.905	250.31
300.136	243.31
300.366	224.31
300.597	236.31
300.827	262.31
301.057	246.31
301.288	254.31
301.518	241.31
301.748	260.31
301.979	250.31
302.209	263.31
302.439	255.31
302.669	269.31
302.9	254.31
303.13	241.31
303.36	262.31
303.59	261.31
303.82	259.31
304.051	260.31
304.281	267.31
304.511	258.31
304.741	266.31
304.971	262.31
305.201	253.31
305.431	264.31
305.661	268.31
305.891	265.31
306.121	278.31
306.352	264.31
306.582	273.31
306.812	265.31
307.042	278.31
307.272	249.31
307.502	257.31
307.731	265.31
307.961	257.31
308.191	267.31
308.421	272.31
308.651	258.31
308.881	277.31
309.111	273.31
309.341	256.31
309.571	268.31
309.8	261.31
310.03	268.31
310.26	267.31
310.49	259.31
310.72	264.31
310.949	262.31
311.179	269.31
311.409	278.31
311.639	266.31
311.868	266.31
312.098	258.31
312.328	289.31
312.557	267.31
312.787	264.31
313.017	293.31
313.246	281.31
313.476	275.31
313.706	262.31
313.935	276.31
314.165	286.31
314.394	290.31
314.624	267.31
314.853	292.31
315.083	289.31
315.312	264.31
315.542	279.31
315.771	279.31
316.001	267.31
316.23	277.31
316.46	268.31
316.689	280.31
316.919	288.31
317.148	302.31
317.377	294.31
317.607	289.31
317.836	272.31
318.065	278.31
318.295	278.31
318.524	281.31
318.753	273.31
318.983	286.31
319.212	280.31
319.441	274.31
319.67	283.31
319.9	278.31
320.129	284.31
320.358	282.31
320.587	273.31
320.816	288.31
321.046	277.31
321.275	287.31
321.504	277.31
321.733	281.31
321.962	285.31
322.191	291.31
322.42	290.31
322.649	272.31
322.878	293.31
323.108	265.31
323.337	297.31
323.566	298.31
323.795	295.31
324.024	282.31
324.253	298.31
324.482	298.31
324.71	291.31
324.939	277.31
325.168	302.31
325.397	309.31
325.626	288.31
325.855	293.31
326.084	313.31
326.313	306.31
326.542	303.31
326.77	315.31
326.999	292.31
327.228	278.31
327.457	308.31
327.686	302.31
327.914	295.31
328.143	315.31
328.372	314.31
328.6	302.31
328.829	290.31
329.058	288.31
329.287	304.31
329.515	338.31
329.744	317.31
329.972	301.31
330.201	323.31
330.43	329.31
330.658	317.31
330.887	317.31
331.115	302.31
331.344	312.31
331.572	308.31
331.801	325.31
332.03	329.31
332.258	332.31
332.486	337.31
332.715	330.31
332.943	351.31
333.172	355.31
333.4	360.31
333.629	373.31
333.857	380.31
334.085	369.31
334.314	375.31
334.542	360.31
334.771	363.31
334.999	349.31
335.227	365.31
335.455	367.31
335.684	364.31
335.912	352.31
336.14	349.31
336.369	349.31
336.597	387.31
336.825	331.31
337.053	338.31
337.281	345.31
337.51	348.31
337.738	331.31
337.966	320.31
338.194	328.31
338.422	330.31
338.65	322.31
338.878	333.31
339.106	328.31
339.334	334.31
339.562	300.31
339.79	333.31
340.018	321.31
340.246	327.31
340.474	322.31
340.702	311.31
340.93	322.31
341.158	324.31
341.386	318.31
341.614	311.31
341.842	336.31
342.07	321.31
342.298	296.31
342.526	313.31
342.754	318.31
342.981	304.31
343.209	325.31
343.437	350.31
343.665	353.31
343.893	378.31
344.12	386.31
344.348	335.31
344.576	356.31
344.804	356.31
345.031	328.31
345.259	322.31
345.487	345.31
345.714	329.31
345.942	321.31
346.17	327.31
346.397	323.31
346.625	329.31
346.853	319.31
347.08	322.31
347.308	317.31
347.535	310.31
347.763	328.31
347.99	334.31
348.218	325.31
348.445	311.31
348.673	321.31
348.9	305.31
349.128	326.31
349.355	300.31
349.583	308.31
349.81	301.31
350.037	302.31
350.265	333.31
350.492	299.31
350.72	313.31
350.947	306.31
351.174	299.31
351.402	306.31
351.629	306.31
351.856	312.31
352.083	291.31
352.311	284.31
352.538	294.31
352.765	296.31
352.992	299.31
353.22	305.31
353.447	296.31
353.674	308.31
353.901	299.31
354.128	284.31
354.355	303.31
354.583	332.31
354.81	318.31
355.037	304.31
355.264	311.31
355.491	296.31
355.718	300.31
355.945	317.31
356.172	307.31
356.399	319.31
356.626	320.31
356.853	321.31
357.08	334.31
357.307	317.31
357.534	306.31
357.761	322.31
357.988	314.31
358.215	333.31
358.441	322.31
358.668	314.31
358.895	299.31
359.122	321.31
359.349	325.31
359.576	329.31
359.802	329.31
360.029	316.31
360.256	308.31
360.483	326.31
360.709	297.31
360.936	318.31
361.163	315.31
361.39	317.31
361.616	308.31
361.843	310.31
362.07	322.31
362.296	329.31
362.523	321.31
362.749	324.31
362.976	315.31
363.203	313.31
363.429	298.31
363.656	306.31
363.882	315.31
364.109	335.31
364.335	310.31
364.562	315.31
364.788	319.31
365.015	326.31
365.241	300.31
365.468	305.31
365.694	312.31
365.92	290.31
366.147	316.31
366.373	324.31
366.599	322.31
366.826	336.31
367.052	329.31
367.278	307.31
367.505	317.31
367.731	328.31
367.957	322.31
368.184	314.31
368.41	315.31
368.636	303.31
368.862	323.31
369.089	317.31
369.315	334.31
369.541	329.31
369.767	330.31
369.993	354.31
370.219	328.31
370.445	356.31
370.672	351.31
370.898	353.31
371.124	343.31
371.35	347.31
371.576	348.31
371.802	356.31
372.028	350.31
372.254	338.31
372.48	331.31
372.706	344.31
372.932	331.31
373.158	349.31
373.384	354.31
373.61	355.31
373.835	352.31
374.061	364.31
374.287	371.31
374.513	341.31
374.739	348.31
374.965	369.31
375.191	380.31
375.416	383.31
375.642	374.31
375.868	360.31
376.094	360.31
376.319	346.31
376.545	356.31
376.771	348.31
376.997	330.31
377.222	348.31
377.448	343.31
377.674	333.31
377.899	348.31
378.125	369.31
378.35	336.31
378.576	346.31
378.802	340.31
379.027	335.31
379.253	358.31
379.478	332.31
379.704	349.31
379.929	348.31
380.155	338.31
380.38	357.31
380.606	356.31
380.831	339.31
381.057	352.31
381.282	353.31
381.507	358.31
381.733	363.31
381.958	358.31
382.184	365.31
382.409	364.31
382.634	391.31
382.86	374.31
383.085	382.31
383.31	365.31
383.535	373.31
383.761	374.31
383.986	386.31
384.211	408.31
384.436	405.31
384.662	397.31
384.887	398.31
385.112	423.31
385.337	392.31
385.562	392.31
385.787	389.31
386.013	402.31
386.238	408.31
386.463	389.31
386.688	407.31
386.913	418.31
387.138	390.31
387.363	412.31
387.588	413.31
387.813	410.31
388.038	390.31
388.263	398.31
388.488	401.31
388.713	403.31
388.938	417.31
389.163	407.31
389.387	422.31
389.612	376.31
389.837	397.31
390.062	400.31
390.287	392.31
390.512	418.31
390.736	386.31
390.961	400.31
391.186	419.31
391.411	446.31
391.636	438.31
391.86	436.31
392.085	438.31
392.31	457.31
392.534	424.31
392.759	419.31
392.984	416.31
393.208	445.31
393.433	419.31
393.658	409.31
393.882	428.31
394.107	421.31
394.331	446.31
394.556	422.31
394.78	414.31
395.005	438.31
395.229	413.31
395.454	455.31
395.678	453.31
395.903	441.31
396.127	457.31
396.352	443.31
396.576	427.31
396.801	444.31
397.025	444.31
397.249	438.31
397.474	449.31
397.698	451.31
397.922	457.31
398.147	469.31
398.371	470.31
398.595	495.31
398.82	507.31
399.044	509.31
399.268	557.31
399.492	611.31
399.717	653.31
399.941	635.31
400.165	608.31
400.389	566.31
400.613	537.31
400.837	539.31
401.062	529.31
401.286	502.31
401.51	502.31
401.734	490.31
401.958	512.31
402.182	496.31
402.406	506.31
402.63	529.31
402.854	530.31
403.078	521.31
403.302	548.31
403.526	524.31
403.75	551.31
403.974	549.31
404.198	532.31
404.422	522.31
404.645	525.31
404.869	546.31
405.093	525.31
405.317	534.31
405.541	522.31
405.765	531.31
405.988	541.31
406.212	545.31
406.436	530.31
406.66	539.31
406.883	549.31
407.107	565.31
407.331	604.31
407.555	585.31
407.778	600.31
408.002	592.31
408.226	581.31
408.449	557.31
408.673	568.31
408.896	557.31
409.12	565.31
409.344	538.31
409.567	535.31
409.791	548.31
410.014	533.31
410.238	543.31
410.461	531.31
410.685	514.31
410.908	529.31
411.132	529.31
411.355	509.31
411.578	518.31
411.802	525.31
412.025	518.31
412.249	534.31
412.472	523.31
412.695	532.31
412.919	510.31
413.142	503.31
413.365	484.31
413.589	519.31
413.812	492.31
414.035	484.31
414.258	504.31
414.482	505.31
414.705	524.31
414.928	508.31
415.151	520.31
415.374	514.31
415.597	489.31
415.821	508.31
416.044	496.31
416.267	470.31
416.49	527.31
416.713	512.31
416.936	487.31
417.159	485.31
417.382	487.31
417.605	496.31
417.828	482.31
418.051	476.31
418.274	498.31
418.497	497.31
418.72	504.31
418.943	499.31
419.166	541.31
419.389	551.31
419.611	545.31
419.834	535.31
420.057	504.31
420.28	512.31
420.503	494.31
420.726	508.31
420.948	489.31
421.171	474.31
421.394	503.31
421.617	502.31
421.839	489.31
422.062	496.31
422.285	479.31
422.507	501.31
422.73	503.31
422.953	504.31
423.175	513.31
423.398	492.31
423.621	504.31
423.843	511.31
424.066	538.31
424.288	520.31
424.511	493.31
424.733	508.31
424.956	498.31
425.178	496.31
425.401	489.31
425.623	482.31
425.846	486.31
426.068	503.31
426.291	478.31
426.513	484.31
426.735	469.31
426.958	479.31
427.18	479.31
427.402	482.31
427.625	475.31
427.847	468.31
428.069	453.31
428.292	455.31
428.514	480.31
428.736	468.31
428.958	475.31
429.181	458.31
429.403	441.31
429.625	453.31
429.847	464.31
430.069	448.31
430.292	449.31
430.514	440.31
430.736	469.31
430.958	470.31
431.18	461.31
431.402	461.31
431.624	449.31
431.846	469.31
432.068	449.31
432.29	455.31
432.512	456.31
432.734	493.31
432.956	481.31
433.178	473.31
433.4	466.31
433.622	480.31
433.844	484.31
434.066	467.31
434.287	461.31
434.509	478.31
434.731	476.31
434.953	489.31
435.175	501.31
435.397	500.31
435.618	483.31
435.84	494.31
436.062	476.31
436.284	472.31
436.505	463.31
436.727	473.31
436.949	484.31
437.17	467.31
437.392	446.31
437.614	468.31
437.835	444.31
438.057	445.31
438.278	452.31
438.5	472.31
438.721	462.31
438.943	471.31
439.165	482.31
439.386	472.31
439.608	459.31
439.829	460.31
440.05	478.31
440.272	480.31
440.493	476.31
440.715	484.31
440.936	480.31
441.158	512.31
441.379	485.31
441.6	506.31
441.822	532.31
442.043	526.31
442.264	528.31
442.486	496.31
442.707	506.31
442.928	499.31
443.149	522.31
443.371	504.31
443.592	522.31
443.813	517.31
444.034	528.31
444.255	550.31
444.476	546.31
444.698	577.31
444.919	573.31
445.14	685.31
445.361	599.31
445.582	537.31
445.803	508.31
446.024	506.31
446.245	496.31
446.466	499.31
446.687	500.31
446.908	491.31
447.129	476.31
447.35	471.31
447.571	505.31
447.792	473.31
448.013	454.31
448.234	437.31
448.455	445.31
448.675	435.31
448.896	450.31
449.117	439.31
449.338	456.31
449.559	449.31
449.779	451.31
450	468.31
450.221	440.31
450.442	457.31
450.662	455.31
450.883	439.31
451.104	468.31
451.324	438.31
451.545	458.31
451.766	442.31
451.986	427.31
452.207	456.31
452.428	426.31
452.648	428.31
452.869	415.31
453.089	440.31
453.31	433.31
453.53	418.31
453.751	420.31
453.971	433.31
454.192	432.31
454.412	409.31
454.633	407.31
454.853	408.31
455.073	412.31
455.294	433.31
455.514	422.31
455.734	405.31
455.955	416.31
456.175	394.31
456.395	427.31
456.616	413.31
456.836	422.31
457.056	405.31
457.276	417.31
457.497	425.31
457.717	426.31
457.937	429.31
458.157	426.31
458.377	434.31
458.598	432.31
458.818	441.31
459.038	443.31
459.258	445.31
459.478	456.31
459.698	469.31
459.918	505.31
460.138	498.31
460.358	520.31
460.578	513.31
460.798	529.31
461.018	520.31
461.238	530.31
461.458	524.31
461.678	514.31
461.898	552.31
462.118	565.31
462.338	568.31
462.558	582.31
462.777	584.31
462.997	594.31
463.217	646.31
463.437	640.31
463.657	614.31
463.876	596.31
464.096	580.31
464.316	593.31
464.536	567.31
464.755	567.31
464.975	574.31
465.195	552.31
465.414	530.31
465.634	509.31
465.854	523.31
466.073	489.31
466.293	486.31
466.512	477.31
466.732	448.31
466.951	500.31
467.171	457.31
467.391	479.31
467.61	457.31
467.829	457.31
468.049	440.31
468.268	466.31
468.488	439.31
468.707	459.31
468.927	439.31
469.146	439.31
469.365	442.31
469.585	480.31
469.804	494.31
470.023	468.31
470.243	463.31
470.462	462.31
470.681	477.31
470.901	470.31
471.12	468.31
471.339	471.31
471.558	462.31
471.777	473.31
471.997	460.31
472.216	436.31
472.435	428.31
472.654	431.31
472.873	423.31
473.092	438.31
473.311	454.31
473.53	444.31
473.749	437.31
473.968	461.31
474.187	447.31
474.406	458.31
474.625	446.31
474.844	428.31
475.063	450.31
475.282	445.31
475.501	457.31
475.72	453.31
475.939	452.31
476.158	461.31
476.377	460.31
476.596	488.31
476.814	464.31
477.033	468.31
477.252	480.31
477.471	476.31
477.69	489.31
477.908	514.31
478.127	520.31
478.346	497.31
478.564	502.31
478.783	531.31
479.002	504.31
479.22	542.31
479.439	544.31
479.658	536.31
479.876	541.31
480.095	517.31
480.313	549.31
480.532	537.31
480.751	547.31
480.969	523.31
481.188	502.31
481.406	533.31
481.624	509.31
481.843	510.31
482.061	489.31
482.28	489.31
482.498	517.31
482.717	486.31
482.935	503.31
483.153	500.31
483.372	477.31
483.59	523.31
483.808	485.31
484.027	491.31
484.245	487.31
484.463	502.31
484.681	512.31
484.9	517.31
485.118	542.31
485.336	516.31
485.554	496.31
485.772	505.31
485.99	489.31
486.209	514.31
486.427	517.31
486.645	520.31
486.863	538.31
487.081	532.31
487.299	531.31
487.517	525.31
487.735	506.31
487.953	509.31
488.171	514.31
488.389	499.31
488.607	503.31
488.825	519.31
489.043	508.31
489.261	519.31
489.479	544.31
489.696	517.31
489.914	544.31
490.132	543.31
490.35	538.31
490.568	518.31
490.786	531.31
491.003	536.31
491.221	512.31
491.439	517.31
491.657	532.31
491.874	535.31
492.092	550.31
492.31	557.31
492.527	569.31
492.745	538.31
492.963	551.31
493.18	552.31
493.398	581.31
493.615	539.31
493.833	550.31
494.05	552.31
494.268	548.31
494.485	551.31
494.703	562.31
494.92	540.31
495.138	549.31
495.355	554.31
495.573	550.31
495.79	558.31
496.008	577.31
496.225	580.31
496.442	576.31
496.66	593.31
496.877	573.31
497.094	611.31
497.312	605.31
497.529	589.31
497.746	632.31
497.963	622.31
498.181	643.31
498.398	658.31
498.615	692.31
498.832	691.31
499.049	754.31
499.267	790.31
499.484	824.31
499.701	916.31
499.918	966.31
500.135	1072.31
500.352	1133.31
500.569	1196.31
500.786	1162.31
501.003	1108.31
501.22	1052.31
501.437	962.31
501.654	881.31
