Data from Fe(NO3)3@0.0125M.TitratingCurve.Agarose3%dH2O.NegLispCup.LampEnergy10.LIBS07252019_HRD10591_17-01-31-337.txt Node
Date: Thu Jul 25 17:01:31 EDT 2019
User: cochatt
Spectrometer: HR+D1059
Trigger mode: 1
Integration Time (sec): 1.000000E-1
Scans to average: 1
Electric dark correction enabled: true
Nonlinearity correction enabled: false
Boxcar width: 0
XAxis mode: Wavelengths
Number of Pixels in Spectrum: 2048
>>>>>Begin Spectral Data<<<<<
223.165	-17.5
223.4	-17.5
223.635	-17.5
223.869	-35.5
224.104	-16.5
224.338	-18.5
224.573	-8.5
224.808	-12.5
225.042	-9.5
225.277	-15.5
225.511	-4.5
225.746	2.5
225.98	14.5
226.215	14.5
226.449	16.5
226.683	27.5
226.918	20.5
227.152	42.5
227.387	22.5
227.621	47.5
227.856	44.5
228.09	54.5
228.324	46.5
228.559	54.5
228.793	61.5
229.027	80.5
229.262	95.5
229.496	84.5
229.73	86.5
229.964	77.5
230.199	96.5
230.433	97.5
230.667	92.5
230.901	102.5
231.136	89.5
231.37	94.5
231.604	99.5
231.838	107.5
232.072	91.5
232.306	123.5
232.541	107.5
232.775	91.5
233.009	93.5
233.243	110.5
233.477	123.5
233.711	110.5
233.945	110.5
234.179	88.5
234.413	118.5
234.647	115.5
234.881	120.5
235.115	116.5
235.349	120.5
235.583	95.5
235.817	121.5
236.051	102.5
236.285	97.5
236.519	107.5
236.753	105.5
236.987	98.5
237.221	112.5
237.455	96.5
237.689	112.5
237.922	119.5
238.156	114.5
238.39	102.5
238.624	116.5
238.858	114.5
239.091	108.5
239.325	113.5
239.559	116.5
239.793	100.5
240.027	123.5
240.26	113.5
240.494	129.5
240.728	131.5
240.961	116.5
241.195	118.5
241.429	118.5
241.662	116.5
241.896	118.5
242.13	122.5
242.363	114.5
242.597	110.5
242.83	136.5
243.064	126.5
243.298	121.5
243.531	131.5
243.765	132.5
243.998	125.5
244.232	119.5
244.465	124.5
244.699	126.5
244.932	140.5
245.166	126.5
245.399	115.5
245.633	129.5
245.866	137.5
246.099	123.5
246.333	127.5
246.566	139.5
246.8	112.5
247.033	125.5
247.266	127.5
247.5	142.5
247.733	128.5
247.966	134.5
248.2	154.5
248.433	131.5
248.666	137.5
248.899	137.5
249.133	145.5
249.366	141.5
249.599	137.5
249.832	155.5
250.066	152.5
250.299	128.5
250.532	148.5
250.765	136.5
250.998	135.5
251.231	131.5
251.465	135.5
251.698	148.5
251.931	142.5
252.164	136.5
252.397	135.5
252.63	161.5
252.863	153.5
253.096	150.5
253.329	148.5
253.562	152.5
253.795	150.5
254.028	164.5
254.261	151.5
254.494	143.5
254.727	143.5
254.96	152.5
255.193	163.5
255.426	150.5
255.659	154.5
255.892	146.5
256.124	151.5
256.357	158.5
256.59	168.5
256.823	159.5
257.056	157.5
257.289	149.5
257.521	145.5
257.754	160.5
257.987	165.5
258.22	152.5
258.452	156.5
258.685	159.5
258.918	175.5
259.151	166.5
259.383	159.5
259.616	159.5
259.849	160.5
260.081	198.5
260.314	168.5
260.547	148.5
260.779	157.5
261.012	160.5
261.244	153.5
261.477	170.5
261.71	170.5
261.942	172.5
262.175	159.5
262.407	166.5
262.64	170.5
262.872	186.5
263.105	162.5
263.337	176.5
263.57	184.5
263.802	168.5
264.035	160.5
264.267	169.5
264.499	158.5
264.732	181.5
264.964	184.5
265.197	174.5
265.429	188.5
265.661	164.5
265.894	172.5
266.126	167.5
266.358	180.5
266.591	154.5
266.823	174.5
267.055	190.5
267.287	179.5
267.52	158.5
267.752	180.5
267.984	169.5
268.216	172.5
268.448	187.5
268.681	183.5
268.913	182.5
269.145	190.5
269.377	186.5
269.609	173.5
269.841	195.5
270.073	181.5
270.306	196.5
270.538	190.5
270.77	188.5
271.002	194.5
271.234	200.5
271.466	207.5
271.698	176.5
271.93	177.5
272.162	202.5
272.394	176.5
272.626	206.5
272.858	190.5
273.09	178.5
273.322	199.5
273.553	189.5
273.785	190.5
274.017	206.5
274.249	207.5
274.481	204.5
274.713	207.5
274.945	221.5
275.176	220.5
275.408	218.5
275.64	215.5
275.872	207.5
276.104	223.5
276.335	203.5
276.567	214.5
276.799	184.5
277.031	215.5
277.262	225.5
277.494	209.5
277.726	193.5
277.957	207.5
278.189	234.5
278.421	211.5
278.652	208.5
278.884	215.5
279.115	223.5
279.347	226.5
279.579	219.5
279.81	219.5
280.042	207.5
280.273	221.5
280.505	229.5
280.736	236.5
280.968	221.5
281.199	229.5
281.431	223.5
281.662	217.5
281.894	228.5
282.125	219.5
282.356	225.5
282.588	227.5
282.819	220.5
283.051	243.5
283.282	224.5
283.513	237.5
283.745	232.5
283.976	219.5
284.207	226.5
284.439	229.5
284.67	229.5
284.901	246.5
285.132	235.5
285.364	232.5
285.595	234.5
285.826	233.5
286.057	243.5
286.288	220.5
286.52	236.5
286.751	225.5
286.982	231.5
287.213	247.5
287.444	257.5
287.675	248.5
287.906	244.5
288.138	263.5
288.369	238.5
288.6	242.5
288.831	215.5
289.062	230.5
289.293	272.5
289.524	248.5
289.755	247.5
289.986	233.5
290.217	239.5
290.448	235.5
290.679	263.5
290.91	255.5
291.141	248.5
291.371	241.5
291.602	247.5
291.833	240.5
292.064	234.5
292.295	233.5
292.526	257.5
292.757	248.5
292.987	254.5
293.218	262.5
293.449	262.5
293.68	253.5
293.91	267.5
294.141	256.5
294.372	244.5
294.603	259.5
294.833	248.5
295.064	255.5
295.295	255.5
295.525	259.5
295.756	255.5
295.987	239.5
296.217	246.5
296.448	262.5
296.679	267.5
296.909	265.5
297.14	263.5
297.37	276.5
297.601	260.5
297.831	276.5
298.062	264.5
298.292	268.5
298.523	272.5
298.753	262.5
298.984	264.5
299.214	283.5
299.445	281.5
299.675	269.5
299.905	288.5
300.136	283.5
300.366	278.5
300.597	299.5
300.827	303.5
301.057	285.5
301.288	285.5
301.518	286.5
301.748	278.5
301.979	271.5
302.209	292.5
302.439	278.5
302.669	315.5
302.9	298.5
303.13	276.5
303.36	298.5
303.59	310.5
303.82	307.5
304.051	302.5
304.281	297.5
304.511	298.5
304.741	290.5
304.971	285.5
305.201	288.5
305.431	299.5
305.661	292.5
305.891	285.5
306.121	294.5
306.352	271.5
306.582	300.5
306.812	296.5
307.042	286.5
307.272	298.5
307.502	302.5
307.731	293.5
307.961	299.5
308.191	295.5
308.421	317.5
308.651	283.5
308.881	297.5
309.111	280.5
309.341	304.5
309.571	292.5
309.8	303.5
310.03	283.5
310.26	296.5
310.49	293.5
310.72	300.5
310.949	306.5
311.179	296.5
311.409	296.5
311.639	303.5
311.868	318.5
312.098	323.5
312.328	307.5
312.557	321.5
312.787	328.5
313.017	314.5
313.246	314.5
313.476	299.5
313.706	311.5
313.935	340.5
314.165	315.5
314.394	317.5
314.624	313.5
314.853	323.5
315.083	313.5
315.312	323.5
315.542	320.5
315.771	325.5
316.001	328.5
316.23	332.5
316.46	327.5
316.689	331.5
316.919	325.5
317.148	338.5
317.377	332.5
317.607	313.5
317.836	313.5
318.065	341.5
318.295	327.5
318.524	326.5
318.753	331.5
318.983	323.5
319.212	330.5
319.441	348.5
319.67	334.5
319.9	334.5
320.129	322.5
320.358	365.5
320.587	350.5
320.816	327.5
321.046	335.5
321.275	347.5
321.504	335.5
321.733	350.5
321.962	346.5
322.191	335.5
322.42	332.5
322.649	336.5
322.878	344.5
323.108	331.5
323.337	325.5
323.566	319.5
323.795	337.5
324.024	336.5
324.253	338.5
324.482	349.5
324.71	356.5
324.939	340.5
325.168	342.5
325.397	325.5
325.626	355.5
325.855	346.5
326.084	354.5
326.313	347.5
326.542	342.5
326.77	338.5
326.999	355.5
327.228	352.5
327.457	351.5
327.686	360.5
327.914	355.5
328.143	351.5
328.372	360.5
328.6	371.5
328.829	370.5
329.058	360.5
329.287	351.5
329.515	367.5
329.744	349.5
329.972	363.5
330.201	362.5
330.43	362.5
330.658	365.5
330.887	383.5
331.115	368.5
331.344	386.5
331.572	364.5
331.801	388.5
332.03	387.5
332.258	381.5
332.486	378.5
332.715	376.5
332.943	384.5
333.172	399.5
333.4	394.5
333.629	387.5
333.857	404.5
334.085	410.5
334.314	415.5
334.542	404.5
334.771	423.5
334.999	412.5
335.227	406.5
335.455	418.5
335.684	429.5
335.912	419.5
336.14	412.5
336.369	404.5
336.597	421.5
336.825	409.5
337.053	413.5
337.281	403.5
337.51	412.5
337.738	386.5
337.966	376.5
338.194	380.5
338.422	396.5
338.65	393.5
338.878	382.5
339.106	379.5
339.334	392.5
339.562	393.5
339.79	399.5
340.018	381.5
340.246	395.5
340.474	372.5
340.702	382.5
340.93	395.5
341.158	378.5
341.386	381.5
341.614	398.5
341.842	381.5
342.07	398.5
342.298	382.5
342.526	400.5
342.754	400.5
342.981	390.5
343.209	397.5
343.437	390.5
343.665	398.5
343.893	380.5
344.12	393.5
344.348	408.5
344.576	410.5
344.804	392.5
345.031	418.5
345.259	394.5
345.487	383.5
345.714	395.5
345.942	400.5
346.17	380.5
346.397	378.5
346.625	384.5
346.853	391.5
347.08	369.5
347.308	387.5
347.535	382.5
347.763	390.5
347.99	383.5
348.218	380.5
348.445	372.5
348.673	371.5
348.9	377.5
349.128	364.5
349.355	395.5
349.583	383.5
349.81	377.5
350.037	382.5
350.265	370.5
350.492	365.5
350.72	396.5
350.947	378.5
351.174	397.5
351.402	378.5
351.629	378.5
351.856	374.5
352.083	378.5
352.311	372.5
352.538	366.5
352.765	382.5
352.992	380.5
353.22	363.5
353.447	366.5
353.674	372.5
353.901	375.5
354.128	374.5
354.355	368.5
354.583	365.5
354.81	371.5
355.037	404.5
355.264	389.5
355.491	388.5
355.718	381.5
355.945	381.5
356.172	373.5
356.399	362.5
356.626	374.5
356.853	386.5
357.08	375.5
357.307	378.5
357.534	381.5
357.761	386.5
357.988	386.5
358.215	380.5
358.441	379.5
358.668	387.5
358.895	381.5
359.122	376.5
359.349	364.5
359.576	384.5
359.802	390.5
360.029	389.5
360.256	372.5
360.483	360.5
360.709	378.5
360.936	416.5
361.163	386.5
361.39	390.5
361.616	383.5
361.843	378.5
362.07	378.5
362.296	389.5
362.523	380.5
362.749	384.5
362.976	388.5
363.203	380.5
363.429	376.5
363.656	380.5
363.882	379.5
364.109	392.5
364.335	388.5
364.562	387.5
364.788	370.5
365.015	387.5
365.241	399.5
365.468	406.5
365.694	396.5
365.92	399.5
366.147	404.5
366.373	382.5
366.599	384.5
366.826	399.5
367.052	373.5
367.278	383.5
367.505	398.5
367.731	393.5
367.957	410.5
368.184	417.5
368.41	412.5
368.636	400.5
368.862	406.5
369.089	418.5
369.315	394.5
369.541	400.5
369.767	408.5
369.993	418.5
370.219	394.5
370.445	411.5
370.672	411.5
370.898	383.5
371.124	412.5
371.35	406.5
371.576	406.5
371.802	423.5
372.028	410.5
372.254	400.5
372.48	406.5
372.706	422.5
372.932	422.5
373.158	413.5
373.384	439.5
373.61	422.5
373.835	440.5
374.061	434.5
374.287	427.5
374.513	420.5
374.739	417.5
374.965	424.5
375.191	453.5
375.416	425.5
375.642	434.5
375.868	414.5
376.094	428.5
376.319	420.5
376.545	401.5
376.771	413.5
376.997	410.5
377.222	422.5
377.448	434.5
377.674	415.5
377.899	412.5
378.125	406.5
378.35	422.5
378.576	393.5
378.802	407.5
379.027	430.5
379.253	430.5
379.478	414.5
379.704	424.5
379.929	427.5
380.155	415.5
380.38	413.5
380.606	420.5
380.831	400.5
381.057	435.5
381.282	420.5
381.507	428.5
381.733	406.5
381.958	415.5
382.184	440.5
382.409	430.5
382.634	424.5
382.86	424.5
383.085	441.5
383.31	446.5
383.535	458.5
383.761	439.5
383.986	456.5
384.211	446.5
384.436	450.5
384.662	443.5
384.887	435.5
385.112	446.5
385.337	459.5
385.562	450.5
385.787	462.5
386.013	476.5
386.238	444.5
386.463	473.5
386.688	484.5
386.913	486.5
387.138	468.5
387.363	467.5
387.588	462.5
387.813	472.5
388.038	468.5
388.263	471.5
388.488	479.5
388.713	474.5
388.938	448.5
389.163	463.5
389.387	445.5
389.612	450.5
389.837	484.5
390.062	478.5
390.287	429.5
390.512	479.5
390.736	473.5
390.961	499.5
391.186	473.5
391.411	491.5
391.636	499.5
391.86	503.5
392.085	485.5
392.31	486.5
392.534	520.5
392.759	498.5
392.984	494.5
393.208	510.5
393.433	504.5
393.658	499.5
393.882	492.5
394.107	487.5
394.331	488.5
394.556	493.5
394.78	487.5
395.005	503.5
395.229	499.5
395.454	504.5
395.678	507.5
395.903	522.5
396.127	527.5
396.352	505.5
396.576	503.5
396.801	504.5
397.025	508.5
397.249	514.5
397.474	514.5
397.698	520.5
397.922	516.5
398.147	515.5
398.371	528.5
398.595	544.5
398.82	552.5
399.044	557.5
399.268	575.5
399.492	589.5
399.717	618.5
399.941	629.5
400.165	612.5
400.389	619.5
400.613	598.5
400.837	551.5
401.062	607.5
401.286	550.5
401.51	563.5
401.734	558.5
401.958	538.5
402.182	541.5
402.406	543.5
402.63	553.5
402.854	549.5
403.078	537.5
403.302	556.5
403.526	583.5
403.75	564.5
403.974	538.5
404.198	547.5
404.422	550.5
404.645	548.5
404.869	557.5
405.093	564.5
405.317	557.5
405.541	573.5
405.765	589.5
405.988	590.5
406.212	589.5
406.436	589.5
406.66	600.5
406.883	596.5
407.107	627.5
407.331	630.5
407.555	606.5
407.778	621.5
408.002	605.5
408.226	615.5
408.449	604.5
408.673	604.5
408.896	610.5
409.12	567.5
409.344	582.5
409.567	592.5
409.791	595.5
410.014	602.5
410.238	565.5
410.461	558.5
410.685	586.5
410.908	577.5
411.132	569.5
411.355	544.5
411.578	562.5
411.802	560.5
412.025	582.5
412.249	566.5
412.472	548.5
412.695	565.5
412.919	559.5
413.142	590.5
413.365	547.5
413.589	547.5
413.812	563.5
414.035	564.5
414.258	562.5
414.482	574.5
414.705	542.5
414.928	533.5
415.151	543.5
415.374	539.5
415.597	517.5
415.821	544.5
416.044	543.5
416.267	535.5
416.49	538.5
416.713	540.5
416.936	534.5
417.159	538.5
417.382	524.5
417.605	522.5
417.828	514.5
418.051	496.5
418.274	530.5
418.497	514.5
418.72	527.5
418.943	509.5
419.166	546.5
419.389	588.5
419.611	575.5
419.834	560.5
420.057	542.5
420.28	529.5
420.503	510.5
420.726	534.5
420.948	503.5
421.171	535.5
421.394	548.5
421.617	503.5
421.839	543.5
422.062	500.5
422.285	514.5
422.507	503.5
422.73	523.5
422.953	531.5
423.175	512.5
423.398	511.5
423.621	521.5
423.843	518.5
424.066	518.5
424.288	503.5
424.511	512.5
424.733	533.5
424.956	546.5
425.178	528.5
425.401	536.5
425.623	525.5
425.846	511.5
426.068	516.5
426.291	500.5
426.513	527.5
426.735	510.5
426.958	499.5
427.18	522.5
427.402	489.5
427.625	504.5
427.847	516.5
428.069	498.5
428.292	494.5
428.514	482.5
428.736	504.5
428.958	513.5
429.181	506.5
429.403	495.5
429.625	495.5
429.847	525.5
430.069	498.5
430.292	511.5
430.514	500.5
430.736	503.5
430.958	511.5
431.18	495.5
431.402	499.5
431.624	510.5
431.846	502.5
432.068	487.5
432.29	525.5
432.512	525.5
432.734	499.5
432.956	524.5
433.178	520.5
433.4	514.5
433.622	512.5
433.844	502.5
434.066	514.5
434.287	504.5
434.509	500.5
434.731	525.5
434.953	542.5
435.175	502.5
435.397	515.5
435.618	527.5
435.84	523.5
436.062	509.5
436.284	487.5
436.505	518.5
436.727	481.5
436.949	489.5
437.17	489.5
437.392	504.5
437.614	482.5
437.835	496.5
438.057	475.5
438.278	469.5
438.5	481.5
438.721	468.5
438.943	463.5
439.165	486.5
439.386	486.5
439.608	482.5
439.829	481.5
440.05	496.5
440.272	501.5
440.493	491.5
440.715	505.5
440.936	515.5
441.158	506.5
441.379	498.5
441.6	491.5
441.822	500.5
442.043	528.5
442.264	531.5
442.486	474.5
442.707	504.5
442.928	500.5
443.149	513.5
443.371	511.5
443.592	525.5
443.813	525.5
444.034	507.5
444.255	524.5
444.476	543.5
444.698	541.5
444.919	516.5
445.14	614.5
445.361	570.5
445.582	528.5
445.803	515.5
446.024	517.5
446.245	508.5
446.466	510.5
446.687	481.5
446.908	492.5
447.129	468.5
447.35	474.5
447.571	475.5
447.792	491.5
448.013	475.5
448.234	456.5
448.455	461.5
448.675	458.5
448.896	453.5
449.117	475.5
449.338	454.5
449.559	463.5
449.779	457.5
450	470.5
450.221	448.5
450.442	443.5
450.662	471.5
450.883	452.5
451.104	450.5
451.324	466.5
451.545	443.5
451.766	463.5
451.986	447.5
452.207	464.5
452.428	449.5
452.648	462.5
452.869	446.5
453.089	445.5
453.31	462.5
453.53	429.5
453.751	436.5
453.971	438.5
454.192	424.5
454.412	443.5
454.633	440.5
454.853	435.5
455.073	438.5
455.294	439.5
455.514	441.5
455.734	439.5
455.955	436.5
456.175	454.5
456.395	427.5
456.616	442.5
456.836	434.5
457.056	435.5
457.276	440.5
457.497	445.5
457.717	463.5
457.937	457.5
458.157	446.5
458.377	458.5
458.598	471.5
458.818	446.5
459.038	471.5
459.258	479.5
459.478	497.5
459.698	512.5
459.918	518.5
460.138	508.5
460.358	520.5
460.578	524.5
460.798	525.5
461.018	546.5
461.238	512.5
461.458	541.5
461.678	548.5
461.898	516.5
462.118	524.5
462.338	555.5
462.558	562.5
462.777	559.5
462.997	568.5
463.217	617.5
463.437	611.5
463.657	592.5
463.876	585.5
464.096	628.5
464.316	568.5
464.536	561.5
464.755	564.5
464.975	551.5
465.195	555.5
465.414	534.5
465.634	516.5
465.854	517.5
466.073	495.5
466.293	504.5
466.512	500.5
466.732	486.5
466.951	484.5
467.171	473.5
467.391	482.5
467.61	497.5
467.829	478.5
468.049	484.5
468.268	485.5
468.488	469.5
468.707	476.5
468.927	486.5
469.146	457.5
469.365	503.5
469.585	489.5
469.804	480.5
470.023	504.5
470.243	498.5
470.462	491.5
470.681	493.5
470.901	495.5
471.12	476.5
471.339	507.5
471.558	489.5
471.777	481.5
471.997	486.5
472.216	498.5
472.435	483.5
472.654	474.5
472.873	479.5
473.092	479.5
473.311	471.5
473.53	486.5
473.749	472.5
473.968	515.5
474.187	478.5
474.406	478.5
474.625	516.5
474.844	502.5
475.063	489.5
475.282	506.5
475.501	498.5
475.72	514.5
475.939	493.5
476.158	496.5
476.377	520.5
476.596	512.5
476.814	521.5
477.033	550.5
477.252	516.5
477.471	533.5
477.69	523.5
477.908	546.5
478.127	539.5
478.346	546.5
478.564	550.5
478.783	567.5
479.002	564.5
479.22	548.5
479.439	574.5
479.658	585.5
479.876	570.5
480.095	596.5
480.313	603.5
480.532	587.5
480.751	577.5
480.969	578.5
481.188	572.5
481.406	580.5
481.624	572.5
481.843	568.5
482.061	586.5
482.28	563.5
482.498	563.5
482.717	565.5
482.935	573.5
483.153	557.5
483.372	568.5
483.59	578.5
483.808	562.5
484.027	591.5
484.245	589.5
484.463	570.5
484.681	586.5
484.9	601.5
485.118	618.5
485.336	596.5
485.554	590.5
485.772	567.5
485.99	596.5
486.209	591.5
486.427	595.5
486.645	581.5
486.863	574.5
487.081	586.5
487.299	578.5
487.517	585.5
487.735	581.5
487.953	590.5
488.171	591.5
488.389	563.5
488.607	603.5
488.825	587.5
489.043	575.5
489.261	605.5
489.479	596.5
489.696	606.5
489.914	589.5
490.132	596.5
490.35	586.5
490.568	606.5
490.786	607.5
491.003	595.5
491.221	597.5
491.439	613.5
491.657	615.5
491.874	625.5
492.092	613.5
492.31	603.5
492.527	619.5
492.745	597.5
492.963	630.5
493.18	632.5
493.398	608.5
493.615	605.5
493.833	618.5
494.05	600.5
494.268	635.5
494.485	610.5
494.703	636.5
494.92	617.5
495.138	622.5
495.355	620.5
495.573	632.5
495.79	616.5
496.008	640.5
496.225	639.5
496.442	661.5
496.66	681.5
496.877	666.5
497.094	655.5
497.312	668.5
497.529	694.5
497.746	693.5
497.963	718.5
498.181	702.5
498.398	738.5
498.615	759.5
498.832	788.5
499.049	818.5
499.267	814.5
499.484	854.5
499.701	894.5
499.918	903.5
500.135	940.5
500.352	1006.5
500.569	1005.5
500.786	1024.5
501.003	1007.5
501.22	980.5
501.437	910.5
501.654	861.5
501.871	841.5
502.088	834.5
502.305	808.5
502.522	803.5
502.739	759.5
502.956	734.5
503.172	740.5
503.389	698.5
503.606	696.5
503.823	676.5
504.04	693.5
504.256	678.5
504.473	681.5
504.69	646.5
504.907	661.5
505.123	624.5
505.34	636.5
505.557	619.5
505.773	595.5
505.99	598.5
506.207	584.5
506.423	591.5
506.64	591.5
506.856	552.5
507.073	564.5
507.289	566.5
507.506	567.5
507.722	548.5
507.939	541.5
508.155	536.5
508.372	568.5
508.588	542.5
508.805	546.5
509.021	539.5
509.238	514.5
509.454	522.5
509.67	532.5
509.887	515.5
510.103	517.5
510.319	524.5
510.536	523.5
510.752	527.5
510.968	515.5
511.184	498.5
511.401	497.5
511.617	510.5
511.833	494.5
512.049	513.5
512.265	518.5
512.481	503.5
512.698	535.5
512.914	483.5
513.13	516.5
513.346	518.5
513.562	518.5
513.778	514.5
513.994	528.5
514.21	516.5
514.426	506.5
514.642	510.5
514.858	493.5
515.074	521.5
515.29	522.5
515.506	543.5
515.721	532.5
515.937	529.5
516.153	553.5
516.369	543.5
516.585	536.5
516.801	537.5
517.016	545.5
517.232	560.5
517.448	556.5
517.664	575.5
517.879	554.5
518.095	594.5
518.311	550.5
518.527	545.5
518.742	556.5
518.958	552.5
519.173	551.5
519.389	517.5
519.605	523.5
