Data from Fe(NO3)3@0.0125M.TitratingCurve.Agarose3%dH2O.NegLispCup.LampEnergy10.LIBS07252019_HRD10591_17-01-29-337.txt Node
Date: Thu Jul 25 17:01:29 EDT 2019
User: cochatt
Spectrometer: HR+D1059
Trigger mode: 1
Integration Time (sec): 1.000000E-1
Scans to average: 1
Electric dark correction enabled: true
Nonlinearity correction enabled: false
Boxcar width: 0
XAxis mode: Wavelengths
Number of Pixels in Spectrum: 2048
>>>>>Begin Spectral Data<<<<<
223.165	-13.69
223.4	-13.69
223.635	-13.69
223.869	-10.69
224.104	-20.69
224.338	-11.69
224.573	-16.69
224.808	-17.69
225.042	-12.69
225.277	-17.69
225.511	-5.69
225.746	-3.69
225.98	2.31
226.215	25.31
226.449	25.31
226.683	18.31
226.918	29.31
227.152	30.31
227.387	35.31
227.621	49.31
227.856	44.31
228.09	52.31
228.324	50.31
228.559	45.31
228.793	54.31
229.027	63.31
229.262	74.31
229.496	96.31
229.73	99.31
229.964	90.31
230.199	104.31
230.433	99.31
230.667	97.31
230.901	92.31
231.136	94.31
231.37	102.31
231.604	100.31
231.838	105.31
232.072	109.31
232.306	116.31
232.541	119.31
232.775	89.31
233.009	112.31
233.243	114.31
233.477	104.31
233.711	119.31
233.945	103.31
234.179	113.31
234.413	110.31
234.647	105.31
234.881	111.31
235.115	117.31
235.349	105.31
235.583	104.31
235.817	107.31
236.051	117.31
236.285	108.31
236.519	102.31
236.753	109.31
236.987	113.31
237.221	121.31
237.455	95.31
237.689	100.31
237.922	113.31
238.156	107.31
238.39	113.31
238.624	118.31
238.858	114.31
239.091	136.31
239.325	119.31
239.559	116.31
239.793	114.31
240.027	120.31
240.26	127.31
240.494	125.31
240.728	129.31
240.961	113.31
241.195	124.31
241.429	119.31
241.662	107.31
241.896	127.31
242.13	106.31
242.363	117.31
242.597	113.31
242.83	117.31
243.064	138.31
243.298	126.31
243.531	133.31
243.765	121.31
243.998	125.31
244.232	104.31
244.465	128.31
244.699	131.31
244.932	136.31
245.166	127.31
245.399	126.31
245.633	116.31
245.866	141.31
246.099	127.31
246.333	118.31
246.566	139.31
246.8	137.31
247.033	135.31
247.266	137.31
247.5	143.31
247.733	132.31
247.966	129.31
248.2	133.31
248.433	134.31
248.666	149.31
248.899	124.31
249.133	138.31
249.366	133.31
249.599	137.31
249.832	144.31
250.066	136.31
250.299	140.31
250.532	140.31
250.765	159.31
250.998	132.31
251.231	155.31
251.465	149.31
251.698	140.31
251.931	138.31
252.164	158.31
252.397	151.31
252.63	158.31
252.863	150.31
253.096	162.31
253.329	140.31
253.562	153.31
253.795	149.31
254.028	157.31
254.261	161.31
254.494	151.31
254.727	159.31
254.96	163.31
255.193	149.31
255.426	168.31
255.659	153.31
255.892	177.31
256.124	143.31
256.357	149.31
256.59	158.31
256.823	171.31
257.056	166.31
257.289	170.31
257.521	158.31
257.754	163.31
257.987	155.31
258.22	182.31
258.452	144.31
258.685	171.31
258.918	185.31
259.151	159.31
259.383	159.31
259.616	169.31
259.849	172.31
260.081	180.31
260.314	191.31
260.547	178.31
260.779	171.31
261.012	192.31
261.244	165.31
261.477	179.31
261.71	167.31
261.942	181.31
262.175	182.31
262.407	154.31
262.64	187.31
262.872	179.31
263.105	185.31
263.337	169.31
263.57	182.31
263.802	177.31
264.035	154.31
264.267	170.31
264.499	178.31
264.732	179.31
264.964	178.31
265.197	196.31
265.429	182.31
265.661	180.31
265.894	199.31
266.126	186.31
266.358	170.31
266.591	175.31
266.823	190.31
267.055	185.31
267.287	181.31
267.52	179.31
267.752	169.31
267.984	185.31
268.216	211.31
268.448	206.31
268.681	190.31
268.913	193.31
269.145	183.31
269.377	203.31
269.609	195.31
269.841	181.31
270.073	191.31
270.306	193.31
270.538	193.31
270.77	186.31
271.002	190.31
271.234	195.31
271.466	200.31
271.698	212.31
271.93	184.31
272.162	222.31
272.394	189.31
272.626	210.31
272.858	203.31
273.09	199.31
273.322	222.31
273.553	216.31
273.785	205.31
274.017	223.31
274.249	214.31
274.481	218.31
274.713	229.31
274.945	242.31
275.176	236.31
275.408	222.31
275.64	221.31
275.872	216.31
276.104	224.31
276.335	215.31
276.567	217.31
276.799	192.31
277.031	253.31
277.262	210.31
277.494	224.31
277.726	233.31
277.957	212.31
278.189	206.31
278.421	229.31
278.652	213.31
278.884	226.31
279.115	236.31
279.347	241.31
279.579	226.31
279.81	235.31
280.042	235.31
280.273	232.31
280.505	232.31
280.736	221.31
280.968	241.31
281.199	232.31
281.431	231.31
281.662	247.31
281.894	244.31
282.125	248.31
282.356	263.31
282.588	230.31
282.819	236.31
283.051	235.31
283.282	234.31
283.513	271.31
283.745	233.31
283.976	231.31
284.207	241.31
284.439	230.31
284.67	217.31
284.901	244.31
285.132	238.31
285.364	244.31
285.595	242.31
285.826	243.31
286.057	248.31
286.288	266.31
286.52	257.31
286.751	279.31
286.982	258.31
287.213	252.31
287.444	250.31
287.675	237.31
287.906	271.31
288.138	242.31
288.369	261.31
288.6	253.31
288.831	254.31
289.062	264.31
289.293	262.31
289.524	261.31
289.755	261.31
289.986	246.31
290.217	259.31
290.448	265.31
290.679	285.31
290.91	261.31
291.141	256.31
291.371	259.31
291.602	270.31
291.833	267.31
292.064	261.31
292.295	253.31
292.526	262.31
292.757	269.31
292.987	269.31
293.218	262.31
293.449	277.31
293.68	252.31
293.91	268.31
294.141	264.31
294.372	249.31
294.603	277.31
294.833	271.31
295.064	267.31
295.295	273.31
295.525	279.31
295.756	275.31
295.987	281.31
296.217	262.31
296.448	275.31
296.679	265.31
296.909	285.31
297.14	284.31
297.37	265.31
297.601	295.31
297.831	281.31
298.062	269.31
298.292	269.31
298.523	279.31
298.753	303.31
298.984	282.31
299.214	291.31
299.445	266.31
299.675	293.31
299.905	279.31
300.136	284.31
300.366	287.31
300.597	288.31
300.827	296.31
301.057	299.31
301.288	295.31
301.518	315.31
301.748	302.31
301.979	309.31
302.209	306.31
302.439	310.31
302.669	289.31
302.9	315.31
303.13	301.31
303.36	310.31
303.59	313.31
303.82	321.31
304.051	293.31
304.281	299.31
304.511	306.31
304.741	310.31
304.971	306.31
305.201	326.31
305.431	319.31
305.661	316.31
305.891	331.31
306.121	308.31
306.352	316.31
306.582	313.31
306.812	312.31
307.042	293.31
307.272	302.31
307.502	319.31
307.731	316.31
307.961	317.31
308.191	325.31
308.421	316.31
308.651	306.31
308.881	312.31
309.111	313.31
309.341	312.31
309.571	329.31
309.8	299.31
310.03	317.31
310.26	314.31
310.49	323.31
310.72	310.31
310.949	314.31
311.179	330.31
311.409	307.31
311.639	331.31
311.868	319.31
312.098	341.31
312.328	337.31
312.557	325.31
312.787	331.31
313.017	341.31
313.246	335.31
313.476	330.31
313.706	326.31
313.935	334.31
314.165	336.31
314.394	333.31
314.624	339.31
314.853	337.31
315.083	335.31
315.312	355.31
315.542	339.31
315.771	332.31
316.001	343.31
316.23	325.31
316.46	354.31
316.689	331.31
316.919	347.31
317.148	366.31
317.377	349.31
317.607	359.31
317.836	333.31
318.065	337.31
318.295	350.31
318.524	348.31
318.753	357.31
318.983	354.31
319.212	352.31
319.441	353.31
319.67	334.31
319.9	359.31
320.129	361.31
320.358	366.31
320.587	351.31
320.816	350.31
321.046	364.31
321.275	353.31
321.504	358.31
321.733	355.31
321.962	335.31
322.191	355.31
322.42	349.31
322.649	353.31
322.878	340.31
323.108	364.31
323.337	366.31
323.566	363.31
323.795	346.31
324.024	362.31
324.253	353.31
324.482	359.31
324.71	357.31
324.939	367.31
325.168	375.31
325.397	375.31
325.626	370.31
325.855	374.31
326.084	364.31
326.313	371.31
326.542	393.31
326.77	372.31
326.999	374.31
327.228	366.31
327.457	374.31
327.686	371.31
327.914	391.31
328.143	376.31
328.372	378.31
328.6	396.31
328.829	385.31
329.058	377.31
329.287	392.31
329.515	400.31
329.744	389.31
329.972	400.31
330.201	401.31
330.43	381.31
330.658	383.31
330.887	390.31
331.115	395.31
331.344	408.31
331.572	406.31
331.801	412.31
332.03	417.31
332.258	397.31
332.486	411.31
332.715	415.31
332.943	403.31
333.172	390.31
333.4	426.31
333.629	428.31
333.857	432.31
334.085	415.31
334.314	443.31
334.542	414.31
334.771	436.31
334.999	429.31
335.227	411.31
335.455	394.31
335.684	464.31
335.912	445.31
336.14	431.31
336.369	430.31
336.597	449.31
336.825	441.31
337.053	443.31
337.281	433.31
337.51	403.31
337.738	418.31
337.966	430.31
338.194	409.31
338.422	412.31
338.65	425.31
338.878	420.31
339.106	415.31
339.334	426.31
339.562	410.31
339.79	402.31
340.018	435.31
340.246	424.31
340.474	430.31
340.702	420.31
340.93	398.31
341.158	418.31
341.386	418.31
341.614	420.31
341.842	419.31
342.07	411.31
342.298	399.31
342.526	412.31
342.754	415.31
342.981	418.31
343.209	416.31
343.437	432.31
343.665	454.31
343.893	430.31
344.12	449.31
344.348	429.31
344.576	422.31
344.804	437.31
345.031	422.31
345.259	420.31
345.487	419.31
345.714	409.31
345.942	402.31
346.17	416.31
346.397	392.31
346.625	387.31
346.853	395.31
347.08	394.31
347.308	407.31
347.535	407.31
347.763	410.31
347.99	405.31
348.218	403.31
348.445	410.31
348.673	397.31
348.9	398.31
349.128	400.31
349.355	384.31
349.583	397.31
349.81	385.31
350.037	390.31
350.265	397.31
350.492	382.31
350.72	400.31
350.947	401.31
351.174	403.31
351.402	385.31
351.629	384.31
351.856	385.31
352.083	403.31
352.311	387.31
352.538	374.31
352.765	399.31
352.992	396.31
353.22	405.31
353.447	406.31
353.674	399.31
353.901	399.31
354.128	403.31
354.355	380.31
354.583	393.31
354.81	404.31
355.037	399.31
355.264	399.31
355.491	374.31
355.718	403.31
355.945	410.31
356.172	414.31
356.399	408.31
356.626	408.31
356.853	395.31
357.08	403.31
357.307	398.31
357.534	387.31
357.761	403.31
357.988	399.31
358.215	383.31
358.441	414.31
358.668	393.31
358.895	399.31
359.122	400.31
359.349	410.31
359.576	387.31
359.802	415.31
360.029	375.31
360.256	386.31
360.483	404.31
360.709	395.31
360.936	387.31
361.163	407.31
361.39	409.31
361.616	396.31
361.843	418.31
362.07	425.31
362.296	407.31
362.523	410.31
362.749	389.31
362.976	403.31
363.203	417.31
363.429	409.31
363.656	392.31
363.882	403.31
364.109	422.31
364.335	422.31
364.562	428.31
364.788	430.31
365.015	395.31
365.241	409.31
365.468	411.31
365.694	412.31
365.92	409.31
366.147	409.31
366.373	425.31
366.599	430.31
366.826	405.31
367.052	407.31
367.278	430.31
367.505	422.31
367.731	408.31
367.957	434.31
368.184	419.31
368.41	418.31
368.636	430.31
368.862	426.31
369.089	433.31
369.315	427.31
369.541	418.31
369.767	406.31
369.993	419.31
370.219	426.31
370.445	421.31
370.672	417.31
370.898	423.31
371.124	437.31
371.35	436.31
371.576	414.31
371.802	427.31
372.028	433.31
372.254	452.31
372.48	454.31
372.706	446.31
372.932	439.31
373.158	436.31
373.384	442.31
373.61	444.31
373.835	449.31
374.061	447.31
374.287	458.31
374.513	449.31
374.739	468.31
374.965	454.31
375.191	440.31
375.416	457.31
375.642	447.31
375.868	462.31
376.094	458.31
376.319	455.31
376.545	426.31
376.771	440.31
376.997	432.31
377.222	418.31
377.448	436.31
377.674	447.31
377.899	435.31
378.125	439.31
378.35	447.31
378.576	424.31
378.802	447.31
379.027	449.31
379.253	449.31
379.478	419.31
379.704	448.31
379.929	441.31
380.155	424.31
380.38	443.31
380.606	447.31
380.831	446.31
381.057	448.31
381.282	444.31
381.507	458.31
381.733	433.31
381.958	465.31
382.184	438.31
382.409	461.31
382.634	458.31
382.86	482.31
383.085	461.31
383.31	470.31
383.535	471.31
383.761	469.31
383.986	464.31
384.211	473.31
384.436	468.31
384.662	480.31
384.887	484.31
385.112	489.31
385.337	499.31
385.562	480.31
385.787	502.31
386.013	512.31
386.238	475.31
386.463	486.31
386.688	495.31
386.913	497.31
387.138	499.31
387.363	492.31
387.588	486.31
387.813	500.31
388.038	503.31
388.263	517.31
388.488	516.31
388.713	489.31
388.938	519.31
389.163	510.31
389.387	501.31
389.612	485.31
389.837	520.31
390.062	507.31
390.287	507.31
390.512	504.31
390.736	499.31
390.961	517.31
391.186	528.31
391.411	519.31
391.636	505.31
391.86	527.31
392.085	542.31
392.31	546.31
392.534	527.31
392.759	534.31
392.984	535.31
393.208	540.31
393.433	517.31
393.658	534.31
393.882	532.31
394.107	534.31
394.331	532.31
394.556	531.31
394.78	517.31
395.005	536.31
395.229	541.31
395.454	519.31
395.678	548.31
395.903	530.31
396.127	529.31
396.352	519.31
396.576	521.31
396.801	559.31
397.025	566.31
397.249	554.31
397.474	551.31
397.698	579.31
397.922	577.31
398.147	556.31
398.371	595.31
398.595	587.31
398.82	566.31
399.044	599.31
399.268	628.31
399.492	654.31
399.717	667.31
399.941	683.31
400.165	655.31
400.389	637.31
400.613	630.31
400.837	631.31
401.062	585.31
401.286	601.31
401.51	618.31
401.734	581.31
401.958	597.31
402.182	596.31
402.406	603.31
402.63	590.31
402.854	604.31
403.078	595.31
403.302	589.31
403.526	571.31
403.75	591.31
403.974	600.31
404.198	605.31
404.422	600.31
404.645	606.31
404.869	620.31
405.093	586.31
405.317	587.31
405.541	595.31
405.765	604.31
405.988	614.31
406.212	653.31
406.436	625.31
406.66	647.31
406.883	633.31
407.107	657.31
407.331	665.31
407.555	676.31
407.778	652.31
408.002	670.31
408.226	646.31
408.449	651.31
408.673	613.31
408.896	627.31
409.12	623.31
409.344	634.31
409.567	612.31
409.791	621.31
410.014	590.31
410.238	626.31
410.461	627.31
410.685	608.31
410.908	604.31
411.132	598.31
411.355	592.31
411.578	604.31
411.802	607.31
412.025	602.31
412.249	606.31
412.472	608.31
412.695	585.31
412.919	583.31
413.142	611.31
413.365	596.31
413.589	594.31
413.812	577.31
414.035	591.31
414.258	604.31
414.482	572.31
414.705	572.31
414.928	596.31
415.151	590.31
415.374	571.31
415.597	569.31
415.821	578.31
416.044	562.31
416.267	567.31
416.49	582.31
416.713	547.31
416.936	573.31
417.159	553.31
417.382	555.31
417.605	551.31
417.828	555.31
418.051	565.31
418.274	563.31
418.497	565.31
418.72	545.31
418.943	541.31
419.166	571.31
419.389	595.31
419.611	593.31
419.834	592.31
420.057	591.31
420.28	561.31
420.503	549.31
420.726	558.31
420.948	535.31
421.171	565.31
421.394	553.31
421.617	564.31
421.839	547.31
422.062	568.31
422.285	561.31
422.507	538.31
422.73	543.31
422.953	569.31
423.175	559.31
423.398	551.31
423.621	552.31
423.843	583.31
424.066	541.31
424.288	556.31
424.511	556.31
424.733	556.31
424.956	549.31
425.178	555.31
425.401	585.31
425.623	545.31
425.846	535.31
426.068	554.31
426.291	542.31
426.513	536.31
426.735	535.31
426.958	549.31
427.18	525.31
427.402	536.31
427.625	519.31
427.847	516.31
428.069	516.31
428.292	537.31
428.514	533.31
428.736	537.31
428.958	538.31
429.181	526.31
429.403	510.31
429.625	546.31
429.847	538.31
430.069	526.31
430.292	519.31
430.514	526.31
430.736	520.31
430.958	515.31
431.18	510.31
431.402	535.31
431.624	531.31
431.846	520.31
432.068	525.31
432.29	520.31
432.512	537.31
432.734	550.31
432.956	531.31
433.178	538.31
433.4	532.31
433.622	542.31
433.844	537.31
434.066	549.31
434.287	545.31
434.509	564.31
434.731	555.31
434.953	560.31
435.175	537.31
435.397	547.31
435.618	547.31
435.84	537.31
436.062	535.31
436.284	529.31
436.505	539.31
436.727	550.31
436.949	552.31
437.17	515.31
437.392	524.31
437.614	513.31
437.835	519.31
438.057	534.31
438.278	495.31
438.5	528.31
438.721	511.31
438.943	513.31
439.165	524.31
439.386	517.31
439.608	536.31
439.829	505.31
440.05	516.31
440.272	529.31
440.493	497.31
440.715	536.31
440.936	529.31
441.158	535.31
441.379	518.31
441.6	543.31
441.822	550.31
442.043	538.31
442.264	546.31
442.486	557.31
442.707	554.31
442.928	548.31
443.149	527.31
443.371	534.31
443.592	543.31
443.813	545.31
444.034	544.31
444.255	561.31
444.476	562.31
444.698	565.31
444.919	572.31
445.14	630.31
445.361	592.31
445.582	551.31
445.803	530.31
446.024	537.31
446.245	531.31
446.466	540.31
446.687	514.31
446.908	525.31
447.129	502.31
447.35	498.31
447.571	511.31
447.792	493.31
448.013	505.31
448.234	501.31
448.455	488.31
448.675	490.31
448.896	479.31
449.117	475.31
449.338	486.31
449.559	489.31
449.779	478.31
450	474.31
450.221	487.31
450.442	463.31
450.662	467.31
450.883	477.31
451.104	482.31
451.324	466.31
451.545	475.31
451.766	461.31
451.986	473.31
452.207	457.31
452.428	457.31
452.648	489.31
452.869	472.31
453.089	466.31
453.31	468.31
453.53	474.31
453.751	479.31
453.971	459.31
454.192	481.31
454.412	464.31
454.633	464.31
454.853	472.31
455.073	483.31
455.294	476.31
455.514	461.31
455.734	465.31
455.955	436.31
456.175	444.31
456.395	441.31
456.616	461.31
456.836	498.31
457.056	458.31
457.276	445.31
457.497	475.31
457.717	462.31
457.937	462.31
458.157	474.31
458.377	472.31
458.598	490.31
458.818	512.31
459.038	490.31
459.258	502.31
459.478	512.31
459.698	535.31
459.918	540.31
460.138	553.31
460.358	553.31
460.578	575.31
460.798	581.31
461.018	557.31
461.238	568.31
461.458	584.31
461.678	566.31
461.898	556.31
462.118	583.31
462.338	599.31
462.558	601.31
462.777	608.31
462.997	631.31
463.217	603.31
463.437	653.31
463.657	613.31
463.876	600.31
464.096	606.31
464.316	618.31
464.536	603.31
464.755	605.31
464.975	600.31
465.195	581.31
465.414	559.31
465.634	524.31
465.854	553.31
466.073	550.31
466.293	511.31
466.512	529.31
466.732	514.31
466.951	530.31
467.171	509.31
467.391	509.31
467.61	500.31
467.829	536.31
468.049	519.31
468.268	485.31
468.488	497.31
468.707	505.31
468.927	515.31
469.146	503.31
469.365	521.31
469.585	475.31
469.804	526.31
470.023	517.31
470.243	509.31
470.462	513.31
470.681	509.31
470.901	517.31
471.12	529.31
471.339	540.31
471.558	530.31
471.777	525.31
471.997	545.31
472.216	528.31
472.435	525.31
472.654	508.31
472.873	503.31
473.092	508.31
473.311	531.31
473.53	522.31
473.749	510.31
473.968	538.31
474.187	501.31
474.406	506.31
474.625	522.31
474.844	508.31
475.063	531.31
475.282	546.31
475.501	533.31
475.72	547.31
475.939	528.31
476.158	539.31
476.377	551.31
476.596	543.31
476.814	553.31
477.033	543.31
477.252	549.31
477.471	564.31
477.69	578.31
477.908	583.31
478.127	578.31
478.346	575.31
478.564	594.31
478.783	607.31
479.002	608.31
479.22	582.31
479.439	602.31
479.658	604.31
479.876	599.31
480.095	621.31
480.313	631.31
480.532	622.31
480.751	637.31
480.969	620.31
481.188	611.31
481.406	637.31
481.624	619.31
481.843	614.31
482.061	611.31
482.28	617.31
482.498	639.31
482.717	606.31
482.935	617.31
483.153	603.31
483.372	632.31
483.59	617.31
483.808	633.31
484.027	617.31
484.245	621.31
484.463	627.31
484.681	653.31
484.9	633.31
485.118	653.31
485.336	668.31
485.554	653.31
485.772	634.31
485.99	642.31
486.209	641.31
486.427	669.31
486.645	629.31
486.863	626.31
487.081	638.31
487.299	648.31
487.517	654.31
487.735	645.31
487.953	657.31
488.171	659.31
488.389	653.31
488.607	648.31
488.825	651.31
489.043	651.31
489.261	653.31
489.479	649.31
489.696	627.31
489.914	628.31
490.132	640.31
490.35	677.31
490.568	637.31
490.786	619.31
491.003	646.31
491.221	653.31
491.439	641.31
491.657	654.31
491.874	656.31
492.092	647.31
492.31	655.31
492.527	660.31
492.745	674.31
492.963	671.31
493.18	673.31
493.398	645.31
493.615	641.31
493.833	628.31
494.05	670.31
494.268	681.31
494.485	658.31
494.703	647.31
494.92	686.31
495.138	662.31
495.355	682.31
495.573	665.31
495.79	643.31
496.008	702.31
496.225	681.31
496.442	668.31
496.66	694.31
496.877	723.31
497.094	706.31
497.312	738.31
497.529	725.31
497.746	722.31
497.963	760.31
498.181	773.31
498.398	795.31
498.615	801.31
498.832	843.31
499.049	873.31
499.267	929.31
499.484	933.31
499.701	978.31
499.918	1011.31
500.135	1033.31
500.352	1090.31
500.569	1081.31
500.786	1056.31
501.003	1073.31
501.22	1002.31
501.437	972.31
501.654	913.31
