Data from Fe(NO3)3@0.05M.TitratingCurve.Agarose3%dH2O.NegLispCup.LampEnergy10.LIBS07252019_HRD10591_16-47-12-334.txt Node
Date: Thu Jul 25 16:47:12 EDT 2019
User: cochatt
Spectrometer: HR+D1059
Trigger mode: 1
Integration Time (sec): 1.000000E-1
Scans to average: 1
Electric dark correction enabled: true
Nonlinearity correction enabled: false
Boxcar width: 0
XAxis mode: Wavelengths
Number of Pixels in Spectrum: 2048
>>>>>Begin Spectral Data<<<<<
223.165	-15.81
223.4	-15.81
223.635	-15.81
223.869	-14.81
224.104	-21.81
224.338	-4.81
224.573	-11.81
224.808	-24.81
225.042	-9.81
225.277	-1.81
225.511	8.19
225.746	2.19
225.98	-5.81
226.215	16.19
226.449	17.19
226.683	15.19
226.918	24.19
227.152	28.19
227.387	28.19
227.621	34.19
227.856	62.19
228.09	53.19
228.324	55.19
228.559	73.19
228.793	55.19
229.027	90.19
229.262	93.19
229.496	100.19
229.73	100.19
229.964	115.19
230.199	102.19
230.433	108.19
230.667	119.19
230.901	111.19
231.136	125.19
231.37	115.19
231.604	114.19
231.838	126.19
232.072	116.19
232.306	124.19
232.541	138.19
232.775	125.19
233.009	115.19
233.243	128.19
233.477	125.19
233.711	116.19
233.945	146.19
234.179	126.19
234.413	124.19
234.647	109.19
234.881	130.19
235.115	136.19
235.349	115.19
235.583	127.19
235.817	125.19
236.051	127.19
236.285	125.19
236.519	128.19
236.753	123.19
236.987	130.19
237.221	128.19
237.455	118.19
237.689	137.19
237.922	138.19
238.156	133.19
238.39	143.19
238.624	143.19
238.858	127.19
239.091	128.19
239.325	138.19
239.559	133.19
239.793	133.19
240.027	139.19
240.26	135.19
240.494	150.19
240.728	133.19
240.961	134.19
241.195	148.19
241.429	148.19
241.662	143.19
241.896	143.19
242.13	144.19
242.363	144.19
242.597	140.19
242.83	151.19
243.064	134.19
243.298	141.19
243.531	151.19
243.765	156.19
243.998	167.19
244.232	159.19
244.465	143.19
244.699	155.19
244.932	151.19
245.166	150.19
245.399	153.19
245.633	164.19
245.866	158.19
246.099	150.19
246.333	162.19
246.566	157.19
246.8	173.19
247.033	166.19
247.266	159.19
247.5	163.19
247.733	159.19
247.966	166.19
248.2	180.19
248.433	178.19
248.666	192.19
248.899	175.19
249.133	167.19
249.366	175.19
249.599	181.19
249.832	188.19
250.066	172.19
250.299	178.19
250.532	170.19
250.765	191.19
250.998	173.19
251.231	182.19
251.465	164.19
251.698	182.19
251.931	182.19
252.164	197.19
252.397	175.19
252.63	190.19
252.863	188.19
253.096	201.19
253.329	174.19
253.562	184.19
253.795	195.19
254.028	205.19
254.261	184.19
254.494	189.19
254.727	200.19
254.96	176.19
255.193	195.19
255.426	204.19
255.659	175.19
255.892	184.19
256.124	200.19
256.357	218.19
256.59	216.19
256.823	212.19
257.056	198.19
257.289	184.19
257.521	218.19
257.754	204.19
257.987	204.19
258.22	217.19
258.452	208.19
258.685	212.19
258.918	214.19
259.151	216.19
259.383	203.19
259.616	202.19
259.849	226.19
260.081	231.19
260.314	254.19
260.547	234.19
260.779	219.19
261.012	218.19
261.244	225.19
261.477	231.19
261.71	230.19
261.942	226.19
262.175	215.19
262.407	223.19
262.64	231.19
262.872	248.19
263.105	238.19
263.337	239.19
263.57	238.19
263.802	233.19
264.035	235.19
264.267	222.19
264.499	234.19
264.732	218.19
264.964	232.19
265.197	236.19
265.429	222.19
265.661	239.19
265.894	233.19
266.126	242.19
266.358	233.19
266.591	243.19
266.823	218.19
267.055	210.19
267.287	232.19
267.52	232.19
267.752	229.19
267.984	224.19
268.216	236.19
268.448	249.19
268.681	248.19
268.913	264.19
269.145	243.19
269.377	246.19
269.609	259.19
269.841	248.19
270.073	242.19
270.306	265.19
270.538	258.19
270.77	240.19
271.002	248.19
271.234	260.19
271.466	260.19
271.698	260.19
271.93	250.19
272.162	257.19
272.394	271.19
272.626	249.19
272.858	272.19
273.09	265.19
273.322	266.19
273.553	270.19
273.785	284.19
274.017	268.19
274.249	284.19
274.481	295.19
274.713	306.19
274.945	312.19
275.176	319.19
275.408	312.19
275.64	323.19
275.872	302.19
276.104	299.19
276.335	285.19
276.567	270.19
276.799	276.19
277.031	278.19
277.262	265.19
277.494	276.19
277.726	287.19
277.957	290.19
278.189	264.19
278.421	296.19
278.652	282.19
278.884	283.19
279.115	294.19
279.347	273.19
279.579	301.19
279.81	292.19
280.042	290.19
280.273	279.19
280.505	295.19
280.736	284.19
280.968	301.19
281.199	279.19
281.431	283.19
281.662	302.19
281.894	304.19
282.125	296.19
282.356	296.19
282.588	299.19
282.819	292.19
283.051	302.19
283.282	324.19
283.513	308.19
283.745	316.19
283.976	289.19
284.207	314.19
284.439	295.19
284.67	332.19
284.901	319.19
285.132	315.19
285.364	311.19
285.595	312.19
285.826	303.19
286.057	318.19
286.288	320.19
286.52	318.19
286.751	312.19
286.982	315.19
287.213	306.19
287.444	317.19
287.675	322.19
287.906	308.19
288.138	321.19
288.369	315.19
288.6	334.19
288.831	335.19
289.062	310.19
289.293	320.19
289.524	318.19
289.755	307.19
289.986	324.19
290.217	324.19
290.448	326.19
290.679	337.19
290.91	344.19
291.141	326.19
291.371	335.19
291.602	331.19
291.833	309.19
292.064	317.19
292.295	333.19
292.526	339.19
292.757	319.19
292.987	341.19
293.218	339.19
293.449	342.19
293.68	326.19
293.91	340.19
294.141	332.19
294.372	318.19
294.603	343.19
294.833	332.19
295.064	343.19
295.295	358.19
295.525	343.19
295.756	336.19
295.987	342.19
296.217	355.19
296.448	343.19
296.679	362.19
296.909	350.19
297.14	351.19
297.37	355.19
297.601	340.19
297.831	340.19
298.062	365.19
298.292	338.19
298.523	344.19
298.753	351.19
298.984	347.19
299.214	341.19
299.445	352.19
299.675	347.19
299.905	363.19
300.136	349.19
300.366	359.19
300.597	351.19
300.827	347.19
301.057	384.19
301.288	359.19
301.518	367.19
301.748	383.19
301.979	383.19
302.209	391.19
302.439	381.19
302.669	356.19
302.9	377.19
303.13	374.19
303.36	386.19
303.59	386.19
303.82	379.19
304.051	392.19
304.281	382.19
304.511	374.19
304.741	354.19
304.971	372.19
305.201	366.19
305.431	378.19
305.661	378.19
305.891	347.19
306.121	362.19
306.352	379.19
306.582	367.19
306.812	347.19
307.042	365.19
307.272	373.19
307.502	379.19
307.731	383.19
307.961	377.19
308.191	371.19
308.421	381.19
308.651	367.19
308.881	357.19
309.111	387.19
309.341	360.19
309.571	368.19
309.8	366.19
310.03	371.19
310.26	378.19
310.49	376.19
310.72	392.19
310.949	365.19
311.179	373.19
311.409	387.19
311.639	375.19
311.868	395.19
312.098	389.19
312.328	401.19
312.557	398.19
312.787	372.19
313.017	395.19
313.246	393.19
313.476	400.19
313.706	393.19
313.935	388.19
314.165	394.19
314.394	408.19
314.624	392.19
314.853	397.19
315.083	397.19
315.312	404.19
315.542	406.19
315.771	404.19
316.001	384.19
316.23	407.19
316.46	402.19
316.689	386.19
316.919	402.19
317.148	395.19
317.377	395.19
317.607	399.19
317.836	387.19
318.065	405.19
318.295	388.19
318.524	390.19
318.753	413.19
318.983	389.19
319.212	392.19
319.441	382.19
319.67	415.19
319.9	378.19
320.129	404.19
320.358	411.19
320.587	389.19
320.816	394.19
321.046	376.19
321.275	420.19
321.504	420.19
321.733	408.19
321.962	413.19
322.191	397.19
322.42	419.19
322.649	424.19
322.878	408.19
323.108	399.19
323.337	414.19
323.566	402.19
323.795	406.19
324.024	426.19
324.253	413.19
324.482	411.19
324.71	410.19
324.939	409.19
325.168	416.19
325.397	427.19
325.626	435.19
325.855	434.19
326.084	434.19
326.313	424.19
326.542	434.19
326.77	440.19
326.999	441.19
327.228	431.19
327.457	432.19
327.686	443.19
327.914	451.19
328.143	427.19
328.372	448.19
328.6	423.19
328.829	451.19
329.058	447.19
329.287	442.19
329.515	432.19
329.744	443.19
329.972	443.19
330.201	459.19
330.43	449.19
330.658	460.19
330.887	458.19
331.115	439.19
331.344	458.19
331.572	470.19
331.801	460.19
332.03	460.19
332.258	459.19
332.486	471.19
332.715	502.19
332.943	484.19
333.172	519.19
333.4	536.19
333.629	534.19
333.857	549.19
334.085	524.19
334.314	554.19
334.542	539.19
334.771	528.19
334.999	518.19
335.227	499.19
335.455	541.19
335.684	513.19
335.912	545.19
336.14	533.19
336.369	527.19
336.597	513.19
336.825	531.19
337.053	506.19
337.281	493.19
337.51	503.19
337.738	485.19
337.966	505.19
338.194	489.19
338.422	511.19
338.65	501.19
338.878	494.19
339.106	498.19
339.334	491.19
339.562	478.19
339.79	478.19
340.018	482.19
340.246	473.19
340.474	463.19
340.702	465.19
340.93	483.19
341.158	474.19
341.386	482.19
341.614	473.19
341.842	474.19
342.07	468.19
342.298	475.19
342.526	468.19
342.754	480.19
342.981	456.19
343.209	476.19
343.437	480.19
343.665	476.19
343.893	511.19
344.12	546.19
344.348	531.19
344.576	514.19
344.804	503.19
345.031	492.19
345.259	478.19
345.487	462.19
345.714	458.19
345.942	482.19
346.17	464.19
346.397	447.19
346.625	472.19
346.853	461.19
347.08	438.19
347.308	472.19
347.535	450.19
347.763	438.19
347.99	457.19
348.218	459.19
348.445	452.19
348.673	455.19
348.9	458.19
349.128	438.19
349.355	450.19
349.583	439.19
349.81	442.19
350.037	438.19
350.265	452.19
350.492	457.19
350.72	462.19
350.947	447.19
351.174	454.19
351.402	452.19
351.629	440.19
351.856	443.19
352.083	446.19
352.311	436.19
352.538	438.19
352.765	438.19
352.992	446.19
353.22	433.19
353.447	443.19
353.674	434.19
353.901	441.19
354.128	439.19
354.355	432.19
354.583	462.19
354.81	446.19
355.037	450.19
355.264	432.19
355.491	455.19
355.718	441.19
355.945	455.19
356.172	460.19
356.399	433.19
356.626	451.19
356.853	459.19
357.08	461.19
357.307	448.19
357.534	457.19
357.761	434.19
357.988	468.19
358.215	463.19
358.441	465.19
358.668	447.19
358.895	459.19
359.122	462.19
359.349	450.19
359.576	431.19
359.802	445.19
360.029	444.19
360.256	444.19
360.483	438.19
360.709	451.19
360.936	476.19
361.163	440.19
361.39	464.19
361.616	450.19
361.843	456.19
362.07	469.19
362.296	467.19
362.523	451.19
362.749	447.19
362.976	440.19
363.203	472.19
363.429	464.19
363.656	467.19
363.882	450.19
364.109	463.19
364.335	467.19
364.562	453.19
364.788	462.19
365.015	471.19
365.241	459.19
365.468	456.19
365.694	459.19
365.92	449.19
366.147	441.19
366.373	470.19
366.599	473.19
366.826	451.19
367.052	458.19
367.278	467.19
367.505	456.19
367.731	456.19
367.957	471.19
368.184	438.19
368.41	459.19
368.636	473.19
368.862	476.19
369.089	480.19
369.315	480.19
369.541	457.19
369.767	479.19
369.993	486.19
370.219	463.19
370.445	484.19
370.672	478.19
370.898	482.19
371.124	488.19
371.35	495.19
371.576	490.19
371.802	502.19
372.028	521.19
372.254	516.19
372.48	516.19
372.706	493.19
372.932	528.19
373.158	537.19
373.384	516.19
373.61	522.19
373.835	520.19
374.061	520.19
374.287	526.19
374.513	514.19
374.739	545.19
374.965	573.19
375.191	538.19
375.416	544.19
375.642	530.19
375.868	527.19
376.094	505.19
376.319	494.19
376.545	517.19
376.771	500.19
376.997	494.19
377.222	508.19
377.448	528.19
377.674	482.19
377.899	478.19
378.125	489.19
378.35	491.19
378.576	498.19
378.802	512.19
379.027	495.19
379.253	545.19
379.478	492.19
379.704	492.19
379.929	512.19
380.155	518.19
380.38	507.19
380.606	523.19
380.831	476.19
381.057	529.19
381.282	505.19
381.507	516.19
381.733	550.19
381.958	527.19
382.184	559.19
382.409	519.19
382.634	547.19
382.86	574.19
383.085	543.19
383.31	534.19
383.535	546.19
383.761	528.19
383.986	554.19
384.211	543.19
384.436	579.19
384.662	555.19
384.887	592.19
385.112	570.19
385.337	581.19
385.562	580.19
385.787	594.19
386.013	611.19
386.238	583.19
386.463	617.19
386.688	596.19
386.913	574.19
387.138	594.19
387.363	574.19
387.588	593.19
387.813	589.19
388.038	594.19
388.263	590.19
388.488	591.19
388.713	606.19
388.938	614.19
389.163	584.19
389.387	605.19
389.612	616.19
389.837	589.19
390.062	599.19
390.287	596.19
390.512	602.19
390.736	609.19
390.961	606.19
391.186	636.19
391.411	610.19
391.636	612.19
391.86	652.19
392.085	640.19
392.31	635.19
392.534	628.19
392.759	644.19
392.984	639.19
393.208	640.19
393.433	638.19
393.658	641.19
393.882	619.19
394.107	607.19
394.331	633.19
394.556	627.19
394.78	665.19
395.005	642.19
395.229	624.19
395.454	674.19
395.678	652.19
395.903	657.19
396.127	682.19
396.352	655.19
396.576	663.19
396.801	645.19
397.025	668.19
397.249	663.19
397.474	679.19
397.698	684.19
397.922	681.19
398.147	679.19
398.371	706.19
398.595	725.19
398.82	716.19
399.044	763.19
399.268	799.19
399.492	857.19
399.717	898.19
399.941	922.19
400.165	902.19
400.389	846.19
400.613	807.19
400.837	730.19
401.062	742.19
401.286	739.19
401.51	775.19
401.734	734.19
401.958	768.19
402.182	731.19
402.406	716.19
402.63	763.19
402.854	742.19
403.078	740.19
403.302	760.19
403.526	768.19
403.75	788.19
403.974	772.19
404.198	757.19
404.422	777.19
404.645	767.19
404.869	798.19
405.093	790.19
405.317	766.19
405.541	778.19
405.765	779.19
405.988	787.19
406.212	778.19
406.436	787.19
406.66	804.19
406.883	809.19
407.107	839.19
407.331	858.19
407.555	874.19
407.778	852.19
408.002	882.19
408.226	886.19
408.449	880.19
408.673	842.19
408.896	832.19
409.12	813.19
409.344	814.19
409.567	816.19
409.791	823.19
410.014	777.19
410.238	783.19
410.461	832.19
410.685	812.19
410.908	801.19
411.132	791.19
411.355	771.19
411.578	764.19
411.802	774.19
412.025	774.19
412.249	785.19
412.472	786.19
412.695	782.19
412.919	757.19
413.142	755.19
413.365	748.19
413.589	760.19
413.812	734.19
414.035	728.19
414.258	771.19
414.482	750.19
414.705	758.19
414.928	751.19
415.151	744.19
415.374	743.19
415.597	732.19
415.821	698.19
416.044	721.19
416.267	714.19
416.49	711.19
416.713	708.19
416.936	720.19
417.159	716.19
417.382	744.19
417.605	717.19
417.828	746.19
418.051	716.19
418.274	719.19
418.497	727.19
418.72	733.19
418.943	728.19
419.166	766.19
419.389	808.19
419.611	800.19
419.834	799.19
420.057	759.19
420.28	757.19
420.503	720.19
420.726	707.19
420.948	711.19
421.171	738.19
421.394	720.19
421.617	721.19
421.839	719.19
422.062	751.19
422.285	701.19
422.507	708.19
422.73	714.19
422.953	745.19
423.175	734.19
423.398	709.19
423.621	738.19
423.843	746.19
424.066	734.19
424.288	743.19
424.511	750.19
424.733	714.19
424.956	709.19
425.178	731.19
425.401	730.19
425.623	733.19
425.846	690.19
426.068	709.19
426.291	695.19
426.513	699.19
426.735	693.19
426.958	702.19
427.18	687.19
427.402	718.19
427.625	707.19
427.847	685.19
428.069	677.19
428.292	708.19
428.514	679.19
428.736	683.19
428.958	694.19
429.181	668.19
429.403	658.19
429.625	671.19
429.847	680.19
430.069	666.19
430.292	667.19
430.514	667.19
430.736	692.19
430.958	714.19
431.18	675.19
431.402	688.19
431.624	648.19
431.846	654.19
432.068	669.19
432.29	672.19
432.512	656.19
432.734	678.19
432.956	681.19
433.178	703.19
433.4	696.19
433.622	702.19
433.844	690.19
434.066	699.19
434.287	684.19
434.509	726.19
434.731	732.19
434.953	719.19
435.175	708.19
435.397	719.19
435.618	707.19
435.84	690.19
436.062	688.19
436.284	699.19
436.505	711.19
436.727	687.19
436.949	689.19
437.17	654.19
437.392	691.19
437.614	674.19
437.835	664.19
438.057	670.19
438.278	651.19
438.5	687.19
438.721	678.19
438.943	679.19
439.165	663.19
439.386	654.19
439.608	693.19
439.829	692.19
440.05	694.19
440.272	699.19
440.493	679.19
440.715	710.19
440.936	685.19
441.158	713.19
441.379	725.19
441.6	716.19
441.822	728.19
442.043	729.19
442.264	739.19
442.486	708.19
442.707	724.19
442.928	735.19
443.149	711.19
443.371	700.19
443.592	706.19
443.813	719.19
444.034	718.19
444.255	746.19
444.476	758.19
444.698	787.19
444.919	793.19
445.14	840.19
445.361	815.19
445.582	778.19
445.803	754.19
446.024	711.19
446.245	706.19
446.466	690.19
446.687	681.19
446.908	727.19
447.129	684.19
447.35	684.19
447.571	671.19
447.792	635.19
448.013	660.19
448.234	667.19
448.455	665.19
448.675	679.19
448.896	667.19
449.117	634.19
449.338	642.19
449.559	635.19
449.779	634.19
450	651.19
450.221	645.19
450.442	608.19
450.662	650.19
450.883	617.19
451.104	648.19
451.324	628.19
451.545	666.19
451.766	647.19
451.986	636.19
452.207	636.19
452.428	623.19
452.648	636.19
452.869	642.19
453.089	611.19
453.31	634.19
453.53	590.19
453.751	604.19
453.971	633.19
454.192	588.19
454.412	596.19
454.633	605.19
454.853	608.19
455.073	613.19
455.294	594.19
455.514	604.19
455.734	598.19
455.955	589.19
456.175	596.19
456.395	602.19
456.616	591.19
456.836	607.19
457.056	621.19
457.276	599.19
457.497	584.19
457.717	589.19
457.937	609.19
458.157	624.19
458.377	616.19
458.598	619.19
458.818	637.19
459.038	640.19
459.258	655.19
459.478	699.19
459.698	672.19
459.918	709.19
460.138	718.19
460.358	758.19
460.578	758.19
460.798	750.19
461.018	746.19
461.238	736.19
461.458	757.19
461.678	782.19
461.898	796.19
462.118	766.19
462.338	812.19
462.558	820.19
462.777	810.19
462.997	894.19
463.217	887.19
463.437	907.19
463.657	870.19
463.876	852.19
464.096	856.19
464.316	819.19
464.536	860.19
464.755	823.19
464.975	795.19
465.195	764.19
465.414	743.19
465.634	713.19
465.854	716.19
466.073	682.19
466.293	702.19
466.512	704.19
466.732	672.19
466.951	688.19
467.171	658.19
467.391	644.19
467.61	666.19
467.829	657.19
468.049	662.19
468.268	642.19
468.488	639.19
468.707	662.19
468.927	664.19
469.146	643.19
469.365	677.19
469.585	650.19
469.804	664.19
470.023	672.19
470.243	670.19
470.462	676.19
470.681	680.19
470.901	660.19
471.12	653.19
471.339	685.19
471.558	663.19
471.777	667.19
471.997	664.19
472.216	661.19
472.435	643.19
472.654	662.19
472.873	650.19
473.092	640.19
473.311	651.19
473.53	650.19
473.749	654.19
473.968	670.19
474.187	618.19
474.406	643.19
474.625	664.19
474.844	630.19
475.063	652.19
475.282	651.19
475.501	656.19
475.72	642.19
475.939	695.19
476.158	678.19
476.377	680.19
476.596	685.19
476.814	680.19
477.033	672.19
477.252	688.19
477.471	703.19
477.69	714.19
477.908	706.19
478.127	720.19
478.346	723.19
478.564	754.19
478.783	746.19
479.002	754.19
479.22	785.19
479.439	788.19
479.658	767.19
479.876	766.19
480.095	786.19
480.313	785.19
480.532	784.19
480.751	802.19
480.969	756.19
481.188	765.19
481.406	746.19
481.624	733.19
481.843	735.19
482.061	738.19
482.28	737.19
482.498	735.19
482.717	727.19
482.935	750.19
483.153	746.19
483.372	738.19
483.59	745.19
483.808	745.19
484.027	763.19
484.245	746.19
484.463	723.19
484.681	761.19
484.9	734.19
485.118	758.19
485.336	740.19
485.554	761.19
485.772	779.19
485.99	737.19
486.209	748.19
486.427	740.19
486.645	765.19
486.863	784.19
487.081	765.19
487.299	728.19
487.517	770.19
487.735	759.19
487.953	774.19
488.171	772.19
488.389	780.19
488.607	775.19
488.825	763.19
489.043	758.19
489.261	737.19
489.479	778.19
489.696	773.19
489.914	750.19
490.132	767.19
490.35	778.19
490.568	780.19
490.786	780.19
491.003	783.19
491.221	779.19
491.439	787.19
491.657	780.19
491.874	798.19
492.092	811.19
492.31	806.19
492.527	808.19
492.745	797.19
492.963	798.19
493.18	803.19
493.398	812.19
493.615	816.19
493.833	825.19
494.05	826.19
494.268	814.19
494.485	791.19
494.703	826.19
494.92	802.19
495.138	814.19
495.355	816.19
495.573	836.19
495.79	830.19
496.008	867.19
496.225	839.19
496.442	846.19
496.66	876.19
496.877	856.19
497.094	868.19
497.312	896.19
497.529	896.19
497.746	909.19
497.963	940.19
498.181	944.19
498.398	995.19
498.615	1052.19
498.832	1108.19
499.049	1125.19
499.267	1143.19
499.484	1201.19
499.701	1311.19
499.918	1421.19
500.135	1513.19
500.352	1600.19
500.569	1668.19
500.786	1610.19
501.003	1581.19
501.22	1496.19
501.437	1420.19
