Data from Fe(NO3)3@0.0125M.TitratingCurve.Agarose3%dH2O.NegLispCup.LampEnergy10.LIBS07252019_HRD10591_16-59-36-337.txt Node
Date: Thu Jul 25 16:59:36 EDT 2019
User: cochatt
Spectrometer: HR+D1059
Trigger mode: 1
Integration Time (sec): 1.000000E-1
Scans to average: 1
Electric dark correction enabled: true
Nonlinearity correction enabled: false
Boxcar width: 0
XAxis mode: Wavelengths
Number of Pixels in Spectrum: 2048
>>>>>Begin Spectral Data<<<<<
223.165	-4.19
223.4	-4.19
223.635	-4.19
223.869	-14.19
224.104	-24.19
224.338	-25.19
224.573	-16.19
224.808	-25.19
225.042	-4.19
225.277	8.81
225.511	1.81
225.746	-3.19
225.98	9.81
226.215	12.81
226.449	13.81
226.683	18.81
226.918	21.81
227.152	28.81
227.387	39.81
227.621	46.81
227.856	41.81
228.09	51.81
228.324	52.81
228.559	67.81
228.793	57.81
229.027	71.81
229.262	81.81
229.496	86.81
229.73	75.81
229.964	83.81
230.199	84.81
230.433	101.81
230.667	88.81
230.901	88.81
231.136	101.81
231.37	85.81
231.604	102.81
231.838	107.81
232.072	103.81
232.306	102.81
232.541	92.81
232.775	106.81
233.009	92.81
233.243	96.81
233.477	104.81
233.711	108.81
233.945	104.81
234.179	97.81
234.413	101.81
234.647	109.81
234.881	116.81
235.115	123.81
235.349	105.81
235.583	101.81
235.817	102.81
236.051	99.81
236.285	104.81
236.519	96.81
236.753	102.81
236.987	99.81
237.221	111.81
237.455	101.81
237.689	90.81
237.922	102.81
238.156	104.81
238.39	113.81
238.624	97.81
238.858	108.81
239.091	92.81
239.325	101.81
239.559	107.81
239.793	92.81
240.027	103.81
240.26	102.81
240.494	120.81
240.728	117.81
240.961	101.81
241.195	102.81
241.429	112.81
241.662	124.81
241.896	116.81
242.13	119.81
242.363	118.81
242.597	111.81
242.83	103.81
243.064	125.81
243.298	127.81
243.531	114.81
243.765	112.81
243.998	127.81
244.232	112.81
244.465	102.81
244.699	118.81
244.932	127.81
245.166	134.81
245.399	116.81
245.633	127.81
245.866	139.81
246.099	121.81
246.333	116.81
246.566	118.81
246.8	124.81
247.033	135.81
247.266	121.81
247.5	120.81
247.733	124.81
247.966	124.81
248.2	128.81
248.433	128.81
248.666	142.81
248.899	129.81
249.133	126.81
249.366	122.81
249.599	113.81
249.832	131.81
250.066	131.81
250.299	127.81
250.532	137.81
250.765	141.81
250.998	135.81
251.231	131.81
251.465	145.81
251.698	128.81
251.931	124.81
252.164	132.81
252.397	129.81
252.63	136.81
252.863	138.81
253.096	129.81
253.329	149.81
253.562	136.81
253.795	121.81
254.028	153.81
254.261	135.81
254.494	144.81
254.727	139.81
254.96	149.81
255.193	152.81
255.426	141.81
255.659	152.81
255.892	155.81
256.124	151.81
256.357	146.81
256.59	160.81
256.823	156.81
257.056	155.81
257.289	144.81
257.521	153.81
257.754	145.81
257.987	145.81
258.22	142.81
258.452	150.81
258.685	149.81
258.918	145.81
259.151	158.81
259.383	153.81
259.616	145.81
259.849	168.81
260.081	170.81
260.314	150.81
260.547	164.81
260.779	156.81
261.012	155.81
261.244	169.81
261.477	154.81
261.71	167.81
261.942	179.81
262.175	179.81
262.407	164.81
262.64	181.81
262.872	166.81
263.105	171.81
263.337	176.81
263.57	160.81
263.802	167.81
264.035	168.81
264.267	177.81
264.499	180.81
264.732	173.81
264.964	150.81
265.197	157.81
265.429	177.81
265.661	176.81
265.894	174.81
266.126	163.81
266.358	185.81
266.591	184.81
266.823	184.81
267.055	180.81
267.287	184.81
267.52	174.81
267.752	184.81
267.984	182.81
268.216	174.81
268.448	189.81
268.681	174.81
268.913	184.81
269.145	181.81
269.377	189.81
269.609	191.81
269.841	194.81
270.073	180.81
270.306	185.81
270.538	181.81
270.77	192.81
271.002	203.81
271.234	188.81
271.466	199.81
271.698	185.81
271.93	193.81
272.162	185.81
272.394	188.81
272.626	172.81
272.858	191.81
273.09	185.81
273.322	204.81
273.553	204.81
273.785	220.81
274.017	197.81
274.249	195.81
274.481	217.81
274.713	212.81
274.945	220.81
275.176	231.81
275.408	222.81
275.64	219.81
275.872	213.81
276.104	212.81
276.335	196.81
276.567	203.81
276.799	216.81
277.031	231.81
277.262	218.81
277.494	228.81
277.726	211.81
277.957	211.81
278.189	243.81
278.421	213.81
278.652	219.81
278.884	216.81
279.115	235.81
279.347	239.81
279.579	252.81
279.81	243.81
280.042	228.81
280.273	227.81
280.505	224.81
280.736	246.81
280.968	239.81
281.199	233.81
281.431	249.81
281.662	243.81
281.894	228.81
282.125	238.81
282.356	247.81
282.588	240.81
282.819	226.81
283.051	249.81
283.282	232.81
283.513	252.81
283.745	257.81
283.976	250.81
284.207	239.81
284.439	263.81
284.67	256.81
284.901	278.81
285.132	271.81
285.364	253.81
285.595	256.81
285.826	249.81
286.057	263.81
286.288	273.81
286.52	262.81
286.751	254.81
286.982	272.81
287.213	279.81
287.444	279.81
287.675	275.81
287.906	283.81
288.138	288.81
288.369	264.81
288.6	279.81
288.831	287.81
289.062	293.81
289.293	279.81
289.524	273.81
289.755	284.81
289.986	287.81
290.217	274.81
290.448	286.81
290.679	291.81
290.91	287.81
291.141	289.81
291.371	291.81
291.602	285.81
291.833	288.81
292.064	281.81
292.295	287.81
292.526	301.81
292.757	280.81
292.987	303.81
293.218	291.81
293.449	300.81
293.68	290.81
293.91	273.81
294.141	301.81
294.372	291.81
294.603	311.81
294.833	295.81
295.064	294.81
295.295	295.81
295.525	315.81
295.756	304.81
295.987	297.81
296.217	303.81
296.448	302.81
296.679	307.81
296.909	305.81
297.14	317.81
297.37	304.81
297.601	304.81
297.831	320.81
298.062	304.81
298.292	314.81
298.523	341.81
298.753	325.81
298.984	325.81
299.214	324.81
299.445	334.81
299.675	320.81
299.905	337.81
300.136	312.81
300.366	329.81
300.597	333.81
300.827	332.81
301.057	334.81
301.288	341.81
301.518	347.81
301.748	359.81
301.979	342.81
302.209	363.81
302.439	355.81
302.669	351.81
302.9	341.81
303.13	348.81
303.36	351.81
303.59	351.81
303.82	345.81
304.051	367.81
304.281	339.81
304.511	374.81
304.741	363.81
304.971	383.81
305.201	360.81
305.431	360.81
305.661	354.81
305.891	363.81
306.121	384.81
306.352	367.81
306.582	367.81
306.812	352.81
307.042	360.81
307.272	374.81
307.502	349.81
307.731	376.81
307.961	362.81
308.191	371.81
308.421	363.81
308.651	379.81
308.881	375.81
309.111	366.81
309.341	383.81
309.571	373.81
309.8	364.81
310.03	375.81
310.26	385.81
310.49	414.81
310.72	381.81
310.949	393.81
311.179	385.81
311.409	372.81
311.639	411.81
311.868	381.81
312.098	401.81
312.328	410.81
312.557	413.81
312.787	399.81
313.017	406.81
313.246	383.81
313.476	391.81
313.706	401.81
313.935	407.81
314.165	414.81
314.394	410.81
314.624	420.81
314.853	412.81
315.083	402.81
315.312	416.81
315.542	404.81
315.771	427.81
316.001	409.81
316.23	407.81
316.46	421.81
316.689	408.81
316.919	421.81
317.148	413.81
317.377	435.81
317.607	431.81
317.836	418.81
318.065	437.81
318.295	451.81
318.524	427.81
318.753	432.81
318.983	427.81
319.212	423.81
319.441	433.81
319.67	447.81
319.9	427.81
320.129	445.81
320.358	441.81
320.587	438.81
320.816	440.81
321.046	448.81
321.275	446.81
321.504	433.81
321.733	455.81
321.962	448.81
322.191	440.81
322.42	456.81
322.649	467.81
322.878	443.81
323.108	439.81
323.337	451.81
323.566	443.81
323.795	457.81
324.024	448.81
324.253	443.81
324.482	460.81
324.71	467.81
324.939	456.81
325.168	447.81
325.397	445.81
325.626	467.81
325.855	470.81
326.084	444.81
326.313	475.81
326.542	463.81
326.77	490.81
326.999	486.81
327.228	483.81
327.457	471.81
327.686	472.81
327.914	480.81
328.143	473.81
328.372	478.81
328.6	479.81
328.829	481.81
329.058	463.81
329.287	486.81
329.515	490.81
329.744	504.81
329.972	483.81
330.201	465.81
330.43	469.81
330.658	454.81
330.887	493.81
331.115	501.81
331.344	485.81
331.572	489.81
331.801	499.81
332.03	512.81
332.258	493.81
332.486	471.81
332.715	479.81
332.943	475.81
333.172	497.81
333.4	484.81
333.629	508.81
333.857	513.81
334.085	532.81
334.314	503.81
334.542	525.81
334.771	486.81
334.999	520.81
335.227	526.81
335.455	483.81
335.684	527.81
335.912	508.81
336.14	515.81
336.369	502.81
336.597	530.81
336.825	540.81
337.053	533.81
337.281	507.81
337.51	501.81
337.738	505.81
337.966	503.81
338.194	521.81
338.422	514.81
338.65	513.81
338.878	502.81
339.106	507.81
339.334	499.81
339.562	500.81
339.79	500.81
340.018	514.81
340.246	506.81
340.474	514.81
340.702	524.81
340.93	533.81
341.158	522.81
341.386	506.81
341.614	519.81
341.842	514.81
342.07	498.81
342.298	523.81
342.526	514.81
342.754	497.81
342.981	488.81
343.209	511.81
343.437	521.81
343.665	509.81
343.893	536.81
344.12	535.81
344.348	539.81
344.576	520.81
344.804	506.81
345.031	535.81
345.259	534.81
345.487	504.81
345.714	508.81
345.942	531.81
346.17	528.81
346.397	519.81
346.625	502.81
346.853	534.81
347.08	515.81
347.308	524.81
347.535	527.81
347.763	491.81
347.99	500.81
348.218	521.81
348.445	534.81
348.673	541.81
348.9	506.81
349.128	521.81
349.355	496.81
349.583	512.81
349.81	505.81
350.037	492.81
350.265	501.81
350.492	505.81
350.72	493.81
350.947	519.81
351.174	513.81
351.402	516.81
351.629	496.81
351.856	494.81
352.083	536.81
352.311	515.81
352.538	515.81
352.765	521.81
352.992	500.81
353.22	480.81
353.447	517.81
353.674	525.81
353.901	509.81
354.128	522.81
354.355	518.81
354.583	513.81
354.81	490.81
355.037	517.81
355.264	505.81
355.491	501.81
355.718	485.81
355.945	537.81
356.172	543.81
356.399	510.81
356.626	519.81
356.853	530.81
357.08	533.81
357.307	536.81
357.534	512.81
357.761	514.81
357.988	521.81
358.215	524.81
358.441	519.81
358.668	537.81
358.895	526.81
359.122	532.81
359.349	527.81
359.576	518.81
359.802	503.81
360.029	515.81
360.256	549.81
360.483	519.81
360.709	507.81
360.936	514.81
361.163	544.81
361.39	537.81
361.616	514.81
361.843	550.81
362.07	517.81
362.296	537.81
362.523	521.81
362.749	538.81
362.976	533.81
363.203	541.81
363.429	552.81
363.656	558.81
363.882	549.81
364.109	546.81
364.335	515.81
364.562	520.81
364.788	519.81
365.015	535.81
365.241	536.81
365.468	534.81
365.694	526.81
365.92	530.81
366.147	531.81
366.373	543.81
366.599	541.81
366.826	541.81
367.052	538.81
367.278	559.81
367.505	528.81
367.731	549.81
367.957	529.81
368.184	533.81
368.41	550.81
368.636	556.81
368.862	540.81
369.089	553.81
369.315	551.81
369.541	558.81
369.767	540.81
369.993	569.81
370.219	561.81
370.445	570.81
370.672	551.81
370.898	551.81
371.124	561.81
371.35	545.81
371.576	575.81
371.802	568.81
372.028	570.81
372.254	563.81
372.48	568.81
372.706	570.81
372.932	570.81
373.158	550.81
373.384	589.81
373.61	567.81
373.835	548.81
374.061	549.81
374.287	568.81
374.513	573.81
374.739	572.81
374.965	590.81
375.191	578.81
375.416	592.81
375.642	567.81
375.868	589.81
376.094	575.81
376.319	559.81
376.545	555.81
376.771	568.81
376.997	584.81
377.222	569.81
377.448	580.81
377.674	584.81
377.899	567.81
378.125	567.81
378.35	568.81
378.576	576.81
378.802	565.81
379.027	565.81
379.253	572.81
379.478	557.81
379.704	597.81
379.929	565.81
380.155	551.81
380.38	571.81
380.606	565.81
380.831	545.81
381.057	571.81
381.282	589.81
381.507	531.81
381.733	577.81
381.958	573.81
382.184	574.81
382.409	575.81
382.634	567.81
382.86	583.81
383.085	596.81
383.31	601.81
383.535	598.81
383.761	597.81
383.986	606.81
384.211	592.81
384.436	593.81
384.662	590.81
384.887	612.81
385.112	594.81
385.337	614.81
385.562	618.81
385.787	571.81
386.013	608.81
386.238	613.81
386.463	599.81
386.688	608.81
386.913	592.81
387.138	614.81
387.363	612.81
387.588	596.81
387.813	600.81
388.038	597.81
388.263	607.81
388.488	640.81
388.713	626.81
388.938	594.81
389.163	587.81
389.387	635.81
389.612	608.81
389.837	606.81
390.062	601.81
390.287	617.81
390.512	601.81
390.736	601.81
390.961	615.81
391.186	601.81
391.411	631.81
391.636	615.81
391.86	631.81
392.085	636.81
392.31	591.81
392.534	631.81
392.759	627.81
392.984	638.81
393.208	639.81
393.433	618.81
393.658	609.81
393.882	623.81
394.107	617.81
394.331	620.81
394.556	622.81
394.78	638.81
395.005	626.81
395.229	617.81
395.454	617.81
395.678	633.81
395.903	620.81
396.127	615.81
396.352	607.81
396.576	630.81
396.801	643.81
397.025	630.81
397.249	650.81
397.474	627.81
397.698	636.81
397.922	641.81
398.147	637.81
398.371	638.81
398.595	664.81
398.82	652.81
399.044	664.81
399.268	668.81
399.492	671.81
399.717	691.81
399.941	705.81
400.165	685.81
400.389	695.81
400.613	675.81
400.837	681.81
401.062	690.81
401.286	665.81
401.51	677.81
401.734	671.81
401.958	672.81
402.182	686.81
402.406	655.81
402.63	673.81
402.854	666.81
403.078	654.81
403.302	662.81
403.526	696.81
403.75	697.81
403.974	703.81
404.198	663.81
404.422	668.81
404.645	691.81
404.869	669.81
405.093	666.81
405.317	663.81
405.541	692.81
405.765	692.81
405.988	671.81
406.212	671.81
406.436	712.81
406.66	715.81
406.883	673.81
407.107	716.81
407.331	713.81
407.555	719.81
407.778	719.81
408.002	708.81
408.226	714.81
408.449	733.81
408.673	688.81
408.896	694.81
409.12	697.81
409.344	693.81
409.567	688.81
409.791	697.81
410.014	704.81
410.238	694.81
410.461	687.81
410.685	702.81
410.908	683.81
411.132	696.81
411.355	671.81
411.578	659.81
411.802	661.81
412.025	678.81
412.249	689.81
412.472	714.81
412.695	652.81
412.919	671.81
413.142	691.81
413.365	701.81
413.589	685.81
413.812	657.81
414.035	672.81
414.258	660.81
414.482	667.81
414.705	697.81
414.928	651.81
415.151	675.81
415.374	650.81
415.597	686.81
415.821	669.81
416.044	653.81
416.267	643.81
416.49	657.81
416.713	661.81
416.936	661.81
417.159	647.81
417.382	675.81
417.605	662.81
417.828	682.81
418.051	667.81
418.274	669.81
418.497	649.81
418.72	644.81
418.943	645.81
419.166	671.81
419.389	684.81
419.611	691.81
419.834	687.81
420.057	667.81
420.28	640.81
420.503	649.81
420.726	632.81
420.948	643.81
421.171	632.81
421.394	628.81
421.617	640.81
421.839	645.81
422.062	637.81
422.285	600.81
422.507	651.81
422.73	637.81
422.953	637.81
423.175	657.81
423.398	667.81
423.621	643.81
423.843	640.81
424.066	653.81
424.288	641.81
424.511	656.81
424.733	646.81
424.956	649.81
425.178	639.81
425.401	663.81
425.623	649.81
425.846	622.81
426.068	639.81
426.291	660.81
426.513	655.81
426.735	638.81
426.958	635.81
427.18	647.81
427.402	665.81
427.625	645.81
427.847	617.81
428.069	635.81
428.292	634.81
428.514	627.81
428.736	618.81
428.958	643.81
429.181	622.81
429.403	623.81
429.625	643.81
429.847	643.81
430.069	649.81
430.292	618.81
430.514	635.81
430.736	639.81
430.958	646.81
431.18	620.81
431.402	631.81
431.624	608.81
431.846	651.81
432.068	633.81
432.29	643.81
432.512	648.81
432.734	654.81
432.956	615.81
433.178	618.81
433.4	636.81
433.622	614.81
433.844	636.81
434.066	647.81
434.287	607.81
434.509	638.81
434.731	633.81
434.953	596.81
435.175	641.81
435.397	651.81
435.618	624.81
435.84	609.81
436.062	625.81
436.284	628.81
436.505	619.81
436.727	639.81
436.949	635.81
437.17	621.81
437.392	647.81
437.614	632.81
437.835	611.81
438.057	625.81
438.278	630.81
438.5	647.81
438.721	646.81
438.943	632.81
439.165	619.81
439.386	621.81
439.608	643.81
439.829	651.81
440.05	637.81
440.272	610.81
440.493	625.81
440.715	616.81
440.936	634.81
441.158	637.81
441.379	616.81
441.6	645.81
441.822	659.81
442.043	653.81
442.264	660.81
442.486	633.81
442.707	620.81
442.928	631.81
443.149	641.81
443.371	613.81
443.592	624.81
443.813	633.81
444.034	637.81
444.255	657.81
444.476	649.81
444.698	654.81
444.919	658.81
445.14	736.81
445.361	673.81
445.582	641.81
445.803	607.81
446.024	617.81
446.245	626.81
446.466	622.81
446.687	618.81
446.908	615.81
447.129	612.81
447.35	612.81
447.571	617.81
447.792	604.81
448.013	616.81
448.234	616.81
448.455	612.81
448.675	612.81
448.896	614.81
449.117	610.81
449.338	598.81
449.559	600.81
449.779	611.81
450	593.81
450.221	571.81
450.442	593.81
450.662	611.81
450.883	601.81
451.104	597.81
451.324	583.81
451.545	593.81
451.766	593.81
451.986	590.81
452.207	572.81
452.428	601.81
452.648	627.81
452.869	598.81
453.089	604.81
453.31	614.81
453.53	604.81
453.751	567.81
453.971	607.81
454.192	583.81
454.412	578.81
454.633	600.81
454.853	593.81
455.073	603.81
455.294	579.81
455.514	597.81
455.734	597.81
455.955	579.81
456.175	569.81
456.395	564.81
456.616	584.81
456.836	588.81
457.056	576.81
457.276	576.81
457.497	580.81
457.717	595.81
457.937	604.81
458.157	585.81
458.377	571.81
458.598	583.81
458.818	591.81
459.038	591.81
459.258	580.81
459.478	608.81
459.698	613.81
459.918	606.81
460.138	611.81
460.358	641.81
460.578	639.81
460.798	622.81
461.018	637.81
461.238	647.81
461.458	633.81
461.678	624.81
461.898	641.81
462.118	643.81
462.338	659.81
462.558	643.81
462.777	652.81
462.997	669.81
463.217	648.81
463.437	666.81
463.657	677.81
463.876	677.81
464.096	677.81
464.316	677.81
464.536	664.81
464.755	643.81
464.975	657.81
465.195	632.81
465.414	636.81
465.634	615.81
465.854	618.81
466.073	618.81
466.293	625.81
466.512	616.81
466.732	630.81
466.951	633.81
467.171	620.81
467.391	639.81
467.61	633.81
467.829	627.81
468.049	639.81
468.268	597.81
468.488	632.81
468.707	652.81
468.927	619.81
469.146	631.81
469.365	647.81
469.585	629.81
469.804	637.81
470.023	646.81
470.243	629.81
470.462	627.81
470.681	644.81
470.901	647.81
471.12	670.81
471.339	645.81
471.558	635.81
471.777	678.81
471.997	651.81
472.216	651.81
472.435	646.81
472.654	658.81
472.873	649.81
473.092	649.81
473.311	681.81
473.53	651.81
473.749	624.81
473.968	663.81
474.187	671.81
474.406	659.81
474.625	653.81
474.844	691.81
475.063	658.81
475.282	692.81
475.501	671.81
475.72	708.81
475.939	704.81
476.158	719.81
476.377	699.81
476.596	695.81
476.814	694.81
477.033	714.81
477.252	721.81
477.471	714.81
477.69	712.81
477.908	704.81
478.127	712.81
478.346	712.81
478.564	753.81
478.783	749.81
479.002	735.81
479.22	757.81
479.439	768.81
479.658	737.81
479.876	764.81
480.095	759.81
480.313	766.81
480.532	759.81
480.751	759.81
480.969	769.81
481.188	796.81
481.406	778.81
481.624	758.81
481.843	777.81
482.061	737.81
482.28	768.81
482.498	777.81
482.717	778.81
482.935	799.81
483.153	838.81
483.372	794.81
483.59	792.81
483.808	819.81
484.027	789.81
484.245	791.81
484.463	811.81
484.681	824.81
484.9	834.81
485.118	801.81
485.336	800.81
485.554	805.81
485.772	816.81
485.99	796.81
486.209	809.81
486.427	820.81
486.645	797.81
486.863	827.81
487.081	848.81
487.299	837.81
487.517	834.81
487.735	817.81
487.953	830.81
488.171	826.81
488.389	795.81
488.607	833.81
488.825	816.81
489.043	828.81
489.261	817.81
489.479	808.81
489.696	846.81
489.914	835.81
490.132	840.81
490.35	821.81
490.568	820.81
490.786	835.81
491.003	843.81
491.221	855.81
491.439	835.81
491.657	831.81
491.874	857.81
492.092	856.81
492.31	868.81
492.527	841.81
492.745	862.81
492.963	858.81
493.18	848.81
493.398	867.81
493.615	856.81
493.833	814.81
494.05	859.81
494.268	831.81
494.485	856.81
494.703	847.81
494.92	850.81
495.138	833.81
495.355	870.81
495.573	839.81
495.79	872.81
496.008	888.81
496.225	865.81
496.442	860.81
496.66	851.81
496.877	848.81
497.094	885.81
497.312	865.81
497.529	899.81
497.746	867.81
497.963	861.81
498.181	941.81
498.398	899.81
498.615	899.81
498.832	910.81
499.049	923.81
499.267	977.81
499.484	929.81
499.701	983.81
499.918	1006.81
500.135	1043.81
500.352	1066.81
500.569	1078.81
500.786	1070.81
501.003	1025.81
501.22	1003.81
501.437	965.81
501.654	972.81
501.871	968.81
