Data from Fe(NO3)3@0.0125M.TitratingCurve.Agarose3%dH2O.NegLispCup.LampEnergy10.LIBS07252019_HRD10591_16-58-55-342.txt Node
Date: Thu Jul 25 16:58:55 EDT 2019
User: cochatt
Spectrometer: HR+D1059
Trigger mode: 1
Integration Time (sec): 1.000000E-1
Scans to average: 1
Electric dark correction enabled: true
Nonlinearity correction enabled: false
Boxcar width: 0
XAxis mode: Wavelengths
Number of Pixels in Spectrum: 2048
>>>>>Begin Spectral Data<<<<<
223.165	-17.75
223.4	-17.75
223.635	-17.75
223.869	-22.75
224.104	-17.75
224.338	-5.75
224.573	-7.75
224.808	-17.75
225.042	-14.75
225.277	-16.75
225.511	-1.75
225.746	7.25
225.98	14.25
226.215	20.25
226.449	14.25
226.683	20.25
226.918	15.25
227.152	31.25
227.387	43.25
227.621	40.25
227.856	55.25
228.09	53.25
228.324	39.25
228.559	65.25
228.793	74.25
229.027	100.25
229.262	123.25
229.496	104.25
229.73	115.25
229.964	122.25
230.199	115.25
230.433	129.25
230.667	123.25
230.901	127.25
231.136	128.25
231.37	127.25
231.604	134.25
231.838	129.25
232.072	133.25
232.306	129.25
232.541	141.25
232.775	147.25
233.009	154.25
233.243	136.25
233.477	139.25
233.711	154.25
233.945	155.25
234.179	155.25
234.413	146.25
234.647	159.25
234.881	142.25
235.115	155.25
235.349	147.25
235.583	141.25
235.817	158.25
236.051	155.25
236.285	161.25
236.519	162.25
236.753	166.25
236.987	158.25
237.221	155.25
237.455	159.25
237.689	159.25
237.922	149.25
238.156	155.25
238.39	161.25
238.624	165.25
238.858	158.25
239.091	171.25
239.325	169.25
239.559	179.25
239.793	180.25
240.027	182.25
240.26	172.25
240.494	179.25
240.728	185.25
240.961	192.25
241.195	183.25
241.429	195.25
241.662	181.25
241.896	187.25
242.13	187.25
242.363	191.25
242.597	204.25
242.83	186.25
243.064	187.25
243.298	186.25
243.531	179.25
243.765	181.25
243.998	199.25
244.232	208.25
244.465	195.25
244.699	189.25
244.932	197.25
245.166	198.25
245.399	203.25
245.633	193.25
245.866	209.25
246.099	203.25
246.333	214.25
246.566	217.25
246.8	223.25
247.033	221.25
247.266	224.25
247.5	220.25
247.733	228.25
247.966	210.25
248.2	231.25
248.433	218.25
248.666	213.25
248.899	241.25
249.133	242.25
249.366	229.25
249.599	236.25
249.832	228.25
250.066	225.25
250.299	228.25
250.532	229.25
250.765	224.25
250.998	247.25
251.231	247.25
251.465	252.25
251.698	257.25
251.931	249.25
252.164	248.25
252.397	244.25
252.63	250.25
252.863	252.25
253.096	257.25
253.329	267.25
253.562	259.25
253.795	258.25
254.028	283.25
254.261	281.25
254.494	269.25
254.727	265.25
254.96	234.25
255.193	277.25
255.426	289.25
255.659	264.25
255.892	278.25
256.124	275.25
256.357	274.25
256.59	281.25
256.823	261.25
257.056	289.25
257.289	289.25
257.521	306.25
257.754	292.25
257.987	281.25
258.22	295.25
258.452	312.25
258.685	300.25
258.918	294.25
259.151	306.25
259.383	307.25
259.616	300.25
259.849	333.25
260.081	324.25
260.314	333.25
260.547	305.25
260.779	323.25
261.012	311.25
261.244	324.25
261.477	327.25
261.71	334.25
261.942	317.25
262.175	330.25
262.407	336.25
262.64	325.25
262.872	346.25
263.105	335.25
263.337	299.25
263.57	341.25
263.802	330.25
264.035	333.25
264.267	334.25
264.499	338.25
264.732	319.25
264.964	344.25
265.197	330.25
265.429	318.25
265.661	320.25
265.894	364.25
266.126	331.25
266.358	339.25
266.591	337.25
266.823	365.25
267.055	351.25
267.287	346.25
267.52	361.25
267.752	345.25
267.984	351.25
268.216	360.25
268.448	348.25
268.681	359.25
268.913	359.25
269.145	381.25
269.377	349.25
269.609	359.25
269.841	359.25
270.073	371.25
270.306	347.25
270.538	373.25
270.77	382.25
271.002	371.25
271.234	371.25
271.466	398.25
271.698	379.25
271.93	380.25
272.162	377.25
272.394	384.25
272.626	393.25
272.858	412.25
273.09	395.25
273.322	400.25
273.553	402.25
273.785	410.25
274.017	426.25
274.249	421.25
274.481	401.25
274.713	411.25
274.945	440.25
275.176	439.25
275.408	431.25
275.64	431.25
275.872	436.25
276.104	449.25
276.335	439.25
276.567	413.25
276.799	429.25
277.031	428.25
277.262	415.25
277.494	425.25
277.726	440.25
277.957	429.25
278.189	439.25
278.421	438.25
278.652	449.25
278.884	437.25
279.115	430.25
279.347	453.25
279.579	463.25
279.81	447.25
280.042	442.25
280.273	443.25
280.505	458.25
280.736	446.25
280.968	450.25
281.199	430.25
281.431	463.25
281.662	449.25
281.894	466.25
282.125	470.25
282.356	450.25
282.588	457.25
282.819	456.25
283.051	487.25
283.282	477.25
283.513	479.25
283.745	474.25
283.976	455.25
284.207	483.25
284.439	481.25
284.67	467.25
284.901	496.25
285.132	490.25
285.364	519.25
285.595	488.25
285.826	477.25
286.057	495.25
286.288	488.25
286.52	515.25
286.751	487.25
286.982	492.25
287.213	494.25
287.444	498.25
287.675	507.25
287.906	507.25
288.138	525.25
288.369	515.25
288.6	527.25
288.831	521.25
289.062	495.25
289.293	515.25
289.524	502.25
289.755	512.25
289.986	503.25
290.217	521.25
290.448	531.25
290.679	516.25
290.91	524.25
291.141	538.25
291.371	523.25
291.602	519.25
291.833	513.25
292.064	510.25
292.295	506.25
292.526	530.25
292.757	534.25
292.987	527.25
293.218	513.25
293.449	531.25
293.68	524.25
293.91	557.25
294.141	522.25
294.372	543.25
294.603	538.25
294.833	519.25
295.064	536.25
295.295	570.25
295.525	538.25
295.756	553.25
295.987	546.25
296.217	574.25
296.448	556.25
296.679	571.25
296.909	541.25
297.14	583.25
297.37	547.25
297.601	567.25
297.831	575.25
298.062	564.25
298.292	546.25
298.523	558.25
298.753	592.25
298.984	577.25
299.214	574.25
299.445	569.25
299.675	582.25
299.905	563.25
300.136	580.25
300.366	588.25
300.597	601.25
300.827	592.25
301.057	571.25
301.288	585.25
301.518	590.25
301.748	593.25
301.979	629.25
302.209	607.25
302.439	618.25
302.669	602.25
302.9	607.25
303.13	606.25
303.36	615.25
303.59	607.25
303.82	603.25
304.051	649.25
304.281	618.25
304.511	610.25
304.741	608.25
304.971	619.25
305.201	625.25
305.431	616.25
305.661	614.25
305.891	630.25
306.121	617.25
306.352	635.25
306.582	625.25
306.812	635.25
307.042	616.25
307.272	614.25
307.502	638.25
307.731	635.25
307.961	610.25
308.191	633.25
308.421	627.25
308.651	632.25
308.881	630.25
309.111	639.25
309.341	616.25
309.571	639.25
309.8	619.25
310.03	652.25
310.26	656.25
310.49	653.25
310.72	639.25
310.949	631.25
311.179	648.25
311.409	655.25
311.639	666.25
311.868	664.25
312.098	665.25
312.328	647.25
312.557	680.25
312.787	686.25
313.017	693.25
313.246	685.25
313.476	656.25
313.706	674.25
313.935	691.25
314.165	668.25
314.394	665.25
314.624	693.25
314.853	697.25
315.083	707.25
315.312	711.25
315.542	678.25
315.771	689.25
316.001	694.25
316.23	676.25
316.46	701.25
316.689	698.25
316.919	706.25
317.148	700.25
317.377	681.25
317.607	733.25
317.836	686.25
318.065	682.25
318.295	734.25
318.524	730.25
318.753	730.25
318.983	692.25
319.212	703.25
319.441	682.25
319.67	727.25
319.9	723.25
320.129	712.25
320.358	742.25
320.587	701.25
320.816	689.25
321.046	727.25
321.275	731.25
321.504	724.25
321.733	716.25
321.962	718.25
322.191	719.25
322.42	717.25
322.649	711.25
322.878	755.25
323.108	729.25
323.337	735.25
323.566	745.25
323.795	771.25
324.024	753.25
324.253	743.25
324.482	784.25
324.71	769.25
324.939	765.25
325.168	742.25
325.397	733.25
325.626	738.25
325.855	763.25
326.084	766.25
326.313	775.25
326.542	769.25
326.77	771.25
326.999	760.25
327.228	771.25
327.457	796.25
327.686	826.25
327.914	765.25
328.143	769.25
328.372	776.25
328.6	799.25
328.829	763.25
329.058	761.25
329.287	756.25
329.515	793.25
329.744	776.25
329.972	789.25
330.201	801.25
330.43	800.25
330.658	778.25
330.887	792.25
331.115	781.25
331.344	808.25
331.572	792.25
331.801	797.25
332.03	807.25
332.258	786.25
332.486	811.25
332.715	833.25
332.943	813.25
333.172	814.25
333.4	845.25
333.629	811.25
333.857	833.25
334.085	870.25
334.314	849.25
334.542	861.25
334.771	862.25
334.999	856.25
335.227	831.25
335.455	855.25
335.684	851.25
335.912	841.25
336.14	843.25
336.369	838.25
336.597	863.25
336.825	853.25
337.053	854.25
337.281	842.25
337.51	854.25
337.738	829.25
337.966	831.25
338.194	841.25
338.422	851.25
338.65	841.25
338.878	847.25
339.106	840.25
339.334	817.25
339.562	847.25
339.79	848.25
340.018	836.25
340.246	838.25
340.474	828.25
340.702	812.25
340.93	861.25
341.158	823.25
341.386	847.25
341.614	821.25
341.842	794.25
342.07	845.25
342.298	835.25
342.526	809.25
342.754	811.25
342.981	835.25
343.209	823.25
343.437	836.25
343.665	856.25
343.893	856.25
344.12	871.25
344.348	857.25
344.576	863.25
344.804	847.25
345.031	839.25
345.259	854.25
345.487	819.25
345.714	828.25
345.942	831.25
346.17	834.25
346.397	818.25
346.625	808.25
346.853	822.25
347.08	793.25
347.308	809.25
347.535	808.25
347.763	814.25
347.99	800.25
348.218	818.25
348.445	825.25
348.673	784.25
348.9	817.25
349.128	805.25
349.355	814.25
349.583	776.25
349.81	790.25
350.037	798.25
350.265	778.25
350.492	792.25
350.72	818.25
350.947	796.25
351.174	811.25
351.402	796.25
351.629	757.25
351.856	807.25
352.083	797.25
352.311	806.25
352.538	796.25
352.765	804.25
352.992	809.25
353.22	798.25
353.447	808.25
353.674	799.25
353.901	777.25
354.128	791.25
354.355	795.25
354.583	809.25
354.81	812.25
355.037	803.25
355.264	806.25
355.491	791.25
355.718	812.25
355.945	799.25
356.172	789.25
356.399	789.25
356.626	798.25
356.853	808.25
357.08	781.25
357.307	807.25
357.534	789.25
357.761	798.25
357.988	804.25
358.215	803.25
358.441	807.25
358.668	766.25
358.895	795.25
359.122	792.25
359.349	807.25
359.576	821.25
359.802	780.25
360.029	814.25
360.256	802.25
360.483	803.25
360.709	796.25
360.936	817.25
361.163	845.25
361.39	805.25
361.616	823.25
361.843	794.25
362.07	811.25
362.296	820.25
362.523	793.25
362.749	825.25
362.976	789.25
363.203	822.25
363.429	814.25
363.656	802.25
363.882	804.25
364.109	819.25
364.335	817.25
364.562	807.25
364.788	837.25
365.015	810.25
365.241	827.25
365.468	829.25
365.694	813.25
365.92	821.25
366.147	801.25
366.373	798.25
366.599	847.25
366.826	833.25
367.052	825.25
367.278	831.25
367.505	845.25
367.731	832.25
367.957	823.25
368.184	855.25
368.41	857.25
368.636	825.25
368.862	882.25
369.089	847.25
369.315	859.25
369.541	841.25
369.767	847.25
369.993	852.25
370.219	844.25
370.445	876.25
370.672	868.25
370.898	867.25
371.124	881.25
371.35	866.25
371.576	873.25
371.802	860.25
372.028	832.25
372.254	843.25
372.48	884.25
372.706	887.25
372.932	901.25
373.158	892.25
373.384	864.25
373.61	877.25
373.835	869.25
374.061	892.25
374.287	867.25
374.513	874.25
374.739	893.25
374.965	881.25
375.191	896.25
375.416	872.25
375.642	873.25
375.868	906.25
376.094	881.25
376.319	876.25
376.545	874.25
376.771	905.25
376.997	877.25
377.222	842.25
377.448	855.25
377.674	859.25
377.899	870.25
378.125	859.25
378.35	876.25
378.576	869.25
378.802	839.25
379.027	872.25
379.253	875.25
379.478	864.25
379.704	851.25
379.929	874.25
380.155	862.25
380.38	876.25
380.606	880.25
380.831	857.25
381.057	841.25
381.282	863.25
381.507	866.25
381.733	882.25
381.958	871.25
382.184	909.25
382.409	905.25
382.634	879.25
382.86	885.25
383.085	873.25
383.31	892.25
383.535	891.25
383.761	889.25
383.986	879.25
384.211	925.25
384.436	905.25
384.662	901.25
384.887	921.25
385.112	917.25
385.337	926.25
385.562	917.25
385.787	929.25
386.013	920.25
386.238	937.25
386.463	961.25
386.688	941.25
386.913	950.25
387.138	955.25
387.363	929.25
387.588	966.25
387.813	963.25
388.038	932.25
388.263	973.25
388.488	953.25
388.713	963.25
388.938	962.25
389.163	976.25
389.387	957.25
389.612	913.25
389.837	911.25
390.062	954.25
390.287	962.25
390.512	959.25
390.736	950.25
390.961	970.25
391.186	966.25
391.411	964.25
391.636	977.25
391.86	993.25
392.085	978.25
392.31	938.25
392.534	966.25
392.759	970.25
392.984	988.25
393.208	983.25
393.433	988.25
393.658	979.25
393.882	989.25
394.107	985.25
394.331	978.25
394.556	993.25
394.78	979.25
395.005	974.25
395.229	963.25
395.454	979.25
395.678	973.25
395.903	974.25
396.127	978.25
396.352	989.25
396.576	994.25
396.801	994.25
397.025	1009.25
397.249	977.25
397.474	1026.25
397.698	1022.25
397.922	1025.25
398.147	1019.25
398.371	1054.25
398.595	1037.25
398.82	1064.25
399.044	1050.25
399.268	1085.25
399.492	1133.25
399.717	1133.25
399.941	1109.25
400.165	1142.25
400.389	1126.25
400.613	1113.25
400.837	1089.25
401.062	1101.25
401.286	1081.25
401.51	1092.25
401.734	1069.25
401.958	1050.25
402.182	1054.25
402.406	1075.25
402.63	1057.25
402.854	1079.25
403.078	1066.25
403.302	1061.25
403.526	1077.25
403.75	1099.25
403.974	1047.25
404.198	1055.25
404.422	1054.25
404.645	1089.25
404.869	1056.25
405.093	1073.25
405.317	1023.25
405.541	1067.25
405.765	1085.25
405.988	1075.25
406.212	1100.25
406.436	1107.25
406.66	1107.25
406.883	1091.25
407.107	1129.25
407.331	1141.25
407.555	1125.25
407.778	1128.25
408.002	1163.25
408.226	1143.25
408.449	1134.25
408.673	1151.25
408.896	1146.25
409.12	1095.25
409.344	1126.25
409.567	1103.25
409.791	1101.25
410.014	1104.25
410.238	1132.25
410.461	1084.25
410.685	1092.25
410.908	1086.25
411.132	1076.25
411.355	1041.25
411.578	1086.25
411.802	1087.25
412.025	1117.25
412.249	1064.25
412.472	1067.25
412.695	1068.25
412.919	1078.25
413.142	1103.25
413.365	1074.25
413.589	1089.25
413.812	1045.25
414.035	1043.25
414.258	1055.25
414.482	1052.25
414.705	1059.25
414.928	1059.25
415.151	1042.25
415.374	1034.25
415.597	1040.25
415.821	1043.25
416.044	1032.25
416.267	1017.25
416.49	998.25
416.713	1009.25
416.936	1033.25
417.159	996.25
417.382	1001.25
417.605	1018.25
417.828	1026.25
418.051	999.25
418.274	1012.25
418.497	1010.25
418.72	1004.25
418.943	980.25
419.166	1035.25
419.389	1095.25
419.611	1066.25
419.834	1049.25
420.057	1044.25
420.28	1021.25
420.503	981.25
420.726	975.25
420.948	962.25
421.171	968.25
421.394	993.25
421.617	996.25
421.839	959.25
422.062	987.25
422.285	973.25
422.507	973.25
422.73	978.25
422.953	986.25
423.175	963.25
423.398	996.25
423.621	1006.25
423.843	983.25
424.066	975.25
424.288	969.25
424.511	991.25
424.733	986.25
424.956	990.25
425.178	989.25
425.401	973.25
425.623	969.25
425.846	979.25
426.068	971.25
426.291	1001.25
426.513	984.25
426.735	1005.25
426.958	976.25
427.18	948.25
427.402	978.25
427.625	990.25
427.847	950.25
428.069	954.25
428.292	988.25
428.514	969.25
428.736	949.25
428.958	969.25
429.181	969.25
429.403	996.25
429.625	967.25
429.847	938.25
430.069	949.25
430.292	946.25
430.514	955.25
430.736	950.25
430.958	974.25
431.18	949.25
431.402	971.25
431.624	936.25
431.846	983.25
432.068	955.25
432.29	977.25
432.512	962.25
432.734	961.25
432.956	926.25
433.178	966.25
433.4	961.25
433.622	971.25
433.844	962.25
434.066	951.25
434.287	966.25
434.509	986.25
434.731	973.25
434.953	948.25
435.175	976.25
435.397	984.25
435.618	975.25
435.84	978.25
436.062	951.25
436.284	934.25
436.505	929.25
436.727	948.25
436.949	963.25
437.17	939.25
437.392	933.25
437.614	943.25
437.835	922.25
438.057	937.25
438.278	918.25
438.5	918.25
438.721	940.25
438.943	950.25
439.165	915.25
439.386	899.25
439.608	956.25
439.829	942.25
440.05	915.25
440.272	938.25
440.493	939.25
440.715	943.25
440.936	950.25
441.158	929.25
441.379	951.25
441.6	955.25
441.822	963.25
442.043	974.25
442.264	949.25
442.486	923.25
442.707	969.25
442.928	962.25
443.149	969.25
443.371	946.25
443.592	973.25
443.813	929.25
444.034	942.25
444.255	963.25
444.476	959.25
444.698	981.25
444.919	964.25
445.14	1046.25
445.361	1005.25
445.582	964.25
445.803	932.25
446.024	943.25
446.245	950.25
446.466	952.25
446.687	917.25
446.908	931.25
447.129	931.25
447.35	920.25
447.571	918.25
447.792	894.25
448.013	898.25
448.234	888.25
448.455	862.25
448.675	889.25
448.896	901.25
449.117	886.25
449.338	889.25
449.559	901.25
449.779	875.25
450	871.25
450.221	885.25
450.442	889.25
450.662	836.25
450.883	857.25
451.104	865.25
451.324	886.25
451.545	862.25
451.766	873.25
451.986	857.25
452.207	885.25
452.428	886.25
452.648	865.25
452.869	874.25
453.089	840.25
453.31	871.25
453.53	857.25
453.751	867.25
453.971	837.25
454.192	853.25
454.412	852.25
454.633	859.25
454.853	843.25
455.073	855.25
455.294	860.25
455.514	872.25
455.734	828.25
455.955	833.25
456.175	849.25
456.395	834.25
456.616	841.25
456.836	841.25
457.056	866.25
457.276	837.25
457.497	853.25
457.717	862.25
457.937	869.25
458.157	864.25
458.377	876.25
458.598	885.25
458.818	889.25
459.038	873.25
459.258	899.25
459.478	931.25
459.698	930.25
459.918	934.25
460.138	935.25
460.358	963.25
460.578	947.25
460.798	948.25
461.018	937.25
461.238	944.25
461.458	966.25
461.678	948.25
461.898	974.25
462.118	963.25
462.338	968.25
462.558	1010.25
462.777	991.25
462.997	1014.25
463.217	1015.25
463.437	1054.25
463.657	1046.25
463.876	1026.25
464.096	1051.25
464.316	1001.25
464.536	1017.25
464.755	979.25
464.975	985.25
465.195	996.25
465.414	981.25
465.634	924.25
465.854	925.25
466.073	946.25
466.293	909.25
466.512	882.25
466.732	910.25
466.951	936.25
467.171	917.25
467.391	911.25
467.61	911.25
467.829	914.25
468.049	905.25
468.268	915.25
468.488	902.25
468.707	885.25
468.927	924.25
469.146	921.25
469.365	899.25
469.585	905.25
469.804	907.25
470.023	919.25
470.243	936.25
470.462	920.25
470.681	909.25
470.901	905.25
471.12	923.25
471.339	925.25
471.558	960.25
471.777	956.25
471.997	928.25
472.216	919.25
472.435	939.25
472.654	912.25
472.873	959.25
473.092	942.25
473.311	931.25
473.53	959.25
473.749	940.25
473.968	926.25
474.187	940.25
474.406	931.25
474.625	940.25
474.844	943.25
475.063	951.25
475.282	951.25
475.501	974.25
475.72	997.25
475.939	966.25
476.158	986.25
476.377	1001.25
476.596	1003.25
476.814	1001.25
477.033	1021.25
477.252	1011.25
477.471	992.25
477.69	1013.25
477.908	1034.25
478.127	1022.25
478.346	1045.25
478.564	1050.25
478.783	1073.25
479.002	1045.25
479.22	1097.25
479.439	1094.25
479.658	1083.25
479.876	1097.25
480.095	1109.25
480.313	1102.25
480.532	1100.25
480.751	1093.25
480.969	1117.25
481.188	1137.25
481.406	1114.25
481.624	1110.25
481.843	1096.25
482.061	1102.25
482.28	1113.25
482.498	1103.25
482.717	1095.25
482.935	1114.25
483.153	1133.25
483.372	1105.25
483.59	1118.25
483.808	1114.25
484.027	1116.25
484.245	1146.25
484.463	1108.25
484.681	1137.25
484.9	1136.25
485.118	1107.25
485.336	1149.25
485.554	1142.25
485.772	1148.25
485.99	1150.25
486.209	1101.25
486.427	1123.25
486.645	1118.25
486.863	1149.25
487.081	1129.25
487.299	1146.25
487.517	1162.25
487.735	1136.25
487.953	1151.25
488.171	1157.25
488.389	1142.25
488.607	1143.25
488.825	1135.25
489.043	1126.25
489.261	1144.25
489.479	1156.25
489.696	1140.25
489.914	1142.25
490.132	1141.25
490.35	1144.25
490.568	1141.25
490.786	1149.25
491.003	1175.25
491.221	1158.25
491.439	1164.25
491.657	1124.25
491.874	1203.25
492.092	1167.25
492.31	1165.25
492.527	1130.25
492.745	1156.25
492.963	1183.25
493.18	1187.25
493.398	1179.25
493.615	1170.25
493.833	1143.25
494.05	1197.25
494.268	1159.25
494.485	1195.25
494.703	1178.25
494.92	1177.25
495.138	1207.25
495.355	1196.25
495.573	1231.25
495.79	1195.25
496.008	1226.25
496.225	1241.25
496.442	1254.25
496.66	1252.25
496.877	1262.25
497.094	1274.25
497.312	1296.25
497.529	1291.25
497.746	1315.25
497.963	1354.25
498.181	1347.25
498.398	1360.25
498.615	1371.25
