Data from Fe(NO3)3@0.05M.TitratingCurve.Agarose3%dH2O.NegLispCup.LampEnergy10.LIBS07252019_HRD10591_16-47-34-334.txt Node
Date: Thu Jul 25 16:47:34 EDT 2019
User: cochatt
Spectrometer: HR+D1059
Trigger mode: 1
Integration Time (sec): 1.000000E-1
Scans to average: 1
Electric dark correction enabled: true
Nonlinearity correction enabled: false
Boxcar width: 0
XAxis mode: Wavelengths
Number of Pixels in Spectrum: 2048
>>>>>Begin Spectral Data<<<<<
223.165	-17.62
223.4	-17.62
223.635	-17.62
223.869	-17.62
224.104	-27.62
224.338	-19.62
224.573	-11.62
224.808	-12.62
225.042	-5.62
225.277	-1.62
225.511	5.38
225.746	-1.62
225.98	12.38
226.215	20.38
226.449	6.38
226.683	22.38
226.918	34.38
227.152	14.38
227.387	46.38
227.621	40.38
227.856	32.38
228.09	29.38
228.324	31.38
228.559	49.38
228.793	63.38
229.027	72.38
229.262	80.38
229.496	82.38
229.73	88.38
229.964	103.38
230.199	88.38
230.433	97.38
230.667	82.38
230.901	98.38
231.136	104.38
231.37	104.38
231.604	108.38
231.838	105.38
232.072	89.38
232.306	103.38
232.541	113.38
232.775	110.38
233.009	103.38
233.243	105.38
233.477	116.38
233.711	110.38
233.945	102.38
234.179	105.38
234.413	124.38
234.647	118.38
234.881	134.38
235.115	106.38
235.349	107.38
235.583	112.38
235.817	100.38
236.051	98.38
236.285	119.38
236.519	111.38
236.753	116.38
236.987	113.38
237.221	110.38
237.455	104.38
237.689	103.38
237.922	98.38
238.156	103.38
238.39	121.38
238.624	119.38
238.858	125.38
239.091	120.38
239.325	132.38
239.559	125.38
239.793	127.38
240.027	124.38
240.26	117.38
240.494	130.38
240.728	118.38
240.961	121.38
241.195	133.38
241.429	133.38
241.662	124.38
241.896	119.38
242.13	134.38
242.363	120.38
242.597	122.38
242.83	123.38
243.064	138.38
243.298	131.38
243.531	124.38
243.765	117.38
243.998	111.38
244.232	126.38
244.465	134.38
244.699	138.38
244.932	136.38
245.166	144.38
245.399	145.38
245.633	144.38
245.866	142.38
246.099	137.38
246.333	130.38
246.566	142.38
246.8	142.38
247.033	138.38
247.266	146.38
247.5	133.38
247.733	133.38
247.966	142.38
248.2	145.38
248.433	138.38
248.666	148.38
248.899	148.38
249.133	150.38
249.366	138.38
249.599	154.38
249.832	144.38
250.066	129.38
250.299	143.38
250.532	136.38
250.765	144.38
250.998	149.38
251.231	140.38
251.465	136.38
251.698	150.38
251.931	145.38
252.164	154.38
252.397	156.38
252.63	160.38
252.863	167.38
253.096	166.38
253.329	164.38
253.562	163.38
253.795	159.38
254.028	169.38
254.261	164.38
254.494	161.38
254.727	167.38
254.96	150.38
255.193	168.38
255.426	157.38
255.659	156.38
255.892	162.38
256.124	158.38
256.357	148.38
256.59	170.38
256.823	174.38
257.056	168.38
257.289	168.38
257.521	176.38
257.754	162.38
257.987	158.38
258.22	157.38
258.452	172.38
258.685	156.38
258.918	180.38
259.151	185.38
259.383	177.38
259.616	175.38
259.849	174.38
260.081	202.38
260.314	200.38
260.547	185.38
260.779	177.38
261.012	183.38
261.244	179.38
261.477	194.38
261.71	192.38
261.942	190.38
262.175	174.38
262.407	184.38
262.64	170.38
262.872	186.38
263.105	196.38
263.337	189.38
263.57	191.38
263.802	181.38
264.035	185.38
264.267	179.38
264.499	180.38
264.732	178.38
264.964	199.38
265.197	173.38
265.429	185.38
265.661	209.38
265.894	191.38
266.126	190.38
266.358	206.38
266.591	194.38
266.823	198.38
267.055	192.38
267.287	185.38
267.52	176.38
267.752	191.38
267.984	205.38
268.216	193.38
268.448	213.38
268.681	198.38
268.913	194.38
269.145	194.38
269.377	199.38
269.609	209.38
269.841	192.38
270.073	200.38
270.306	190.38
270.538	199.38
270.77	212.38
271.002	202.38
271.234	201.38
271.466	212.38
271.698	221.38
271.93	216.38
272.162	208.38
272.394	197.38
272.626	205.38
272.858	209.38
273.09	196.38
273.322	218.38
273.553	211.38
273.785	206.38
274.017	225.38
274.249	245.38
274.481	230.38
274.713	226.38
274.945	246.38
275.176	252.38
275.408	226.38
275.64	230.38
275.872	229.38
276.104	222.38
276.335	229.38
276.567	229.38
276.799	224.38
277.031	226.38
277.262	202.38
277.494	246.38
277.726	213.38
277.957	231.38
278.189	223.38
278.421	247.38
278.652	219.38
278.884	200.38
279.115	243.38
279.347	230.38
279.579	232.38
279.81	239.38
280.042	224.38
280.273	250.38
280.505	231.38
280.736	222.38
280.968	245.38
281.199	270.38
281.431	255.38
281.662	214.38
281.894	234.38
282.125	228.38
282.356	233.38
282.588	247.38
282.819	250.38
283.051	253.38
283.282	239.38
283.513	245.38
283.745	236.38
283.976	236.38
284.207	259.38
284.439	273.38
284.67	242.38
284.901	252.38
285.132	247.38
285.364	238.38
285.595	257.38
285.826	254.38
286.057	242.38
286.288	260.38
286.52	233.38
286.751	275.38
286.982	256.38
287.213	261.38
287.444	279.38
287.675	257.38
287.906	256.38
288.138	242.38
288.369	265.38
288.6	252.38
288.831	277.38
289.062	256.38
289.293	247.38
289.524	252.38
289.755	250.38
289.986	260.38
290.217	261.38
290.448	257.38
290.679	272.38
290.91	276.38
291.141	266.38
291.371	259.38
291.602	277.38
291.833	278.38
292.064	262.38
292.295	270.38
292.526	270.38
292.757	258.38
292.987	277.38
293.218	258.38
293.449	287.38
293.68	272.38
293.91	278.38
294.141	253.38
294.372	293.38
294.603	262.38
294.833	273.38
295.064	277.38
295.295	284.38
295.525	260.38
295.756	287.38
295.987	281.38
296.217	281.38
296.448	286.38
296.679	285.38
296.909	288.38
297.14	277.38
297.37	287.38
297.601	280.38
297.831	273.38
298.062	294.38
298.292	280.38
298.523	285.38
298.753	293.38
298.984	276.38
299.214	302.38
299.445	287.38
299.675	284.38
299.905	295.38
300.136	285.38
300.366	293.38
300.597	287.38
300.827	292.38
301.057	286.38
301.288	283.38
301.518	285.38
301.748	293.38
301.979	300.38
302.209	312.38
302.439	307.38
302.669	313.38
302.9	301.38
303.13	316.38
303.36	289.38
303.59	301.38
303.82	316.38
304.051	293.38
304.281	305.38
304.511	296.38
304.741	308.38
304.971	291.38
305.201	298.38
305.431	294.38
305.661	296.38
305.891	306.38
306.121	284.38
306.352	304.38
306.582	288.38
306.812	291.38
307.042	293.38
307.272	282.38
307.502	307.38
307.731	301.38
307.961	300.38
308.191	292.38
308.421	305.38
308.651	294.38
308.881	311.38
309.111	292.38
309.341	302.38
309.571	320.38
309.8	318.38
310.03	304.38
310.26	301.38
310.49	310.38
310.72	293.38
310.949	319.38
311.179	316.38
311.409	317.38
311.639	297.38
311.868	310.38
312.098	305.38
312.328	292.38
312.557	310.38
312.787	304.38
313.017	321.38
313.246	302.38
313.476	308.38
313.706	328.38
313.935	334.38
314.165	326.38
314.394	306.38
314.624	323.38
314.853	317.38
315.083	328.38
315.312	327.38
315.542	322.38
315.771	334.38
316.001	308.38
316.23	317.38
316.46	312.38
316.689	324.38
316.919	318.38
317.148	325.38
317.377	314.38
317.607	320.38
317.836	314.38
318.065	321.38
318.295	320.38
318.524	322.38
318.753	322.38
318.983	320.38
319.212	321.38
319.441	324.38
319.67	324.38
319.9	323.38
320.129	318.38
320.358	312.38
320.587	316.38
320.816	323.38
321.046	328.38
321.275	328.38
321.504	338.38
321.733	334.38
321.962	323.38
322.191	332.38
322.42	314.38
322.649	327.38
322.878	329.38
323.108	321.38
323.337	336.38
323.566	320.38
323.795	332.38
324.024	340.38
324.253	348.38
324.482	348.38
324.71	334.38
324.939	327.38
325.168	329.38
325.397	331.38
325.626	344.38
325.855	327.38
326.084	334.38
326.313	337.38
326.542	348.38
326.77	353.38
326.999	344.38
327.228	354.38
327.457	340.38
327.686	339.38
327.914	352.38
328.143	350.38
328.372	355.38
328.6	370.38
328.829	356.38
329.058	341.38
329.287	339.38
329.515	351.38
329.744	360.38
329.972	352.38
330.201	350.38
330.43	359.38
330.658	377.38
330.887	356.38
331.115	345.38
331.344	380.38
331.572	368.38
331.801	371.38
332.03	374.38
332.258	388.38
332.486	365.38
332.715	380.38
332.943	388.38
333.172	416.38
333.4	415.38
333.629	419.38
333.857	422.38
334.085	454.38
334.314	431.38
334.542	412.38
334.771	452.38
334.999	441.38
335.227	434.38
335.455	420.38
335.684	418.38
335.912	424.38
336.14	389.38
336.369	409.38
336.597	406.38
336.825	391.38
337.053	387.38
337.281	410.38
337.51	392.38
337.738	400.38
337.966	389.38
338.194	400.38
338.422	378.38
338.65	383.38
338.878	394.38
339.106	371.38
339.334	379.38
339.562	372.38
339.79	376.38
340.018	372.38
340.246	367.38
340.474	367.38
340.702	360.38
340.93	364.38
341.158	358.38
341.386	368.38
341.614	366.38
341.842	390.38
342.07	390.38
342.298	361.38
342.526	363.38
342.754	365.38
342.981	391.38
343.209	383.38
343.437	404.38
343.665	392.38
343.893	410.38
344.12	422.38
344.348	445.38
344.576	419.38
344.804	400.38
345.031	390.38
345.259	381.38
345.487	376.38
345.714	373.38
345.942	362.38
346.17	349.38
346.397	365.38
346.625	366.38
346.853	380.38
347.08	366.38
347.308	357.38
347.535	362.38
347.763	356.38
347.99	356.38
348.218	363.38
348.445	368.38
348.673	366.38
348.9	352.38
349.128	361.38
349.355	373.38
349.583	359.38
349.81	364.38
350.037	355.38
350.265	350.38
350.492	354.38
350.72	346.38
350.947	345.38
351.174	341.38
351.402	348.38
351.629	358.38
351.856	367.38
352.083	344.38
352.311	357.38
352.538	334.38
352.765	351.38
352.992	355.38
353.22	353.38
353.447	324.38
353.674	354.38
353.901	350.38
354.128	365.38
354.355	337.38
354.583	355.38
354.81	353.38
355.037	334.38
355.264	368.38
355.491	359.38
355.718	359.38
355.945	368.38
356.172	356.38
356.399	350.38
356.626	380.38
356.853	365.38
357.08	361.38
357.307	372.38
357.534	357.38
357.761	364.38
357.988	376.38
358.215	383.38
358.441	369.38
358.668	351.38
358.895	337.38
359.122	335.38
359.349	348.38
359.576	368.38
359.802	365.38
360.029	359.38
360.256	368.38
360.483	352.38
360.709	369.38
360.936	361.38
361.163	358.38
361.39	366.38
361.616	361.38
361.843	361.38
362.07	370.38
362.296	357.38
362.523	366.38
362.749	357.38
362.976	375.38
363.203	382.38
363.429	373.38
363.656	356.38
363.882	350.38
364.109	380.38
364.335	358.38
364.562	351.38
364.788	367.38
365.015	356.38
365.241	357.38
365.468	373.38
365.694	350.38
365.92	343.38
366.147	366.38
366.373	343.38
366.599	364.38
366.826	368.38
367.052	362.38
367.278	361.38
367.505	350.38
367.731	377.38
367.957	361.38
368.184	368.38
368.41	365.38
368.636	362.38
368.862	376.38
369.089	376.38
369.315	366.38
369.541	394.38
369.767	381.38
369.993	388.38
370.219	369.38
370.445	373.38
370.672	384.38
370.898	390.38
371.124	385.38
371.35	366.38
371.576	399.38
371.802	397.38
372.028	399.38
372.254	398.38
372.48	392.38
372.706	392.38
372.932	417.38
373.158	387.38
373.384	400.38
373.61	389.38
373.835	405.38
374.061	400.38
374.287	375.38
374.513	394.38
374.739	417.38
374.965	434.38
375.191	424.38
375.416	442.38
375.642	397.38
375.868	411.38
376.094	421.38
376.319	407.38
376.545	398.38
376.771	408.38
376.997	416.38
377.222	397.38
377.448	401.38
377.674	404.38
377.899	399.38
378.125	404.38
378.35	372.38
378.576	374.38
378.802	403.38
379.027	402.38
379.253	386.38
379.478	399.38
379.704	402.38
379.929	413.38
380.155	385.38
380.38	390.38
380.606	404.38
380.831	394.38
381.057	388.38
381.282	402.38
381.507	404.38
381.733	419.38
381.958	417.38
382.184	423.38
382.409	406.38
382.634	427.38
382.86	416.38
383.085	441.38
383.31	440.38
383.535	461.38
383.761	428.38
383.986	446.38
384.211	432.38
384.436	475.38
384.662	470.38
384.887	465.38
385.112	459.38
385.337	471.38
385.562	487.38
385.787	482.38
386.013	479.38
386.238	487.38
386.463	467.38
386.688	440.38
386.913	470.38
387.138	461.38
387.363	482.38
387.588	499.38
387.813	454.38
388.038	478.38
388.263	464.38
388.488	466.38
388.713	483.38
388.938	473.38
389.163	462.38
389.387	465.38
389.612	483.38
389.837	480.38
390.062	457.38
390.287	484.38
390.512	473.38
390.736	462.38
390.961	487.38
391.186	465.38
391.411	501.38
391.636	513.38
391.86	512.38
392.085	511.38
392.31	514.38
392.534	513.38
392.759	492.38
392.984	504.38
393.208	496.38
393.433	503.38
393.658	501.38
393.882	478.38
394.107	519.38
394.331	497.38
394.556	500.38
394.78	515.38
395.005	484.38
395.229	512.38
395.454	537.38
395.678	530.38
395.903	515.38
396.127	519.38
396.352	501.38
396.576	514.38
396.801	501.38
397.025	531.38
397.249	532.38
397.474	550.38
397.698	539.38
397.922	544.38
398.147	546.38
398.371	547.38
398.595	575.38
398.82	592.38
399.044	624.38
399.268	638.38
399.492	735.38
399.717	770.38
399.941	799.38
400.165	736.38
400.389	679.38
400.613	653.38
400.837	620.38
401.062	594.38
401.286	598.38
401.51	604.38
401.734	595.38
401.958	605.38
402.182	602.38
402.406	611.38
402.63	612.38
402.854	633.38
403.078	611.38
403.302	596.38
403.526	650.38
403.75	609.38
403.974	638.38
404.198	628.38
404.422	613.38
404.645	627.38
404.869	662.38
405.093	641.38
405.317	649.38
405.541	646.38
405.765	615.38
405.988	615.38
406.212	641.38
406.436	636.38
406.66	641.38
406.883	640.38
407.107	659.38
407.331	686.38
407.555	684.38
407.778	708.38
408.002	702.38
408.226	675.38
408.449	690.38
408.673	663.38
408.896	644.38
409.12	644.38
409.344	660.38
409.567	638.38
409.791	619.38
410.014	654.38
410.238	604.38
410.461	638.38
410.685	615.38
410.908	636.38
411.132	628.38
411.355	623.38
411.578	612.38
411.802	589.38
412.025	614.38
412.249	626.38
412.472	597.38
412.695	607.38
412.919	587.38
413.142	600.38
413.365	593.38
413.589	598.38
413.812	590.38
414.035	596.38
414.258	585.38
414.482	588.38
414.705	613.38
414.928	588.38
415.151	595.38
415.374	592.38
415.597	612.38
415.821	576.38
416.044	603.38
416.267	577.38
416.49	576.38
416.713	582.38
416.936	596.38
417.159	558.38
417.382	588.38
417.605	569.38
417.828	591.38
418.051	590.38
418.274	578.38
418.497	580.38
418.72	596.38
418.943	572.38
419.166	605.38
419.389	647.38
419.611	644.38
419.834	613.38
420.057	598.38
420.28	606.38
420.503	611.38
420.726	579.38
420.948	583.38
421.171	585.38
421.394	568.38
421.617	609.38
421.839	588.38
422.062	587.38
422.285	564.38
422.507	609.38
422.73	586.38
422.953	578.38
423.175	611.38
423.398	585.38
423.621	598.38
423.843	604.38
424.066	638.38
424.288	608.38
424.511	600.38
424.733	582.38
424.956	565.38
425.178	576.38
425.401	591.38
425.623	575.38
425.846	559.38
426.068	578.38
426.291	544.38
426.513	562.38
426.735	556.38
426.958	556.38
427.18	548.38
427.402	554.38
427.625	546.38
427.847	529.38
428.069	540.38
428.292	540.38
428.514	542.38
428.736	552.38
428.958	535.38
429.181	548.38
429.403	536.38
429.625	534.38
429.847	529.38
430.069	541.38
430.292	559.38
430.514	528.38
430.736	551.38
430.958	528.38
431.18	518.38
431.402	537.38
431.624	532.38
431.846	534.38
432.068	529.38
432.29	522.38
432.512	538.38
432.734	536.38
432.956	533.38
433.178	546.38
433.4	513.38
433.622	557.38
433.844	562.38
434.066	548.38
434.287	564.38
434.509	557.38
434.731	577.38
434.953	579.38
435.175	598.38
435.397	596.38
435.618	576.38
435.84	568.38
436.062	554.38
436.284	538.38
436.505	550.38
436.727	552.38
436.949	526.38
437.17	537.38
437.392	548.38
437.614	528.38
437.835	513.38
438.057	536.38
438.278	526.38
438.5	520.38
438.721	532.38
438.943	533.38
439.165	534.38
439.386	538.38
439.608	569.38
439.829	537.38
440.05	554.38
440.272	556.38
440.493	559.38
440.715	566.38
440.936	557.38
441.158	567.38
441.379	565.38
441.6	595.38
441.822	585.38
442.043	582.38
442.264	566.38
442.486	569.38
442.707	579.38
442.928	608.38
443.149	608.38
443.371	579.38
443.592	628.38
443.813	591.38
444.034	596.38
444.255	600.38
444.476	619.38
444.698	640.38
444.919	683.38
445.14	728.38
445.361	681.38
445.582	646.38
445.803	574.38
446.024	599.38
446.245	566.38
446.466	572.38
446.687	569.38
446.908	551.38
447.129	567.38
447.35	559.38
447.571	548.38
447.792	510.38
448.013	541.38
448.234	534.38
448.455	517.38
448.675	510.38
448.896	516.38
449.117	501.38
449.338	523.38
449.559	540.38
449.779	484.38
450	503.38
450.221	474.38
450.442	485.38
450.662	503.38
450.883	494.38
451.104	533.38
451.324	515.38
451.545	505.38
451.766	535.38
451.986	512.38
452.207	493.38
452.428	482.38
452.648	504.38
452.869	485.38
453.089	501.38
453.31	521.38
453.53	488.38
453.751	488.38
453.971	489.38
454.192	502.38
454.412	472.38
454.633	511.38
454.853	488.38
455.073	477.38
455.294	492.38
455.514	491.38
455.734	485.38
455.955	490.38
456.175	483.38
456.395	478.38
456.616	481.38
456.836	486.38
457.056	465.38
457.276	465.38
457.497	494.38
457.717	467.38
457.937	487.38
458.157	507.38
458.377	481.38
458.598	501.38
458.818	498.38
459.038	520.38
459.258	521.38
459.478	563.38
459.698	520.38
459.918	570.38
460.138	597.38
460.358	599.38
460.578	626.38
460.798	628.38
461.018	650.38
461.238	616.38
461.458	629.38
461.678	624.38
461.898	632.38
462.118	633.38
462.338	639.38
462.558	652.38
462.777	677.38
462.997	714.38
463.217	759.38
463.437	755.38
463.657	730.38
463.876	713.38
464.096	668.38
464.316	678.38
464.536	684.38
464.755	662.38
464.975	651.38
465.195	634.38
465.414	618.38
465.634	590.38
465.854	573.38
466.073	569.38
466.293	549.38
466.512	545.38
466.732	562.38
466.951	529.38
467.171	542.38
467.391	522.38
467.61	548.38
467.829	521.38
468.049	526.38
468.268	542.38
468.488	526.38
468.707	504.38
468.927	516.38
469.146	530.38
469.365	515.38
469.585	517.38
469.804	523.38
470.023	567.38
470.243	556.38
470.462	541.38
470.681	538.38
470.901	568.38
471.12	549.38
471.339	534.38
471.558	548.38
471.777	529.38
471.997	516.38
472.216	520.38
472.435	519.38
472.654	501.38
472.873	486.38
473.092	516.38
473.311	523.38
473.53	496.38
473.749	509.38
473.968	508.38
474.187	506.38
474.406	520.38
474.625	522.38
474.844	522.38
475.063	510.38
475.282	503.38
475.501	508.38
475.72	524.38
475.939	540.38
476.158	522.38
476.377	533.38
476.596	521.38
476.814	572.38
477.033	539.38
477.252	550.38
477.471	538.38
477.69	572.38
477.908	584.38
478.127	599.38
478.346	582.38
478.564	615.38
478.783	615.38
479.002	605.38
479.22	615.38
479.439	628.38
479.658	625.38
479.876	614.38
480.095	597.38
480.313	629.38
480.532	654.38
480.751	641.38
480.969	652.38
481.188	625.38
481.406	592.38
481.624	583.38
481.843	557.38
482.061	593.38
482.28	607.38
482.498	580.38
482.717	561.38
482.935	616.38
483.153	600.38
483.372	598.38
483.59	575.38
483.808	570.38
484.027	578.38
484.245	569.38
484.463	575.38
484.681	615.38
484.9	602.38
485.118	601.38
485.336	610.38
485.554	613.38
485.772	601.38
485.99	599.38
486.209	616.38
486.427	599.38
486.645	598.38
486.863	608.38
487.081	600.38
487.299	598.38
487.517	622.38
487.735	613.38
487.953	607.38
488.171	596.38
488.389	594.38
488.607	598.38
488.825	596.38
489.043	593.38
489.261	609.38
489.479	582.38
489.696	582.38
489.914	598.38
490.132	599.38
490.35	600.38
490.568	628.38
490.786	590.38
491.003	622.38
491.221	604.38
491.439	635.38
491.657	625.38
491.874	630.38
492.092	626.38
492.31	642.38
492.527	640.38
492.745	653.38
492.963	634.38
493.18	636.38
493.398	628.38
493.615	628.38
493.833	622.38
494.05	640.38
494.268	656.38
494.485	653.38
494.703	616.38
494.92	654.38
495.138	658.38
495.355	654.38
495.573	678.38
495.79	653.38
496.008	672.38
496.225	627.38
496.442	672.38
496.66	685.38
496.877	707.38
497.094	673.38
497.312	702.38
497.529	721.38
497.746	727.38
497.963	737.38
498.181	741.38
498.398	791.38
498.615	869.38
498.832	849.38
499.049	904.38
499.267	942.38
499.484	1044.38
499.701	1115.38
499.918	1183.38
500.135	1305.38
500.352	1424.38
500.569	1464.38
500.786	1394.38
501.003	1368.38
501.22	1282.38
501.437	1166.38
501.654	1051.38
