Data from Fe(NO3)3@0.0125M.TitratingCurve.Agarose3%dH2O.NegLispCup.LampEnergy10.LIBS07252019_HRD10591_17-01-00-337.txt Node
Date: Thu Jul 25 17:01:00 EDT 2019
User: cochatt
Spectrometer: HR+D1059
Trigger mode: 1
Integration Time (sec): 1.000000E-1
Scans to average: 1
Electric dark correction enabled: true
Nonlinearity correction enabled: false
Boxcar width: 0
XAxis mode: Wavelengths
Number of Pixels in Spectrum: 2048
>>>>>Begin Spectral Data<<<<<
223.165	-16.25
223.4	-16.25
223.635	-16.25
223.869	-11.25
224.104	-20.25
224.338	-14.25
224.573	-19.25
224.808	-9.25
225.042	-12.25
225.277	-6.25
225.511	-1.25
225.746	12.75
225.98	-2.25
226.215	3.75
226.449	11.75
226.683	19.75
226.918	27.75
227.152	36.75
227.387	47.75
227.621	31.75
227.856	38.75
228.09	48.75
228.324	45.75
228.559	44.75
228.793	59.75
229.027	79.75
229.262	83.75
229.496	79.75
229.73	98.75
229.964	95.75
230.199	88.75
230.433	90.75
230.667	97.75
230.901	111.75
231.136	109.75
231.37	92.75
231.604	100.75
231.838	93.75
232.072	93.75
232.306	96.75
232.541	106.75
232.775	105.75
233.009	99.75
233.243	128.75
233.477	113.75
233.711	117.75
233.945	103.75
234.179	103.75
234.413	83.75
234.647	113.75
234.881	103.75
235.115	104.75
235.349	115.75
235.583	113.75
235.817	122.75
236.051	96.75
236.285	104.75
236.519	103.75
236.753	99.75
236.987	106.75
237.221	108.75
237.455	114.75
237.689	119.75
237.922	101.75
238.156	111.75
238.39	113.75
238.624	111.75
238.858	125.75
239.091	104.75
239.325	121.75
239.559	115.75
239.793	107.75
240.027	121.75
240.26	110.75
240.494	116.75
240.728	108.75
240.961	122.75
241.195	116.75
241.429	115.75
241.662	111.75
241.896	131.75
242.13	101.75
242.363	111.75
242.597	113.75
242.83	125.75
243.064	115.75
243.298	131.75
243.531	128.75
243.765	114.75
243.998	130.75
244.232	124.75
244.465	123.75
244.699	122.75
244.932	132.75
245.166	131.75
245.399	130.75
245.633	139.75
245.866	125.75
246.099	139.75
246.333	131.75
246.566	131.75
246.8	133.75
247.033	132.75
247.266	128.75
247.5	124.75
247.733	147.75
247.966	123.75
248.2	130.75
248.433	136.75
248.666	130.75
248.899	146.75
249.133	137.75
249.366	144.75
249.599	134.75
249.832	140.75
250.066	161.75
250.299	144.75
250.532	138.75
250.765	136.75
250.998	133.75
251.231	142.75
251.465	143.75
251.698	148.75
251.931	133.75
252.164	147.75
252.397	140.75
252.63	142.75
252.863	145.75
253.096	153.75
253.329	156.75
253.562	161.75
253.795	151.75
254.028	160.75
254.261	157.75
254.494	160.75
254.727	158.75
254.96	153.75
255.193	167.75
255.426	149.75
255.659	147.75
255.892	164.75
256.124	162.75
256.357	160.75
256.59	158.75
256.823	158.75
257.056	163.75
257.289	162.75
257.521	164.75
257.754	166.75
257.987	161.75
258.22	176.75
258.452	167.75
258.685	167.75
258.918	149.75
259.151	150.75
259.383	156.75
259.616	172.75
259.849	171.75
260.081	191.75
260.314	184.75
260.547	179.75
260.779	170.75
261.012	177.75
261.244	185.75
261.477	186.75
261.71	192.75
261.942	172.75
262.175	189.75
262.407	176.75
262.64	188.75
262.872	186.75
263.105	201.75
263.337	175.75
263.57	176.75
263.802	189.75
264.035	174.75
264.267	184.75
264.499	179.75
264.732	175.75
264.964	176.75
265.197	172.75
265.429	181.75
265.661	175.75
265.894	183.75
266.126	198.75
266.358	189.75
266.591	195.75
266.823	177.75
267.055	191.75
267.287	187.75
267.52	180.75
267.752	191.75
267.984	182.75
268.216	180.75
268.448	200.75
268.681	184.75
268.913	197.75
269.145	214.75
269.377	200.75
269.609	182.75
269.841	191.75
270.073	203.75
270.306	189.75
270.538	204.75
270.77	200.75
271.002	197.75
271.234	195.75
271.466	200.75
271.698	191.75
271.93	210.75
272.162	204.75
272.394	191.75
272.626	206.75
272.858	213.75
273.09	200.75
273.322	197.75
273.553	188.75
273.785	203.75
274.017	209.75
274.249	233.75
274.481	221.75
274.713	242.75
274.945	257.75
275.176	240.75
275.408	223.75
275.64	232.75
275.872	226.75
276.104	224.75
276.335	216.75
276.567	199.75
276.799	218.75
277.031	230.75
277.262	204.75
277.494	218.75
277.726	209.75
277.957	208.75
278.189	225.75
278.421	216.75
278.652	225.75
278.884	215.75
279.115	235.75
279.347	217.75
279.579	226.75
279.81	225.75
280.042	231.75
280.273	234.75
280.505	240.75
280.736	230.75
280.968	242.75
281.199	240.75
281.431	204.75
281.662	227.75
281.894	257.75
282.125	237.75
282.356	239.75
282.588	245.75
282.819	237.75
283.051	249.75
283.282	228.75
283.513	234.75
283.745	241.75
283.976	239.75
284.207	232.75
284.439	239.75
284.67	236.75
284.901	236.75
285.132	245.75
285.364	214.75
285.595	244.75
285.826	245.75
286.057	245.75
286.288	246.75
286.52	232.75
286.751	246.75
286.982	250.75
287.213	247.75
287.444	244.75
287.675	233.75
287.906	267.75
288.138	259.75
288.369	266.75
288.6	245.75
288.831	258.75
289.062	265.75
289.293	250.75
289.524	264.75
289.755	268.75
289.986	246.75
290.217	253.75
290.448	261.75
290.679	264.75
290.91	255.75
291.141	243.75
291.371	260.75
291.602	274.75
291.833	265.75
292.064	265.75
292.295	260.75
292.526	259.75
292.757	249.75
292.987	266.75
293.218	250.75
293.449	263.75
293.68	256.75
293.91	269.75
294.141	262.75
294.372	273.75
294.603	249.75
294.833	264.75
295.064	273.75
295.295	247.75
295.525	266.75
295.756	267.75
295.987	264.75
296.217	265.75
296.448	245.75
296.679	268.75
296.909	277.75
297.14	277.75
297.37	284.75
297.601	274.75
297.831	272.75
298.062	276.75
298.292	273.75
298.523	282.75
298.753	275.75
298.984	282.75
299.214	284.75
299.445	274.75
299.675	296.75
299.905	293.75
300.136	287.75
300.366	285.75
300.597	276.75
300.827	274.75
301.057	292.75
301.288	287.75
301.518	294.75
301.748	285.75
301.979	301.75
302.209	300.75
302.439	294.75
302.669	292.75
302.9	309.75
303.13	299.75
303.36	307.75
303.59	296.75
303.82	305.75
304.051	285.75
304.281	317.75
304.511	294.75
304.741	290.75
304.971	305.75
305.201	309.75
305.431	290.75
305.661	301.75
305.891	308.75
306.121	290.75
306.352	303.75
306.582	291.75
306.812	295.75
307.042	315.75
307.272	300.75
307.502	305.75
307.731	302.75
307.961	308.75
308.191	296.75
308.421	273.75
308.651	311.75
308.881	307.75
309.111	322.75
309.341	299.75
309.571	312.75
309.8	312.75
310.03	296.75
310.26	311.75
310.49	311.75
310.72	310.75
310.949	319.75
311.179	312.75
311.409	321.75
311.639	313.75
311.868	296.75
312.098	330.75
312.328	325.75
312.557	333.75
312.787	321.75
313.017	336.75
313.246	340.75
313.476	340.75
313.706	316.75
313.935	333.75
314.165	315.75
314.394	311.75
314.624	318.75
314.853	337.75
315.083	331.75
315.312	335.75
315.542	336.75
315.771	330.75
316.001	328.75
316.23	336.75
316.46	330.75
316.689	324.75
316.919	339.75
317.148	330.75
317.377	339.75
317.607	337.75
317.836	334.75
318.065	315.75
318.295	340.75
318.524	343.75
318.753	328.75
318.983	346.75
319.212	336.75
319.441	324.75
319.67	333.75
319.9	347.75
320.129	347.75
320.358	332.75
320.587	335.75
320.816	347.75
321.046	327.75
321.275	351.75
321.504	354.75
321.733	352.75
321.962	337.75
322.191	334.75
322.42	354.75
322.649	357.75
322.878	362.75
323.108	344.75
323.337	352.75
323.566	345.75
323.795	375.75
324.024	369.75
324.253	359.75
324.482	365.75
324.71	358.75
324.939	376.75
325.168	345.75
325.397	361.75
325.626	348.75
325.855	359.75
326.084	377.75
326.313	375.75
326.542	367.75
326.77	362.75
326.999	347.75
327.228	353.75
327.457	370.75
327.686	361.75
327.914	383.75
328.143	354.75
328.372	346.75
328.6	357.75
328.829	359.75
329.058	386.75
329.287	363.75
329.515	375.75
329.744	355.75
329.972	379.75
330.201	373.75
330.43	361.75
330.658	379.75
330.887	389.75
331.115	381.75
331.344	379.75
331.572	369.75
331.801	383.75
332.03	379.75
332.258	386.75
332.486	382.75
332.715	396.75
332.943	417.75
333.172	397.75
333.4	402.75
333.629	415.75
333.857	426.75
334.085	421.75
334.314	416.75
334.542	409.75
334.771	392.75
334.999	424.75
335.227	417.75
335.455	433.75
335.684	440.75
335.912	406.75
336.14	425.75
336.369	421.75
336.597	425.75
336.825	428.75
337.053	405.75
337.281	405.75
337.51	402.75
337.738	412.75
337.966	415.75
338.194	405.75
338.422	407.75
338.65	421.75
338.878	376.75
339.106	386.75
339.334	407.75
339.562	398.75
339.79	397.75
340.018	387.75
340.246	385.75
340.474	399.75
340.702	411.75
340.93	413.75
341.158	420.75
341.386	387.75
341.614	395.75
341.842	409.75
342.07	411.75
342.298	375.75
342.526	392.75
342.754	379.75
342.981	395.75
343.209	390.75
343.437	386.75
343.665	413.75
343.893	419.75
344.12	421.75
344.348	403.75
344.576	407.75
344.804	422.75
345.031	417.75
345.259	414.75
345.487	406.75
345.714	384.75
345.942	387.75
346.17	383.75
346.397	397.75
346.625	397.75
346.853	388.75
347.08	393.75
347.308	384.75
347.535	403.75
347.763	367.75
347.99	390.75
348.218	386.75
348.445	392.75
348.673	363.75
348.9	385.75
349.128	387.75
349.355	396.75
349.583	386.75
349.81	380.75
350.037	398.75
350.265	377.75
350.492	386.75
350.72	385.75
350.947	393.75
351.174	381.75
351.402	390.75
351.629	379.75
351.856	369.75
352.083	375.75
352.311	371.75
352.538	386.75
352.765	387.75
352.992	388.75
353.22	364.75
353.447	380.75
353.674	391.75
353.901	371.75
354.128	385.75
354.355	380.75
354.583	380.75
354.81	384.75
355.037	383.75
355.264	350.75
355.491	393.75
355.718	374.75
355.945	402.75
356.172	393.75
356.399	393.75
356.626	375.75
356.853	384.75
357.08	391.75
357.307	392.75
357.534	390.75
357.761	370.75
357.988	383.75
358.215	400.75
358.441	391.75
358.668	371.75
358.895	375.75
359.122	379.75
359.349	374.75
359.576	386.75
359.802	392.75
360.029	401.75
360.256	394.75
360.483	401.75
360.709	397.75
360.936	390.75
361.163	396.75
361.39	402.75
361.616	383.75
361.843	377.75
362.07	389.75
362.296	393.75
362.523	385.75
362.749	382.75
362.976	391.75
363.203	383.75
363.429	392.75
363.656	407.75
363.882	393.75
364.109	397.75
364.335	405.75
364.562	393.75
364.788	405.75
365.015	403.75
365.241	397.75
365.468	401.75
365.694	408.75
365.92	402.75
366.147	391.75
366.373	395.75
366.599	388.75
366.826	380.75
367.052	396.75
367.278	411.75
367.505	419.75
367.731	414.75
367.957	393.75
368.184	421.75
368.41	395.75
368.636	413.75
368.862	403.75
369.089	415.75
369.315	414.75
369.541	409.75
369.767	418.75
369.993	418.75
370.219	403.75
370.445	426.75
370.672	431.75
370.898	409.75
371.124	421.75
371.35	416.75
371.576	411.75
371.802	425.75
372.028	407.75
372.254	430.75
372.48	409.75
372.706	428.75
372.932	410.75
373.158	426.75
373.384	440.75
373.61	431.75
373.835	455.75
374.061	424.75
374.287	436.75
374.513	429.75
374.739	444.75
374.965	427.75
375.191	447.75
375.416	411.75
375.642	439.75
375.868	424.75
376.094	424.75
376.319	443.75
376.545	412.75
376.771	424.75
376.997	431.75
377.222	406.75
377.448	411.75
377.674	419.75
377.899	417.75
378.125	414.75
378.35	421.75
378.576	401.75
378.802	405.75
379.027	397.75
379.253	421.75
379.478	417.75
379.704	419.75
379.929	426.75
380.155	421.75
380.38	433.75
380.606	411.75
380.831	412.75
381.057	434.75
381.282	425.75
381.507	436.75
381.733	443.75
381.958	437.75
382.184	439.75
382.409	456.75
382.634	444.75
382.86	448.75
383.085	439.75
383.31	439.75
383.535	450.75
383.761	448.75
383.986	432.75
384.211	437.75
384.436	465.75
384.662	455.75
384.887	446.75
385.112	455.75
385.337	443.75
385.562	464.75
385.787	460.75
386.013	487.75
386.238	457.75
386.463	482.75
386.688	479.75
386.913	468.75
387.138	481.75
387.363	472.75
387.588	474.75
387.813	490.75
388.038	487.75
388.263	474.75
388.488	465.75
388.713	474.75
388.938	488.75
389.163	496.75
389.387	490.75
389.612	472.75
389.837	472.75
390.062	469.75
390.287	466.75
390.512	450.75
390.736	459.75
390.961	503.75
391.186	484.75
391.411	504.75
391.636	479.75
391.86	504.75
392.085	497.75
392.31	492.75
392.534	509.75
392.759	502.75
392.984	512.75
393.208	519.75
393.433	511.75
393.658	525.75
393.882	501.75
394.107	486.75
394.331	509.75
394.556	503.75
394.78	501.75
395.005	500.75
395.229	497.75
395.454	518.75
395.678	515.75
395.903	489.75
396.127	521.75
396.352	523.75
396.576	531.75
396.801	516.75
397.025	539.75
397.249	547.75
397.474	550.75
397.698	527.75
397.922	529.75
398.147	525.75
398.371	554.75
398.595	531.75
398.82	552.75
399.044	563.75
399.268	581.75
399.492	615.75
399.717	645.75
399.941	639.75
400.165	613.75
400.389	590.75
400.613	614.75
400.837	580.75
401.062	556.75
401.286	567.75
401.51	557.75
401.734	556.75
401.958	568.75
402.182	571.75
402.406	537.75
402.63	560.75
402.854	555.75
403.078	556.75
403.302	534.75
403.526	564.75
403.75	553.75
403.974	573.75
404.198	552.75
404.422	567.75
404.645	585.75
404.869	540.75
405.093	573.75
405.317	568.75
405.541	564.75
405.765	575.75
405.988	581.75
406.212	585.75
406.436	617.75
406.66	609.75
406.883	592.75
407.107	593.75
407.331	597.75
407.555	618.75
407.778	607.75
408.002	631.75
408.226	625.75
408.449	601.75
408.673	630.75
408.896	603.75
409.12	597.75
409.344	612.75
409.567	580.75
409.791	598.75
410.014	594.75
410.238	567.75
410.461	599.75
410.685	593.75
410.908	588.75
411.132	601.75
411.355	593.75
411.578	593.75
411.802	596.75
412.025	572.75
412.249	587.75
412.472	591.75
412.695	567.75
412.919	576.75
413.142	578.75
413.365	586.75
413.589	592.75
413.812	567.75
414.035	579.75
414.258	577.75
414.482	549.75
414.705	549.75
414.928	557.75
415.151	567.75
415.374	557.75
415.597	544.75
415.821	541.75
416.044	535.75
416.267	554.75
416.49	570.75
416.713	554.75
416.936	538.75
417.159	522.75
417.382	543.75
417.605	540.75
417.828	529.75
418.051	532.75
418.274	540.75
418.497	523.75
418.72	532.75
418.943	548.75
419.166	548.75
419.389	572.75
419.611	582.75
419.834	573.75
420.057	559.75
420.28	544.75
420.503	541.75
420.726	534.75
420.948	520.75
421.171	535.75
421.394	528.75
421.617	521.75
421.839	526.75
422.062	519.75
422.285	535.75
422.507	548.75
422.73	543.75
422.953	525.75
423.175	527.75
423.398	548.75
423.621	530.75
423.843	532.75
424.066	546.75
424.288	525.75
424.511	500.75
424.733	530.75
424.956	525.75
425.178	524.75
425.401	514.75
425.623	552.75
425.846	525.75
426.068	520.75
426.291	545.75
426.513	524.75
426.735	556.75
426.958	526.75
427.18	502.75
427.402	502.75
427.625	509.75
427.847	488.75
428.069	492.75
428.292	497.75
428.514	525.75
428.736	514.75
428.958	526.75
429.181	513.75
429.403	504.75
429.625	509.75
429.847	515.75
430.069	514.75
430.292	498.75
430.514	491.75
430.736	522.75
430.958	500.75
431.18	517.75
431.402	503.75
431.624	527.75
431.846	515.75
432.068	536.75
432.29	544.75
432.512	524.75
432.734	521.75
432.956	511.75
433.178	519.75
433.4	517.75
433.622	540.75
433.844	518.75
434.066	508.75
434.287	541.75
434.509	539.75
434.731	547.75
434.953	547.75
435.175	546.75
435.397	568.75
435.618	525.75
435.84	545.75
436.062	512.75
436.284	531.75
436.505	537.75
436.727	536.75
436.949	504.75
437.17	518.75
437.392	508.75
437.614	502.75
437.835	512.75
438.057	486.75
438.278	511.75
438.5	498.75
438.721	505.75
438.943	501.75
439.165	506.75
439.386	506.75
439.608	487.75
439.829	511.75
440.05	506.75
440.272	513.75
440.493	524.75
440.715	508.75
440.936	519.75
441.158	514.75
441.379	525.75
441.6	514.75
441.822	501.75
442.043	523.75
442.264	529.75
442.486	515.75
442.707	515.75
442.928	513.75
443.149	524.75
443.371	502.75
443.592	517.75
443.813	521.75
444.034	523.75
444.255	514.75
444.476	542.75
444.698	528.75
444.919	532.75
445.14	620.75
445.361	584.75
445.582	544.75
445.803	550.75
446.024	503.75
446.245	524.75
446.466	499.75
446.687	535.75
446.908	497.75
447.129	498.75
447.35	487.75
447.571	477.75
447.792	475.75
448.013	505.75
448.234	470.75
448.455	479.75
448.675	479.75
448.896	468.75
449.117	479.75
449.338	469.75
449.559	460.75
449.779	458.75
450	467.75
450.221	466.75
450.442	479.75
450.662	476.75
450.883	444.75
451.104	480.75
451.324	459.75
451.545	463.75
451.766	445.75
451.986	458.75
452.207	477.75
452.428	445.75
452.648	459.75
452.869	458.75
453.089	457.75
453.31	458.75
453.53	457.75
453.751	444.75
453.971	448.75
454.192	440.75
454.412	442.75
454.633	460.75
454.853	472.75
455.073	454.75
455.294	457.75
455.514	427.75
455.734	456.75
455.955	431.75
456.175	447.75
456.395	429.75
456.616	445.75
456.836	458.75
457.056	464.75
457.276	446.75
457.497	466.75
457.717	466.75
457.937	465.75
458.157	465.75
458.377	477.75
458.598	472.75
458.818	488.75
459.038	483.75
459.258	495.75
459.478	496.75
459.698	492.75
459.918	507.75
460.138	505.75
460.358	536.75
460.578	537.75
460.798	538.75
461.018	526.75
461.238	551.75
461.458	560.75
461.678	558.75
461.898	562.75
462.118	557.75
462.338	573.75
462.558	577.75
462.777	583.75
462.997	593.75
463.217	604.75
463.437	594.75
463.657	599.75
463.876	584.75
464.096	589.75
464.316	579.75
464.536	579.75
464.755	572.75
464.975	535.75
465.195	561.75
465.414	544.75
465.634	529.75
465.854	529.75
466.073	528.75
466.293	514.75
466.512	514.75
466.732	498.75
466.951	498.75
467.171	524.75
467.391	512.75
467.61	487.75
467.829	495.75
468.049	503.75
468.268	476.75
468.488	470.75
468.707	476.75
468.927	467.75
469.146	508.75
469.365	496.75
469.585	492.75
469.804	498.75
470.023	509.75
470.243	492.75
470.462	478.75
470.681	490.75
470.901	497.75
471.12	513.75
471.339	507.75
471.558	508.75
471.777	501.75
471.997	516.75
472.216	487.75
472.435	513.75
472.654	505.75
472.873	484.75
473.092	507.75
473.311	511.75
473.53	484.75
473.749	502.75
473.968	505.75
474.187	492.75
474.406	481.75
474.625	498.75
474.844	518.75
475.063	495.75
475.282	503.75
475.501	488.75
475.72	505.75
475.939	516.75
476.158	543.75
476.377	545.75
476.596	532.75
476.814	549.75
477.033	526.75
477.252	550.75
477.471	569.75
477.69	548.75
477.908	560.75
478.127	553.75
478.346	579.75
478.564	570.75
478.783	568.75
479.002	583.75
479.22	593.75
479.439	598.75
479.658	582.75
479.876	601.75
480.095	592.75
480.313	592.75
480.532	602.75
480.751	598.75
480.969	581.75
481.188	596.75
481.406	577.75
481.624	585.75
481.843	576.75
482.061	575.75
482.28	579.75
482.498	619.75
482.717	588.75
482.935	588.75
483.153	609.75
483.372	593.75
483.59	588.75
483.808	606.75
484.027	587.75
484.245	605.75
484.463	618.75
484.681	607.75
484.9	604.75
485.118	607.75
485.336	615.75
485.554	618.75
485.772	619.75
485.99	615.75
486.209	628.75
486.427	597.75
486.645	621.75
486.863	634.75
487.081	605.75
487.299	598.75
487.517	611.75
487.735	607.75
487.953	605.75
488.171	641.75
488.389	631.75
488.607	607.75
488.825	615.75
489.043	626.75
489.261	632.75
489.479	611.75
489.696	611.75
489.914	605.75
490.132	607.75
490.35	604.75
490.568	613.75
490.786	596.75
491.003	609.75
491.221	613.75
491.439	621.75
491.657	601.75
491.874	629.75
492.092	634.75
492.31	623.75
492.527	603.75
492.745	650.75
492.963	638.75
493.18	636.75
493.398	620.75
493.615	629.75
493.833	631.75
494.05	636.75
494.268	625.75
494.485	673.75
494.703	645.75
494.92	613.75
495.138	620.75
495.355	659.75
495.573	646.75
495.79	632.75
496.008	649.75
496.225	665.75
496.442	662.75
496.66	666.75
496.877	689.75
497.094	707.75
497.312	705.75
497.529	708.75
497.746	709.75
497.963	704.75
498.181	727.75
498.398	757.75
498.615	779.75
498.832	799.75
499.049	824.75
499.267	839.75
499.484	867.75
499.701	896.75
499.918	932.75
500.135	956.75
500.352	976.75
500.569	967.75
500.786	981.75
501.003	973.75
501.22	963.75
501.437	905.75
501.654	864.75
