Data from Fe(NO3)3@0.025M.TitratingCurve.Agarose3%dH2O.NegLispCup.LampEnergy10.LIBS07252019_HRD10591_16-55-39-335.txt Node
Date: Thu Jul 25 16:55:39 EDT 2019
User: cochatt
Spectrometer: HR+D1059
Trigger mode: 1
Integration Time (sec): 1.000000E-1
Scans to average: 1
Electric dark correction enabled: true
Nonlinearity correction enabled: false
Boxcar width: 0
XAxis mode: Wavelengths
Number of Pixels in Spectrum: 2048
>>>>>Begin Spectral Data<<<<<
223.165	-9.88
223.4	-9.88
223.635	-9.88
223.869	-27.88
224.104	-24.88
224.338	-11.88
224.573	-11.88
224.808	-6.88
225.042	-0.88
225.277	-21.88
225.511	-0.88
225.746	7.12
225.98	3.12
226.215	15.12
226.449	14.12
226.683	21.12
226.918	21.12
227.152	35.12
227.387	33.12
227.621	38.12
227.856	27.12
228.09	44.12
228.324	47.12
228.559	48.12
228.793	54.12
229.027	69.12
229.262	67.12
229.496	83.12
229.73	63.12
229.964	84.12
230.199	80.12
230.433	69.12
230.667	98.12
230.901	89.12
231.136	84.12
231.37	87.12
231.604	84.12
231.838	85.12
232.072	89.12
232.306	89.12
232.541	90.12
232.775	95.12
233.009	87.12
233.243	75.12
233.477	88.12
233.711	93.12
233.945	94.12
234.179	83.12
234.413	77.12
234.647	77.12
234.881	91.12
235.115	97.12
235.349	103.12
235.583	96.12
235.817	87.12
236.051	90.12
236.285	97.12
236.519	97.12
236.753	88.12
236.987	91.12
237.221	89.12
237.455	86.12
237.689	91.12
237.922	98.12
238.156	99.12
238.39	91.12
238.624	87.12
238.858	92.12
239.091	84.12
239.325	87.12
239.559	94.12
239.793	112.12
240.027	89.12
240.26	85.12
240.494	94.12
240.728	99.12
240.961	97.12
241.195	104.12
241.429	103.12
241.662	88.12
241.896	95.12
242.13	110.12
242.363	99.12
242.597	102.12
242.83	98.12
243.064	102.12
243.298	95.12
243.531	98.12
243.765	92.12
243.998	100.12
244.232	97.12
244.465	113.12
244.699	95.12
244.932	104.12
245.166	95.12
245.399	91.12
245.633	107.12
245.866	108.12
246.099	100.12
246.333	113.12
246.566	104.12
246.8	105.12
247.033	105.12
247.266	119.12
247.5	97.12
247.733	115.12
247.966	102.12
248.2	99.12
248.433	100.12
248.666	117.12
248.899	100.12
249.133	101.12
249.366	114.12
249.599	116.12
249.832	99.12
250.066	113.12
250.299	102.12
250.532	113.12
250.765	102.12
250.998	108.12
251.231	98.12
251.465	105.12
251.698	100.12
251.931	114.12
252.164	96.12
252.397	103.12
252.63	104.12
252.863	131.12
253.096	117.12
253.329	92.12
253.562	110.12
253.795	112.12
254.028	103.12
254.261	113.12
254.494	115.12
254.727	124.12
254.96	121.12
255.193	111.12
255.426	119.12
255.659	133.12
255.892	127.12
256.124	99.12
256.357	119.12
256.59	112.12
256.823	105.12
257.056	123.12
257.289	103.12
257.521	121.12
257.754	125.12
257.987	127.12
258.22	132.12
258.452	120.12
258.685	123.12
258.918	104.12
259.151	133.12
259.383	119.12
259.616	116.12
259.849	125.12
260.081	135.12
260.314	139.12
260.547	115.12
260.779	125.12
261.012	130.12
261.244	129.12
261.477	138.12
261.71	117.12
261.942	114.12
262.175	130.12
262.407	128.12
262.64	128.12
262.872	137.12
263.105	113.12
263.337	132.12
263.57	105.12
263.802	123.12
264.035	138.12
264.267	140.12
264.499	125.12
264.732	123.12
264.964	142.12
265.197	130.12
265.429	133.12
265.661	137.12
265.894	140.12
266.126	137.12
266.358	127.12
266.591	127.12
266.823	135.12
267.055	129.12
267.287	139.12
267.52	131.12
267.752	141.12
267.984	141.12
268.216	141.12
268.448	154.12
268.681	152.12
268.913	141.12
269.145	139.12
269.377	131.12
269.609	150.12
269.841	146.12
270.073	147.12
270.306	116.12
270.538	135.12
270.77	129.12
271.002	147.12
271.234	135.12
271.466	148.12
271.698	153.12
271.93	144.12
272.162	156.12
272.394	152.12
272.626	134.12
272.858	147.12
273.09	141.12
273.322	158.12
273.553	155.12
273.785	147.12
274.017	138.12
274.249	158.12
274.481	137.12
274.713	147.12
274.945	159.12
275.176	152.12
275.408	149.12
275.64	159.12
275.872	144.12
276.104	151.12
276.335	154.12
276.567	163.12
276.799	151.12
277.031	149.12
277.262	146.12
277.494	154.12
277.726	148.12
277.957	161.12
278.189	170.12
278.421	159.12
278.652	165.12
278.884	158.12
279.115	155.12
279.347	140.12
279.579	156.12
279.81	162.12
280.042	157.12
280.273	146.12
280.505	183.12
280.736	161.12
280.968	161.12
281.199	157.12
281.431	155.12
281.662	164.12
281.894	180.12
282.125	166.12
282.356	157.12
282.588	177.12
282.819	171.12
283.051	154.12
283.282	162.12
283.513	159.12
283.745	169.12
283.976	157.12
284.207	160.12
284.439	185.12
284.67	172.12
284.901	163.12
285.132	169.12
285.364	168.12
285.595	169.12
285.826	161.12
286.057	194.12
286.288	185.12
286.52	170.12
286.751	168.12
286.982	180.12
287.213	146.12
287.444	164.12
287.675	169.12
287.906	190.12
288.138	189.12
288.369	191.12
288.6	179.12
288.831	178.12
289.062	165.12
289.293	168.12
289.524	177.12
289.755	156.12
289.986	192.12
290.217	174.12
290.448	202.12
290.679	203.12
290.91	180.12
291.141	177.12
291.371	179.12
291.602	180.12
291.833	184.12
292.064	183.12
292.295	200.12
292.526	198.12
292.757	188.12
292.987	184.12
293.218	171.12
293.449	190.12
293.68	186.12
293.91	169.12
294.141	186.12
294.372	189.12
294.603	190.12
294.833	183.12
295.064	196.12
295.295	195.12
295.525	185.12
295.756	183.12
295.987	175.12
296.217	191.12
296.448	179.12
296.679	193.12
296.909	188.12
297.14	177.12
297.37	177.12
297.601	201.12
297.831	193.12
298.062	198.12
298.292	209.12
298.523	183.12
298.753	198.12
298.984	204.12
299.214	195.12
299.445	204.12
299.675	184.12
299.905	202.12
300.136	180.12
300.366	212.12
300.597	201.12
300.827	208.12
301.057	191.12
301.288	192.12
301.518	194.12
301.748	201.12
301.979	208.12
302.209	211.12
302.439	210.12
302.669	196.12
302.9	212.12
303.13	212.12
303.36	200.12
303.59	199.12
303.82	213.12
304.051	203.12
304.281	205.12
304.511	217.12
304.741	226.12
304.971	216.12
305.201	193.12
305.431	213.12
305.661	216.12
305.891	224.12
306.121	207.12
306.352	222.12
306.582	208.12
306.812	193.12
307.042	218.12
307.272	216.12
307.502	192.12
307.731	218.12
307.961	203.12
308.191	215.12
308.421	203.12
308.651	211.12
308.881	224.12
309.111	216.12
309.341	217.12
309.571	218.12
309.8	198.12
310.03	206.12
310.26	213.12
310.49	211.12
310.72	228.12
310.949	204.12
311.179	208.12
311.409	232.12
311.639	216.12
311.868	228.12
312.098	213.12
312.328	230.12
312.557	221.12
312.787	230.12
313.017	234.12
313.246	240.12
313.476	217.12
313.706	233.12
313.935	232.12
314.165	243.12
314.394	221.12
314.624	235.12
314.853	224.12
315.083	236.12
315.312	225.12
315.542	225.12
315.771	236.12
316.001	242.12
316.23	233.12
316.46	239.12
316.689	212.12
316.919	223.12
317.148	227.12
317.377	235.12
317.607	240.12
317.836	229.12
318.065	248.12
318.295	225.12
318.524	249.12
318.753	247.12
318.983	236.12
319.212	227.12
319.441	209.12
319.67	218.12
319.9	231.12
320.129	233.12
320.358	234.12
320.587	234.12
320.816	219.12
321.046	237.12
321.275	236.12
321.504	234.12
321.733	236.12
321.962	238.12
322.191	245.12
322.42	235.12
322.649	229.12
322.878	231.12
323.108	226.12
323.337	233.12
323.566	243.12
323.795	230.12
324.024	237.12
324.253	236.12
324.482	248.12
324.71	259.12
324.939	261.12
325.168	225.12
325.397	235.12
325.626	241.12
325.855	248.12
326.084	243.12
326.313	260.12
326.542	255.12
326.77	259.12
326.999	257.12
327.228	237.12
327.457	249.12
327.686	250.12
327.914	244.12
328.143	263.12
328.372	253.12
328.6	243.12
328.829	260.12
329.058	259.12
329.287	240.12
329.515	260.12
329.744	260.12
329.972	261.12
330.201	244.12
330.43	261.12
330.658	268.12
330.887	265.12
331.115	265.12
331.344	268.12
331.572	275.12
331.801	267.12
332.03	261.12
332.258	267.12
332.486	271.12
332.715	278.12
332.943	291.12
333.172	296.12
333.4	281.12
333.629	284.12
333.857	296.12
334.085	293.12
334.314	321.12
334.542	303.12
334.771	287.12
334.999	284.12
335.227	298.12
335.455	303.12
335.684	305.12
335.912	321.12
336.14	296.12
336.369	288.12
336.597	284.12
336.825	283.12
337.053	295.12
337.281	297.12
337.51	295.12
337.738	307.12
337.966	280.12
338.194	273.12
338.422	305.12
338.65	295.12
338.878	287.12
339.106	277.12
339.334	280.12
339.562	259.12
339.79	278.12
340.018	281.12
340.246	268.12
340.474	278.12
340.702	280.12
340.93	283.12
341.158	277.12
341.386	272.12
341.614	260.12
341.842	272.12
342.07	276.12
342.298	290.12
342.526	282.12
342.754	293.12
342.981	265.12
343.209	275.12
343.437	296.12
343.665	273.12
343.893	310.12
344.12	307.12
344.348	296.12
344.576	299.12
344.804	313.12
345.031	291.12
345.259	282.12
345.487	281.12
345.714	277.12
345.942	281.12
346.17	274.12
346.397	281.12
346.625	280.12
346.853	269.12
347.08	255.12
347.308	289.12
347.535	279.12
347.763	275.12
347.99	259.12
348.218	271.12
348.445	266.12
348.673	267.12
348.9	266.12
349.128	275.12
349.355	277.12
349.583	271.12
349.81	269.12
350.037	268.12
350.265	266.12
350.492	267.12
350.72	269.12
350.947	281.12
351.174	269.12
351.402	281.12
351.629	267.12
351.856	265.12
352.083	249.12
352.311	276.12
352.538	260.12
352.765	256.12
352.992	261.12
353.22	265.12
353.447	261.12
353.674	265.12
353.901	277.12
354.128	280.12
354.355	268.12
354.583	266.12
354.81	264.12
355.037	275.12
355.264	275.12
355.491	262.12
355.718	273.12
355.945	283.12
356.172	264.12
356.399	266.12
356.626	267.12
356.853	282.12
357.08	253.12
357.307	261.12
357.534	266.12
357.761	282.12
357.988	275.12
358.215	273.12
358.441	260.12
358.668	270.12
358.895	283.12
359.122	251.12
359.349	280.12
359.576	261.12
359.802	261.12
360.029	260.12
360.256	272.12
360.483	264.12
360.709	264.12
360.936	274.12
361.163	268.12
361.39	273.12
361.616	270.12
361.843	283.12
362.07	266.12
362.296	267.12
362.523	273.12
362.749	250.12
362.976	268.12
363.203	280.12
363.429	282.12
363.656	279.12
363.882	279.12
364.109	265.12
364.335	269.12
364.562	264.12
364.788	282.12
365.015	294.12
365.241	275.12
365.468	260.12
365.694	282.12
365.92	272.12
366.147	266.12
366.373	279.12
366.599	279.12
366.826	267.12
367.052	270.12
367.278	287.12
367.505	268.12
367.731	278.12
367.957	279.12
368.184	268.12
368.41	273.12
368.636	280.12
368.862	285.12
369.089	268.12
369.315	284.12
369.541	275.12
369.767	276.12
369.993	277.12
370.219	288.12
370.445	287.12
370.672	285.12
370.898	289.12
371.124	298.12
371.35	301.12
371.576	297.12
371.802	289.12
372.028	290.12
372.254	298.12
372.48	311.12
372.706	305.12
372.932	309.12
373.158	314.12
373.384	299.12
373.61	310.12
373.835	310.12
374.061	304.12
374.287	318.12
374.513	309.12
374.739	311.12
374.965	320.12
375.191	326.12
375.416	301.12
375.642	317.12
375.868	299.12
376.094	311.12
376.319	289.12
376.545	308.12
376.771	304.12
376.997	288.12
377.222	281.12
377.448	308.12
377.674	295.12
377.899	292.12
378.125	287.12
378.35	300.12
378.576	317.12
378.802	284.12
379.027	301.12
379.253	299.12
379.478	298.12
379.704	317.12
379.929	299.12
380.155	295.12
380.38	293.12
380.606	306.12
380.831	299.12
381.057	309.12
381.282	291.12
381.507	308.12
381.733	309.12
381.958	297.12
382.184	339.12
382.409	317.12
382.634	315.12
382.86	318.12
383.085	310.12
383.31	324.12
383.535	319.12
383.761	330.12
383.986	331.12
384.211	327.12
384.436	328.12
384.662	305.12
384.887	314.12
385.112	323.12
385.337	325.12
385.562	330.12
385.787	343.12
386.013	360.12
386.238	341.12
386.463	351.12
386.688	352.12
386.913	353.12
387.138	343.12
387.363	360.12
387.588	351.12
387.813	346.12
388.038	335.12
388.263	345.12
388.488	344.12
388.713	325.12
388.938	342.12
389.163	339.12
389.387	349.12
389.612	345.12
389.837	349.12
390.062	367.12
390.287	345.12
390.512	357.12
390.736	355.12
390.961	380.12
391.186	373.12
391.411	362.12
391.636	373.12
391.86	376.12
392.085	378.12
392.31	375.12
392.534	355.12
392.759	365.12
392.984	356.12
393.208	348.12
393.433	367.12
393.658	369.12
393.882	367.12
394.107	352.12
394.331	346.12
394.556	362.12
394.78	369.12
395.005	375.12
395.229	347.12
395.454	383.12
395.678	362.12
395.903	367.12
396.127	379.12
396.352	371.12
396.576	372.12
396.801	374.12
397.025	361.12
397.249	415.12
397.474	395.12
397.698	417.12
397.922	400.12
398.147	397.12
398.371	403.12
398.595	433.12
398.82	430.12
399.044	437.12
399.268	455.12
399.492	492.12
399.717	483.12
399.941	484.12
400.165	487.12
400.389	462.12
400.613	460.12
400.837	456.12
401.062	441.12
401.286	414.12
401.51	403.12
401.734	411.12
401.958	416.12
402.182	423.12
402.406	417.12
402.63	402.12
402.854	419.12
403.078	424.12
403.302	443.12
403.526	404.12
403.75	410.12
403.974	421.12
404.198	416.12
404.422	407.12
404.645	442.12
404.869	420.12
405.093	412.12
405.317	421.12
405.541	419.12
405.765	420.12
405.988	426.12
406.212	427.12
406.436	439.12
406.66	442.12
406.883	437.12
407.107	474.12
407.331	459.12
407.555	480.12
407.778	466.12
408.002	471.12
408.226	451.12
408.449	445.12
408.673	450.12
408.896	449.12
409.12	458.12
409.344	424.12
409.567	437.12
409.791	447.12
410.014	445.12
410.238	415.12
410.461	421.12
410.685	419.12
410.908	410.12
411.132	431.12
411.355	440.12
411.578	425.12
411.802	446.12
412.025	427.12
412.249	423.12
412.472	432.12
412.695	402.12
412.919	400.12
413.142	415.12
413.365	429.12
413.589	421.12
413.812	403.12
414.035	411.12
414.258	409.12
414.482	407.12
414.705	409.12
414.928	401.12
415.151	406.12
415.374	408.12
415.597	401.12
415.821	406.12
416.044	404.12
416.267	409.12
416.49	392.12
416.713	390.12
416.936	397.12
417.159	393.12
417.382	389.12
417.605	402.12
417.828	379.12
418.051	387.12
418.274	381.12
418.497	397.12
418.72	405.12
418.943	390.12
419.166	421.12
419.389	444.12
419.611	395.12
419.834	406.12
420.057	403.12
420.28	400.12
420.503	380.12
420.726	391.12
420.948	403.12
421.171	403.12
421.394	387.12
421.617	373.12
421.839	389.12
422.062	391.12
422.285	384.12
422.507	391.12
422.73	396.12
422.953	384.12
423.175	385.12
423.398	371.12
423.621	404.12
423.843	383.12
424.066	391.12
424.288	403.12
424.511	396.12
424.733	412.12
424.956	391.12
425.178	372.12
425.401	390.12
425.623	394.12
425.846	386.12
426.068	388.12
426.291	383.12
426.513	379.12
426.735	393.12
426.958	388.12
427.18	375.12
427.402	374.12
427.625	394.12
427.847	376.12
428.069	381.12
428.292	377.12
428.514	362.12
428.736	361.12
428.958	369.12
429.181	371.12
429.403	362.12
429.625	356.12
429.847	354.12
430.069	346.12
430.292	383.12
430.514	359.12
430.736	369.12
430.958	381.12
431.18	360.12
431.402	379.12
431.624	354.12
431.846	372.12
432.068	383.12
432.29	369.12
432.512	355.12
432.734	358.12
432.956	352.12
433.178	379.12
433.4	389.12
433.622	367.12
433.844	395.12
434.066	358.12
434.287	371.12
434.509	381.12
434.731	393.12
434.953	372.12
435.175	392.12
435.397	380.12
435.618	392.12
435.84	375.12
436.062	357.12
436.284	363.12
436.505	368.12
436.727	375.12
436.949	378.12
437.17	347.12
437.392	370.12
437.614	369.12
437.835	341.12
438.057	368.12
438.278	351.12
438.5	365.12
438.721	353.12
438.943	379.12
439.165	361.12
439.386	352.12
439.608	347.12
439.829	362.12
440.05	363.12
440.272	379.12
440.493	347.12
440.715	359.12
440.936	360.12
441.158	373.12
441.379	377.12
441.6	389.12
441.822	368.12
442.043	374.12
442.264	381.12
442.486	378.12
442.707	384.12
442.928	399.12
443.149	376.12
443.371	397.12
443.592	380.12
443.813	388.12
444.034	384.12
444.255	398.12
444.476	378.12
444.698	396.12
444.919	405.12
445.14	479.12
445.361	422.12
445.582	383.12
445.803	391.12
446.024	371.12
446.245	375.12
446.466	387.12
446.687	379.12
446.908	383.12
447.129	368.12
447.35	346.12
447.571	370.12
447.792	339.12
448.013	352.12
448.234	359.12
448.455	357.12
448.675	336.12
448.896	356.12
449.117	341.12
449.338	363.12
449.559	338.12
449.779	338.12
450	343.12
450.221	329.12
450.442	344.12
450.662	341.12
450.883	338.12
451.104	330.12
451.324	339.12
451.545	340.12
451.766	342.12
451.986	356.12
452.207	323.12
452.428	327.12
452.648	311.12
452.869	323.12
453.089	315.12
453.31	331.12
453.53	327.12
453.751	311.12
453.971	327.12
454.192	314.12
454.412	337.12
454.633	332.12
454.853	325.12
455.073	305.12
455.294	322.12
455.514	328.12
455.734	304.12
455.955	338.12
456.175	332.12
456.395	337.12
456.616	340.12
456.836	346.12
457.056	321.12
457.276	339.12
457.497	337.12
457.717	354.12
457.937	326.12
458.157	339.12
458.377	339.12
458.598	368.12
458.818	367.12
459.038	361.12
459.258	358.12
459.478	379.12
459.698	378.12
459.918	374.12
460.138	372.12
460.358	405.12
460.578	389.12
460.798	399.12
461.018	390.12
461.238	427.12
461.458	427.12
461.678	425.12
461.898	431.12
462.118	417.12
462.338	437.12
462.558	447.12
462.777	459.12
462.997	454.12
463.217	468.12
463.437	460.12
463.657	457.12
463.876	455.12
464.096	444.12
464.316	452.12
464.536	439.12
464.755	438.12
464.975	440.12
465.195	420.12
465.414	418.12
465.634	404.12
465.854	384.12
466.073	385.12
466.293	378.12
466.512	373.12
466.732	375.12
466.951	376.12
467.171	383.12
467.391	359.12
467.61	348.12
467.829	369.12
468.049	357.12
468.268	346.12
468.488	363.12
468.707	361.12
468.927	359.12
469.146	353.12
469.365	368.12
469.585	379.12
469.804	361.12
470.023	372.12
470.243	362.12
470.462	385.12
470.681	369.12
470.901	369.12
471.12	368.12
471.339	381.12
471.558	354.12
471.777	364.12
471.997	378.12
472.216	362.12
472.435	372.12
472.654	375.12
472.873	379.12
473.092	356.12
473.311	345.12
473.53	373.12
473.749	347.12
473.968	354.12
474.187	358.12
474.406	370.12
474.625	371.12
474.844	363.12
475.063	356.12
475.282	369.12
475.501	338.12
475.72	369.12
475.939	362.12
476.158	372.12
476.377	374.12
476.596	375.12
476.814	371.12
477.033	377.12
477.252	388.12
477.471	407.12
477.69	387.12
477.908	395.12
478.127	402.12
478.346	411.12
478.564	404.12
478.783	409.12
479.002	398.12
479.22	409.12
479.439	410.12
479.658	431.12
479.876	435.12
480.095	448.12
480.313	436.12
480.532	444.12
480.751	437.12
480.969	437.12
481.188	432.12
481.406	419.12
481.624	401.12
481.843	407.12
482.061	421.12
482.28	415.12
482.498	428.12
482.717	411.12
482.935	403.12
483.153	399.12
483.372	410.12
483.59	397.12
483.808	417.12
484.027	417.12
484.245	411.12
484.463	423.12
484.681	411.12
484.9	420.12
485.118	402.12
485.336	399.12
485.554	445.12
485.772	417.12
485.99	415.12
486.209	425.12
486.427	436.12
486.645	435.12
486.863	419.12
487.081	439.12
487.299	421.12
487.517	428.12
487.735	431.12
487.953	414.12
488.171	430.12
488.389	424.12
488.607	408.12
488.825	428.12
489.043	404.12
489.261	418.12
489.479	405.12
489.696	433.12
489.914	433.12
490.132	437.12
490.35	411.12
490.568	405.12
490.786	443.12
491.003	418.12
491.221	427.12
491.439	415.12
491.657	448.12
491.874	438.12
492.092	424.12
492.31	451.12
492.527	442.12
492.745	432.12
492.963	451.12
493.18	451.12
493.398	446.12
493.615	435.12
493.833	476.12
494.05	439.12
494.268	465.12
494.485	469.12
494.703	438.12
494.92	458.12
495.138	471.12
495.355	443.12
495.573	471.12
495.79	456.12
496.008	473.12
496.225	480.12
496.442	507.12
496.66	499.12
496.877	488.12
497.094	498.12
497.312	506.12
497.529	529.12
497.746	525.12
497.963	567.12
498.181	536.12
498.398	564.12
498.615	589.12
498.832	608.12
499.049	634.12
499.267	670.12
499.484	718.12
499.701	730.12
499.918	748.12
500.135	804.12
500.352	826.12
500.569	813.12
500.786	793.12
501.003	783.12
501.22	757.12
501.437	752.12
501.654	733.12
501.871	695.12
502.088	619.12
502.305	632.12
502.522	603.12
