Data from Fe(NO3)3@0.05M.TitratingCurve.Agarose3%dH2O.NegLispCup.LampEnergy10.LIBS07252019_HRD10591_16-48-01-334.txt Node
Date: Thu Jul 25 16:48:01 EDT 2019
User: cochatt
Spectrometer: HR+D1059
Trigger mode: 1
Integration Time (sec): 1.000000E-1
Scans to average: 1
Electric dark correction enabled: true
Nonlinearity correction enabled: false
Boxcar width: 0
XAxis mode: Wavelengths
Number of Pixels in Spectrum: 2048
>>>>>Begin Spectral Data<<<<<
223.165	-15.38
223.4	-15.38
223.635	-15.38
223.869	-9.38
224.104	-12.38
224.338	-11.38
224.573	-5.38
224.808	-15.38
225.042	-17.38
225.277	-10.38
225.511	-8.38
225.746	0.62
225.98	8.62
226.215	9.62
226.449	24.62
226.683	18.62
226.918	23.62
227.152	19.62
227.387	33.62
227.621	43.62
227.856	51.62
228.09	39.62
228.324	42.62
228.559	53.62
228.793	51.62
229.027	65.62
229.262	74.62
229.496	65.62
229.73	77.62
229.964	90.62
230.199	85.62
230.433	96.62
230.667	74.62
230.901	86.62
231.136	108.62
231.37	101.62
231.604	90.62
231.838	99.62
232.072	91.62
232.306	98.62
232.541	103.62
232.775	90.62
233.009	88.62
233.243	113.62
233.477	107.62
233.711	99.62
233.945	101.62
234.179	96.62
234.413	104.62
234.647	97.62
234.881	111.62
235.115	106.62
235.349	109.62
235.583	107.62
235.817	100.62
236.051	98.62
236.285	121.62
236.519	116.62
236.753	99.62
236.987	97.62
237.221	85.62
237.455	103.62
237.689	100.62
237.922	115.62
238.156	103.62
238.39	93.62
238.624	108.62
238.858	101.62
239.091	120.62
239.325	96.62
239.559	111.62
239.793	110.62
240.027	109.62
240.26	110.62
240.494	109.62
240.728	106.62
240.961	92.62
241.195	106.62
241.429	112.62
241.662	110.62
241.896	116.62
242.13	114.62
242.363	117.62
242.597	116.62
242.83	103.62
243.064	119.62
243.298	119.62
243.531	117.62
243.765	131.62
243.998	112.62
244.232	117.62
244.465	121.62
244.699	119.62
244.932	112.62
245.166	121.62
245.399	106.62
245.633	111.62
245.866	113.62
246.099	116.62
246.333	132.62
246.566	119.62
246.8	127.62
247.033	131.62
247.266	119.62
247.5	120.62
247.733	106.62
247.966	135.62
248.2	118.62
248.433	147.62
248.666	125.62
248.899	131.62
249.133	128.62
249.366	145.62
249.599	126.62
249.832	127.62
250.066	133.62
250.299	141.62
250.532	143.62
250.765	143.62
250.998	148.62
251.231	138.62
251.465	124.62
251.698	136.62
251.931	130.62
252.164	140.62
252.397	131.62
252.63	137.62
252.863	138.62
253.096	158.62
253.329	149.62
253.562	134.62
253.795	145.62
254.028	122.62
254.261	147.62
254.494	137.62
254.727	145.62
254.96	133.62
255.193	150.62
255.426	133.62
255.659	137.62
255.892	150.62
256.124	144.62
256.357	142.62
256.59	161.62
256.823	139.62
257.056	151.62
257.289	136.62
257.521	157.62
257.754	144.62
257.987	147.62
258.22	136.62
258.452	163.62
258.685	166.62
258.918	150.62
259.151	145.62
259.383	159.62
259.616	170.62
259.849	157.62
260.081	170.62
260.314	170.62
260.547	131.62
260.779	164.62
261.012	153.62
261.244	173.62
261.477	158.62
261.71	169.62
261.942	148.62
262.175	173.62
262.407	165.62
262.64	166.62
262.872	159.62
263.105	173.62
263.337	167.62
263.57	168.62
263.802	161.62
264.035	158.62
264.267	156.62
264.499	163.62
264.732	168.62
264.964	163.62
265.197	162.62
265.429	158.62
265.661	163.62
265.894	159.62
266.126	171.62
266.358	176.62
266.591	169.62
266.823	175.62
267.055	175.62
267.287	170.62
267.52	163.62
267.752	208.62
267.984	178.62
268.216	176.62
268.448	203.62
268.681	178.62
268.913	175.62
269.145	183.62
269.377	173.62
269.609	149.62
269.841	175.62
270.073	177.62
270.306	185.62
270.538	180.62
270.77	182.62
271.002	195.62
271.234	179.62
271.466	181.62
271.698	167.62
271.93	174.62
272.162	173.62
272.394	181.62
272.626	183.62
272.858	161.62
273.09	185.62
273.322	209.62
273.553	189.62
273.785	185.62
274.017	195.62
274.249	207.62
274.481	177.62
274.713	188.62
274.945	186.62
275.176	198.62
275.408	181.62
275.64	188.62
275.872	189.62
276.104	212.62
276.335	189.62
276.567	184.62
276.799	203.62
277.031	189.62
277.262	200.62
277.494	197.62
277.726	194.62
277.957	201.62
278.189	207.62
278.421	197.62
278.652	189.62
278.884	195.62
279.115	204.62
279.347	202.62
279.579	187.62
279.81	218.62
280.042	196.62
280.273	196.62
280.505	202.62
280.736	200.62
280.968	185.62
281.199	208.62
281.431	183.62
281.662	213.62
281.894	218.62
282.125	205.62
282.356	214.62
282.588	217.62
282.819	209.62
283.051	198.62
283.282	191.62
283.513	215.62
283.745	229.62
283.976	216.62
284.207	221.62
284.439	209.62
284.67	219.62
284.901	215.62
285.132	207.62
285.364	215.62
285.595	211.62
285.826	206.62
286.057	228.62
286.288	217.62
286.52	203.62
286.751	223.62
286.982	221.62
287.213	220.62
287.444	224.62
287.675	220.62
287.906	222.62
288.138	223.62
288.369	230.62
288.6	217.62
288.831	231.62
289.062	206.62
289.293	204.62
289.524	229.62
289.755	216.62
289.986	243.62
290.217	211.62
290.448	222.62
290.679	225.62
290.91	255.62
291.141	222.62
291.371	247.62
291.602	241.62
291.833	213.62
292.064	222.62
292.295	222.62
292.526	241.62
292.757	228.62
292.987	231.62
293.218	220.62
293.449	208.62
293.68	209.62
293.91	237.62
294.141	222.62
294.372	227.62
294.603	234.62
294.833	221.62
295.064	227.62
295.295	237.62
295.525	243.62
295.756	237.62
295.987	236.62
296.217	230.62
296.448	244.62
296.679	238.62
296.909	215.62
297.14	231.62
297.37	231.62
297.601	219.62
297.831	228.62
298.062	233.62
298.292	243.62
298.523	240.62
298.753	248.62
298.984	247.62
299.214	241.62
299.445	250.62
299.675	246.62
299.905	255.62
300.136	238.62
300.366	242.62
300.597	242.62
300.827	242.62
301.057	251.62
301.288	249.62
301.518	259.62
301.748	259.62
301.979	267.62
302.209	258.62
302.439	264.62
302.669	260.62
302.9	263.62
303.13	240.62
303.36	262.62
303.59	268.62
303.82	250.62
304.051	247.62
304.281	233.62
304.511	248.62
304.741	246.62
304.971	244.62
305.201	232.62
305.431	260.62
305.661	248.62
305.891	253.62
306.121	260.62
306.352	250.62
306.582	256.62
306.812	270.62
307.042	262.62
307.272	239.62
307.502	243.62
307.731	237.62
307.961	268.62
308.191	237.62
308.421	249.62
308.651	248.62
308.881	256.62
309.111	263.62
309.341	253.62
309.571	256.62
309.8	253.62
310.03	259.62
310.26	264.62
310.49	259.62
310.72	267.62
310.949	242.62
311.179	253.62
311.409	259.62
311.639	266.62
311.868	259.62
312.098	264.62
312.328	259.62
312.557	266.62
312.787	254.62
313.017	258.62
313.246	264.62
313.476	261.62
313.706	268.62
313.935	274.62
314.165	275.62
314.394	281.62
314.624	271.62
314.853	262.62
315.083	278.62
315.312	282.62
315.542	282.62
315.771	280.62
316.001	261.62
316.23	279.62
316.46	275.62
316.689	268.62
316.919	265.62
317.148	265.62
317.377	267.62
317.607	260.62
317.836	257.62
318.065	279.62
318.295	262.62
318.524	269.62
318.753	286.62
318.983	278.62
319.212	304.62
319.441	289.62
319.67	269.62
319.9	271.62
320.129	270.62
320.358	263.62
320.587	261.62
320.816	282.62
321.046	273.62
321.275	272.62
321.504	273.62
321.733	265.62
321.962	266.62
322.191	274.62
322.42	267.62
322.649	265.62
322.878	284.62
323.108	275.62
323.337	288.62
323.566	281.62
323.795	267.62
324.024	284.62
324.253	257.62
324.482	284.62
324.71	291.62
324.939	289.62
325.168	293.62
325.397	279.62
325.626	291.62
325.855	277.62
326.084	281.62
326.313	292.62
326.542	285.62
326.77	275.62
326.999	290.62
327.228	282.62
327.457	304.62
327.686	298.62
327.914	288.62
328.143	287.62
328.372	282.62
328.6	301.62
328.829	311.62
329.058	290.62
329.287	311.62
329.515	288.62
329.744	301.62
329.972	312.62
330.201	302.62
330.43	300.62
330.658	306.62
330.887	322.62
331.115	312.62
331.344	312.62
331.572	305.62
331.801	326.62
332.03	317.62
332.258	316.62
332.486	332.62
332.715	335.62
332.943	340.62
333.172	370.62
333.4	365.62
333.629	374.62
333.857	370.62
334.085	367.62
334.314	343.62
334.542	370.62
334.771	356.62
334.999	340.62
335.227	357.62
335.455	359.62
335.684	337.62
335.912	335.62
336.14	342.62
336.369	317.62
336.597	343.62
336.825	315.62
337.053	320.62
337.281	327.62
337.51	322.62
337.738	328.62
337.966	343.62
338.194	336.62
338.422	332.62
338.65	325.62
338.878	310.62
339.106	314.62
339.334	326.62
339.562	312.62
339.79	319.62
340.018	313.62
340.246	311.62
340.474	308.62
340.702	301.62
340.93	302.62
341.158	304.62
341.386	315.62
341.614	305.62
341.842	298.62
342.07	305.62
342.298	305.62
342.526	307.62
342.754	302.62
342.981	315.62
343.209	304.62
343.437	336.62
343.665	344.62
343.893	342.62
344.12	360.62
344.348	362.62
344.576	337.62
344.804	323.62
345.031	329.62
345.259	331.62
345.487	313.62
345.714	290.62
345.942	311.62
346.17	294.62
346.397	291.62
346.625	302.62
346.853	320.62
347.08	295.62
347.308	308.62
347.535	293.62
347.763	290.62
347.99	309.62
348.218	315.62
348.445	296.62
348.673	275.62
348.9	307.62
349.128	320.62
349.355	293.62
349.583	304.62
349.81	295.62
350.037	287.62
350.265	312.62
350.492	309.62
350.72	288.62
350.947	285.62
351.174	299.62
351.402	290.62
351.629	307.62
351.856	295.62
352.083	303.62
352.311	301.62
352.538	309.62
352.765	301.62
352.992	299.62
353.22	295.62
353.447	295.62
353.674	289.62
353.901	295.62
354.128	311.62
354.355	284.62
354.583	314.62
354.81	296.62
355.037	297.62
355.264	308.62
355.491	295.62
355.718	306.62
355.945	300.62
356.172	289.62
356.399	294.62
356.626	285.62
356.853	311.62
357.08	301.62
357.307	287.62
357.534	285.62
357.761	313.62
357.988	309.62
358.215	305.62
358.441	310.62
358.668	301.62
358.895	292.62
359.122	283.62
359.349	298.62
359.576	290.62
359.802	313.62
360.029	301.62
360.256	296.62
360.483	291.62
360.709	308.62
360.936	314.62
361.163	313.62
361.39	301.62
361.616	303.62
361.843	308.62
362.07	323.62
362.296	301.62
362.523	289.62
362.749	305.62
362.976	283.62
363.203	306.62
363.429	307.62
363.656	313.62
363.882	289.62
364.109	287.62
364.335	290.62
364.562	311.62
364.788	298.62
365.015	311.62
365.241	300.62
365.468	299.62
365.694	301.62
365.92	287.62
366.147	318.62
366.373	286.62
366.599	305.62
366.826	308.62
367.052	314.62
367.278	314.62
367.505	298.62
367.731	293.62
367.957	301.62
368.184	306.62
368.41	321.62
368.636	315.62
368.862	305.62
369.089	303.62
369.315	305.62
369.541	311.62
369.767	326.62
369.993	325.62
370.219	303.62
370.445	310.62
370.672	324.62
370.898	321.62
371.124	328.62
371.35	327.62
371.576	315.62
371.802	313.62
372.028	336.62
372.254	304.62
372.48	322.62
372.706	337.62
372.932	331.62
373.158	335.62
373.384	339.62
373.61	355.62
373.835	351.62
374.061	327.62
374.287	334.62
374.513	330.62
374.739	350.62
374.965	354.62
375.191	360.62
375.416	366.62
375.642	360.62
375.868	335.62
376.094	326.62
376.319	331.62
376.545	363.62
376.771	340.62
376.997	344.62
377.222	345.62
377.448	341.62
377.674	334.62
377.899	318.62
378.125	321.62
378.35	341.62
378.576	329.62
378.802	330.62
379.027	335.62
379.253	338.62
379.478	324.62
379.704	323.62
379.929	330.62
380.155	312.62
380.38	322.62
380.606	324.62
380.831	319.62
381.057	352.62
381.282	336.62
381.507	333.62
381.733	354.62
381.958	348.62
382.184	337.62
382.409	358.62
382.634	360.62
382.86	383.62
383.085	341.62
383.31	349.62
383.535	357.62
383.761	355.62
383.986	356.62
384.211	377.62
384.436	397.62
384.662	382.62
384.887	406.62
385.112	387.62
385.337	413.62
385.562	413.62
385.787	390.62
386.013	408.62
386.238	387.62
386.463	385.62
386.688	376.62
386.913	378.62
387.138	395.62
387.363	391.62
387.588	397.62
387.813	392.62
388.038	389.62
388.263	375.62
388.488	403.62
388.713	399.62
388.938	384.62
389.163	367.62
389.387	390.62
389.612	378.62
389.837	405.62
390.062	393.62
390.287	397.62
390.512	386.62
390.736	387.62
390.961	410.62
391.186	403.62
391.411	430.62
391.636	419.62
391.86	418.62
392.085	437.62
392.31	386.62
392.534	412.62
392.759	422.62
392.984	401.62
393.208	399.62
393.433	427.62
393.658	399.62
393.882	418.62
394.107	394.62
394.331	406.62
394.556	420.62
394.78	406.62
395.005	424.62
395.229	405.62
395.454	439.62
395.678	431.62
395.903	443.62
396.127	422.62
396.352	401.62
396.576	426.62
396.801	413.62
397.025	433.62
397.249	438.62
397.474	451.62
397.698	446.62
397.922	456.62
398.147	451.62
398.371	462.62
398.595	469.62
398.82	481.62
399.044	499.62
399.268	538.62
399.492	618.62
399.717	672.62
399.941	648.62
400.165	589.62
400.389	577.62
400.613	532.62
400.837	509.62
401.062	477.62
401.286	486.62
401.51	484.62
401.734	466.62
401.958	470.62
402.182	467.62
402.406	474.62
402.63	516.62
402.854	505.62
403.078	509.62
403.302	523.62
403.526	520.62
403.75	517.62
403.974	535.62
404.198	553.62
404.422	541.62
404.645	543.62
404.869	516.62
405.093	503.62
405.317	522.62
405.541	515.62
405.765	507.62
405.988	517.62
406.212	520.62
406.436	521.62
406.66	547.62
406.883	542.62
407.107	563.62
407.331	596.62
407.555	584.62
407.778	563.62
408.002	577.62
408.226	543.62
408.449	555.62
408.673	550.62
408.896	524.62
409.12	525.62
409.344	538.62
409.567	526.62
409.791	535.62
410.014	521.62
410.238	523.62
410.461	520.62
410.685	494.62
410.908	507.62
411.132	507.62
411.355	502.62
411.578	481.62
411.802	490.62
412.025	503.62
412.249	518.62
412.472	494.62
412.695	474.62
412.919	483.62
413.142	524.62
413.365	522.62
413.589	486.62
413.812	491.62
414.035	479.62
414.258	498.62
414.482	482.62
414.705	492.62
414.928	496.62
415.151	509.62
415.374	478.62
415.597	490.62
415.821	486.62
416.044	496.62
416.267	478.62
416.49	488.62
416.713	497.62
416.936	481.62
417.159	489.62
417.382	474.62
417.605	494.62
417.828	483.62
418.051	451.62
418.274	478.62
418.497	493.62
418.72	491.62
418.943	490.62
419.166	537.62
419.389	559.62
419.611	518.62
419.834	511.62
420.057	497.62
420.28	505.62
420.503	475.62
420.726	493.62
420.948	497.62
421.171	480.62
421.394	497.62
421.617	507.62
421.839	505.62
422.062	502.62
422.285	486.62
422.507	497.62
422.73	480.62
422.953	489.62
423.175	495.62
423.398	520.62
423.621	515.62
423.843	514.62
424.066	522.62
424.288	481.62
424.511	501.62
424.733	505.62
424.956	493.62
425.178	483.62
425.401	489.62
425.623	488.62
425.846	485.62
426.068	476.62
426.291	446.62
426.513	462.62
426.735	471.62
426.958	482.62
427.18	454.62
427.402	439.62
427.625	464.62
427.847	435.62
428.069	442.62
428.292	455.62
428.514	470.62
428.736	436.62
428.958	420.62
429.181	422.62
429.403	420.62
429.625	442.62
429.847	458.62
430.069	434.62
430.292	454.62
430.514	443.62
430.736	437.62
430.958	454.62
431.18	445.62
431.402	429.62
431.624	425.62
431.846	445.62
432.068	457.62
432.29	430.62
432.512	449.62
432.734	450.62
432.956	469.62
433.178	449.62
433.4	450.62
433.622	459.62
433.844	456.62
434.066	442.62
434.287	451.62
434.509	472.62
434.731	490.62
434.953	480.62
435.175	496.62
435.397	477.62
435.618	481.62
435.84	464.62
436.062	473.62
436.284	455.62
436.505	459.62
436.727	460.62
436.949	446.62
437.17	463.62
437.392	471.62
437.614	433.62
437.835	437.62
438.057	424.62
438.278	424.62
438.5	453.62
438.721	445.62
438.943	460.62
439.165	464.62
439.386	463.62
439.608	462.62
439.829	472.62
440.05	453.62
440.272	464.62
440.493	464.62
440.715	465.62
440.936	467.62
441.158	505.62
441.379	490.62
441.6	491.62
441.822	481.62
442.043	508.62
442.264	473.62
442.486	471.62
442.707	501.62
442.928	500.62
443.149	520.62
443.371	504.62
443.592	531.62
443.813	496.62
444.034	512.62
444.255	533.62
444.476	541.62
444.698	562.62
444.919	564.62
445.14	689.62
445.361	607.62
445.582	515.62
445.803	498.62
446.024	480.62
446.245	468.62
446.466	470.62
446.687	463.62
446.908	466.62
447.129	454.62
447.35	446.62
447.571	422.62
447.792	437.62
448.013	444.62
448.234	451.62
448.455	449.62
448.675	416.62
448.896	435.62
449.117	451.62
449.338	439.62
449.559	430.62
449.779	431.62
450	403.62
450.221	425.62
450.442	436.62
450.662	415.62
450.883	434.62
451.104	468.62
451.324	430.62
451.545	446.62
451.766	432.62
451.986	428.62
452.207	433.62
452.428	427.62
452.648	431.62
452.869	401.62
453.089	415.62
453.31	439.62
453.53	447.62
453.751	413.62
453.971	401.62
454.192	407.62
454.412	424.62
454.633	410.62
454.853	421.62
455.073	413.62
455.294	393.62
455.514	408.62
455.734	405.62
455.955	390.62
456.175	372.62
456.395	402.62
456.616	417.62
456.836	409.62
457.056	423.62
457.276	405.62
457.497	417.62
457.717	409.62
457.937	423.62
458.157	405.62
458.377	426.62
458.598	421.62
458.818	401.62
459.038	434.62
459.258	450.62
459.478	458.62
459.698	462.62
459.918	481.62
460.138	490.62
460.358	498.62
460.578	531.62
460.798	540.62
461.018	537.62
461.238	513.62
461.458	521.62
461.678	513.62
461.898	538.62
462.118	527.62
462.338	539.62
462.558	540.62
462.777	575.62
462.997	626.62
463.217	661.62
463.437	635.62
463.657	622.62
463.876	575.62
464.096	591.62
464.316	597.62
464.536	593.62
464.755	574.62
464.975	560.62
465.195	530.62
465.414	481.62
465.634	501.62
465.854	490.62
466.073	469.62
466.293	457.62
466.512	472.62
466.732	462.62
466.951	481.62
467.171	456.62
467.391	450.62
467.61	449.62
467.829	452.62
468.049	451.62
468.268	444.62
468.488	436.62
468.707	429.62
468.927	441.62
469.146	426.62
469.365	463.62
469.585	429.62
469.804	455.62
470.023	453.62
470.243	462.62
470.462	474.62
470.681	451.62
470.901	461.62
471.12	477.62
471.339	446.62
471.558	442.62
471.777	461.62
471.997	458.62
472.216	448.62
472.435	434.62
472.654	421.62
472.873	407.62
473.092	422.62
473.311	415.62
473.53	426.62
473.749	427.62
473.968	424.62
474.187	434.62
474.406	405.62
474.625	447.62
474.844	435.62
475.063	421.62
475.282	438.62
475.501	431.62
475.72	445.62
475.939	427.62
476.158	452.62
476.377	431.62
476.596	439.62
476.814	439.62
477.033	453.62
477.252	447.62
477.471	446.62
477.69	490.62
477.908	495.62
478.127	487.62
478.346	489.62
478.564	498.62
478.783	508.62
479.002	502.62
479.22	492.62
479.439	513.62
479.658	496.62
479.876	501.62
480.095	526.62
480.313	552.62
480.532	552.62
480.751	533.62
480.969	541.62
481.188	525.62
481.406	503.62
481.624	465.62
481.843	467.62
482.061	470.62
482.28	470.62
482.498	487.62
482.717	479.62
482.935	478.62
483.153	498.62
483.372	484.62
483.59	482.62
483.808	473.62
484.027	466.62
484.245	494.62
484.463	460.62
484.681	501.62
484.9	484.62
485.118	503.62
485.336	493.62
485.554	487.62
485.772	493.62
485.99	490.62
486.209	511.62
486.427	507.62
486.645	483.62
486.863	495.62
487.081	487.62
487.299	491.62
487.517	508.62
487.735	501.62
487.953	540.62
488.171	523.62
488.389	502.62
488.607	495.62
488.825	486.62
489.043	477.62
489.261	501.62
489.479	504.62
489.696	492.62
489.914	537.62
490.132	495.62
490.35	512.62
490.568	499.62
490.786	508.62
491.003	539.62
491.221	515.62
491.439	516.62
491.657	521.62
491.874	518.62
492.092	526.62
492.31	517.62
492.527	534.62
492.745	544.62
492.963	527.62
493.18	547.62
493.398	531.62
493.615	528.62
493.833	541.62
494.05	536.62
494.268	542.62
494.485	510.62
494.703	568.62
494.92	560.62
495.138	531.62
495.355	540.62
495.573	571.62
495.79	544.62
496.008	546.62
496.225	542.62
496.442	543.62
496.66	541.62
496.877	560.62
497.094	563.62
497.312	565.62
497.529	593.62
497.746	588.62
497.963	614.62
498.181	636.62
498.398	630.62
498.615	660.62
498.832	694.62
499.049	769.62
499.267	793.62
499.484	855.62
499.701	899.62
499.918	1007.62
500.135	1100.62
500.352	1253.62
500.569	1297.62
500.786	1226.62
501.003	1157.62
501.22	1054.62
501.437	966.62
501.654	890.62
501.871	808.62
