Data from Fe(NO3)3@0.1M.TitratingCurve.Agarose3%dH2O.NegLispCup.LampEnergy10.LIBS07252019_HRD10591_16-41-21-332.txt Node
Date: Thu Jul 25 16:41:21 EDT 2019
User: cochatt
Spectrometer: HR+D1059
Trigger mode: 1
Integration Time (sec): 1.000000E-1
Scans to average: 1
Electric dark correction enabled: true
Nonlinearity correction enabled: false
Boxcar width: 0
XAxis mode: Wavelengths
Number of Pixels in Spectrum: 2048
>>>>>Begin Spectral Data<<<<<
223.165	-10.88
223.4	-10.88
223.635	-10.88
223.869	-20.88
224.104	-14.88
224.338	-11.88
224.573	-9.88
224.808	-36.88
225.042	-6.88
225.277	-3.88
225.511	0.12
225.746	1.12
225.98	19.12
226.215	2.12
226.449	23.12
226.683	27.12
226.918	11.12
227.152	32.12
227.387	44.12
227.621	42.12
227.856	43.12
228.09	48.12
228.324	51.12
228.559	55.12
228.793	62.12
229.027	64.12
229.262	63.12
229.496	63.12
229.73	82.12
229.964	85.12
230.199	77.12
230.433	86.12
230.667	89.12
230.901	104.12
231.136	79.12
231.37	84.12
231.604	102.12
231.838	77.12
232.072	95.12
232.306	96.12
232.541	104.12
232.775	96.12
233.009	105.12
233.243	88.12
233.477	97.12
233.711	95.12
233.945	86.12
234.179	98.12
234.413	94.12
234.647	81.12
234.881	106.12
235.115	85.12
235.349	91.12
235.583	99.12
235.817	74.12
236.051	100.12
236.285	94.12
236.519	83.12
236.753	81.12
236.987	93.12
237.221	80.12
237.455	85.12
237.689	105.12
237.922	101.12
238.156	92.12
238.39	98.12
238.624	104.12
238.858	95.12
239.091	95.12
239.325	97.12
239.559	93.12
239.793	89.12
240.027	107.12
240.26	107.12
240.494	92.12
240.728	87.12
240.961	104.12
241.195	95.12
241.429	101.12
241.662	95.12
241.896	100.12
242.13	123.12
242.363	104.12
242.597	100.12
242.83	99.12
243.064	97.12
243.298	79.12
243.531	104.12
243.765	112.12
243.998	99.12
244.232	100.12
244.465	104.12
244.699	104.12
244.932	99.12
245.166	104.12
245.399	102.12
245.633	108.12
245.866	98.12
246.099	99.12
246.333	111.12
246.566	123.12
246.8	104.12
247.033	88.12
247.266	103.12
247.5	103.12
247.733	111.12
247.966	96.12
248.2	94.12
248.433	98.12
248.666	105.12
248.899	117.12
249.133	104.12
249.366	111.12
249.599	103.12
249.832	116.12
250.066	100.12
250.299	108.12
250.532	107.12
250.765	111.12
250.998	118.12
251.231	103.12
251.465	105.12
251.698	109.12
251.931	109.12
252.164	114.12
252.397	119.12
252.63	121.12
252.863	115.12
253.096	108.12
253.329	116.12
253.562	139.12
253.795	113.12
254.028	121.12
254.261	127.12
254.494	115.12
254.727	98.12
254.96	103.12
255.193	124.12
255.426	122.12
255.659	126.12
255.892	118.12
256.124	114.12
256.357	114.12
256.59	133.12
256.823	122.12
257.056	117.12
257.289	118.12
257.521	123.12
257.754	129.12
257.987	119.12
258.22	121.12
258.452	130.12
258.685	104.12
258.918	118.12
259.151	117.12
259.383	132.12
259.616	116.12
259.849	147.12
260.081	135.12
260.314	129.12
260.547	118.12
260.779	135.12
261.012	133.12
261.244	125.12
261.477	125.12
261.71	111.12
261.942	135.12
262.175	130.12
262.407	129.12
262.64	132.12
262.872	145.12
263.105	130.12
263.337	120.12
263.57	127.12
263.802	121.12
264.035	144.12
264.267	133.12
264.499	130.12
264.732	128.12
264.964	145.12
265.197	145.12
265.429	135.12
265.661	139.12
265.894	129.12
266.126	141.12
266.358	125.12
266.591	136.12
266.823	135.12
267.055	130.12
267.287	129.12
267.52	151.12
267.752	141.12
267.984	129.12
268.216	149.12
268.448	146.12
268.681	129.12
268.913	131.12
269.145	134.12
269.377	162.12
269.609	139.12
269.841	149.12
270.073	152.12
270.306	134.12
270.538	135.12
270.77	141.12
271.002	127.12
271.234	140.12
271.466	139.12
271.698	140.12
271.93	139.12
272.162	152.12
272.394	138.12
272.626	140.12
272.858	147.12
273.09	124.12
273.322	138.12
273.553	143.12
273.785	149.12
274.017	148.12
274.249	136.12
274.481	142.12
274.713	129.12
274.945	166.12
275.176	151.12
275.408	150.12
275.64	155.12
275.872	144.12
276.104	131.12
276.335	141.12
276.567	149.12
276.799	149.12
277.031	136.12
277.262	160.12
277.494	138.12
277.726	153.12
277.957	149.12
278.189	155.12
278.421	148.12
278.652	155.12
278.884	165.12
279.115	157.12
279.347	144.12
279.579	144.12
279.81	152.12
280.042	139.12
280.273	155.12
280.505	145.12
280.736	141.12
280.968	161.12
281.199	153.12
281.431	151.12
281.662	159.12
281.894	159.12
282.125	149.12
282.356	145.12
282.588	161.12
282.819	157.12
283.051	179.12
283.282	176.12
283.513	175.12
283.745	175.12
283.976	165.12
284.207	141.12
284.439	161.12
284.67	149.12
284.901	163.12
285.132	166.12
285.364	180.12
285.595	158.12
285.826	182.12
286.057	159.12
286.288	176.12
286.52	175.12
286.751	167.12
286.982	169.12
287.213	168.12
287.444	178.12
287.675	169.12
287.906	155.12
288.138	160.12
288.369	148.12
288.6	167.12
288.831	177.12
289.062	171.12
289.293	172.12
289.524	176.12
289.755	166.12
289.986	184.12
290.217	172.12
290.448	163.12
290.679	158.12
290.91	170.12
291.141	171.12
291.371	168.12
291.602	166.12
291.833	171.12
292.064	171.12
292.295	151.12
292.526	171.12
292.757	179.12
292.987	165.12
293.218	187.12
293.449	159.12
293.68	175.12
293.91	183.12
294.141	176.12
294.372	174.12
294.603	183.12
294.833	168.12
295.064	188.12
295.295	176.12
295.525	161.12
295.756	170.12
295.987	185.12
296.217	179.12
296.448	189.12
296.679	173.12
296.909	185.12
297.14	182.12
297.37	179.12
297.601	162.12
297.831	185.12
298.062	184.12
298.292	181.12
298.523	189.12
298.753	179.12
298.984	189.12
299.214	176.12
299.445	179.12
299.675	199.12
299.905	184.12
300.136	179.12
300.366	183.12
300.597	186.12
300.827	178.12
301.057	177.12
301.288	189.12
301.518	210.12
301.748	189.12
301.979	179.12
302.209	191.12
302.439	179.12
302.669	181.12
302.9	196.12
303.13	190.12
303.36	188.12
303.59	193.12
303.82	180.12
304.051	184.12
304.281	185.12
304.511	199.12
304.741	206.12
304.971	187.12
305.201	197.12
305.431	194.12
305.661	188.12
305.891	188.12
306.121	179.12
306.352	195.12
306.582	187.12
306.812	181.12
307.042	189.12
307.272	192.12
307.502	183.12
307.731	193.12
307.961	181.12
308.191	185.12
308.421	184.12
308.651	191.12
308.881	183.12
309.111	181.12
309.341	181.12
309.571	171.12
309.8	201.12
310.03	183.12
310.26	188.12
310.49	198.12
310.72	171.12
310.949	189.12
311.179	179.12
311.409	192.12
311.639	175.12
311.868	197.12
312.098	192.12
312.328	203.12
312.557	188.12
312.787	202.12
313.017	197.12
313.246	202.12
313.476	201.12
313.706	195.12
313.935	206.12
314.165	218.12
314.394	194.12
314.624	184.12
314.853	205.12
315.083	193.12
315.312	202.12
315.542	202.12
315.771	195.12
316.001	183.12
316.23	203.12
316.46	183.12
316.689	196.12
316.919	180.12
317.148	195.12
317.377	207.12
317.607	193.12
317.836	185.12
318.065	197.12
318.295	203.12
318.524	210.12
318.753	188.12
318.983	191.12
319.212	207.12
319.441	197.12
319.67	203.12
319.9	200.12
320.129	210.12
320.358	206.12
320.587	188.12
320.816	190.12
321.046	197.12
321.275	193.12
321.504	199.12
321.733	199.12
321.962	189.12
322.191	195.12
322.42	186.12
322.649	188.12
322.878	217.12
323.108	215.12
323.337	206.12
323.566	202.12
323.795	194.12
324.024	191.12
324.253	221.12
324.482	198.12
324.71	189.12
324.939	188.12
325.168	218.12
325.397	197.12
325.626	204.12
325.855	215.12
326.084	199.12
326.313	216.12
326.542	223.12
326.77	206.12
326.999	215.12
327.228	224.12
327.457	193.12
327.686	210.12
327.914	213.12
328.143	205.12
328.372	221.12
328.6	200.12
328.829	213.12
329.058	208.12
329.287	217.12
329.515	227.12
329.744	210.12
329.972	216.12
330.201	206.12
330.43	227.12
330.658	234.12
330.887	219.12
331.115	216.12
331.344	220.12
331.572	252.12
331.801	228.12
332.03	211.12
332.258	214.12
332.486	243.12
332.715	241.12
332.943	242.12
333.172	243.12
333.4	260.12
333.629	271.12
333.857	261.12
334.085	266.12
334.314	264.12
334.542	263.12
334.771	255.12
334.999	233.12
335.227	239.12
335.455	254.12
335.684	242.12
335.912	244.12
336.14	251.12
336.369	243.12
336.597	235.12
336.825	247.12
337.053	251.12
337.281	233.12
337.51	224.12
337.738	222.12
337.966	233.12
338.194	231.12
338.422	231.12
338.65	220.12
338.878	219.12
339.106	220.12
339.334	222.12
339.562	226.12
339.79	220.12
340.018	208.12
340.246	226.12
340.474	216.12
340.702	226.12
340.93	232.12
341.158	229.12
341.386	205.12
341.614	221.12
341.842	215.12
342.07	226.12
342.298	216.12
342.526	218.12
342.754	204.12
342.981	205.12
343.209	230.12
343.437	222.12
343.665	236.12
343.893	261.12
344.12	248.12
344.348	256.12
344.576	232.12
344.804	230.12
345.031	232.12
345.259	208.12
345.487	210.12
345.714	224.12
345.942	212.12
346.17	227.12
346.397	210.12
346.625	233.12
346.853	207.12
347.08	218.12
347.308	224.12
347.535	239.12
347.763	221.12
347.99	230.12
348.218	217.12
348.445	213.12
348.673	214.12
348.9	197.12
349.128	224.12
349.355	220.12
349.583	204.12
349.81	213.12
350.037	216.12
350.265	210.12
350.492	209.12
350.72	204.12
350.947	226.12
351.174	218.12
351.402	213.12
351.629	206.12
351.856	213.12
352.083	213.12
352.311	215.12
352.538	205.12
352.765	201.12
352.992	214.12
353.22	217.12
353.447	201.12
353.674	219.12
353.901	211.12
354.128	200.12
354.355	195.12
354.583	215.12
354.81	210.12
355.037	213.12
355.264	204.12
355.491	211.12
355.718	213.12
355.945	220.12
356.172	201.12
356.399	212.12
356.626	214.12
356.853	219.12
357.08	210.12
357.307	224.12
357.534	210.12
357.761	229.12
357.988	213.12
358.215	212.12
358.441	192.12
358.668	209.12
358.895	226.12
359.122	208.12
359.349	207.12
359.576	226.12
359.802	219.12
360.029	206.12
360.256	220.12
360.483	218.12
360.709	203.12
360.936	217.12
361.163	212.12
361.39	213.12
361.616	205.12
361.843	205.12
362.07	211.12
362.296	215.12
362.523	212.12
362.749	186.12
362.976	195.12
363.203	205.12
363.429	215.12
363.656	198.12
363.882	215.12
364.109	210.12
364.335	208.12
364.562	215.12
364.788	204.12
365.015	226.12
365.241	217.12
365.468	214.12
365.694	211.12
365.92	224.12
366.147	218.12
366.373	210.12
366.599	218.12
366.826	209.12
367.052	203.12
367.278	203.12
367.505	194.12
367.731	212.12
367.957	228.12
368.184	225.12
368.41	214.12
368.636	220.12
368.862	214.12
369.089	205.12
369.315	220.12
369.541	233.12
369.767	228.12
369.993	230.12
370.219	218.12
370.445	221.12
370.672	225.12
370.898	217.12
371.124	227.12
371.35	228.12
371.576	241.12
371.802	237.12
372.028	218.12
372.254	241.12
372.48	223.12
372.706	219.12
372.932	228.12
373.158	248.12
373.384	256.12
373.61	238.12
373.835	228.12
374.061	241.12
374.287	244.12
374.513	248.12
374.739	258.12
374.965	253.12
375.191	252.12
375.416	252.12
375.642	255.12
375.868	243.12
376.094	240.12
376.319	228.12
376.545	231.12
376.771	226.12
376.997	238.12
377.222	229.12
377.448	239.12
377.674	228.12
377.899	224.12
378.125	221.12
378.35	234.12
378.576	222.12
378.802	241.12
379.027	222.12
379.253	235.12
379.478	243.12
379.704	227.12
379.929	225.12
380.155	231.12
380.38	219.12
380.606	231.12
380.831	225.12
381.057	242.12
381.282	232.12
381.507	222.12
381.733	240.12
381.958	251.12
382.184	220.12
382.409	245.12
382.634	225.12
382.86	231.12
383.085	237.12
383.31	260.12
383.535	249.12
383.761	251.12
383.986	254.12
384.211	261.12
384.436	270.12
384.662	265.12
384.887	244.12
385.112	261.12
385.337	257.12
385.562	258.12
385.787	285.12
386.013	268.12
386.238	271.12
386.463	273.12
386.688	269.12
386.913	260.12
387.138	263.12
387.363	260.12
387.588	255.12
387.813	277.12
388.038	270.12
388.263	257.12
388.488	274.12
388.713	259.12
388.938	269.12
389.163	278.12
389.387	274.12
389.612	273.12
389.837	267.12
390.062	244.12
390.287	279.12
390.512	263.12
390.736	261.12
390.961	267.12
391.186	284.12
391.411	263.12
391.636	283.12
391.86	275.12
392.085	304.12
392.31	276.12
392.534	275.12
392.759	276.12
392.984	294.12
393.208	289.12
393.433	284.12
393.658	296.12
393.882	266.12
394.107	290.12
394.331	275.12
394.556	283.12
394.78	291.12
395.005	284.12
395.229	304.12
395.454	303.12
395.678	288.12
395.903	293.12
396.127	294.12
396.352	268.12
396.576	291.12
396.801	279.12
397.025	284.12
397.249	292.12
397.474	307.12
397.698	300.12
397.922	303.12
398.147	275.12
398.371	300.12
398.595	328.12
398.82	309.12
399.044	331.12
399.268	375.12
399.492	410.12
399.717	427.12
399.941	418.12
400.165	399.12
400.389	369.12
400.613	355.12
400.837	334.12
401.062	318.12
401.286	338.12
401.51	337.12
401.734	319.12
401.958	328.12
402.182	310.12
402.406	319.12
402.63	341.12
402.854	343.12
403.078	336.12
403.302	357.12
403.526	371.12
403.75	362.12
403.974	349.12
404.198	352.12
404.422	354.12
404.645	343.12
404.869	350.12
405.093	356.12
405.317	355.12
405.541	326.12
405.765	346.12
405.988	334.12
406.212	375.12
406.436	346.12
406.66	343.12
406.883	344.12
407.107	385.12
407.331	388.12
407.555	414.12
407.778	406.12
408.002	394.12
408.226	389.12
408.449	377.12
408.673	378.12
408.896	371.12
409.12	364.12
409.344	365.12
409.567	367.12
409.791	371.12
410.014	358.12
410.238	364.12
410.461	346.12
410.685	359.12
410.908	352.12
411.132	342.12
411.355	347.12
411.578	341.12
411.802	336.12
412.025	336.12
412.249	327.12
412.472	342.12
412.695	344.12
412.919	350.12
413.142	354.12
413.365	337.12
413.589	324.12
413.812	335.12
414.035	309.12
414.258	345.12
414.482	325.12
414.705	337.12
414.928	338.12
415.151	346.12
415.374	330.12
415.597	338.12
415.821	337.12
416.044	330.12
416.267	332.12
416.49	327.12
416.713	311.12
416.936	337.12
417.159	332.12
417.382	338.12
417.605	315.12
417.828	332.12
418.051	313.12
418.274	330.12
418.497	339.12
418.72	340.12
418.943	319.12
419.166	339.12
419.389	368.12
419.611	374.12
419.834	343.12
420.057	345.12
420.28	347.12
420.503	320.12
420.726	311.12
420.948	306.12
421.171	331.12
421.394	336.12
421.617	315.12
421.839	315.12
422.062	340.12
422.285	313.12
422.507	338.12
422.73	330.12
422.953	340.12
423.175	343.12
423.398	336.12
423.621	351.12
423.843	328.12
424.066	330.12
424.288	355.12
424.511	328.12
424.733	334.12
424.956	326.12
425.178	336.12
425.401	319.12
425.623	320.12
425.846	325.12
426.068	328.12
426.291	324.12
426.513	313.12
426.735	307.12
426.958	327.12
427.18	315.12
427.402	328.12
427.625	317.12
427.847	313.12
428.069	307.12
428.292	305.12
428.514	319.12
428.736	301.12
428.958	308.12
429.181	299.12
429.403	312.12
429.625	300.12
429.847	297.12
430.069	293.12
430.292	330.12
430.514	305.12
430.736	288.12
430.958	305.12
431.18	289.12
431.402	326.12
431.624	324.12
431.846	313.12
432.068	313.12
432.29	310.12
432.512	303.12
432.734	312.12
432.956	295.12
433.178	335.12
433.4	317.12
433.622	307.12
433.844	310.12
434.066	317.12
434.287	322.12
434.509	334.12
434.731	327.12
434.953	321.12
435.175	331.12
435.397	334.12
435.618	309.12
435.84	332.12
436.062	308.12
436.284	311.12
436.505	307.12
436.727	319.12
436.949	311.12
437.17	309.12
437.392	299.12
437.614	332.12
437.835	315.12
438.057	297.12
438.278	278.12
438.5	298.12
438.721	311.12
438.943	304.12
439.165	331.12
439.386	321.12
439.608	325.12
439.829	317.12
440.05	325.12
440.272	324.12
440.493	319.12
440.715	341.12
440.936	333.12
441.158	334.12
441.379	350.12
441.6	353.12
441.822	351.12
442.043	356.12
442.264	348.12
442.486	341.12
442.707	343.12
442.928	350.12
443.149	360.12
443.371	335.12
443.592	343.12
443.813	355.12
444.034	336.12
444.255	370.12
444.476	363.12
444.698	379.12
444.919	378.12
445.14	455.12
445.361	407.12
445.582	359.12
445.803	357.12
446.024	341.12
446.245	335.12
446.466	331.12
446.687	320.12
446.908	323.12
447.129	335.12
447.35	331.12
447.571	339.12
447.792	328.12
448.013	327.12
448.234	311.12
448.455	313.12
448.675	320.12
448.896	322.12
449.117	294.12
449.338	314.12
449.559	311.12
449.779	305.12
450	306.12
450.221	307.12
450.442	305.12
450.662	315.12
450.883	309.12
451.104	298.12
451.324	309.12
451.545	310.12
451.766	315.12
451.986	296.12
452.207	289.12
452.428	307.12
452.648	303.12
452.869	299.12
453.089	302.12
453.31	279.12
453.53	282.12
453.751	279.12
453.971	304.12
454.192	286.12
454.412	283.12
454.633	279.12
454.853	288.12
455.073	296.12
455.294	292.12
455.514	293.12
455.734	274.12
455.955	263.12
456.175	273.12
456.395	270.12
456.616	289.12
456.836	285.12
457.056	271.12
457.276	275.12
457.497	266.12
457.717	275.12
457.937	284.12
458.157	276.12
458.377	311.12
458.598	290.12
458.818	305.12
459.038	307.12
459.258	327.12
459.478	319.12
459.698	297.12
459.918	319.12
460.138	334.12
460.358	362.12
460.578	340.12
460.798	334.12
461.018	358.12
461.238	354.12
461.458	345.12
461.678	338.12
461.898	368.12
462.118	355.12
462.338	383.12
462.558	381.12
462.777	395.12
462.997	420.12
463.217	433.12
463.437	433.12
463.657	404.12
463.876	394.12
464.096	411.12
464.316	391.12
464.536	393.12
464.755	385.12
464.975	391.12
465.195	355.12
465.414	319.12
465.634	341.12
465.854	329.12
466.073	332.12
466.293	325.12
466.512	320.12
466.732	322.12
466.951	313.12
467.171	312.12
467.391	301.12
467.61	320.12
467.829	304.12
468.049	330.12
468.268	282.12
468.488	287.12
468.707	313.12
468.927	324.12
469.146	292.12
469.365	303.12
469.585	303.12
469.804	315.12
470.023	317.12
470.243	313.12
470.462	304.12
470.681	316.12
470.901	323.12
471.12	314.12
471.339	300.12
471.558	305.12
471.777	305.12
471.997	298.12
472.216	287.12
472.435	303.12
472.654	295.12
472.873	300.12
473.092	281.12
473.311	290.12
473.53	295.12
473.749	297.12
473.968	287.12
474.187	290.12
474.406	287.12
474.625	287.12
474.844	308.12
475.063	283.12
475.282	295.12
475.501	290.12
475.72	284.12
475.939	287.12
476.158	292.12
476.377	287.12
476.596	304.12
476.814	311.12
477.033	307.12
477.252	305.12
477.471	305.12
477.69	314.12
477.908	330.12
478.127	323.12
478.346	328.12
478.564	342.12
478.783	325.12
479.002	359.12
479.22	353.12
479.439	336.12
479.658	343.12
479.876	328.12
480.095	343.12
480.313	337.12
480.532	363.12
480.751	354.12
480.969	339.12
481.188	345.12
481.406	325.12
481.624	317.12
481.843	304.12
482.061	327.12
482.28	311.12
482.498	312.12
482.717	324.12
482.935	315.12
483.153	326.12
483.372	305.12
483.59	340.12
483.808	340.12
484.027	319.12
484.245	317.12
484.463	322.12
484.681	322.12
484.9	345.12
485.118	352.12
485.336	339.12
485.554	321.12
485.772	320.12
485.99	319.12
486.209	326.12
486.427	324.12
486.645	330.12
486.863	331.12
487.081	338.12
487.299	339.12
487.517	337.12
487.735	322.12
487.953	321.12
488.171	339.12
488.389	349.12
488.607	343.12
488.825	330.12
489.043	344.12
489.261	329.12
489.479	352.12
489.696	348.12
489.914	333.12
490.132	320.12
490.35	332.12
490.568	349.12
490.786	340.12
491.003	321.12
491.221	335.12
491.439	339.12
491.657	333.12
491.874	337.12
492.092	332.12
492.31	355.12
492.527	332.12
492.745	344.12
492.963	334.12
493.18	353.12
493.398	358.12
493.615	345.12
493.833	360.12
494.05	353.12
494.268	353.12
494.485	340.12
494.703	336.12
494.92	347.12
495.138	351.12
495.355	357.12
495.573	364.12
495.79	336.12
496.008	355.12
496.225	339.12
496.442	383.12
496.66	375.12
496.877	360.12
497.094	379.12
497.312	371.12
497.529	405.12
497.746	390.12
497.963	407.12
498.181	404.12
498.398	422.12
498.615	453.12
498.832	438.12
499.049	491.12
499.267	501.12
499.484	555.12
499.701	612.12
499.918	643.12
500.135	727.12
500.352	779.12
500.569	793.12
500.786	807.12
501.003	740.12
501.22	692.12
501.437	595.12
501.654	553.12
501.871	535.12
502.088	500.12
502.305	459.12
