Data from Fe(NO3)3@0.05M.TitratingCurve.Agarose3%dH2O.NegLispCup.LampEnergy10.LIBS07252019_HRD10591_16-48-36-334.txt Node
Date: Thu Jul 25 16:48:36 EDT 2019
User: cochatt
Spectrometer: HR+D1059
Trigger mode: 1
Integration Time (sec): 1.000000E-1
Scans to average: 1
Electric dark correction enabled: true
Nonlinearity correction enabled: false
Boxcar width: 0
XAxis mode: Wavelengths
Number of Pixels in Spectrum: 2048
>>>>>Begin Spectral Data<<<<<
223.165	-24.12
223.4	-24.12
223.635	-24.12
223.869	-18.12
224.104	-27.12
224.338	-3.12
224.573	-10.12
224.808	-9.12
225.042	-10.12
225.277	-3.12
225.511	-9.12
225.746	-11.12
225.98	6.88
226.215	4.88
226.449	-1.12
226.683	42.88
226.918	30.88
227.152	40.88
227.387	29.88
227.621	48.88
227.856	41.88
228.09	33.88
228.324	61.88
228.559	54.88
228.793	63.88
229.027	62.88
229.262	42.88
229.496	77.88
229.73	78.88
229.964	71.88
230.199	83.88
230.433	88.88
230.667	85.88
230.901	74.88
231.136	79.88
231.37	102.88
231.604	84.88
231.838	105.88
232.072	93.88
232.306	92.88
232.541	103.88
232.775	99.88
233.009	84.88
233.243	102.88
233.477	89.88
233.711	89.88
233.945	91.88
234.179	100.88
234.413	78.88
234.647	95.88
234.881	98.88
235.115	86.88
235.349	97.88
235.583	90.88
235.817	98.88
236.051	100.88
236.285	113.88
236.519	88.88
236.753	96.88
236.987	99.88
237.221	91.88
237.455	91.88
237.689	91.88
237.922	84.88
238.156	77.88
238.39	87.88
238.624	85.88
238.858	92.88
239.091	92.88
239.325	87.88
239.559	94.88
239.793	87.88
240.027	102.88
240.26	101.88
240.494	98.88
240.728	80.88
240.961	104.88
241.195	94.88
241.429	87.88
241.662	101.88
241.896	102.88
242.13	99.88
242.363	98.88
242.597	101.88
242.83	98.88
243.064	87.88
243.298	90.88
243.531	104.88
243.765	115.88
243.998	88.88
244.232	98.88
244.465	101.88
244.699	96.88
244.932	100.88
245.166	107.88
245.399	101.88
245.633	101.88
245.866	99.88
246.099	96.88
246.333	101.88
246.566	92.88
246.8	112.88
247.033	106.88
247.266	110.88
247.5	96.88
247.733	101.88
247.966	108.88
248.2	107.88
248.433	104.88
248.666	102.88
248.899	115.88
249.133	109.88
249.366	122.88
249.599	110.88
249.832	114.88
250.066	98.88
250.299	108.88
250.532	125.88
250.765	123.88
250.998	106.88
251.231	108.88
251.465	117.88
251.698	108.88
251.931	112.88
252.164	99.88
252.397	106.88
252.63	113.88
252.863	113.88
253.096	129.88
253.329	107.88
253.562	109.88
253.795	107.88
254.028	125.88
254.261	126.88
254.494	129.88
254.727	123.88
254.96	112.88
255.193	101.88
255.426	112.88
255.659	123.88
255.892	120.88
256.124	113.88
256.357	120.88
256.59	126.88
256.823	125.88
257.056	114.88
257.289	104.88
257.521	116.88
257.754	111.88
257.987	115.88
258.22	114.88
258.452	124.88
258.685	120.88
258.918	134.88
259.151	112.88
259.383	117.88
259.616	117.88
259.849	128.88
260.081	110.88
260.314	123.88
260.547	114.88
260.779	122.88
261.012	127.88
261.244	120.88
261.477	126.88
261.71	129.88
261.942	107.88
262.175	128.88
262.407	110.88
262.64	115.88
262.872	130.88
263.105	108.88
263.337	126.88
263.57	130.88
263.802	131.88
264.035	129.88
264.267	118.88
264.499	121.88
264.732	143.88
264.964	132.88
265.197	120.88
265.429	140.88
265.661	147.88
265.894	119.88
266.126	121.88
266.358	129.88
266.591	105.88
266.823	122.88
267.055	126.88
267.287	127.88
267.52	130.88
267.752	136.88
267.984	129.88
268.216	132.88
268.448	136.88
268.681	136.88
268.913	116.88
269.145	121.88
269.377	132.88
269.609	128.88
269.841	129.88
270.073	128.88
270.306	130.88
270.538	126.88
270.77	126.88
271.002	137.88
271.234	120.88
271.466	139.88
271.698	130.88
271.93	137.88
272.162	121.88
272.394	145.88
272.626	119.88
272.858	133.88
273.09	133.88
273.322	135.88
273.553	147.88
273.785	132.88
274.017	134.88
274.249	136.88
274.481	149.88
274.713	148.88
274.945	154.88
275.176	165.88
275.408	143.88
275.64	145.88
275.872	146.88
276.104	146.88
276.335	139.88
276.567	134.88
276.799	141.88
277.031	140.88
277.262	132.88
277.494	150.88
277.726	145.88
277.957	146.88
278.189	144.88
278.421	130.88
278.652	141.88
278.884	140.88
279.115	138.88
279.347	140.88
279.579	147.88
279.81	154.88
280.042	126.88
280.273	131.88
280.505	147.88
280.736	142.88
280.968	148.88
281.199	152.88
281.431	138.88
281.662	146.88
281.894	168.88
282.125	157.88
282.356	158.88
282.588	141.88
282.819	138.88
283.051	148.88
283.282	150.88
283.513	141.88
283.745	154.88
283.976	138.88
284.207	137.88
284.439	128.88
284.67	155.88
284.901	147.88
285.132	149.88
285.364	149.88
285.595	142.88
285.826	157.88
286.057	150.88
286.288	150.88
286.52	160.88
286.751	149.88
286.982	147.88
287.213	146.88
287.444	156.88
287.675	157.88
287.906	156.88
288.138	157.88
288.369	160.88
288.6	139.88
288.831	152.88
289.062	160.88
289.293	164.88
289.524	151.88
289.755	162.88
289.986	158.88
290.217	164.88
290.448	147.88
290.679	149.88
290.91	158.88
291.141	148.88
291.371	152.88
291.602	163.88
291.833	157.88
292.064	160.88
292.295	170.88
292.526	152.88
292.757	153.88
292.987	144.88
293.218	170.88
293.449	158.88
293.68	169.88
293.91	144.88
294.141	158.88
294.372	147.88
294.603	139.88
294.833	160.88
295.064	174.88
295.295	148.88
295.525	152.88
295.756	158.88
295.987	153.88
296.217	160.88
296.448	170.88
296.679	163.88
296.909	168.88
297.14	169.88
297.37	154.88
297.601	162.88
297.831	168.88
298.062	176.88
298.292	162.88
298.523	182.88
298.753	157.88
298.984	160.88
299.214	165.88
299.445	158.88
299.675	157.88
299.905	153.88
300.136	173.88
300.366	157.88
300.597	176.88
300.827	165.88
301.057	180.88
301.288	158.88
301.518	194.88
301.748	164.88
301.979	166.88
302.209	163.88
302.439	169.88
302.669	184.88
302.9	181.88
303.13	172.88
303.36	159.88
303.59	162.88
303.82	163.88
304.051	185.88
304.281	166.88
304.511	173.88
304.741	161.88
304.971	168.88
305.201	156.88
305.431	173.88
305.661	183.88
305.891	160.88
306.121	171.88
306.352	180.88
306.582	168.88
306.812	167.88
307.042	177.88
307.272	173.88
307.502	176.88
307.731	180.88
307.961	164.88
308.191	165.88
308.421	154.88
308.651	176.88
308.881	173.88
309.111	178.88
309.341	151.88
309.571	172.88
309.8	164.88
310.03	177.88
310.26	173.88
310.49	172.88
310.72	166.88
310.949	176.88
311.179	173.88
311.409	178.88
311.639	180.88
311.868	158.88
312.098	161.88
312.328	157.88
312.557	174.88
312.787	179.88
313.017	171.88
313.246	181.88
313.476	173.88
313.706	173.88
313.935	173.88
314.165	189.88
314.394	184.88
314.624	166.88
314.853	168.88
315.083	157.88
315.312	166.88
315.542	170.88
315.771	176.88
316.001	176.88
316.23	169.88
316.46	181.88
316.689	183.88
316.919	171.88
317.148	173.88
317.377	170.88
317.607	171.88
317.836	163.88
318.065	148.88
318.295	176.88
318.524	179.88
318.753	186.88
318.983	164.88
319.212	153.88
319.441	174.88
319.67	169.88
319.9	169.88
320.129	183.88
320.358	178.88
320.587	170.88
320.816	176.88
321.046	166.88
321.275	169.88
321.504	166.88
321.733	192.88
321.962	182.88
322.191	182.88
322.42	171.88
322.649	173.88
322.878	191.88
323.108	172.88
323.337	169.88
323.566	184.88
323.795	182.88
324.024	178.88
324.253	188.88
324.482	181.88
324.71	182.88
324.939	179.88
325.168	183.88
325.397	181.88
325.626	198.88
325.855	179.88
326.084	196.88
326.313	184.88
326.542	199.88
326.77	178.88
326.999	184.88
327.228	182.88
327.457	170.88
327.686	188.88
327.914	186.88
328.143	206.88
328.372	190.88
328.6	180.88
328.829	176.88
329.058	188.88
329.287	195.88
329.515	165.88
329.744	196.88
329.972	199.88
330.201	183.88
330.43	180.88
330.658	191.88
330.887	184.88
331.115	187.88
331.344	193.88
331.572	193.88
331.801	172.88
332.03	196.88
332.258	176.88
332.486	201.88
332.715	198.88
332.943	199.88
333.172	212.88
333.4	232.88
333.629	226.88
333.857	226.88
334.085	227.88
334.314	218.88
334.542	221.88
334.771	211.88
334.999	217.88
335.227	217.88
335.455	210.88
335.684	217.88
335.912	220.88
336.14	213.88
336.369	210.88
336.597	199.88
336.825	212.88
337.053	215.88
337.281	208.88
337.51	206.88
337.738	202.88
337.966	214.88
338.194	200.88
338.422	194.88
338.65	198.88
338.878	209.88
339.106	182.88
339.334	200.88
339.562	184.88
339.79	196.88
340.018	176.88
340.246	191.88
340.474	192.88
340.702	183.88
340.93	191.88
341.158	179.88
341.386	194.88
341.614	192.88
341.842	194.88
342.07	197.88
342.298	180.88
342.526	197.88
342.754	200.88
342.981	198.88
343.209	187.88
343.437	204.88
343.665	218.88
343.893	218.88
344.12	217.88
344.348	229.88
344.576	188.88
344.804	204.88
345.031	181.88
345.259	208.88
345.487	194.88
345.714	179.88
345.942	171.88
346.17	186.88
346.397	202.88
346.625	196.88
346.853	186.88
347.08	184.88
347.308	181.88
347.535	204.88
347.763	197.88
347.99	182.88
348.218	198.88
348.445	187.88
348.673	187.88
348.9	202.88
349.128	187.88
349.355	172.88
349.583	179.88
349.81	172.88
350.037	184.88
350.265	192.88
350.492	180.88
350.72	186.88
350.947	192.88
351.174	202.88
351.402	176.88
351.629	177.88
351.856	175.88
352.083	183.88
352.311	185.88
352.538	185.88
352.765	186.88
352.992	172.88
353.22	192.88
353.447	196.88
353.674	181.88
353.901	180.88
354.128	168.88
354.355	168.88
354.583	181.88
354.81	187.88
355.037	193.88
355.264	191.88
355.491	177.88
355.718	184.88
355.945	181.88
356.172	187.88
356.399	188.88
356.626	174.88
356.853	189.88
357.08	192.88
357.307	193.88
357.534	191.88
357.761	183.88
357.988	186.88
358.215	176.88
358.441	172.88
358.668	182.88
358.895	187.88
359.122	182.88
359.349	172.88
359.576	180.88
359.802	189.88
360.029	191.88
360.256	180.88
360.483	196.88
360.709	196.88
360.936	198.88
361.163	193.88
361.39	181.88
361.616	182.88
361.843	181.88
362.07	162.88
362.296	188.88
362.523	188.88
362.749	180.88
362.976	196.88
363.203	183.88
363.429	187.88
363.656	192.88
363.882	182.88
364.109	185.88
364.335	194.88
364.562	181.88
364.788	184.88
365.015	187.88
365.241	186.88
365.468	180.88
365.694	199.88
365.92	183.88
366.147	201.88
366.373	185.88
366.599	170.88
366.826	198.88
367.052	194.88
367.278	194.88
367.505	197.88
367.731	193.88
367.957	189.88
368.184	192.88
368.41	201.88
368.636	193.88
368.862	193.88
369.089	186.88
369.315	198.88
369.541	204.88
369.767	186.88
369.993	165.88
370.219	185.88
370.445	186.88
370.672	214.88
370.898	189.88
371.124	192.88
371.35	197.88
371.576	192.88
371.802	206.88
372.028	202.88
372.254	188.88
372.48	197.88
372.706	208.88
372.932	220.88
373.158	196.88
373.384	211.88
373.61	203.88
373.835	218.88
374.061	222.88
374.287	209.88
374.513	216.88
374.739	213.88
374.965	213.88
375.191	227.88
375.416	233.88
375.642	208.88
375.868	207.88
376.094	199.88
376.319	211.88
376.545	216.88
376.771	204.88
376.997	195.88
377.222	198.88
377.448	195.88
377.674	207.88
377.899	206.88
378.125	198.88
378.35	209.88
378.576	216.88
378.802	220.88
379.027	211.88
379.253	214.88
379.478	202.88
379.704	231.88
379.929	220.88
380.155	199.88
380.38	218.88
380.606	204.88
380.831	200.88
381.057	214.88
381.282	219.88
381.507	220.88
381.733	209.88
381.958	200.88
382.184	237.88
382.409	215.88
382.634	233.88
382.86	225.88
383.085	224.88
383.31	230.88
383.535	246.88
383.761	246.88
383.986	229.88
384.211	216.88
384.436	235.88
384.662	234.88
384.887	241.88
385.112	253.88
385.337	234.88
385.562	232.88
385.787	223.88
386.013	266.88
386.238	245.88
386.463	236.88
386.688	241.88
386.913	247.88
387.138	245.88
387.363	240.88
387.588	247.88
387.813	227.88
388.038	229.88
388.263	258.88
388.488	244.88
388.713	255.88
388.938	264.88
389.163	262.88
389.387	243.88
389.612	251.88
389.837	248.88
390.062	250.88
390.287	249.88
390.512	237.88
390.736	244.88
390.961	237.88
391.186	244.88
391.411	260.88
391.636	268.88
391.86	261.88
392.085	277.88
392.31	273.88
392.534	276.88
392.759	276.88
392.984	251.88
393.208	270.88
393.433	254.88
393.658	269.88
393.882	279.88
394.107	285.88
394.331	263.88
394.556	253.88
394.78	268.88
395.005	277.88
395.229	272.88
395.454	270.88
395.678	277.88
395.903	265.88
396.127	269.88
396.352	268.88
396.576	249.88
396.801	262.88
397.025	272.88
397.249	269.88
397.474	262.88
397.698	272.88
397.922	269.88
398.147	291.88
398.371	268.88
398.595	290.88
398.82	292.88
399.044	300.88
399.268	337.88
399.492	370.88
399.717	408.88
399.941	395.88
400.165	373.88
400.389	341.88
400.613	327.88
400.837	322.88
401.062	328.88
401.286	305.88
401.51	298.88
401.734	318.88
401.958	288.88
402.182	305.88
402.406	303.88
402.63	324.88
402.854	314.88
403.078	333.88
403.302	330.88
403.526	347.88
403.75	344.88
403.974	348.88
404.198	355.88
404.422	337.88
404.645	331.88
404.869	333.88
405.093	338.88
405.317	326.88
405.541	336.88
405.765	324.88
405.988	325.88
406.212	333.88
406.436	336.88
406.66	340.88
406.883	329.88
407.107	352.88
407.331	364.88
407.555	376.88
407.778	380.88
408.002	370.88
408.226	351.88
408.449	344.88
408.673	344.88
408.896	345.88
409.12	317.88
409.344	343.88
409.567	337.88
409.791	350.88
410.014	369.88
410.238	342.88
410.461	334.88
410.685	321.88
410.908	328.88
411.132	311.88
411.355	323.88
411.578	314.88
411.802	323.88
412.025	327.88
412.249	332.88
412.472	328.88
412.695	324.88
412.919	316.88
413.142	318.88
413.365	343.88
413.589	319.88
413.812	329.88
414.035	317.88
414.258	331.88
414.482	334.88
414.705	324.88
414.928	313.88
415.151	333.88
415.374	312.88
415.597	312.88
415.821	308.88
416.044	313.88
416.267	292.88
416.49	315.88
416.713	304.88
416.936	330.88
417.159	309.88
417.382	310.88
417.605	310.88
417.828	292.88
418.051	312.88
418.274	311.88
418.497	322.88
418.72	329.88
418.943	325.88
419.166	306.88
419.389	355.88
419.611	328.88
419.834	310.88
420.057	324.88
420.28	319.88
420.503	326.88
420.726	316.88
420.948	312.88
421.171	311.88
421.394	312.88
421.617	341.88
421.839	337.88
422.062	327.88
422.285	311.88
422.507	315.88
422.73	323.88
422.953	331.88
423.175	332.88
423.398	320.88
423.621	334.88
423.843	328.88
424.066	329.88
424.288	331.88
424.511	326.88
424.733	332.88
424.956	334.88
425.178	312.88
425.401	322.88
425.623	324.88
425.846	283.88
426.068	318.88
426.291	296.88
426.513	316.88
426.735	297.88
426.958	316.88
427.18	311.88
427.402	309.88
427.625	295.88
427.847	296.88
428.069	314.88
428.292	294.88
428.514	284.88
428.736	308.88
428.958	289.88
429.181	296.88
429.403	287.88
429.625	289.88
429.847	280.88
430.069	286.88
430.292	293.88
430.514	288.88
430.736	299.88
430.958	300.88
431.18	306.88
431.402	289.88
431.624	283.88
431.846	279.88
432.068	289.88
432.29	306.88
432.512	305.88
432.734	316.88
432.956	310.88
433.178	319.88
433.4	313.88
433.622	298.88
433.844	322.88
434.066	302.88
434.287	304.88
434.509	302.88
434.731	314.88
434.953	335.88
435.175	328.88
435.397	311.88
435.618	314.88
435.84	314.88
436.062	304.88
436.284	306.88
436.505	299.88
436.727	307.88
436.949	297.88
437.17	308.88
437.392	299.88
437.614	304.88
437.835	283.88
438.057	290.88
438.278	296.88
438.5	299.88
438.721	298.88
438.943	294.88
439.165	300.88
439.386	310.88
439.608	315.88
439.829	305.88
440.05	309.88
440.272	305.88
440.493	334.88
440.715	308.88
440.936	322.88
441.158	316.88
441.379	328.88
441.6	347.88
441.822	357.88
442.043	325.88
442.264	334.88
442.486	324.88
442.707	336.88
442.928	332.88
443.149	327.88
443.371	325.88
443.592	300.88
443.813	338.88
444.034	305.88
444.255	356.88
444.476	359.88
444.698	368.88
444.919	374.88
445.14	486.88
445.361	415.88
445.582	341.88
445.803	339.88
446.024	333.88
446.245	330.88
446.466	324.88
446.687	332.88
446.908	333.88
447.129	324.88
447.35	308.88
447.571	288.88
447.792	304.88
448.013	284.88
448.234	306.88
448.455	288.88
448.675	312.88
448.896	302.88
449.117	286.88
449.338	305.88
449.559	292.88
449.779	284.88
450	281.88
450.221	283.88
450.442	310.88
450.662	290.88
450.883	299.88
451.104	304.88
451.324	296.88
451.545	276.88
451.766	309.88
451.986	300.88
452.207	283.88
452.428	274.88
452.648	304.88
452.869	295.88
453.089	288.88
453.31	280.88
453.53	278.88
453.751	295.88
453.971	294.88
454.192	276.88
454.412	256.88
454.633	280.88
454.853	269.88
455.073	285.88
455.294	276.88
455.514	278.88
455.734	290.88
455.955	262.88
456.175	270.88
456.395	274.88
456.616	262.88
456.836	288.88
457.056	266.88
457.276	262.88
457.497	265.88
457.717	269.88
457.937	274.88
458.157	260.88
458.377	269.88
458.598	270.88
458.818	290.88
459.038	286.88
459.258	300.88
459.478	312.88
459.698	308.88
459.918	313.88
460.138	336.88
460.358	331.88
460.578	324.88
460.798	352.88
461.018	357.88
461.238	353.88
461.458	358.88
461.678	356.88
461.898	327.88
462.118	346.88
462.338	372.88
462.558	373.88
462.777	366.88
462.997	378.88
463.217	411.88
463.437	422.88
463.657	396.88
463.876	397.88
464.096	395.88
464.316	381.88
464.536	381.88
464.755	385.88
464.975	378.88
465.195	370.88
465.414	337.88
465.634	330.88
465.854	326.88
466.073	312.88
466.293	328.88
466.512	315.88
466.732	312.88
466.951	296.88
467.171	301.88
467.391	309.88
467.61	293.88
467.829	295.88
468.049	294.88
468.268	301.88
468.488	294.88
468.707	288.88
468.927	299.88
469.146	296.88
469.365	310.88
469.585	291.88
469.804	322.88
470.023	301.88
470.243	314.88
470.462	304.88
470.681	312.88
470.901	315.88
471.12	303.88
471.339	304.88
471.558	296.88
471.777	283.88
471.997	293.88
472.216	294.88
472.435	292.88
472.654	289.88
472.873	279.88
473.092	290.88
473.311	268.88
473.53	298.88
473.749	280.88
473.968	283.88
474.187	280.88
474.406	283.88
474.625	293.88
474.844	276.88
475.063	301.88
475.282	306.88
475.501	274.88
475.72	288.88
475.939	281.88
476.158	280.88
476.377	301.88
476.596	290.88
476.814	298.88
477.033	305.88
477.252	310.88
477.471	307.88
477.69	329.88
477.908	316.88
478.127	326.88
478.346	321.88
478.564	344.88
478.783	315.88
479.002	329.88
479.22	353.88
479.439	343.88
479.658	351.88
479.876	342.88
480.095	332.88
480.313	334.88
480.532	345.88
480.751	350.88
480.969	331.88
481.188	330.88
481.406	302.88
481.624	322.88
481.843	308.88
482.061	304.88
482.28	304.88
482.498	308.88
482.717	316.88
482.935	327.88
483.153	325.88
483.372	327.88
483.59	318.88
483.808	317.88
484.027	300.88
484.245	314.88
484.463	302.88
484.681	317.88
484.9	301.88
485.118	334.88
485.336	311.88
485.554	322.88
485.772	320.88
485.99	331.88
486.209	320.88
486.427	322.88
486.645	324.88
486.863	322.88
487.081	325.88
487.299	306.88
487.517	343.88
487.735	339.88
487.953	339.88
488.171	354.88
488.389	324.88
488.607	324.88
488.825	323.88
489.043	304.88
489.261	318.88
489.479	297.88
489.696	324.88
489.914	315.88
490.132	339.88
490.35	327.88
490.568	324.88
490.786	326.88
491.003	334.88
491.221	321.88
491.439	345.88
491.657	352.88
491.874	333.88
492.092	351.88
492.31	361.88
492.527	343.88
492.745	372.88
492.963	353.88
493.18	352.88
493.398	345.88
493.615	331.88
493.833	326.88
494.05	370.88
494.268	369.88
494.485	349.88
494.703	370.88
494.92	330.88
495.138	339.88
495.355	376.88
495.573	356.88
495.79	344.88
496.008	338.88
496.225	344.88
496.442	358.88
496.66	356.88
496.877	339.88
497.094	376.88
497.312	374.88
497.529	386.88
497.746	393.88
497.963	402.88
498.181	387.88
498.398	409.88
498.615	427.88
498.832	452.88
499.049	480.88
499.267	470.88
499.484	540.88
499.701	600.88
499.918	629.88
500.135	705.88
500.352	802.88
500.569	798.88
500.786	798.88
501.003	766.88
501.22	681.88
501.437	637.88
501.654	566.88
501.871	523.88
502.088	488.88
502.305	450.88
