Data from Fe(NO3)3@0.025M.TitratingCurve.Agarose3%dH2O.NegLispCup.LampEnergy10.LIBS07252019_HRD10591_16-56-42-335.txt Node
Date: Thu Jul 25 16:56:42 EDT 2019
User: cochatt
Spectrometer: HR+D1059
Trigger mode: 1
Integration Time (sec): 1.000000E-1
Scans to average: 1
Electric dark correction enabled: true
Nonlinearity correction enabled: false
Boxcar width: 0
XAxis mode: Wavelengths
Number of Pixels in Spectrum: 2048
>>>>>Begin Spectral Data<<<<<
223.165	-12.25
223.4	-12.25
223.635	-12.25
223.869	-17.25
224.104	-6.25
224.338	-18.25
224.573	-7.25
224.808	-12.25
225.042	-9.25
225.277	-11.25
225.511	-2.25
225.746	-0.25
225.98	-2.25
226.215	15.75
226.449	11.75
226.683	24.75
226.918	23.75
227.152	22.75
227.387	34.75
227.621	37.75
227.856	47.75
228.09	37.75
228.324	54.75
228.559	51.75
228.793	63.75
229.027	63.75
229.262	70.75
229.496	71.75
229.73	95.75
229.964	82.75
230.199	75.75
230.433	86.75
230.667	87.75
230.901	90.75
231.136	103.75
231.37	76.75
231.604	97.75
231.838	96.75
232.072	96.75
232.306	85.75
232.541	103.75
232.775	83.75
233.009	97.75
233.243	97.75
233.477	95.75
233.711	105.75
233.945	105.75
234.179	105.75
234.413	103.75
234.647	106.75
234.881	91.75
235.115	84.75
235.349	105.75
235.583	88.75
235.817	91.75
236.051	106.75
236.285	102.75
236.519	90.75
236.753	96.75
236.987	97.75
237.221	91.75
237.455	87.75
237.689	107.75
237.922	110.75
238.156	116.75
238.39	96.75
238.624	93.75
238.858	98.75
239.091	93.75
239.325	87.75
239.559	98.75
239.793	91.75
240.027	109.75
240.26	117.75
240.494	96.75
240.728	104.75
240.961	106.75
241.195	121.75
241.429	111.75
241.662	121.75
241.896	118.75
242.13	106.75
242.363	103.75
242.597	107.75
242.83	110.75
243.064	103.75
243.298	100.75
243.531	100.75
243.765	97.75
243.998	114.75
244.232	90.75
244.465	105.75
244.699	94.75
244.932	102.75
245.166	120.75
245.399	102.75
245.633	97.75
245.866	97.75
246.099	101.75
246.333	120.75
246.566	102.75
246.8	125.75
247.033	129.75
247.266	114.75
247.5	118.75
247.733	115.75
247.966	107.75
248.2	129.75
248.433	113.75
248.666	126.75
248.899	114.75
249.133	121.75
249.366	123.75
249.599	122.75
249.832	126.75
250.066	128.75
250.299	123.75
250.532	117.75
250.765	121.75
250.998	113.75
251.231	121.75
251.465	113.75
251.698	116.75
251.931	109.75
252.164	118.75
252.397	129.75
252.63	120.75
252.863	128.75
253.096	118.75
253.329	121.75
253.562	115.75
253.795	127.75
254.028	123.75
254.261	125.75
254.494	125.75
254.727	124.75
254.96	120.75
255.193	110.75
255.426	119.75
255.659	133.75
255.892	137.75
256.124	127.75
256.357	120.75
256.59	129.75
256.823	132.75
257.056	129.75
257.289	120.75
257.521	113.75
257.754	124.75
257.987	120.75
258.22	134.75
258.452	125.75
258.685	135.75
258.918	134.75
259.151	127.75
259.383	120.75
259.616	132.75
259.849	148.75
260.081	151.75
260.314	146.75
260.547	129.75
260.779	164.75
261.012	133.75
261.244	149.75
261.477	140.75
261.71	139.75
261.942	124.75
262.175	140.75
262.407	140.75
262.64	140.75
262.872	133.75
263.105	142.75
263.337	150.75
263.57	138.75
263.802	152.75
264.035	155.75
264.267	151.75
264.499	145.75
264.732	148.75
264.964	133.75
265.197	147.75
265.429	159.75
265.661	149.75
265.894	153.75
266.126	137.75
266.358	169.75
266.591	147.75
266.823	143.75
267.055	156.75
267.287	158.75
267.52	150.75
267.752	143.75
267.984	155.75
268.216	141.75
268.448	141.75
268.681	173.75
268.913	148.75
269.145	136.75
269.377	158.75
269.609	158.75
269.841	155.75
270.073	154.75
270.306	160.75
270.538	176.75
270.77	157.75
271.002	169.75
271.234	165.75
271.466	159.75
271.698	159.75
271.93	171.75
272.162	165.75
272.394	162.75
272.626	156.75
272.858	170.75
273.09	162.75
273.322	164.75
273.553	170.75
273.785	169.75
274.017	170.75
274.249	173.75
274.481	170.75
274.713	165.75
274.945	171.75
275.176	167.75
275.408	182.75
275.64	174.75
275.872	170.75
276.104	176.75
276.335	164.75
276.567	187.75
276.799	183.75
277.031	186.75
277.262	176.75
277.494	155.75
277.726	161.75
277.957	176.75
278.189	173.75
278.421	190.75
278.652	168.75
278.884	189.75
279.115	189.75
279.347	179.75
279.579	181.75
279.81	189.75
280.042	171.75
280.273	168.75
280.505	180.75
280.736	188.75
280.968	182.75
281.199	163.75
281.431	181.75
281.662	189.75
281.894	193.75
282.125	198.75
282.356	190.75
282.588	192.75
282.819	184.75
283.051	174.75
283.282	208.75
283.513	191.75
283.745	202.75
283.976	205.75
284.207	191.75
284.439	177.75
284.67	195.75
284.901	207.75
285.132	201.75
285.364	177.75
285.595	197.75
285.826	176.75
286.057	182.75
286.288	183.75
286.52	201.75
286.751	190.75
286.982	200.75
287.213	197.75
287.444	221.75
287.675	190.75
287.906	200.75
288.138	196.75
288.369	201.75
288.6	198.75
288.831	200.75
289.062	203.75
289.293	200.75
289.524	202.75
289.755	206.75
289.986	209.75
290.217	198.75
290.448	207.75
290.679	201.75
290.91	225.75
291.141	209.75
291.371	210.75
291.602	202.75
291.833	221.75
292.064	210.75
292.295	210.75
292.526	201.75
292.757	218.75
292.987	216.75
293.218	213.75
293.449	205.75
293.68	219.75
293.91	213.75
294.141	209.75
294.372	208.75
294.603	218.75
294.833	225.75
295.064	216.75
295.295	229.75
295.525	207.75
295.756	206.75
295.987	214.75
296.217	201.75
296.448	207.75
296.679	206.75
296.909	209.75
297.14	231.75
297.37	212.75
297.601	199.75
297.831	231.75
298.062	227.75
298.292	201.75
298.523	210.75
298.753	217.75
298.984	227.75
299.214	209.75
299.445	214.75
299.675	229.75
299.905	216.75
300.136	204.75
300.366	232.75
300.597	211.75
300.827	228.75
301.057	214.75
301.288	230.75
301.518	242.75
301.748	240.75
301.979	235.75
302.209	233.75
302.439	229.75
302.669	232.75
302.9	228.75
303.13	215.75
303.36	233.75
303.59	233.75
303.82	230.75
304.051	239.75
304.281	236.75
304.511	237.75
304.741	227.75
304.971	241.75
305.201	215.75
305.431	228.75
305.661	239.75
305.891	229.75
306.121	240.75
306.352	251.75
306.582	237.75
306.812	193.75
307.042	241.75
307.272	223.75
307.502	229.75
307.731	250.75
307.961	245.75
308.191	240.75
308.421	248.75
308.651	258.75
308.881	247.75
309.111	246.75
309.341	241.75
309.571	240.75
309.8	259.75
310.03	245.75
310.26	249.75
310.49	224.75
310.72	222.75
310.949	231.75
311.179	254.75
311.409	241.75
311.639	257.75
311.868	250.75
312.098	258.75
312.328	235.75
312.557	245.75
312.787	246.75
313.017	233.75
313.246	255.75
313.476	242.75
313.706	250.75
313.935	237.75
314.165	266.75
314.394	249.75
314.624	271.75
314.853	254.75
315.083	254.75
315.312	251.75
315.542	253.75
315.771	273.75
316.001	253.75
316.23	266.75
316.46	273.75
316.689	259.75
316.919	255.75
317.148	256.75
317.377	267.75
317.607	256.75
317.836	261.75
318.065	245.75
318.295	250.75
318.524	257.75
318.753	253.75
318.983	274.75
319.212	255.75
319.441	251.75
319.67	262.75
319.9	273.75
320.129	253.75
320.358	282.75
320.587	281.75
320.816	262.75
321.046	263.75
321.275	263.75
321.504	267.75
321.733	256.75
321.962	270.75
322.191	263.75
322.42	279.75
322.649	261.75
322.878	256.75
323.108	257.75
323.337	282.75
323.566	266.75
323.795	277.75
324.024	265.75
324.253	277.75
324.482	279.75
324.71	277.75
324.939	277.75
325.168	277.75
325.397	282.75
325.626	279.75
325.855	261.75
326.084	284.75
326.313	282.75
326.542	300.75
326.77	321.75
326.999	289.75
327.228	265.75
327.457	271.75
327.686	295.75
327.914	297.75
328.143	304.75
328.372	282.75
328.6	292.75
328.829	277.75
329.058	277.75
329.287	286.75
329.515	281.75
329.744	288.75
329.972	301.75
330.201	290.75
330.43	294.75
330.658	302.75
330.887	303.75
331.115	312.75
331.344	307.75
331.572	295.75
331.801	299.75
332.03	295.75
332.258	306.75
332.486	307.75
332.715	327.75
332.943	312.75
333.172	313.75
333.4	349.75
333.629	331.75
333.857	324.75
334.085	344.75
334.314	339.75
334.542	335.75
334.771	356.75
334.999	330.75
335.227	333.75
335.455	346.75
335.684	315.75
335.912	349.75
336.14	315.75
336.369	331.75
336.597	317.75
336.825	338.75
337.053	337.75
337.281	326.75
337.51	324.75
337.738	327.75
337.966	333.75
338.194	302.75
338.422	328.75
338.65	310.75
338.878	303.75
339.106	300.75
339.334	307.75
339.562	317.75
339.79	306.75
340.018	299.75
340.246	305.75
340.474	302.75
340.702	315.75
340.93	275.75
341.158	296.75
341.386	299.75
341.614	312.75
341.842	302.75
342.07	319.75
342.298	283.75
342.526	313.75
342.754	295.75
342.981	313.75
343.209	306.75
343.437	313.75
343.665	331.75
343.893	339.75
344.12	352.75
344.348	339.75
344.576	339.75
344.804	326.75
345.031	321.75
345.259	322.75
345.487	294.75
345.714	295.75
345.942	296.75
346.17	308.75
346.397	295.75
346.625	301.75
346.853	309.75
347.08	286.75
347.308	288.75
347.535	303.75
347.763	298.75
347.99	315.75
348.218	298.75
348.445	280.75
348.673	302.75
348.9	292.75
349.128	269.75
349.355	307.75
349.583	294.75
349.81	271.75
350.037	308.75
350.265	311.75
350.492	313.75
350.72	306.75
350.947	285.75
351.174	287.75
351.402	273.75
351.629	306.75
351.856	299.75
352.083	309.75
352.311	291.75
352.538	284.75
352.765	294.75
352.992	304.75
353.22	297.75
353.447	293.75
353.674	296.75
353.901	289.75
354.128	302.75
354.355	291.75
354.583	309.75
354.81	297.75
355.037	288.75
355.264	301.75
355.491	280.75
355.718	289.75
355.945	326.75
356.172	299.75
356.399	291.75
356.626	289.75
356.853	282.75
357.08	294.75
357.307	302.75
357.534	293.75
357.761	301.75
357.988	311.75
358.215	301.75
358.441	295.75
358.668	307.75
358.895	283.75
359.122	302.75
359.349	277.75
359.576	292.75
359.802	294.75
360.029	295.75
360.256	307.75
360.483	299.75
360.709	300.75
360.936	292.75
361.163	309.75
361.39	297.75
361.616	290.75
361.843	309.75
362.07	282.75
362.296	305.75
362.523	303.75
362.749	319.75
362.976	291.75
363.203	312.75
363.429	301.75
363.656	300.75
363.882	299.75
364.109	296.75
364.335	306.75
364.562	302.75
364.788	294.75
365.015	308.75
365.241	309.75
365.468	301.75
365.694	313.75
365.92	314.75
366.147	293.75
366.373	317.75
366.599	296.75
366.826	317.75
367.052	309.75
367.278	305.75
367.505	310.75
367.731	311.75
367.957	298.75
368.184	295.75
368.41	301.75
368.636	312.75
368.862	332.75
369.089	329.75
369.315	319.75
369.541	306.75
369.767	304.75
369.993	281.75
370.219	302.75
370.445	330.75
370.672	318.75
370.898	315.75
371.124	321.75
371.35	328.75
371.576	323.75
371.802	316.75
372.028	327.75
372.254	323.75
372.48	321.75
372.706	323.75
372.932	334.75
373.158	325.75
373.384	321.75
373.61	328.75
373.835	318.75
374.061	325.75
374.287	322.75
374.513	335.75
374.739	328.75
374.965	348.75
375.191	327.75
375.416	342.75
375.642	333.75
375.868	328.75
376.094	335.75
376.319	337.75
376.545	329.75
376.771	304.75
376.997	332.75
377.222	310.75
377.448	332.75
377.674	314.75
377.899	326.75
378.125	326.75
378.35	327.75
378.576	310.75
378.802	343.75
379.027	335.75
379.253	318.75
379.478	326.75
379.704	312.75
379.929	330.75
380.155	330.75
380.38	319.75
380.606	320.75
380.831	327.75
381.057	330.75
381.282	338.75
381.507	317.75
381.733	337.75
381.958	322.75
382.184	341.75
382.409	345.75
382.634	331.75
382.86	321.75
383.085	327.75
383.31	335.75
383.535	332.75
383.761	340.75
383.986	341.75
384.211	359.75
384.436	354.75
384.662	352.75
384.887	356.75
385.112	386.75
385.337	360.75
385.562	354.75
385.787	362.75
386.013	376.75
386.238	372.75
386.463	378.75
386.688	390.75
386.913	374.75
387.138	369.75
387.363	367.75
387.588	376.75
387.813	386.75
388.038	370.75
388.263	376.75
388.488	391.75
388.713	365.75
388.938	359.75
389.163	370.75
389.387	379.75
389.612	355.75
389.837	356.75
390.062	363.75
390.287	375.75
390.512	371.75
390.736	370.75
390.961	371.75
391.186	384.75
391.411	391.75
391.636	367.75
391.86	389.75
392.085	378.75
392.31	397.75
392.534	399.75
392.759	389.75
392.984	398.75
393.208	413.75
393.433	394.75
393.658	386.75
393.882	393.75
394.107	383.75
394.331	394.75
394.556	382.75
394.78	378.75
395.005	400.75
395.229	384.75
395.454	388.75
395.678	404.75
395.903	416.75
396.127	389.75
396.352	405.75
396.576	406.75
396.801	385.75
397.025	393.75
397.249	384.75
397.474	396.75
397.698	415.75
397.922	435.75
398.147	413.75
398.371	430.75
398.595	433.75
398.82	446.75
399.044	474.75
399.268	477.75
399.492	550.75
399.717	557.75
399.941	536.75
400.165	505.75
400.389	507.75
400.613	495.75
400.837	474.75
401.062	455.75
401.286	448.75
401.51	456.75
401.734	437.75
401.958	425.75
402.182	451.75
402.406	442.75
402.63	445.75
402.854	453.75
403.078	449.75
403.302	459.75
403.526	458.75
403.75	455.75
403.974	469.75
404.198	459.75
404.422	456.75
404.645	469.75
404.869	471.75
405.093	465.75
405.317	454.75
405.541	485.75
405.765	438.75
405.988	459.75
406.212	460.75
406.436	454.75
406.66	491.75
406.883	473.75
407.107	485.75
407.331	479.75
407.555	546.75
407.778	508.75
408.002	512.75
408.226	517.75
408.449	489.75
408.673	487.75
408.896	489.75
409.12	485.75
409.344	475.75
409.567	473.75
409.791	451.75
410.014	452.75
410.238	476.75
410.461	472.75
410.685	464.75
410.908	443.75
411.132	465.75
411.355	429.75
411.578	463.75
411.802	445.75
412.025	458.75
412.249	457.75
412.472	453.75
412.695	453.75
412.919	466.75
413.142	442.75
413.365	459.75
413.589	442.75
413.812	445.75
414.035	437.75
414.258	446.75
414.482	435.75
414.705	444.75
414.928	431.75
415.151	440.75
415.374	458.75
415.597	450.75
415.821	435.75
416.044	417.75
416.267	434.75
416.49	455.75
416.713	431.75
416.936	421.75
417.159	419.75
417.382	434.75
417.605	430.75
417.828	418.75
418.051	412.75
418.274	408.75
418.497	426.75
418.72	443.75
418.943	421.75
419.166	465.75
419.389	463.75
419.611	461.75
419.834	430.75
420.057	450.75
420.28	430.75
420.503	424.75
420.726	413.75
420.948	403.75
421.171	422.75
421.394	401.75
421.617	418.75
421.839	417.75
422.062	425.75
422.285	408.75
422.507	415.75
422.73	426.75
422.953	409.75
423.175	437.75
423.398	429.75
423.621	422.75
423.843	393.75
424.066	431.75
424.288	433.75
424.511	420.75
424.733	411.75
424.956	425.75
425.178	414.75
425.401	413.75
425.623	394.75
425.846	392.75
426.068	416.75
426.291	420.75
426.513	421.75
426.735	400.75
426.958	395.75
427.18	401.75
427.402	383.75
427.625	401.75
427.847	394.75
428.069	387.75
428.292	399.75
428.514	366.75
428.736	399.75
428.958	392.75
429.181	371.75
429.403	395.75
429.625	383.75
429.847	400.75
430.069	394.75
430.292	386.75
430.514	406.75
430.736	389.75
430.958	374.75
431.18	385.75
431.402	383.75
431.624	377.75
431.846	397.75
432.068	392.75
432.29	378.75
432.512	391.75
432.734	408.75
432.956	399.75
433.178	378.75
433.4	390.75
433.622	406.75
433.844	405.75
434.066	403.75
434.287	402.75
434.509	403.75
434.731	423.75
434.953	411.75
435.175	399.75
435.397	416.75
435.618	423.75
435.84	394.75
436.062	407.75
436.284	392.75
436.505	379.75
436.727	391.75
436.949	391.75
437.17	400.75
437.392	369.75
437.614	381.75
437.835	380.75
438.057	380.75
438.278	377.75
438.5	377.75
438.721	386.75
438.943	389.75
439.165	399.75
439.386	395.75
439.608	385.75
439.829	389.75
440.05	386.75
440.272	386.75
440.493	398.75
440.715	380.75
440.936	406.75
441.158	396.75
441.379	407.75
441.6	408.75
441.822	433.75
442.043	411.75
442.264	402.75
442.486	407.75
442.707	409.75
442.928	412.75
443.149	405.75
443.371	413.75
443.592	398.75
443.813	428.75
444.034	423.75
444.255	421.75
444.476	430.75
444.698	447.75
444.919	435.75
445.14	517.75
445.361	439.75
445.582	409.75
445.803	423.75
446.024	411.75
446.245	394.75
446.466	386.75
446.687	398.75
446.908	389.75
447.129	376.75
447.35	391.75
447.571	376.75
447.792	357.75
448.013	391.75
448.234	373.75
448.455	380.75
448.675	352.75
448.896	361.75
449.117	368.75
449.338	347.75
449.559	353.75
449.779	379.75
450	362.75
450.221	367.75
450.442	358.75
450.662	356.75
450.883	370.75
451.104	364.75
451.324	359.75
451.545	350.75
451.766	361.75
451.986	369.75
452.207	378.75
452.428	350.75
452.648	360.75
452.869	340.75
453.089	327.75
453.31	354.75
453.53	347.75
453.751	353.75
453.971	344.75
454.192	358.75
454.412	335.75
454.633	356.75
454.853	343.75
455.073	349.75
455.294	342.75
455.514	329.75
455.734	349.75
455.955	341.75
456.175	333.75
456.395	355.75
456.616	341.75
456.836	348.75
457.056	360.75
457.276	328.75
457.497	362.75
457.717	340.75
457.937	360.75
458.157	358.75
458.377	365.75
458.598	367.75
458.818	366.75
459.038	365.75
459.258	386.75
459.478	401.75
459.698	387.75
459.918	392.75
460.138	401.75
460.358	389.75
460.578	411.75
460.798	426.75
461.018	410.75
461.238	449.75
461.458	447.75
461.678	429.75
461.898	426.75
462.118	455.75
462.338	433.75
462.558	463.75
462.777	475.75
462.997	494.75
463.217	495.75
463.437	516.75
463.657	488.75
463.876	469.75
464.096	469.75
464.316	465.75
464.536	456.75
464.755	471.75
464.975	436.75
465.195	414.75
465.414	420.75
465.634	412.75
465.854	387.75
466.073	405.75
466.293	391.75
466.512	390.75
466.732	386.75
466.951	377.75
467.171	370.75
467.391	386.75
467.61	368.75
467.829	368.75
468.049	379.75
468.268	370.75
468.488	367.75
468.707	373.75
468.927	362.75
469.146	368.75
469.365	362.75
469.585	352.75
469.804	381.75
470.023	363.75
470.243	359.75
470.462	381.75
470.681	377.75
470.901	379.75
471.12	376.75
471.339	362.75
471.558	359.75
471.777	383.75
471.997	369.75
472.216	363.75
472.435	371.75
472.654	381.75
472.873	373.75
473.092	390.75
473.311	358.75
473.53	354.75
473.749	378.75
473.968	377.75
474.187	382.75
474.406	366.75
474.625	394.75
474.844	349.75
475.063	351.75
475.282	376.75
475.501	377.75
475.72	386.75
475.939	373.75
476.158	378.75
476.377	375.75
476.596	390.75
476.814	384.75
477.033	399.75
477.252	395.75
477.471	401.75
477.69	406.75
477.908	412.75
478.127	437.75
478.346	411.75
478.564	434.75
478.783	425.75
479.002	425.75
479.22	418.75
479.439	437.75
479.658	431.75
479.876	433.75
480.095	430.75
480.313	444.75
480.532	476.75
480.751	427.75
480.969	439.75
481.188	441.75
481.406	440.75
481.624	447.75
481.843	422.75
482.061	429.75
482.28	431.75
482.498	408.75
482.717	440.75
482.935	443.75
483.153	416.75
483.372	431.75
483.59	435.75
483.808	436.75
484.027	426.75
484.245	435.75
484.463	426.75
484.681	451.75
484.9	419.75
485.118	438.75
485.336	423.75
485.554	443.75
485.772	445.75
485.99	444.75
486.209	424.75
486.427	434.75
486.645	434.75
486.863	442.75
487.081	442.75
487.299	441.75
487.517	454.75
487.735	445.75
487.953	463.75
488.171	441.75
488.389	444.75
488.607	447.75
488.825	430.75
489.043	447.75
489.261	421.75
489.479	431.75
489.696	448.75
489.914	443.75
490.132	435.75
490.35	442.75
490.568	450.75
490.786	445.75
491.003	422.75
491.221	448.75
491.439	433.75
491.657	455.75
491.874	451.75
492.092	456.75
492.31	449.75
492.527	442.75
492.745	414.75
492.963	434.75
493.18	452.75
493.398	462.75
493.615	442.75
493.833	441.75
494.05	436.75
494.268	450.75
494.485	446.75
494.703	454.75
494.92	447.75
495.138	483.75
495.355	471.75
495.573	463.75
495.79	475.75
496.008	497.75
496.225	486.75
496.442	491.75
496.66	504.75
496.877	501.75
497.094	506.75
497.312	509.75
497.529	521.75
497.746	526.75
497.963	533.75
498.181	558.75
498.398	565.75
498.615	605.75
498.832	637.75
499.049	651.75
499.267	675.75
499.484	703.75
499.701	757.75
499.918	791.75
500.135	855.75
500.352	913.75
500.569	913.75
500.786	909.75
501.003	857.75
501.22	806.75
501.437	744.75
501.654	745.75
501.871	693.75
502.088	647.75
