Data from Fe(NO3)3@0.025M.TitratingCurve.Agarose3%dH2O.NegLispCup.LampEnergy10.LIBS07252019_HRD10591_16-55-26-335.txt Node
Date: Thu Jul 25 16:55:26 EDT 2019
User: cochatt
Spectrometer: HR+D1059
Trigger mode: 1
Integration Time (sec): 1.000000E-1
Scans to average: 1
Electric dark correction enabled: true
Nonlinearity correction enabled: false
Boxcar width: 0
XAxis mode: Wavelengths
Number of Pixels in Spectrum: 2048
>>>>>Begin Spectral Data<<<<<
223.165	-4.75
223.4	-4.75
223.635	-4.75
223.869	-9.75
224.104	-7.75
224.338	-14.75
224.573	-9.75
224.808	-25.75
225.042	1.25
225.277	-7.75
225.511	-4.75
225.746	5.25
225.98	7.25
226.215	-7.75
226.449	14.25
226.683	21.25
226.918	20.25
227.152	23.25
227.387	35.25
227.621	52.25
227.856	36.25
228.09	39.25
228.324	67.25
228.559	40.25
228.793	65.25
229.027	64.25
229.262	71.25
229.496	86.25
229.73	96.25
229.964	77.25
230.199	101.25
230.433	81.25
230.667	96.25
230.901	83.25
231.136	98.25
231.37	90.25
231.604	97.25
231.838	78.25
232.072	80.25
232.306	96.25
232.541	101.25
232.775	106.25
233.009	107.25
233.243	102.25
233.477	96.25
233.711	93.25
233.945	110.25
234.179	106.25
234.413	105.25
234.647	99.25
234.881	84.25
235.115	98.25
235.349	101.25
235.583	94.25
235.817	91.25
236.051	98.25
236.285	101.25
236.519	95.25
236.753	94.25
236.987	107.25
237.221	99.25
237.455	110.25
237.689	106.25
237.922	100.25
238.156	104.25
238.39	88.25
238.624	91.25
238.858	87.25
239.091	89.25
239.325	93.25
239.559	95.25
239.793	112.25
240.027	112.25
240.26	96.25
240.494	86.25
240.728	103.25
240.961	97.25
241.195	88.25
241.429	90.25
241.662	92.25
241.896	99.25
242.13	104.25
242.363	78.25
242.597	96.25
242.83	88.25
243.064	100.25
243.298	108.25
243.531	97.25
243.765	100.25
243.998	117.25
244.232	103.25
244.465	106.25
244.699	94.25
244.932	108.25
245.166	106.25
245.399	130.25
245.633	119.25
245.866	112.25
246.099	102.25
246.333	98.25
246.566	105.25
246.8	97.25
247.033	98.25
247.266	104.25
247.5	112.25
247.733	115.25
247.966	119.25
248.2	98.25
248.433	118.25
248.666	118.25
248.899	118.25
249.133	117.25
249.366	120.25
249.599	120.25
249.832	120.25
250.066	124.25
250.299	115.25
250.532	103.25
250.765	105.25
250.998	107.25
251.231	103.25
251.465	121.25
251.698	126.25
251.931	116.25
252.164	115.25
252.397	100.25
252.63	120.25
252.863	96.25
253.096	107.25
253.329	118.25
253.562	116.25
253.795	116.25
254.028	125.25
254.261	138.25
254.494	109.25
254.727	134.25
254.96	123.25
255.193	106.25
255.426	128.25
255.659	116.25
255.892	126.25
256.124	119.25
256.357	129.25
256.59	128.25
256.823	108.25
257.056	136.25
257.289	110.25
257.521	126.25
257.754	124.25
257.987	133.25
258.22	145.25
258.452	113.25
258.685	123.25
258.918	119.25
259.151	116.25
259.383	114.25
259.616	139.25
259.849	126.25
260.081	135.25
260.314	122.25
260.547	133.25
260.779	138.25
261.012	117.25
261.244	136.25
261.477	134.25
261.71	136.25
261.942	133.25
262.175	136.25
262.407	121.25
262.64	129.25
262.872	139.25
263.105	122.25
263.337	134.25
263.57	136.25
263.802	143.25
264.035	134.25
264.267	132.25
264.499	123.25
264.732	138.25
264.964	135.25
265.197	133.25
265.429	129.25
265.661	128.25
265.894	131.25
266.126	132.25
266.358	129.25
266.591	140.25
266.823	145.25
267.055	140.25
267.287	138.25
267.52	132.25
267.752	133.25
267.984	136.25
268.216	143.25
268.448	141.25
268.681	132.25
268.913	157.25
269.145	153.25
269.377	133.25
269.609	150.25
269.841	134.25
270.073	148.25
270.306	139.25
270.538	149.25
270.77	145.25
271.002	156.25
271.234	162.25
271.466	144.25
271.698	151.25
271.93	158.25
272.162	146.25
272.394	132.25
272.626	143.25
272.858	144.25
273.09	151.25
273.322	150.25
273.553	149.25
273.785	150.25
274.017	149.25
274.249	158.25
274.481	179.25
274.713	166.25
274.945	178.25
275.176	180.25
275.408	167.25
275.64	142.25
275.872	148.25
276.104	146.25
276.335	156.25
276.567	157.25
276.799	169.25
277.031	151.25
277.262	153.25
277.494	147.25
277.726	156.25
277.957	157.25
278.189	163.25
278.421	159.25
278.652	153.25
278.884	156.25
279.115	147.25
279.347	145.25
279.579	154.25
279.81	159.25
280.042	167.25
280.273	164.25
280.505	183.25
280.736	178.25
280.968	178.25
281.199	157.25
281.431	168.25
281.662	170.25
281.894	169.25
282.125	166.25
282.356	168.25
282.588	158.25
282.819	167.25
283.051	169.25
283.282	158.25
283.513	173.25
283.745	174.25
283.976	176.25
284.207	174.25
284.439	174.25
284.67	180.25
284.901	176.25
285.132	196.25
285.364	162.25
285.595	173.25
285.826	170.25
286.057	184.25
286.288	188.25
286.52	183.25
286.751	177.25
286.982	176.25
287.213	187.25
287.444	187.25
287.675	176.25
287.906	183.25
288.138	181.25
288.369	202.25
288.6	190.25
288.831	184.25
289.062	181.25
289.293	180.25
289.524	193.25
289.755	182.25
289.986	193.25
290.217	193.25
290.448	179.25
290.679	202.25
290.91	199.25
291.141	188.25
291.371	182.25
291.602	206.25
291.833	181.25
292.064	176.25
292.295	185.25
292.526	199.25
292.757	197.25
292.987	197.25
293.218	186.25
293.449	190.25
293.68	193.25
293.91	180.25
294.141	195.25
294.372	196.25
294.603	188.25
294.833	196.25
295.064	184.25
295.295	171.25
295.525	211.25
295.756	204.25
295.987	196.25
296.217	194.25
296.448	180.25
296.679	207.25
296.909	208.25
297.14	194.25
297.37	199.25
297.601	204.25
297.831	215.25
298.062	190.25
298.292	214.25
298.523	192.25
298.753	198.25
298.984	195.25
299.214	201.25
299.445	202.25
299.675	204.25
299.905	204.25
300.136	200.25
300.366	213.25
300.597	232.25
300.827	215.25
301.057	217.25
301.288	203.25
301.518	226.25
301.748	221.25
301.979	215.25
302.209	209.25
302.439	212.25
302.669	193.25
302.9	227.25
303.13	218.25
303.36	214.25
303.59	206.25
303.82	213.25
304.051	215.25
304.281	250.25
304.511	220.25
304.741	211.25
304.971	232.25
305.201	208.25
305.431	224.25
305.661	226.25
305.891	219.25
306.121	223.25
306.352	226.25
306.582	216.25
306.812	202.25
307.042	220.25
307.272	209.25
307.502	214.25
307.731	202.25
307.961	211.25
308.191	196.25
308.421	206.25
308.651	217.25
308.881	224.25
309.111	226.25
309.341	213.25
309.571	209.25
309.8	228.25
310.03	213.25
310.26	216.25
310.49	225.25
310.72	212.25
310.949	208.25
311.179	218.25
311.409	227.25
311.639	233.25
311.868	233.25
312.098	209.25
312.328	217.25
312.557	224.25
312.787	249.25
313.017	243.25
313.246	220.25
313.476	239.25
313.706	227.25
313.935	225.25
314.165	244.25
314.394	220.25
314.624	236.25
314.853	233.25
315.083	241.25
315.312	248.25
315.542	232.25
315.771	228.25
316.001	232.25
316.23	210.25
316.46	237.25
316.689	240.25
316.919	231.25
317.148	251.25
317.377	250.25
317.607	237.25
317.836	236.25
318.065	238.25
318.295	228.25
318.524	240.25
318.753	236.25
318.983	240.25
319.212	223.25
319.441	243.25
319.67	257.25
319.9	235.25
320.129	230.25
320.358	254.25
320.587	243.25
320.816	242.25
321.046	238.25
321.275	243.25
321.504	250.25
321.733	249.25
321.962	234.25
322.191	241.25
322.42	248.25
322.649	246.25
322.878	252.25
323.108	237.25
323.337	225.25
323.566	244.25
323.795	248.25
324.024	245.25
324.253	252.25
324.482	235.25
324.71	238.25
324.939	238.25
325.168	260.25
325.397	245.25
325.626	256.25
325.855	251.25
326.084	252.25
326.313	259.25
326.542	263.25
326.77	262.25
326.999	246.25
327.228	267.25
327.457	260.25
327.686	294.25
327.914	254.25
328.143	261.25
328.372	257.25
328.6	253.25
328.829	241.25
329.058	258.25
329.287	250.25
329.515	272.25
329.744	276.25
329.972	269.25
330.201	269.25
330.43	272.25
330.658	258.25
330.887	254.25
331.115	275.25
331.344	275.25
331.572	266.25
331.801	252.25
332.03	281.25
332.258	280.25
332.486	284.25
332.715	296.25
332.943	294.25
333.172	297.25
333.4	290.25
333.629	296.25
333.857	314.25
334.085	316.25
334.314	322.25
334.542	307.25
334.771	298.25
334.999	301.25
335.227	307.25
335.455	310.25
335.684	310.25
335.912	312.25
336.14	315.25
336.369	302.25
336.597	295.25
336.825	309.25
337.053	304.25
337.281	313.25
337.51	291.25
337.738	299.25
337.966	291.25
338.194	292.25
338.422	270.25
338.65	281.25
338.878	286.25
339.106	285.25
339.334	295.25
339.562	278.25
339.79	286.25
340.018	284.25
340.246	278.25
340.474	276.25
340.702	285.25
340.93	276.25
341.158	295.25
341.386	298.25
341.614	300.25
341.842	299.25
342.07	292.25
342.298	276.25
342.526	282.25
342.754	289.25
342.981	276.25
343.209	313.25
343.437	299.25
343.665	302.25
343.893	318.25
344.12	324.25
344.348	322.25
344.576	313.25
344.804	293.25
345.031	294.25
345.259	298.25
345.487	276.25
345.714	266.25
345.942	276.25
346.17	284.25
346.397	254.25
346.625	288.25
346.853	260.25
347.08	275.25
347.308	281.25
347.535	266.25
347.763	265.25
347.99	262.25
348.218	267.25
348.445	282.25
348.673	266.25
348.9	275.25
349.128	262.25
349.355	288.25
349.583	276.25
349.81	262.25
350.037	288.25
350.265	298.25
350.492	267.25
350.72	261.25
350.947	282.25
351.174	276.25
351.402	283.25
351.629	273.25
351.856	268.25
352.083	272.25
352.311	276.25
352.538	259.25
352.765	245.25
352.992	280.25
353.22	268.25
353.447	273.25
353.674	286.25
353.901	276.25
354.128	268.25
354.355	249.25
354.583	287.25
354.81	263.25
355.037	273.25
355.264	270.25
355.491	288.25
355.718	268.25
355.945	299.25
356.172	281.25
356.399	275.25
356.626	292.25
356.853	279.25
357.08	284.25
357.307	260.25
357.534	284.25
357.761	285.25
357.988	286.25
358.215	287.25
358.441	289.25
358.668	274.25
358.895	291.25
359.122	293.25
359.349	287.25
359.576	266.25
359.802	276.25
360.029	278.25
360.256	269.25
360.483	266.25
360.709	286.25
360.936	271.25
361.163	273.25
361.39	286.25
361.616	279.25
361.843	271.25
362.07	289.25
362.296	284.25
362.523	284.25
362.749	272.25
362.976	277.25
363.203	266.25
363.429	285.25
363.656	288.25
363.882	271.25
364.109	272.25
364.335	293.25
364.562	284.25
364.788	289.25
365.015	300.25
365.241	296.25
365.468	291.25
365.694	280.25
365.92	294.25
366.147	293.25
366.373	290.25
366.599	279.25
366.826	274.25
367.052	286.25
367.278	293.25
367.505	268.25
367.731	283.25
367.957	269.25
368.184	290.25
368.41	283.25
368.636	285.25
368.862	290.25
369.089	290.25
369.315	286.25
369.541	287.25
369.767	296.25
369.993	281.25
370.219	291.25
370.445	299.25
370.672	277.25
370.898	284.25
371.124	307.25
371.35	312.25
371.576	316.25
371.802	312.25
372.028	308.25
372.254	309.25
372.48	316.25
372.706	298.25
372.932	320.25
373.158	297.25
373.384	313.25
373.61	306.25
373.835	294.25
374.061	309.25
374.287	307.25
374.513	322.25
374.739	308.25
374.965	300.25
375.191	311.25
375.416	318.25
375.642	307.25
375.868	310.25
376.094	311.25
376.319	309.25
376.545	313.25
376.771	288.25
376.997	308.25
377.222	297.25
377.448	301.25
377.674	323.25
377.899	322.25
378.125	277.25
378.35	313.25
378.576	300.25
378.802	290.25
379.027	305.25
379.253	325.25
379.478	301.25
379.704	306.25
379.929	306.25
380.155	307.25
380.38	317.25
380.606	308.25
380.831	309.25
381.057	319.25
381.282	296.25
381.507	314.25
381.733	313.25
381.958	321.25
382.184	314.25
382.409	329.25
382.634	327.25
382.86	318.25
383.085	344.25
383.31	315.25
383.535	330.25
383.761	326.25
383.986	332.25
384.211	322.25
384.436	324.25
384.662	335.25
384.887	352.25
385.112	358.25
385.337	340.25
385.562	372.25
385.787	370.25
386.013	349.25
386.238	356.25
386.463	345.25
386.688	350.25
386.913	350.25
387.138	340.25
387.363	348.25
387.588	359.25
387.813	376.25
388.038	350.25
388.263	345.25
388.488	356.25
388.713	371.25
388.938	370.25
389.163	372.25
389.387	347.25
389.612	346.25
389.837	357.25
390.062	361.25
390.287	365.25
390.512	374.25
390.736	354.25
390.961	362.25
391.186	370.25
391.411	384.25
391.636	374.25
391.86	369.25
392.085	374.25
392.31	366.25
392.534	373.25
392.759	377.25
392.984	382.25
393.208	363.25
393.433	372.25
393.658	376.25
393.882	369.25
394.107	366.25
394.331	358.25
394.556	384.25
394.78	392.25
395.005	392.25
395.229	398.25
395.454	405.25
395.678	387.25
395.903	403.25
396.127	382.25
396.352	377.25
396.576	385.25
396.801	387.25
397.025	416.25
397.249	412.25
397.474	400.25
397.698	421.25
397.922	405.25
398.147	415.25
398.371	420.25
398.595	441.25
398.82	432.25
399.044	433.25
399.268	518.25
399.492	514.25
399.717	520.25
399.941	535.25
400.165	496.25
400.389	500.25
400.613	483.25
400.837	480.25
401.062	448.25
401.286	448.25
401.51	438.25
401.734	446.25
401.958	445.25
402.182	420.25
402.406	424.25
402.63	399.25
402.854	448.25
403.078	426.25
403.302	429.25
403.526	482.25
403.75	449.25
403.974	469.25
404.198	434.25
404.422	448.25
404.645	434.25
404.869	449.25
405.093	446.25
405.317	454.25
405.541	461.25
405.765	457.25
405.988	447.25
406.212	467.25
406.436	465.25
406.66	469.25
406.883	474.25
407.107	491.25
407.331	488.25
407.555	506.25
407.778	476.25
408.002	478.25
408.226	490.25
408.449	481.25
408.673	438.25
408.896	463.25
409.12	464.25
409.344	474.25
409.567	450.25
409.791	458.25
410.014	450.25
410.238	429.25
410.461	467.25
410.685	443.25
410.908	440.25
411.132	437.25
411.355	425.25
411.578	439.25
411.802	434.25
412.025	454.25
412.249	416.25
412.472	438.25
412.695	432.25
412.919	426.25
413.142	447.25
413.365	418.25
413.589	429.25
413.812	405.25
414.035	445.25
414.258	442.25
414.482	434.25
414.705	416.25
414.928	434.25
415.151	432.25
415.374	429.25
415.597	423.25
415.821	405.25
416.044	411.25
416.267	416.25
416.49	406.25
416.713	387.25
416.936	417.25
417.159	434.25
417.382	410.25
417.605	388.25
417.828	423.25
418.051	423.25
418.274	416.25
418.497	413.25
418.72	407.25
418.943	409.25
419.166	408.25
419.389	434.25
419.611	428.25
419.834	435.25
420.057	442.25
420.28	407.25
420.503	416.25
420.726	404.25
420.948	418.25
421.171	407.25
421.394	421.25
421.617	412.25
421.839	402.25
422.062	412.25
422.285	394.25
422.507	408.25
422.73	413.25
422.953	404.25
423.175	400.25
423.398	429.25
423.621	421.25
423.843	408.25
424.066	406.25
424.288	406.25
424.511	433.25
424.733	417.25
424.956	422.25
425.178	405.25
425.401	378.25
425.623	393.25
425.846	402.25
426.068	388.25
426.291	396.25
426.513	391.25
426.735	396.25
426.958	393.25
427.18	403.25
427.402	393.25
427.625	396.25
427.847	356.25
428.069	392.25
428.292	376.25
428.514	383.25
428.736	387.25
428.958	391.25
429.181	388.25
429.403	375.25
429.625	384.25
429.847	387.25
430.069	370.25
430.292	386.25
430.514	380.25
430.736	360.25
430.958	384.25
431.18	387.25
431.402	352.25
431.624	378.25
431.846	398.25
432.068	385.25
432.29	389.25
432.512	374.25
432.734	374.25
432.956	378.25
433.178	385.25
433.4	414.25
433.622	389.25
433.844	410.25
434.066	388.25
434.287	370.25
434.509	416.25
434.731	395.25
434.953	408.25
435.175	403.25
435.397	410.25
435.618	388.25
435.84	408.25
436.062	391.25
436.284	388.25
436.505	386.25
436.727	370.25
436.949	389.25
437.17	382.25
437.392	368.25
437.614	373.25
437.835	387.25
438.057	370.25
438.278	362.25
438.5	377.25
438.721	368.25
438.943	376.25
439.165	379.25
439.386	389.25
439.608	377.25
439.829	378.25
440.05	380.25
440.272	370.25
440.493	368.25
440.715	376.25
440.936	396.25
441.158	380.25
441.379	401.25
441.6	416.25
441.822	416.25
442.043	399.25
442.264	404.25
442.486	402.25
442.707	429.25
442.928	394.25
443.149	397.25
443.371	414.25
443.592	398.25
443.813	403.25
444.034	399.25
444.255	409.25
444.476	413.25
444.698	420.25
444.919	432.25
445.14	512.25
445.361	461.25
445.582	418.25
445.803	401.25
446.024	425.25
446.245	405.25
446.466	387.25
446.687	372.25
446.908	385.25
447.129	370.25
447.35	381.25
447.571	373.25
447.792	360.25
448.013	382.25
448.234	364.25
448.455	361.25
448.675	360.25
448.896	375.25
449.117	340.25
449.338	340.25
449.559	363.25
449.779	332.25
450	333.25
450.221	343.25
450.442	351.25
450.662	337.25
450.883	337.25
451.104	354.25
451.324	352.25
451.545	349.25
451.766	353.25
451.986	346.25
452.207	334.25
452.428	347.25
452.648	337.25
452.869	338.25
453.089	333.25
453.31	332.25
453.53	317.25
453.751	332.25
453.971	344.25
454.192	340.25
454.412	335.25
454.633	332.25
454.853	346.25
455.073	333.25
455.294	340.25
455.514	326.25
455.734	338.25
455.955	341.25
456.175	327.25
456.395	346.25
456.616	340.25
456.836	350.25
457.056	336.25
457.276	328.25
457.497	348.25
457.717	324.25
457.937	339.25
458.157	344.25
458.377	349.25
458.598	363.25
458.818	342.25
459.038	364.25
459.258	373.25
459.478	393.25
459.698	397.25
459.918	403.25
460.138	404.25
460.358	394.25
460.578	387.25
460.798	429.25
461.018	431.25
461.238	416.25
461.458	432.25
461.678	424.25
461.898	434.25
462.118	447.25
462.338	428.25
462.558	458.25
462.777	484.25
462.997	487.25
463.217	493.25
463.437	490.25
463.657	472.25
463.876	484.25
464.096	460.25
464.316	480.25
464.536	465.25
464.755	440.25
464.975	427.25
465.195	427.25
465.414	427.25
465.634	384.25
465.854	414.25
466.073	412.25
466.293	387.25
466.512	365.25
466.732	360.25
466.951	362.25
467.171	373.25
467.391	388.25
467.61	356.25
467.829	384.25
468.049	379.25
468.268	370.25
468.488	372.25
468.707	373.25
468.927	354.25
469.146	370.25
469.365	366.25
469.585	353.25
469.804	370.25
470.023	364.25
470.243	384.25
470.462	380.25
470.681	387.25
470.901	388.25
471.12	365.25
471.339	388.25
471.558	370.25
471.777	380.25
471.997	366.25
472.216	349.25
472.435	375.25
472.654	358.25
472.873	360.25
473.092	370.25
473.311	377.25
473.53	380.25
473.749	377.25
473.968	375.25
474.187	385.25
474.406	364.25
474.625	370.25
474.844	374.25
475.063	357.25
475.282	377.25
475.501	396.25
475.72	414.25
475.939	391.25
476.158	380.25
476.377	385.25
476.596	399.25
476.814	381.25
477.033	389.25
477.252	394.25
477.471	399.25
477.69	398.25
477.908	394.25
478.127	414.25
478.346	409.25
478.564	421.25
478.783	426.25
479.002	450.25
479.22	442.25
479.439	445.25
479.658	433.25
479.876	452.25
480.095	434.25
480.313	451.25
480.532	450.25
480.751	462.25
480.969	457.25
481.188	424.25
481.406	438.25
481.624	424.25
481.843	436.25
482.061	429.25
482.28	442.25
482.498	426.25
482.717	430.25
482.935	418.25
483.153	431.25
483.372	440.25
483.59	462.25
483.808	411.25
484.027	422.25
484.245	407.25
484.463	427.25
484.681	436.25
484.9	429.25
485.118	430.25
485.336	432.25
485.554	428.25
485.772	422.25
485.99	440.25
486.209	445.25
486.427	444.25
486.645	416.25
486.863	429.25
487.081	435.25
487.299	448.25
487.517	432.25
487.735	442.25
487.953	444.25
488.171	429.25
488.389	448.25
488.607	437.25
488.825	441.25
489.043	442.25
489.261	445.25
489.479	446.25
489.696	428.25
489.914	455.25
490.132	434.25
490.35	454.25
490.568	427.25
490.786	450.25
491.003	454.25
491.221	461.25
491.439	446.25
491.657	462.25
491.874	451.25
492.092	454.25
492.31	427.25
492.527	454.25
492.745	432.25
492.963	466.25
493.18	457.25
493.398	445.25
493.615	457.25
493.833	467.25
494.05	476.25
494.268	468.25
494.485	452.25
494.703	467.25
494.92	468.25
495.138	476.25
495.355	460.25
495.573	455.25
495.79	486.25
496.008	469.25
496.225	485.25
496.442	502.25
496.66	509.25
496.877	518.25
497.094	521.25
497.312	526.25
497.529	530.25
497.746	546.25
497.963	548.25
498.181	575.25
498.398	579.25
498.615	642.25
498.832	600.25
499.049	681.25
499.267	703.25
499.484	725.25
499.701	778.25
499.918	797.25
500.135	827.25
500.352	883.25
500.569	890.25
500.786	872.25
501.003	823.25
501.22	781.25
501.437	793.25
501.654	714.25
501.871	714.25
502.088	662.25
502.305	674.25
