Data from Fe(NO3)3@0.1M.TitratingCurve.Agarose3%dH2O.NegLispCup.LampEnergy10.LIBS07252019_HRD10591_16-41-43-333.txt Node
Date: Thu Jul 25 16:41:43 EDT 2019
User: cochatt
Spectrometer: HR+D1059
Trigger mode: 1
Integration Time (sec): 1.000000E-1
Scans to average: 1
Electric dark correction enabled: true
Nonlinearity correction enabled: false
Boxcar width: 0
XAxis mode: Wavelengths
Number of Pixels in Spectrum: 2048
>>>>>Begin Spectral Data<<<<<
223.165	-14
223.4	-14
223.635	-14
223.869	-30
224.104	-16
224.338	-1
224.573	-9
224.808	-12
225.042	-13
225.277	-10
225.511	1
225.746	3
225.98	12
226.215	-1
226.449	18
226.683	15
226.918	27
227.152	30
227.387	33
227.621	39
227.856	48
228.09	37
228.324	47
228.559	62
228.793	62
229.027	70
229.262	78
229.496	57
229.73	65
229.964	69
230.199	61
230.433	66
230.667	80
230.901	71
231.136	84
231.37	78
231.604	71
231.838	74
232.072	71
232.306	69
232.541	78
232.775	84
233.009	86
233.243	67
233.477	78
233.711	76
233.945	78
234.179	97
234.413	86
234.647	84
234.881	94
235.115	68
235.349	68
235.583	77
235.817	67
236.051	76
236.285	86
236.519	80
236.753	81
236.987	86
237.221	87
237.455	90
237.689	73
237.922	80
238.156	70
238.39	84
238.624	57
238.858	84
239.091	81
239.325	87
239.559	77
239.793	67
240.027	87
240.26	70
240.494	97
240.728	87
240.961	75
241.195	80
241.429	74
241.662	75
241.896	77
242.13	71
242.363	70
242.597	66
242.83	92
243.064	69
243.298	73
243.531	85
243.765	71
243.998	83
244.232	69
244.465	85
244.699	103
244.932	88
245.166	72
245.399	86
245.633	83
245.866	110
246.099	76
246.333	63
246.566	83
246.8	88
247.033	90
247.266	81
247.5	81
247.733	87
247.966	78
248.2	81
248.433	92
248.666	89
248.899	82
249.133	103
249.366	106
249.599	93
249.832	92
250.066	93
250.299	83
250.532	83
250.765	82
250.998	85
251.231	96
251.465	85
251.698	84
251.931	100
252.164	83
252.397	84
252.63	86
252.863	89
253.096	85
253.329	78
253.562	91
253.795	83
254.028	88
254.261	93
254.494	85
254.727	94
254.96	90
255.193	101
255.426	89
255.659	87
255.892	94
256.124	76
256.357	89
256.59	84
256.823	90
257.056	68
257.289	95
257.521	90
257.754	98
257.987	95
258.22	94
258.452	74
258.685	90
258.918	66
259.151	86
259.383	87
259.616	87
259.849	93
260.081	85
260.314	98
260.547	93
260.779	96
261.012	97
261.244	102
261.477	111
261.71	94
261.942	95
262.175	98
262.407	103
262.64	92
262.872	92
263.105	73
263.337	91
263.57	91
263.802	86
264.035	88
264.267	100
264.499	89
264.732	106
264.964	97
265.197	90
265.429	87
265.661	94
265.894	81
266.126	115
266.358	93
266.591	87
266.823	91
267.055	93
267.287	110
267.52	96
267.752	87
267.984	101
268.216	101
268.448	88
268.681	93
268.913	99
269.145	95
269.377	99
269.609	106
269.841	105
270.073	113
270.306	97
270.538	93
270.77	103
271.002	102
271.234	92
271.466	81
271.698	100
271.93	95
272.162	89
272.394	90
272.626	99
272.858	92
273.09	114
273.322	90
273.553	101
273.785	106
274.017	88
274.249	103
274.481	94
274.713	109
274.945	104
275.176	102
275.408	102
275.64	103
275.872	108
276.104	106
276.335	101
276.567	100
276.799	98
277.031	114
277.262	93
277.494	106
277.726	98
277.957	100
278.189	100
278.421	102
278.652	107
278.884	102
279.115	103
279.347	118
279.579	98
279.81	111
280.042	117
280.273	86
280.505	108
280.736	116
280.968	100
281.199	85
281.431	100
281.662	117
281.894	106
282.125	99
282.356	121
282.588	92
282.819	103
283.051	111
283.282	96
283.513	101
283.745	122
283.976	111
284.207	108
284.439	100
284.67	96
284.901	108
285.132	95
285.364	116
285.595	101
285.826	96
286.057	99
286.288	111
286.52	110
286.751	108
286.982	114
287.213	104
287.444	102
287.675	110
287.906	103
288.138	105
288.369	113
288.6	94
288.831	114
289.062	112
289.293	128
289.524	98
289.755	111
289.986	115
290.217	105
290.448	106
290.679	110
290.91	111
291.141	98
291.371	118
291.602	101
291.833	116
292.064	100
292.295	102
292.526	126
292.757	110
292.987	106
293.218	112
293.449	120
293.68	122
293.91	113
294.141	127
294.372	106
294.603	113
294.833	118
295.064	105
295.295	122
295.525	120
295.756	114
295.987	118
296.217	121
296.448	117
296.679	95
296.909	109
297.14	105
297.37	113
297.601	117
297.831	117
298.062	110
298.292	113
298.523	128
298.753	112
298.984	128
299.214	109
299.445	110
299.675	111
299.905	122
300.136	112
300.366	118
300.597	117
300.827	112
301.057	126
301.288	114
301.518	120
301.748	112
301.979	124
302.209	117
302.439	112
302.669	104
302.9	108
303.13	126
303.36	115
303.59	122
303.82	116
304.051	124
304.281	118
304.511	127
304.741	113
304.971	109
305.201	119
305.431	130
305.661	130
305.891	123
306.121	124
306.352	114
306.582	114
306.812	118
307.042	94
307.272	119
307.502	116
307.731	134
307.961	129
308.191	121
308.421	112
308.651	113
308.881	116
309.111	131
309.341	124
309.571	138
309.8	130
310.03	121
310.26	118
310.49	120
310.72	119
310.949	114
311.179	109
311.409	122
311.639	116
311.868	127
312.098	116
312.328	120
312.557	116
312.787	114
313.017	135
313.246	124
313.476	114
313.706	126
313.935	137
314.165	126
314.394	131
314.624	122
314.853	124
315.083	135
315.312	113
315.542	126
315.771	120
316.001	133
316.23	125
316.46	129
316.689	120
316.919	113
317.148	113
317.377	128
317.607	115
317.836	127
318.065	119
318.295	119
318.524	124
318.753	122
318.983	120
319.212	109
319.441	105
319.67	116
319.9	124
320.129	114
320.358	120
320.587	120
320.816	126
321.046	126
321.275	134
321.504	124
321.733	113
321.962	126
322.191	122
322.42	126
322.649	128
322.878	134
323.108	132
323.337	134
323.566	121
323.795	134
324.024	140
324.253	121
324.482	130
324.71	129
324.939	138
325.168	128
325.397	119
325.626	128
325.855	137
326.084	134
326.313	134
326.542	124
326.77	126
326.999	127
327.228	135
327.457	130
327.686	118
327.914	121
328.143	136
328.372	132
328.6	117
328.829	125
329.058	149
329.287	126
329.515	128
329.744	124
329.972	118
330.201	120
330.43	130
330.658	120
330.887	132
331.115	129
331.344	130
331.572	138
331.801	146
332.03	135
332.258	143
332.486	139
332.715	144
332.943	124
333.172	150
333.4	140
333.629	147
333.857	152
334.085	135
334.314	151
334.542	135
334.771	136
334.999	132
335.227	134
335.455	146
335.684	158
335.912	141
336.14	138
336.369	126
336.597	137
336.825	128
337.053	124
337.281	146
337.51	125
337.738	132
337.966	148
338.194	133
338.422	134
338.65	153
338.878	133
339.106	128
339.334	134
339.562	142
339.79	128
340.018	139
340.246	137
340.474	138
340.702	114
340.93	125
341.158	124
341.386	132
341.614	124
341.842	143
342.07	118
342.298	144
342.526	124
342.754	144
342.981	130
343.209	131
343.437	146
343.665	133
343.893	148
344.12	150
344.348	158
344.576	140
344.804	142
345.031	135
345.259	128
345.487	146
345.714	130
345.942	121
346.17	134
346.397	135
346.625	135
346.853	142
347.08	126
347.308	135
347.535	127
347.763	125
347.99	126
348.218	128
348.445	138
348.673	133
348.9	136
349.128	149
349.355	130
349.583	148
349.81	132
350.037	119
350.265	133
350.492	137
350.72	126
350.947	134
351.174	132
351.402	139
351.629	132
351.856	133
352.083	133
352.311	142
352.538	142
352.765	132
352.992	126
353.22	142
353.447	129
353.674	127
353.901	144
354.128	140
354.355	140
354.583	132
354.81	121
355.037	121
355.264	122
355.491	134
355.718	139
355.945	120
356.172	126
356.399	125
356.626	134
356.853	148
357.08	126
357.307	131
357.534	143
357.761	148
357.988	135
358.215	146
358.441	123
358.668	149
358.895	120
359.122	116
359.349	148
359.576	128
359.802	129
360.029	130
360.256	127
360.483	122
360.709	120
360.936	137
361.163	139
361.39	124
361.616	133
361.843	146
362.07	145
362.296	139
362.523	125
362.749	153
362.976	143
363.203	128
363.429	130
363.656	134
363.882	113
364.109	150
364.335	144
364.562	126
364.788	122
365.015	130
365.241	124
365.468	146
365.694	134
365.92	133
366.147	152
366.373	140
366.599	131
366.826	144
367.052	132
367.278	127
367.505	145
367.731	132
367.957	152
368.184	149
368.41	126
368.636	156
368.862	151
369.089	149
369.315	117
369.541	138
369.767	139
369.993	144
370.219	140
370.445	143
370.672	149
370.898	140
371.124	142
371.35	121
371.576	142
371.802	134
372.028	152
372.254	142
372.48	140
372.706	145
372.932	136
373.158	145
373.384	153
373.61	151
373.835	147
374.061	148
374.287	167
374.513	158
374.739	138
374.965	144
375.191	130
375.416	151
375.642	139
375.868	156
376.094	158
376.319	144
376.545	136
376.771	136
376.997	143
377.222	149
377.448	142
377.674	150
377.899	140
378.125	160
378.35	155
378.576	150
378.802	143
379.027	144
379.253	151
379.478	137
379.704	130
379.929	144
380.155	138
380.38	144
380.606	126
380.831	144
381.057	134
381.282	148
381.507	151
381.733	142
381.958	140
382.184	134
382.409	134
382.634	151
382.86	156
383.085	148
383.31	159
383.535	146
383.761	150
383.986	146
384.211	168
384.436	150
384.662	156
384.887	154
385.112	148
385.337	166
385.562	171
385.787	165
386.013	185
386.238	162
386.463	176
386.688	157
386.913	154
387.138	156
387.363	150
387.588	160
387.813	172
388.038	155
388.263	173
388.488	167
388.713	165
388.938	159
389.163	165
389.387	153
389.612	161
389.837	168
390.062	178
390.287	153
390.512	168
390.736	153
390.961	168
391.186	145
391.411	183
391.636	175
391.86	167
392.085	176
392.31	162
392.534	174
392.759	168
392.984	170
393.208	186
393.433	158
393.658	165
393.882	165
394.107	166
394.331	166
394.556	169
394.78	177
395.005	160
395.229	154
395.454	180
395.678	153
395.903	154
396.127	166
396.352	167
396.576	160
396.801	176
397.025	173
397.249	171
397.474	168
397.698	169
397.922	168
398.147	174
398.371	177
398.595	195
398.82	210
399.044	196
399.268	195
399.492	223
399.717	215
399.941	236
400.165	204
400.389	200
400.613	187
400.837	186
401.062	192
401.286	177
401.51	178
401.734	184
401.958	186
402.182	176
402.406	182
402.63	187
402.854	182
403.078	198
403.302	183
403.526	185
403.75	196
403.974	198
404.198	186
404.422	201
404.645	199
404.869	192
405.093	204
405.317	196
405.541	201
405.765	191
405.988	180
406.212	194
406.436	190
406.66	202
406.883	180
407.107	203
407.331	202
407.555	224
407.778	215
408.002	214
408.226	219
408.449	204
408.673	207
408.896	185
409.12	200
409.344	177
409.567	203
409.791	214
410.014	210
410.238	185
410.461	184
410.685	188
410.908	198
411.132	208
411.355	197
411.578	200
411.802	197
412.025	187
412.249	213
412.472	193
412.695	188
412.919	193
413.142	192
413.365	193
413.589	184
413.812	185
414.035	191
414.258	191
414.482	186
414.705	207
414.928	194
415.151	195
415.374	193
415.597	197
415.821	188
416.044	194
416.267	200
416.49	189
416.713	187
416.936	207
417.159	178
417.382	191
417.605	188
417.828	183
418.051	179
418.274	184
418.497	185
418.72	185
418.943	183
419.166	212
419.389	206
419.611	212
419.834	212
420.057	189
420.28	190
420.503	185
420.726	209
420.948	211
421.171	180
421.394	181
421.617	182
421.839	202
422.062	182
422.285	196
422.507	180
422.73	203
422.953	183
423.175	193
423.398	190
423.621	177
423.843	181
424.066	217
424.288	209
424.511	168
424.733	192
424.956	203
425.178	201
425.401	196
425.623	194
425.846	203
426.068	198
426.291	193
426.513	195
426.735	186
426.958	163
427.18	172
427.402	190
427.625	181
427.847	195
428.069	190
428.292	200
428.514	182
428.736	180
428.958	196
429.181	181
429.403	185
429.625	193
429.847	192
430.069	188
430.292	183
430.514	182
430.736	172
430.958	179
431.18	182
431.402	193
431.624	183
431.846	185
432.068	181
432.29	172
432.512	180
432.734	195
432.956	197
433.178	196
433.4	170
433.622	202
433.844	197
434.066	190
434.287	186
434.509	174
434.731	166
434.953	195
435.175	220
435.397	190
435.618	177
435.84	178
436.062	182
436.284	182
436.505	192
436.727	202
436.949	195
437.17	185
437.392	187
437.614	196
437.835	172
438.057	176
438.278	182
438.5	201
438.721	202
438.943	193
439.165	200
439.386	204
439.608	202
439.829	206
440.05	196
440.272	188
440.493	189
440.715	191
440.936	196
441.158	201
441.379	217
441.6	204
441.822	211
442.043	217
442.264	205
442.486	208
442.707	187
442.928	199
443.149	213
443.371	207
443.592	212
443.813	223
444.034	201
444.255	213
444.476	215
444.698	216
444.919	226
445.14	295
445.361	246
445.582	235
445.803	214
446.024	201
446.245	209
446.466	216
446.687	200
446.908	215
447.129	212
447.35	207
447.571	196
447.792	207
448.013	170
448.234	190
448.455	193
448.675	198
448.896	207
449.117	199
449.338	193
449.559	193
449.779	194
450	203
450.221	186
450.442	212
450.662	190
450.883	211
451.104	197
451.324	184
451.545	188
451.766	200
451.986	167
452.207	179
452.428	175
452.648	204
452.869	176
453.089	174
453.31	179
453.53	183
453.751	191
453.971	175
454.192	184
454.412	180
454.633	186
454.853	169
455.073	185
455.294	198
455.514	173
455.734	182
455.955	163
456.175	169
456.395	165
456.616	165
456.836	169
457.056	167
457.276	182
457.497	185
457.717	161
457.937	181
458.157	188
458.377	194
458.598	162
458.818	158
459.038	172
459.258	168
459.478	193
459.698	182
459.918	206
460.138	183
460.358	223
460.578	202
460.798	207
461.018	209
461.238	217
461.458	206
461.678	216
461.898	212
462.118	213
462.338	202
462.558	223
462.777	214
462.997	212
463.217	252
463.437	268
463.657	228
463.876	215
464.096	218
464.316	220
464.536	216
464.755	229
464.975	216
465.195	200
465.414	208
465.634	197
465.854	193
466.073	198
466.293	206
466.512	192
466.732	183
466.951	192
467.171	193
467.391	183
467.61	189
467.829	196
468.049	185
468.268	200
468.488	192
468.707	182
468.927	200
469.146	184
469.365	181
469.585	194
469.804	204
470.023	183
470.243	201
470.462	218
470.681	201
470.901	185
471.12	186
471.339	192
471.558	189
471.777	180
471.997	188
472.216	193
472.435	192
472.654	189
472.873	188
473.092	200
473.311	183
473.53	185
473.749	201
473.968	184
474.187	177
474.406	181
474.625	178
474.844	197
475.063	188
475.282	207
475.501	173
475.72	200
475.939	182
476.158	181
476.377	185
476.596	165
476.814	180
477.033	181
477.252	185
477.471	200
477.69	201
477.908	204
478.127	195
478.346	197
478.564	188
478.783	200
479.002	203
479.22	210
479.439	226
479.658	209
479.876	192
480.095	199
480.313	214
480.532	203
480.751	199
480.969	194
481.188	196
481.406	196
481.624	194
481.843	197
482.061	182
482.28	206
482.498	192
482.717	188
482.935	206
483.153	185
483.372	198
483.59	221
483.808	188
484.027	197
484.245	193
484.463	199
484.681	193
484.9	209
485.118	214
485.336	193
485.554	213
485.772	191
485.99	196
486.209	193
486.427	211
486.645	206
486.863	215
487.081	213
487.299	213
487.517	186
487.735	207
487.953	221
488.171	220
488.389	217
488.607	198
488.825	216
489.043	209
489.261	212
489.479	210
489.696	193
489.914	200
490.132	202
490.35	222
490.568	218
490.786	223
491.003	215
491.221	215
491.439	218
491.657	224
491.874	214
492.092	219
492.31	222
492.527	222
492.745	240
492.963	216
493.18	220
493.398	229
493.615	222
493.833	209
494.05	216
494.268	210
494.485	217
494.703	207
494.92	225
495.138	226
495.355	225
495.573	229
495.79	226
496.008	247
496.225	233
496.442	209
496.66	220
496.877	227
497.094	250
497.312	218
497.529	216
497.746	224
497.963	232
498.181	225
498.398	238
498.615	242
498.832	245
499.049	276
499.267	279
499.484	305
499.701	321
499.918	364
500.135	372
500.352	389
500.569	391
500.786	391
501.003	389
501.22	356
501.437	324
501.654	306
501.871	290
502.088	282
502.305	265
502.522	246
502.739	239
502.956	227
503.172	238
503.389	227
503.606	218
503.823	220
504.04	218
504.256	220
504.473	230
504.69	223
504.907	219
505.123	226
505.34	208
505.557	196
505.773	204
505.99	215
506.207	189
506.423	201
506.64	206
506.856	199
507.073	204
507.289	194
507.506	197
507.722	193
507.939	184
508.155	188
508.372	181
508.588	203
508.805	179
509.021	169
509.238	176
509.454	167
509.67	179
509.887	175
510.103	180
510.319	185
510.536	190
510.752	177
510.968	192
511.184	177
511.401	182
511.617	162
511.833	179
512.049	174
512.265	183
512.481	174
512.698	192
512.914	170
513.13	177
513.346	186
513.562	189
513.778	188
513.994	183
514.21	200
514.426	180
514.642	177
514.858	188
515.074	184
515.29	178
515.506	181
515.721	169
515.937	187
516.153	180
516.369	185
516.585	186
516.801	188
517.016	201
517.232	196
517.448	204
517.664	205
517.879	205
518.095	225
518.311	198
518.527	202
518.742	204
518.958	176
519.173	197
519.389	182
519.605	186
519.82	191
520.036	189
520.251	196
520.467	188
520.682	173
520.898	186
521.113	166
521.329	183
521.544	185
521.76	173
521.975	174
522.19	166
522.406	158
522.621	178
522.836	180
523.052	168
523.267	169
523.482	193
523.698	174
523.913	170
524.128	159
524.343	191
524.559	175
524.774	159
524.989	169
525.204	155
525.419	168
525.634	159
525.849	173
526.064	170
526.28	181
526.495	165
526.71	169
526.925	169
527.14	158
527.355	168
527.57	166
527.785	160
527.999	161
528.214	181
528.429	153
528.644	167
528.859	180
529.074	177
529.289	178
529.503	177
529.718	165
529.933	159
530.148	168
530.363	179
530.577	175
530.792	169
531.007	166
531.221	160
531.436	169
531.651	158
531.865	158
532.08	163
532.295	176
532.509	154
532.724	190
532.938	178
533.153	162
533.367	156
533.582	166
533.796	159
534.011	167
534.225	166
534.44	156
534.654	168
534.868	174
535.083	172
535.297	176
535.511	175
535.726	163
535.94	169
536.154	162
536.369	160
536.583	172
536.797	165
537.011	154
537.225	159
537.44	175
537.654	161
537.868	144
538.082	168
538.296	166
538.51	161
538.724	167
538.938	166
539.153	158
539.367	166
539.581	167
539.795	149
540.009	154
540.222	172
540.436	164
540.65	150
540.864	158
541.078	172
541.292	167
541.506	165
541.72	165
541.934	161
542.147	149
542.361	165
542.575	167
542.789	168
543.002	167
543.216	168
543.43	150
543.644	149
543.857	145
544.071	159
544.285	166
544.498	169
544.712	151
544.925	168
545.139	172
545.352	178
545.566	156
545.779	154
545.993	160
546.206	170
546.42	172
546.633	174
546.847	160
547.06	164
547.274	176
547.487	165
547.7	179
547.914	149
548.127	158
548.34	177
548.554	184
548.767	181
548.98	168
549.193	179
549.407	165
549.62	154
549.833	161
550.046	156
550.259	160
550.473	166
550.686	164
550.899	154
551.112	158
551.325	150
551.538	173
551.751	154
551.964	156
552.177	149
552.39	167
552.603	151
552.816	165
553.029	165
553.242	153
553.455	161
553.667	173
553.88	193
554.093	162
554.306	172
554.519	158
554.732	155
554.944	175
555.157	170
555.37	159
555.583	151
555.795	161
556.008	150
556.221	149
556.433	146
556.646	139
556.859	156
557.071	144
557.284	145
557.496	152
557.709	154
557.921	155
558.134	136
558.346	150
558.559	156
558.771	156
558.984	151
559.196	144
559.409	137
559.621	162
559.833	146
560.046	159
560.258	158
560.47	153
560.683	144
560.895	150
561.107	145
561.32	148
561.532	144
561.744	135
561.956	149
562.168	147
562.381	131
562.593	157
562.805	150
563.017	144
563.229	137
563.441	156
563.653	153
563.865	149
564.077	148
564.289	162
564.501	151
564.713	144
564.925	164
565.137	160
565.349	150
565.561	136
565.773	162
565.985	162
566.197	156
