Data from Fe(NO3)3@0.1M.TitratingCurve.Agarose3%dH2O.NegLispCup.LampEnergy10.LIBS07252019_HRD10591_16-41-40-333.txt Node
Date: Thu Jul 25 16:41:40 EDT 2019
User: cochatt
Spectrometer: HR+D1059
Trigger mode: 1
Integration Time (sec): 1.000000E-1
Scans to average: 1
Electric dark correction enabled: true
Nonlinearity correction enabled: false
Boxcar width: 0
XAxis mode: Wavelengths
Number of Pixels in Spectrum: 2048
>>>>>Begin Spectral Data<<<<<
223.165	-15.5
223.4	-15.5
223.635	-15.5
223.869	-4.5
224.104	-22.5
224.338	-11.5
224.573	-20.5
224.808	-26.5
225.042	5.5
225.277	-4.5
225.511	-6.5
225.746	18.5
225.98	12.5
226.215	10.5
226.449	16.5
226.683	13.5
226.918	13.5
227.152	21.5
227.387	23.5
227.621	47.5
227.856	42.5
228.09	49.5
228.324	60.5
228.559	62.5
228.793	56.5
229.027	96.5
229.262	83.5
229.496	96.5
229.73	92.5
229.964	92.5
230.199	104.5
230.433	86.5
230.667	97.5
230.901	92.5
231.136	100.5
231.37	99.5
231.604	112.5
231.838	107.5
232.072	96.5
232.306	103.5
232.541	100.5
232.775	111.5
233.009	101.5
233.243	95.5
233.477	111.5
233.711	112.5
233.945	114.5
234.179	93.5
234.413	123.5
234.647	108.5
234.881	109.5
235.115	119.5
235.349	101.5
235.583	116.5
235.817	118.5
236.051	112.5
236.285	116.5
236.519	108.5
236.753	113.5
236.987	107.5
237.221	124.5
237.455	103.5
237.689	115.5
237.922	125.5
238.156	123.5
238.39	103.5
238.624	108.5
238.858	119.5
239.091	123.5
239.325	112.5
239.559	111.5
239.793	123.5
240.027	114.5
240.26	116.5
240.494	114.5
240.728	117.5
240.961	108.5
241.195	127.5
241.429	119.5
241.662	122.5
241.896	133.5
242.13	121.5
242.363	121.5
242.597	126.5
242.83	141.5
243.064	118.5
243.298	132.5
243.531	121.5
243.765	127.5
243.998	130.5
244.232	143.5
244.465	117.5
244.699	124.5
244.932	132.5
245.166	130.5
245.399	124.5
245.633	126.5
245.866	131.5
246.099	142.5
246.333	145.5
246.566	125.5
246.8	121.5
247.033	137.5
247.266	136.5
247.5	141.5
247.733	126.5
247.966	140.5
248.2	134.5
248.433	150.5
248.666	148.5
248.899	127.5
249.133	136.5
249.366	130.5
249.599	150.5
249.832	159.5
250.066	133.5
250.299	146.5
250.532	139.5
250.765	126.5
250.998	139.5
251.231	147.5
251.465	158.5
251.698	154.5
251.931	151.5
252.164	161.5
252.397	156.5
252.63	138.5
252.863	149.5
253.096	154.5
253.329	157.5
253.562	153.5
253.795	152.5
254.028	157.5
254.261	173.5
254.494	162.5
254.727	166.5
254.96	170.5
255.193	170.5
255.426	164.5
255.659	151.5
255.892	163.5
256.124	157.5
256.357	168.5
256.59	166.5
256.823	168.5
257.056	158.5
257.289	154.5
257.521	176.5
257.754	183.5
257.987	150.5
258.22	162.5
258.452	159.5
258.685	167.5
258.918	164.5
259.151	177.5
259.383	178.5
259.616	164.5
259.849	196.5
260.081	173.5
260.314	179.5
260.547	177.5
260.779	161.5
261.012	176.5
261.244	172.5
261.477	175.5
261.71	165.5
261.942	189.5
262.175	179.5
262.407	165.5
262.64	184.5
262.872	163.5
263.105	183.5
263.337	198.5
263.57	175.5
263.802	182.5
264.035	181.5
264.267	207.5
264.499	177.5
264.732	197.5
264.964	195.5
265.197	185.5
265.429	179.5
265.661	185.5
265.894	183.5
266.126	184.5
266.358	191.5
266.591	195.5
266.823	185.5
267.055	201.5
267.287	185.5
267.52	200.5
267.752	170.5
267.984	203.5
268.216	201.5
268.448	179.5
268.681	204.5
268.913	177.5
269.145	181.5
269.377	193.5
269.609	202.5
269.841	199.5
270.073	192.5
270.306	187.5
270.538	200.5
270.77	198.5
271.002	189.5
271.234	221.5
271.466	207.5
271.698	218.5
271.93	206.5
272.162	195.5
272.394	209.5
272.626	208.5
272.858	215.5
273.09	207.5
273.322	212.5
273.553	195.5
273.785	217.5
274.017	196.5
274.249	203.5
274.481	216.5
274.713	228.5
274.945	226.5
275.176	224.5
275.408	204.5
275.64	217.5
275.872	215.5
276.104	219.5
276.335	219.5
276.567	204.5
276.799	212.5
277.031	202.5
277.262	222.5
277.494	243.5
277.726	215.5
277.957	215.5
278.189	200.5
278.421	232.5
278.652	236.5
278.884	220.5
279.115	218.5
279.347	236.5
279.579	231.5
279.81	221.5
280.042	232.5
280.273	224.5
280.505	231.5
280.736	227.5
280.968	235.5
281.199	229.5
281.431	241.5
281.662	229.5
281.894	244.5
282.125	232.5
282.356	234.5
282.588	256.5
282.819	245.5
283.051	246.5
283.282	257.5
283.513	243.5
283.745	243.5
283.976	240.5
284.207	242.5
284.439	250.5
284.67	257.5
284.901	242.5
285.132	251.5
285.364	249.5
285.595	255.5
285.826	240.5
286.057	244.5
286.288	265.5
286.52	267.5
286.751	243.5
286.982	265.5
287.213	257.5
287.444	264.5
287.675	253.5
287.906	248.5
288.138	249.5
288.369	261.5
288.6	256.5
288.831	260.5
289.062	280.5
289.293	265.5
289.524	256.5
289.755	268.5
289.986	280.5
290.217	259.5
290.448	261.5
290.679	258.5
290.91	275.5
291.141	284.5
291.371	288.5
291.602	256.5
291.833	262.5
292.064	280.5
292.295	261.5
292.526	279.5
292.757	262.5
292.987	265.5
293.218	265.5
293.449	279.5
293.68	272.5
293.91	270.5
294.141	270.5
294.372	248.5
294.603	263.5
294.833	290.5
295.064	264.5
295.295	272.5
295.525	273.5
295.756	294.5
295.987	271.5
296.217	270.5
296.448	273.5
296.679	273.5
296.909	277.5
297.14	269.5
297.37	293.5
297.601	283.5
297.831	261.5
298.062	284.5
298.292	285.5
298.523	299.5
298.753	279.5
298.984	287.5
299.214	280.5
299.445	282.5
299.675	291.5
299.905	289.5
300.136	267.5
300.366	292.5
300.597	275.5
300.827	275.5
301.057	291.5
301.288	270.5
301.518	290.5
301.748	308.5
301.979	302.5
302.209	284.5
302.439	308.5
302.669	305.5
302.9	292.5
303.13	297.5
303.36	285.5
303.59	311.5
303.82	293.5
304.051	299.5
304.281	303.5
304.511	283.5
304.741	311.5
304.971	298.5
305.201	304.5
305.431	299.5
305.661	280.5
305.891	279.5
306.121	277.5
306.352	285.5
306.582	302.5
306.812	308.5
307.042	295.5
307.272	295.5
307.502	299.5
307.731	297.5
307.961	298.5
308.191	304.5
308.421	286.5
308.651	278.5
308.881	303.5
309.111	294.5
309.341	284.5
309.571	298.5
309.8	307.5
310.03	296.5
310.26	311.5
310.49	276.5
310.72	296.5
310.949	314.5
311.179	286.5
311.409	295.5
311.639	311.5
311.868	304.5
312.098	307.5
312.328	312.5
312.557	306.5
312.787	291.5
313.017	314.5
313.246	316.5
313.476	328.5
313.706	321.5
313.935	312.5
314.165	324.5
314.394	310.5
314.624	315.5
314.853	319.5
315.083	329.5
315.312	308.5
315.542	323.5
315.771	316.5
316.001	323.5
316.23	319.5
316.46	327.5
316.689	317.5
316.919	313.5
317.148	312.5
317.377	307.5
317.607	338.5
317.836	310.5
318.065	293.5
318.295	313.5
318.524	326.5
318.753	314.5
318.983	306.5
319.212	327.5
319.441	333.5
319.67	312.5
319.9	322.5
320.129	311.5
320.358	331.5
320.587	311.5
320.816	323.5
321.046	317.5
321.275	329.5
321.504	332.5
321.733	325.5
321.962	323.5
322.191	316.5
322.42	323.5
322.649	320.5
322.878	311.5
323.108	331.5
323.337	323.5
323.566	347.5
323.795	327.5
324.024	331.5
324.253	316.5
324.482	332.5
324.71	316.5
324.939	345.5
325.168	335.5
325.397	346.5
325.626	347.5
325.855	321.5
326.084	346.5
326.313	349.5
326.542	355.5
326.77	361.5
326.999	355.5
327.228	341.5
327.457	333.5
327.686	334.5
327.914	356.5
328.143	336.5
328.372	341.5
328.6	328.5
328.829	325.5
329.058	346.5
329.287	354.5
329.515	327.5
329.744	348.5
329.972	350.5
330.201	353.5
330.43	363.5
330.658	339.5
330.887	339.5
331.115	347.5
331.344	361.5
331.572	380.5
331.801	379.5
332.03	368.5
332.258	372.5
332.486	381.5
332.715	401.5
332.943	399.5
333.172	407.5
333.4	413.5
333.629	430.5
333.857	428.5
334.085	421.5
334.314	437.5
334.542	412.5
334.771	435.5
334.999	416.5
335.227	431.5
335.455	423.5
335.684	422.5
335.912	419.5
336.14	413.5
336.369	407.5
336.597	404.5
336.825	414.5
337.053	402.5
337.281	394.5
337.51	391.5
337.738	407.5
337.966	369.5
338.194	402.5
338.422	380.5
338.65	387.5
338.878	385.5
339.106	372.5
339.334	376.5
339.562	396.5
339.79	357.5
340.018	377.5
340.246	368.5
340.474	363.5
340.702	369.5
340.93	358.5
341.158	370.5
341.386	383.5
341.614	357.5
341.842	391.5
342.07	370.5
342.298	363.5
342.526	357.5
342.754	357.5
342.981	362.5
343.209	374.5
343.437	405.5
343.665	405.5
343.893	402.5
344.12	445.5
344.348	403.5
344.576	408.5
344.804	385.5
345.031	354.5
345.259	383.5
345.487	373.5
345.714	370.5
345.942	363.5
346.17	340.5
346.397	362.5
346.625	347.5
346.853	352.5
347.08	369.5
347.308	356.5
347.535	346.5
347.763	359.5
347.99	363.5
348.218	340.5
348.445	353.5
348.673	347.5
348.9	342.5
349.128	363.5
349.355	367.5
349.583	357.5
349.81	357.5
350.037	355.5
350.265	354.5
350.492	356.5
350.72	333.5
350.947	340.5
351.174	351.5
351.402	345.5
351.629	347.5
351.856	359.5
352.083	336.5
352.311	351.5
352.538	342.5
352.765	344.5
352.992	345.5
353.22	352.5
353.447	351.5
353.674	350.5
353.901	350.5
354.128	321.5
354.355	336.5
354.583	363.5
354.81	340.5
355.037	346.5
355.264	365.5
355.491	364.5
355.718	347.5
355.945	351.5
356.172	337.5
356.399	354.5
356.626	355.5
356.853	336.5
357.08	360.5
357.307	336.5
357.534	351.5
357.761	368.5
357.988	335.5
358.215	337.5
358.441	328.5
358.668	340.5
358.895	356.5
359.122	338.5
359.349	345.5
359.576	358.5
359.802	357.5
360.029	351.5
360.256	356.5
360.483	333.5
360.709	355.5
360.936	349.5
361.163	346.5
361.39	356.5
361.616	353.5
361.843	354.5
362.07	345.5
362.296	351.5
362.523	360.5
362.749	353.5
362.976	338.5
363.203	354.5
363.429	348.5
363.656	332.5
363.882	357.5
364.109	363.5
364.335	351.5
364.562	364.5
364.788	350.5
365.015	336.5
365.241	363.5
365.468	365.5
365.694	357.5
365.92	353.5
366.147	368.5
366.373	336.5
366.599	337.5
366.826	357.5
367.052	338.5
367.278	327.5
367.505	385.5
367.731	353.5
367.957	349.5
368.184	356.5
368.41	359.5
368.636	367.5
368.862	347.5
369.089	357.5
369.315	349.5
369.541	355.5
369.767	361.5
369.993	370.5
370.219	357.5
370.445	362.5
370.672	368.5
370.898	357.5
371.124	359.5
371.35	361.5
371.576	384.5
371.802	367.5
372.028	367.5
372.254	376.5
372.48	389.5
372.706	377.5
372.932	373.5
373.158	404.5
373.384	384.5
373.61	395.5
373.835	383.5
374.061	388.5
374.287	366.5
374.513	395.5
374.739	403.5
374.965	413.5
375.191	419.5
375.416	404.5
375.642	428.5
375.868	419.5
376.094	400.5
376.319	389.5
376.545	405.5
376.771	399.5
376.997	377.5
377.222	370.5
377.448	372.5
377.674	364.5
377.899	387.5
378.125	385.5
378.35	393.5
378.576	371.5
378.802	377.5
379.027	388.5
379.253	394.5
379.478	383.5
379.704	383.5
379.929	381.5
380.155	385.5
380.38	374.5
380.606	375.5
380.831	385.5
381.057	388.5
381.282	378.5
381.507	354.5
381.733	389.5
381.958	380.5
382.184	403.5
382.409	394.5
382.634	406.5
382.86	409.5
383.085	415.5
383.31	415.5
383.535	404.5
383.761	406.5
383.986	430.5
384.211	412.5
384.436	433.5
384.662	423.5
384.887	435.5
385.112	456.5
385.337	455.5
385.562	445.5
385.787	459.5
386.013	472.5
386.238	437.5
386.463	428.5
386.688	447.5
386.913	437.5
387.138	457.5
387.363	457.5
387.588	452.5
387.813	431.5
388.038	451.5
388.263	449.5
388.488	442.5
388.713	446.5
388.938	443.5
389.163	452.5
389.387	449.5
389.612	435.5
389.837	447.5
390.062	443.5
390.287	449.5
390.512	427.5
390.736	453.5
390.961	447.5
391.186	455.5
391.411	484.5
391.636	481.5
391.86	505.5
392.085	495.5
392.31	494.5
392.534	463.5
392.759	470.5
392.984	451.5
393.208	460.5
393.433	460.5
393.658	472.5
393.882	460.5
394.107	468.5
394.331	476.5
394.556	464.5
394.78	470.5
395.005	485.5
395.229	515.5
395.454	484.5
395.678	511.5
395.903	511.5
396.127	474.5
396.352	466.5
396.576	475.5
396.801	480.5
397.025	486.5
397.249	487.5
397.474	486.5
397.698	499.5
397.922	506.5
398.147	515.5
398.371	502.5
398.595	552.5
398.82	532.5
399.044	589.5
399.268	617.5
399.492	690.5
399.717	740.5
399.941	738.5
400.165	683.5
400.389	655.5
400.613	600.5
400.837	575.5
401.062	570.5
401.286	535.5
401.51	556.5
401.734	561.5
401.958	559.5
402.182	563.5
402.406	562.5
402.63	567.5
402.854	582.5
403.078	581.5
403.302	572.5
403.526	584.5
403.75	590.5
403.974	596.5
404.198	581.5
404.422	580.5
404.645	592.5
404.869	604.5
405.093	605.5
405.317	596.5
405.541	606.5
405.765	588.5
405.988	604.5
406.212	587.5
406.436	610.5
406.66	625.5
406.883	625.5
407.107	644.5
407.331	650.5
407.555	681.5
407.778	666.5
408.002	660.5
408.226	663.5
408.449	630.5
408.673	637.5
408.896	637.5
409.12	602.5
409.344	630.5
409.567	611.5
409.791	633.5
410.014	627.5
410.238	607.5
410.461	604.5
410.685	613.5
410.908	613.5
411.132	612.5
411.355	576.5
411.578	570.5
411.802	584.5
412.025	584.5
412.249	576.5
412.472	581.5
412.695	593.5
412.919	572.5
413.142	575.5
413.365	570.5
413.589	549.5
413.812	552.5
414.035	564.5
414.258	583.5
414.482	587.5
414.705	565.5
414.928	589.5
415.151	570.5
415.374	594.5
415.597	580.5
415.821	543.5
416.044	537.5
416.267	546.5
416.49	543.5
416.713	544.5
416.936	547.5
417.159	533.5
417.382	530.5
417.605	559.5
417.828	554.5
418.051	551.5
418.274	529.5
418.497	550.5
418.72	545.5
418.943	549.5
419.166	600.5
419.389	612.5
419.611	587.5
419.834	579.5
420.057	561.5
420.28	559.5
420.503	538.5
420.726	532.5
420.948	543.5
421.171	559.5
421.394	578.5
421.617	574.5
421.839	558.5
422.062	543.5
422.285	567.5
422.507	569.5
422.73	537.5
422.953	572.5
423.175	551.5
423.398	582.5
423.621	562.5
423.843	597.5
424.066	565.5
424.288	582.5
424.511	568.5
424.733	569.5
424.956	552.5
425.178	563.5
425.401	547.5
425.623	561.5
425.846	548.5
426.068	545.5
426.291	542.5
426.513	521.5
426.735	528.5
426.958	519.5
427.18	530.5
427.402	515.5
427.625	511.5
427.847	506.5
428.069	517.5
428.292	518.5
428.514	475.5
428.736	526.5
428.958	502.5
429.181	502.5
429.403	497.5
429.625	500.5
429.847	492.5
430.069	499.5
430.292	506.5
430.514	491.5
430.736	501.5
430.958	490.5
431.18	489.5
431.402	483.5
431.624	513.5
431.846	507.5
432.068	521.5
432.29	507.5
432.512	495.5
432.734	508.5
432.956	531.5
433.178	503.5
433.4	520.5
433.622	523.5
433.844	520.5
434.066	499.5
434.287	510.5
434.509	548.5
434.731	557.5
434.953	566.5
435.175	556.5
435.397	575.5
435.618	521.5
435.84	519.5
436.062	503.5
436.284	526.5
436.505	516.5
436.727	507.5
436.949	531.5
437.17	503.5
437.392	487.5
437.614	517.5
437.835	497.5
438.057	489.5
438.278	482.5
438.5	471.5
438.721	492.5
438.943	511.5
439.165	487.5
439.386	516.5
439.608	514.5
439.829	482.5
440.05	517.5
440.272	536.5
440.493	535.5
440.715	529.5
440.936	524.5
441.158	533.5
441.379	541.5
441.6	586.5
441.822	560.5
442.043	546.5
442.264	552.5
442.486	545.5
442.707	548.5
442.928	563.5
443.149	525.5
443.371	550.5
443.592	559.5
443.813	579.5
444.034	574.5
444.255	599.5
444.476	618.5
444.698	621.5
444.919	605.5
445.14	710.5
445.361	647.5
445.582	569.5
445.803	556.5
446.024	556.5
446.245	543.5
446.466	559.5
446.687	539.5
446.908	546.5
447.129	515.5
447.35	514.5
447.571	514.5
447.792	509.5
448.013	473.5
448.234	490.5
448.455	477.5
448.675	466.5
448.896	483.5
449.117	462.5
449.338	484.5
449.559	486.5
449.779	472.5
450	463.5
450.221	483.5
450.442	487.5
450.662	477.5
450.883	490.5
451.104	489.5
451.324	489.5
451.545	492.5
451.766	469.5
451.986	463.5
452.207	488.5
452.428	469.5
452.648	477.5
452.869	459.5
453.089	457.5
453.31	455.5
453.53	448.5
453.751	457.5
453.971	444.5
454.192	463.5
454.412	434.5
454.633	470.5
454.853	444.5
455.073	437.5
455.294	461.5
455.514	441.5
455.734	451.5
455.955	433.5
456.175	438.5
456.395	439.5
456.616	450.5
456.836	453.5
457.056	451.5
457.276	427.5
457.497	449.5
457.717	433.5
457.937	449.5
458.157	443.5
458.377	448.5
458.598	469.5
458.818	468.5
459.038	466.5
459.258	497.5
459.478	521.5
459.698	516.5
459.918	513.5
460.138	534.5
460.358	549.5
460.578	560.5
460.798	587.5
461.018	575.5
461.238	576.5
461.458	564.5
461.678	586.5
461.898	585.5
462.118	565.5
462.338	607.5
462.558	616.5
462.777	642.5
462.997	650.5
463.217	716.5
463.437	714.5
463.657	651.5
463.876	653.5
464.096	660.5
464.316	636.5
464.536	658.5
464.755	630.5
464.975	595.5
465.195	581.5
465.414	577.5
465.634	535.5
465.854	534.5
466.073	527.5
466.293	521.5
466.512	495.5
466.732	503.5
466.951	491.5
467.171	477.5
467.391	483.5
467.61	478.5
467.829	490.5
468.049	451.5
468.268	461.5
468.488	472.5
468.707	480.5
468.927	484.5
469.146	449.5
469.365	477.5
469.585	480.5
469.804	480.5
470.023	492.5
470.243	500.5
470.462	513.5
470.681	518.5
470.901	513.5
471.12	489.5
471.339	475.5
471.558	486.5
471.777	471.5
471.997	471.5
472.216	472.5
472.435	461.5
472.654	456.5
472.873	485.5
473.092	470.5
473.311	455.5
473.53	468.5
473.749	459.5
473.968	457.5
474.187	465.5
474.406	447.5
474.625	453.5
474.844	464.5
475.063	447.5
475.282	471.5
475.501	475.5
475.72	446.5
475.939	471.5
476.158	483.5
476.377	479.5
476.596	484.5
476.814	472.5
477.033	461.5
477.252	497.5
477.471	507.5
477.69	493.5
477.908	499.5
478.127	528.5
478.346	517.5
478.564	517.5
478.783	547.5
479.002	572.5
479.22	565.5
479.439	558.5
479.658	567.5
479.876	575.5
480.095	547.5
480.313	572.5
480.532	593.5
480.751	586.5
480.969	548.5
481.188	548.5
481.406	526.5
481.624	530.5
481.843	520.5
482.061	543.5
482.28	513.5
482.498	508.5
482.717	517.5
482.935	521.5
483.153	514.5
483.372	512.5
483.59	519.5
483.808	531.5
484.027	505.5
484.245	516.5
484.463	529.5
484.681	524.5
484.9	531.5
485.118	527.5
485.336	533.5
485.554	538.5
485.772	544.5
485.99	532.5
486.209	542.5
486.427	519.5
486.645	540.5
486.863	562.5
487.081	525.5
487.299	560.5
487.517	549.5
487.735	537.5
487.953	546.5
488.171	562.5
488.389	543.5
488.607	499.5
488.825	516.5
489.043	533.5
489.261	536.5
489.479	513.5
489.696	543.5
489.914	536.5
490.132	529.5
490.35	529.5
490.568	574.5
490.786	568.5
491.003	547.5
491.221	543.5
491.439	541.5
491.657	564.5
491.874	571.5
492.092	553.5
492.31	547.5
492.527	561.5
492.745	564.5
492.963	593.5
493.18	554.5
493.398	569.5
493.615	587.5
493.833	573.5
494.05	579.5
494.268	578.5
494.485	545.5
494.703	561.5
494.92	552.5
495.138	563.5
495.355	535.5
495.573	588.5
495.79	569.5
496.008	588.5
496.225	591.5
496.442	580.5
496.66	595.5
496.877	620.5
497.094	592.5
497.312	610.5
497.529	619.5
497.746	648.5
497.963	639.5
498.181	654.5
498.398	714.5
498.615	735.5
498.832	791.5
499.049	835.5
499.267	911.5
499.484	943.5
499.701	990.5
499.918	1064.5
500.135	1199.5
500.352	1293.5
500.569	1360.5
500.786	1333.5
501.003	1288.5
501.22	1161.5
501.437	1052.5
501.654	982.5
501.871	882.5
502.088	831.5
502.305	798.5
502.522	780.5
502.739	758.5
502.956	709.5
503.172	689.5
503.389	658.5
503.606	647.5
503.823	633.5
504.04	644.5
504.256	633.5
504.473	642.5
504.69	639.5
504.907	630.5
505.123	620.5
505.34	573.5
505.557	559.5
505.773	567.5
505.99	547.5
506.207	531.5
506.423	525.5
506.64	521.5
506.856	530.5
507.073	496.5
507.289	502.5
507.506	503.5
507.722	505.5
507.939	501.5
508.155	496.5
508.372	481.5
508.588	491.5
508.805	492.5
509.021	467.5
509.238	479.5
509.454	482.5
509.67	460.5
509.887	467.5
510.103	466.5
510.319	451.5
510.536	476.5
510.752	471.5
510.968	459.5
511.184	461.5
511.401	459.5
511.617	456.5
511.833	468.5
512.049	455.5
512.265	449.5
512.481	456.5
512.698	459.5
512.914	464.5
513.13	468.5
513.346	472.5
513.562	459.5
513.778	459.5
513.994	460.5
514.21	460.5
514.426	467.5
514.642	480.5
514.858	448.5
515.074	499.5
515.29	471.5
515.506	488.5
515.721	462.5
515.937	490.5
516.153	501.5
516.369	494.5
516.585	507.5
516.801	522.5
517.016	561.5
517.232	578.5
517.448	596.5
517.664	599.5
517.879	587.5
518.095	583.5
518.311	574.5
518.527	586.5
518.742	554.5
518.958	539.5
519.173	522.5
519.389	531.5
519.605	506.5
