Data from Fe(NO3)3@0.0125M.TitratingCurve.Agarose3%dH2O.NegLispCup.LampEnergy10.LIBS07252019_HRD10591_17-01-28-337.txt Node
Date: Thu Jul 25 17:01:28 EDT 2019
User: cochatt
Spectrometer: HR+D1059
Trigger mode: 1
Integration Time (sec): 1.000000E-1
Scans to average: 1
Electric dark correction enabled: true
Nonlinearity correction enabled: false
Boxcar width: 0
XAxis mode: Wavelengths
Number of Pixels in Spectrum: 2048
>>>>>Begin Spectral Data<<<<<
223.165	-26.25
223.4	-26.25
223.635	-26.25
223.869	-25.25
224.104	-8.25
224.338	-24.25
224.573	-15.25
224.808	-4.25
225.042	-10.25
225.277	8.75
225.511	3.75
225.746	7.75
225.98	5.75
226.215	9.75
226.449	12.75
226.683	14.75
226.918	18.75
227.152	31.75
227.387	45.75
227.621	26.75
227.856	36.75
228.09	48.75
228.324	51.75
228.559	54.75
228.793	57.75
229.027	84.75
229.262	78.75
229.496	88.75
229.73	92.75
229.964	73.75
230.199	95.75
230.433	98.75
230.667	104.75
230.901	96.75
231.136	92.75
231.37	97.75
231.604	102.75
231.838	97.75
232.072	106.75
232.306	104.75
232.541	107.75
232.775	101.75
233.009	102.75
233.243	110.75
233.477	94.75
233.711	111.75
233.945	119.75
234.179	117.75
234.413	115.75
234.647	101.75
234.881	104.75
235.115	116.75
235.349	103.75
235.583	119.75
235.817	111.75
236.051	121.75
236.285	109.75
236.519	108.75
236.753	121.75
236.987	117.75
237.221	114.75
237.455	108.75
237.689	97.75
237.922	103.75
238.156	128.75
238.39	98.75
238.624	104.75
238.858	101.75
239.091	100.75
239.325	114.75
239.559	126.75
239.793	111.75
240.027	117.75
240.26	119.75
240.494	111.75
240.728	116.75
240.961	117.75
241.195	117.75
241.429	120.75
241.662	116.75
241.896	136.75
242.13	119.75
242.363	106.75
242.597	122.75
242.83	115.75
243.064	116.75
243.298	122.75
243.531	126.75
243.765	123.75
243.998	114.75
244.232	114.75
244.465	120.75
244.699	128.75
244.932	124.75
245.166	125.75
245.399	118.75
245.633	123.75
245.866	118.75
246.099	111.75
246.333	124.75
246.566	124.75
246.8	116.75
247.033	123.75
247.266	121.75
247.5	133.75
247.733	127.75
247.966	116.75
248.2	147.75
248.433	144.75
248.666	128.75
248.899	131.75
249.133	132.75
249.366	135.75
249.599	141.75
249.832	134.75
250.066	147.75
250.299	149.75
250.532	136.75
250.765	142.75
250.998	141.75
251.231	143.75
251.465	143.75
251.698	138.75
251.931	139.75
252.164	140.75
252.397	133.75
252.63	168.75
252.863	142.75
253.096	151.75
253.329	157.75
253.562	147.75
253.795	161.75
254.028	164.75
254.261	153.75
254.494	133.75
254.727	156.75
254.96	141.75
255.193	152.75
255.426	132.75
255.659	157.75
255.892	146.75
256.124	164.75
256.357	156.75
256.59	164.75
256.823	163.75
257.056	148.75
257.289	157.75
257.521	151.75
257.754	147.75
257.987	171.75
258.22	164.75
258.452	161.75
258.685	141.75
258.918	153.75
259.151	155.75
259.383	149.75
259.616	164.75
259.849	169.75
260.081	163.75
260.314	188.75
260.547	159.75
260.779	149.75
261.012	176.75
261.244	177.75
261.477	183.75
261.71	168.75
261.942	175.75
262.175	181.75
262.407	172.75
262.64	169.75
262.872	183.75
263.105	161.75
263.337	172.75
263.57	171.75
263.802	164.75
264.035	163.75
264.267	180.75
264.499	177.75
264.732	177.75
264.964	176.75
265.197	171.75
265.429	155.75
265.661	183.75
265.894	175.75
266.126	181.75
266.358	179.75
266.591	176.75
266.823	171.75
267.055	170.75
267.287	185.75
267.52	192.75
267.752	184.75
267.984	177.75
268.216	189.75
268.448	189.75
268.681	198.75
268.913	189.75
269.145	199.75
269.377	178.75
269.609	181.75
269.841	197.75
270.073	171.75
270.306	182.75
270.538	202.75
270.77	184.75
271.002	204.75
271.234	210.75
271.466	186.75
271.698	168.75
271.93	207.75
272.162	192.75
272.394	204.75
272.626	206.75
272.858	204.75
273.09	192.75
273.322	194.75
273.553	199.75
273.785	210.75
274.017	205.75
274.249	208.75
274.481	202.75
274.713	214.75
274.945	226.75
275.176	215.75
275.408	226.75
275.64	221.75
275.872	219.75
276.104	218.75
276.335	209.75
276.567	199.75
276.799	212.75
277.031	205.75
277.262	213.75
277.494	218.75
277.726	214.75
277.957	213.75
278.189	217.75
278.421	218.75
278.652	215.75
278.884	225.75
279.115	233.75
279.347	205.75
279.579	207.75
279.81	218.75
280.042	209.75
280.273	211.75
280.505	231.75
280.736	204.75
280.968	214.75
281.199	201.75
281.431	225.75
281.662	233.75
281.894	224.75
282.125	224.75
282.356	206.75
282.588	232.75
282.819	227.75
283.051	224.75
283.282	228.75
283.513	219.75
283.745	225.75
283.976	230.75
284.207	216.75
284.439	233.75
284.67	234.75
284.901	234.75
285.132	239.75
285.364	220.75
285.595	247.75
285.826	241.75
286.057	248.75
286.288	234.75
286.52	237.75
286.751	238.75
286.982	226.75
287.213	239.75
287.444	232.75
287.675	263.75
287.906	231.75
288.138	229.75
288.369	232.75
288.6	236.75
288.831	236.75
289.062	243.75
289.293	243.75
289.524	224.75
289.755	257.75
289.986	231.75
290.217	256.75
290.448	255.75
290.679	243.75
290.91	259.75
291.141	256.75
291.371	257.75
291.602	241.75
291.833	264.75
292.064	247.75
292.295	255.75
292.526	231.75
292.757	259.75
292.987	245.75
293.218	241.75
293.449	256.75
293.68	262.75
293.91	257.75
294.141	243.75
294.372	262.75
294.603	267.75
294.833	237.75
295.064	244.75
295.295	279.75
295.525	263.75
295.756	281.75
295.987	267.75
296.217	260.75
296.448	266.75
296.679	260.75
296.909	255.75
297.14	274.75
297.37	287.75
297.601	277.75
297.831	244.75
298.062	259.75
298.292	257.75
298.523	267.75
298.753	287.75
298.984	275.75
299.214	263.75
299.445	277.75
299.675	290.75
299.905	270.75
300.136	290.75
300.366	283.75
300.597	268.75
300.827	292.75
301.057	290.75
301.288	283.75
301.518	270.75
301.748	282.75
301.979	301.75
302.209	289.75
302.439	289.75
302.669	291.75
302.9	284.75
303.13	279.75
303.36	293.75
303.59	281.75
303.82	281.75
304.051	309.75
304.281	294.75
304.511	284.75
304.741	284.75
304.971	301.75
305.201	276.75
305.431	270.75
305.661	291.75
305.891	292.75
306.121	279.75
306.352	294.75
306.582	284.75
306.812	307.75
307.042	313.75
307.272	293.75
307.502	291.75
307.731	305.75
307.961	290.75
308.191	279.75
308.421	288.75
308.651	299.75
308.881	293.75
309.111	285.75
309.341	289.75
309.571	305.75
309.8	285.75
310.03	289.75
310.26	309.75
310.49	271.75
310.72	288.75
310.949	278.75
311.179	292.75
311.409	300.75
311.639	298.75
311.868	300.75
312.098	320.75
312.328	291.75
312.557	305.75
312.787	290.75
313.017	311.75
313.246	299.75
313.476	311.75
313.706	318.75
313.935	315.75
314.165	321.75
314.394	313.75
314.624	312.75
314.853	321.75
315.083	306.75
315.312	308.75
315.542	328.75
315.771	318.75
316.001	312.75
316.23	322.75
316.46	309.75
316.689	300.75
316.919	321.75
317.148	298.75
317.377	322.75
317.607	322.75
317.836	306.75
318.065	322.75
318.295	321.75
318.524	305.75
318.753	311.75
318.983	319.75
319.212	314.75
319.441	339.75
319.67	320.75
319.9	315.75
320.129	331.75
320.358	330.75
320.587	332.75
320.816	330.75
321.046	324.75
321.275	336.75
321.504	358.75
321.733	332.75
321.962	331.75
322.191	325.75
322.42	350.75
322.649	333.75
322.878	330.75
323.108	335.75
323.337	360.75
323.566	343.75
323.795	350.75
324.024	356.75
324.253	327.75
324.482	343.75
324.71	336.75
324.939	332.75
325.168	338.75
325.397	350.75
325.626	347.75
325.855	359.75
326.084	341.75
326.313	347.75
326.542	355.75
326.77	337.75
326.999	333.75
327.228	343.75
327.457	353.75
327.686	355.75
327.914	339.75
328.143	340.75
328.372	340.75
328.6	361.75
328.829	332.75
329.058	368.75
329.287	343.75
329.515	344.75
329.744	352.75
329.972	368.75
330.201	367.75
330.43	363.75
330.658	351.75
330.887	367.75
331.115	379.75
331.344	346.75
331.572	371.75
331.801	383.75
332.03	368.75
332.258	369.75
332.486	345.75
332.715	364.75
332.943	379.75
333.172	407.75
333.4	398.75
333.629	402.75
333.857	419.75
334.085	427.75
334.314	412.75
334.542	408.75
334.771	396.75
334.999	411.75
335.227	392.75
335.455	418.75
335.684	408.75
335.912	404.75
336.14	418.75
336.369	401.75
336.597	403.75
336.825	410.75
337.053	401.75
337.281	397.75
337.51	396.75
337.738	417.75
337.966	402.75
338.194	377.75
338.422	380.75
338.65	397.75
338.878	405.75
339.106	413.75
339.334	388.75
339.562	373.75
339.79	377.75
340.018	383.75
340.246	366.75
340.474	380.75
340.702	376.75
340.93	401.75
341.158	374.75
341.386	392.75
341.614	377.75
341.842	388.75
342.07	384.75
342.298	372.75
342.526	372.75
342.754	381.75
342.981	381.75
343.209	364.75
343.437	381.75
343.665	395.75
343.893	389.75
344.12	407.75
344.348	393.75
344.576	397.75
344.804	401.75
345.031	377.75
345.259	376.75
345.487	393.75
345.714	386.75
345.942	401.75
346.17	368.75
346.397	367.75
346.625	367.75
346.853	394.75
347.08	359.75
347.308	359.75
347.535	395.75
347.763	372.75
347.99	377.75
348.218	362.75
348.445	368.75
348.673	363.75
348.9	369.75
349.128	371.75
349.355	372.75
349.583	377.75
349.81	374.75
350.037	361.75
350.265	367.75
350.492	367.75
350.72	376.75
350.947	369.75
351.174	383.75
351.402	364.75
351.629	351.75
351.856	348.75
352.083	366.75
352.311	375.75
352.538	375.75
352.765	359.75
352.992	357.75
353.22	364.75
353.447	371.75
353.674	363.75
353.901	371.75
354.128	362.75
354.355	351.75
354.583	360.75
354.81	373.75
355.037	369.75
355.264	354.75
355.491	358.75
355.718	361.75
355.945	361.75
356.172	371.75
356.399	375.75
356.626	379.75
356.853	395.75
357.08	387.75
357.307	368.75
357.534	363.75
357.761	376.75
357.988	370.75
358.215	371.75
358.441	374.75
358.668	367.75
358.895	365.75
359.122	341.75
359.349	355.75
359.576	364.75
359.802	380.75
360.029	370.75
360.256	376.75
360.483	378.75
360.709	373.75
360.936	372.75
361.163	357.75
361.39	362.75
361.616	360.75
361.843	383.75
362.07	383.75
362.296	389.75
362.523	375.75
362.749	373.75
362.976	374.75
363.203	369.75
363.429	396.75
363.656	403.75
363.882	373.75
364.109	387.75
364.335	387.75
364.562	367.75
364.788	365.75
365.015	373.75
365.241	377.75
365.468	373.75
365.694	364.75
365.92	391.75
366.147	375.75
366.373	379.75
366.599	377.75
366.826	378.75
367.052	386.75
367.278	394.75
367.505	386.75
367.731	383.75
367.957	396.75
368.184	369.75
368.41	380.75
368.636	383.75
368.862	393.75
369.089	385.75
369.315	392.75
369.541	386.75
369.767	394.75
369.993	394.75
370.219	394.75
370.445	396.75
370.672	409.75
370.898	399.75
371.124	395.75
371.35	382.75
371.576	401.75
371.802	420.75
372.028	407.75
372.254	403.75
372.48	415.75
372.706	410.75
372.932	401.75
373.158	399.75
373.384	422.75
373.61	423.75
373.835	414.75
374.061	405.75
374.287	422.75
374.513	433.75
374.739	410.75
374.965	428.75
375.191	417.75
375.416	423.75
375.642	431.75
375.868	420.75
376.094	386.75
376.319	414.75
376.545	411.75
376.771	417.75
376.997	393.75
377.222	394.75
377.448	406.75
377.674	409.75
377.899	399.75
378.125	395.75
378.35	391.75
378.576	402.75
378.802	405.75
379.027	408.75
379.253	393.75
379.478	415.75
379.704	403.75
379.929	405.75
380.155	408.75
380.38	407.75
380.606	395.75
380.831	384.75
381.057	386.75
381.282	403.75
381.507	413.75
381.733	421.75
381.958	393.75
382.184	423.75
382.409	418.75
382.634	419.75
382.86	422.75
383.085	410.75
383.31	414.75
383.535	421.75
383.761	428.75
383.986	465.75
384.211	432.75
384.436	446.75
384.662	442.75
384.887	437.75
385.112	425.75
385.337	445.75
385.562	448.75
385.787	445.75
386.013	454.75
386.238	446.75
386.463	468.75
386.688	473.75
386.913	473.75
387.138	448.75
387.363	474.75
387.588	462.75
387.813	457.75
388.038	465.75
388.263	460.75
388.488	461.75
388.713	449.75
388.938	452.75
389.163	478.75
389.387	469.75
389.612	470.75
389.837	482.75
390.062	474.75
390.287	464.75
390.512	464.75
390.736	454.75
390.961	470.75
391.186	468.75
391.411	489.75
391.636	485.75
391.86	479.75
392.085	477.75
392.31	507.75
392.534	493.75
392.759	504.75
392.984	476.75
393.208	488.75
393.433	505.75
393.658	511.75
393.882	492.75
394.107	489.75
394.331	481.75
394.556	489.75
394.78	473.75
395.005	500.75
395.229	501.75
395.454	508.75
395.678	506.75
395.903	496.75
396.127	510.75
396.352	503.75
396.576	508.75
396.801	503.75
397.025	501.75
397.249	491.75
397.474	536.75
397.698	523.75
397.922	531.75
398.147	529.75
398.371	540.75
398.595	522.75
398.82	563.75
399.044	603.75
399.268	584.75
399.492	604.75
399.717	624.75
399.941	637.75
400.165	613.75
400.389	585.75
400.613	584.75
400.837	585.75
401.062	575.75
401.286	561.75
401.51	556.75
401.734	544.75
401.958	557.75
402.182	529.75
402.406	552.75
402.63	569.75
402.854	554.75
403.078	523.75
403.302	540.75
403.526	540.75
403.75	546.75
403.974	554.75
404.198	549.75
404.422	549.75
404.645	550.75
404.869	552.75
405.093	579.75
405.317	590.75
405.541	560.75
405.765	572.75
405.988	560.75
406.212	583.75
406.436	567.75
406.66	605.75
406.883	603.75
407.107	605.75
407.331	621.75
407.555	605.75
407.778	596.75
408.002	635.75
408.226	601.75
408.449	611.75
408.673	599.75
408.896	618.75
409.12	605.75
409.344	616.75
409.567	575.75
409.791	580.75
410.014	600.75
410.238	573.75
410.461	574.75
410.685	561.75
410.908	558.75
411.132	578.75
411.355	552.75
411.578	551.75
411.802	579.75
412.025	555.75
412.249	565.75
412.472	559.75
412.695	565.75
412.919	545.75
413.142	551.75
413.365	560.75
413.589	561.75
413.812	586.75
414.035	557.75
414.258	550.75
414.482	551.75
414.705	572.75
414.928	563.75
415.151	549.75
415.374	557.75
415.597	521.75
415.821	537.75
416.044	531.75
416.267	509.75
416.49	520.75
416.713	561.75
416.936	521.75
417.159	522.75
417.382	539.75
417.605	526.75
417.828	533.75
418.051	538.75
418.274	536.75
418.497	535.75
418.72	535.75
418.943	537.75
419.166	557.75
419.389	554.75
419.611	555.75
419.834	544.75
420.057	549.75
420.28	530.75
420.503	515.75
420.726	516.75
420.948	519.75
421.171	511.75
421.394	537.75
421.617	515.75
421.839	524.75
422.062	514.75
422.285	517.75
422.507	526.75
422.73	533.75
422.953	537.75
423.175	522.75
423.398	543.75
423.621	497.75
423.843	523.75
424.066	527.75
424.288	534.75
424.511	535.75
424.733	520.75
424.956	516.75
425.178	515.75
425.401	507.75
425.623	515.75
425.846	491.75
426.068	543.75
426.291	509.75
426.513	521.75
426.735	495.75
426.958	519.75
427.18	512.75
427.402	520.75
427.625	495.75
427.847	492.75
428.069	467.75
428.292	492.75
428.514	491.75
428.736	483.75
428.958	512.75
429.181	497.75
429.403	497.75
429.625	478.75
429.847	489.75
430.069	492.75
430.292	516.75
430.514	511.75
430.736	481.75
430.958	497.75
431.18	498.75
431.402	532.75
431.624	512.75
431.846	496.75
432.068	493.75
432.29	513.75
432.512	498.75
432.734	491.75
432.956	487.75
433.178	529.75
433.4	497.75
433.622	522.75
433.844	532.75
434.066	506.75
434.287	498.75
434.509	492.75
434.731	516.75
434.953	517.75
435.175	524.75
435.397	535.75
435.618	521.75
435.84	501.75
436.062	512.75
436.284	512.75
436.505	496.75
436.727	491.75
436.949	502.75
437.17	521.75
437.392	493.75
437.614	475.75
437.835	466.75
438.057	483.75
438.278	462.75
438.5	489.75
438.721	478.75
438.943	493.75
439.165	483.75
439.386	488.75
439.608	489.75
439.829	476.75
440.05	498.75
440.272	485.75
440.493	475.75
440.715	488.75
440.936	531.75
441.158	516.75
441.379	528.75
441.6	519.75
441.822	536.75
442.043	518.75
442.264	532.75
442.486	513.75
442.707	492.75
442.928	501.75
443.149	524.75
443.371	499.75
443.592	515.75
443.813	534.75
444.034	501.75
444.255	544.75
444.476	527.75
444.698	529.75
444.919	520.75
445.14	629.75
445.361	555.75
445.582	522.75
445.803	520.75
446.024	516.75
446.245	506.75
446.466	502.75
446.687	489.75
446.908	499.75
447.129	505.75
447.35	483.75
447.571	481.75
447.792	466.75
448.013	465.75
448.234	467.75
448.455	481.75
448.675	457.75
448.896	460.75
449.117	468.75
449.338	445.75
449.559	460.75
449.779	430.75
450	469.75
450.221	459.75
450.442	457.75
450.662	459.75
450.883	455.75
451.104	461.75
451.324	464.75
451.545	463.75
451.766	453.75
451.986	436.75
452.207	449.75
452.428	467.75
452.648	457.75
452.869	441.75
453.089	436.75
453.31	441.75
453.53	443.75
453.751	440.75
453.971	437.75
454.192	434.75
454.412	445.75
454.633	442.75
454.853	455.75
455.073	442.75
455.294	424.75
455.514	440.75
455.734	441.75
455.955	445.75
456.175	419.75
456.395	423.75
456.616	434.75
456.836	449.75
457.056	449.75
457.276	437.75
457.497	429.75
457.717	441.75
457.937	472.75
458.157	461.75
458.377	443.75
458.598	448.75
458.818	480.75
459.038	456.75
459.258	492.75
459.478	485.75
459.698	503.75
459.918	501.75
460.138	501.75
460.358	504.75
460.578	511.75
460.798	521.75
461.018	528.75
461.238	544.75
461.458	530.75
461.678	524.75
461.898	543.75
462.118	554.75
462.338	567.75
462.558	569.75
462.777	584.75
462.997	581.75
463.217	612.75
463.437	598.75
463.657	583.75
463.876	571.75
464.096	592.75
464.316	578.75
464.536	575.75
464.755	559.75
464.975	556.75
465.195	548.75
465.414	533.75
465.634	538.75
465.854	517.75
466.073	512.75
466.293	489.75
466.512	494.75
466.732	484.75
466.951	477.75
467.171	470.75
467.391	476.75
467.61	484.75
467.829	472.75
468.049	486.75
468.268	493.75
468.488	497.75
468.707	470.75
468.927	477.75
469.146	490.75
469.365	475.75
469.585	469.75
469.804	484.75
470.023	497.75
470.243	500.75
470.462	479.75
470.681	496.75
470.901	496.75
471.12	482.75
471.339	472.75
471.558	492.75
471.777	490.75
471.997	473.75
472.216	473.75
472.435	489.75
472.654	479.75
472.873	485.75
473.092	469.75
473.311	490.75
473.53	496.75
473.749	486.75
473.968	489.75
474.187	477.75
474.406	470.75
474.625	474.75
474.844	458.75
475.063	490.75
475.282	500.75
475.501	490.75
475.72	486.75
475.939	492.75
476.158	484.75
476.377	503.75
476.596	511.75
476.814	514.75
477.033	515.75
477.252	529.75
477.471	531.75
477.69	545.75
477.908	516.75
478.127	554.75
478.346	558.75
478.564	561.75
478.783	536.75
479.002	560.75
479.22	577.75
479.439	568.75
479.658	541.75
479.876	580.75
480.095	579.75
480.313	590.75
480.532	577.75
480.751	582.75
480.969	573.75
481.188	569.75
481.406	581.75
481.624	581.75
481.843	573.75
482.061	581.75
482.28	575.75
482.498	565.75
482.717	559.75
482.935	572.75
483.153	575.75
483.372	565.75
483.59	559.75
483.808	578.75
484.027	604.75
484.245	597.75
484.463	590.75
484.681	583.75
484.9	577.75
485.118	591.75
485.336	580.75
485.554	583.75
485.772	594.75
485.99	593.75
486.209	606.75
486.427	574.75
486.645	588.75
486.863	613.75
487.081	596.75
487.299	586.75
487.517	601.75
487.735	586.75
487.953	601.75
488.171	604.75
488.389	595.75
488.607	599.75
488.825	588.75
489.043	599.75
489.261	623.75
489.479	587.75
489.696	616.75
489.914	569.75
490.132	593.75
490.35	595.75
490.568	584.75
490.786	598.75
491.003	567.75
491.221	593.75
491.439	571.75
491.657	606.75
491.874	614.75
492.092	595.75
492.31	577.75
492.527	590.75
492.745	605.75
492.963	616.75
493.18	608.75
493.398	607.75
493.615	640.75
493.833	605.75
494.05	599.75
494.268	627.75
494.485	630.75
494.703	613.75
494.92	623.75
495.138	604.75
495.355	607.75
495.573	631.75
495.79	618.75
496.008	625.75
496.225	635.75
496.442	644.75
496.66	642.75
496.877	660.75
497.094	664.75
497.312	680.75
497.529	681.75
497.746	697.75
497.963	688.75
498.181	721.75
498.398	737.75
498.615	747.75
498.832	758.75
499.049	827.75
499.267	813.75
499.484	853.75
499.701	900.75
499.918	970.75
500.135	971.75
500.352	1019.75
500.569	1029.75
500.786	1063.75
501.003	1025.75
501.22	994.75
501.437	920.75
501.654	898.75
