Data from Fe(NO3)3@0.025M.TitratingCurve.Agarose3%dH2O.NegLispCup.LampEnergy10.LIBS07252019_HRD10591_16-55-06-335.txt Node
Date: Thu Jul 25 16:55:06 EDT 2019
User: cochatt
Spectrometer: HR+D1059
Trigger mode: 1
Integration Time (sec): 1.000000E-1
Scans to average: 1
Electric dark correction enabled: true
Nonlinearity correction enabled: false
Boxcar width: 0
XAxis mode: Wavelengths
Number of Pixels in Spectrum: 2048
>>>>>Begin Spectral Data<<<<<
223.165	-16.56
223.4	-16.56
223.635	-16.56
223.869	-22.56
224.104	-12.56
224.338	-5.56
224.573	-1.56
224.808	-8.56
225.042	-5.56
225.277	-12.56
225.511	-10.56
225.746	4.44
225.98	5.44
226.215	-2.56
226.449	6.44
226.683	25.44
226.918	25.44
227.152	31.44
227.387	43.44
227.621	31.44
227.856	29.44
228.09	58.44
228.324	67.44
228.559	60.44
228.793	60.44
229.027	75.44
229.262	81.44
229.496	93.44
229.73	91.44
229.964	90.44
230.199	81.44
230.433	80.44
230.667	87.44
230.901	90.44
231.136	83.44
231.37	89.44
231.604	100.44
231.838	84.44
232.072	96.44
232.306	79.44
232.541	92.44
232.775	93.44
233.009	76.44
233.243	96.44
233.477	89.44
233.711	90.44
233.945	94.44
234.179	105.44
234.413	86.44
234.647	92.44
234.881	81.44
235.115	72.44
235.349	101.44
235.583	106.44
235.817	87.44
236.051	93.44
236.285	99.44
236.519	99.44
236.753	99.44
236.987	91.44
237.221	90.44
237.455	97.44
237.689	92.44
237.922	80.44
238.156	78.44
238.39	76.44
238.624	87.44
238.858	86.44
239.091	92.44
239.325	84.44
239.559	92.44
239.793	99.44
240.027	101.44
240.26	84.44
240.494	98.44
240.728	105.44
240.961	106.44
241.195	94.44
241.429	94.44
241.662	84.44
241.896	106.44
242.13	103.44
242.363	107.44
242.597	90.44
242.83	98.44
243.064	103.44
243.298	96.44
243.531	108.44
243.765	99.44
243.998	109.44
244.232	101.44
244.465	96.44
244.699	90.44
244.932	98.44
245.166	91.44
245.399	92.44
245.633	118.44
245.866	105.44
246.099	92.44
246.333	102.44
246.566	106.44
246.8	88.44
247.033	101.44
247.266	114.44
247.5	113.44
247.733	99.44
247.966	103.44
248.2	88.44
248.433	99.44
248.666	105.44
248.899	97.44
249.133	118.44
249.366	125.44
249.599	92.44
249.832	108.44
250.066	108.44
250.299	109.44
250.532	118.44
250.765	104.44
250.998	100.44
251.231	107.44
251.465	132.44
251.698	115.44
251.931	115.44
252.164	106.44
252.397	129.44
252.63	97.44
252.863	117.44
253.096	121.44
253.329	108.44
253.562	98.44
253.795	107.44
254.028	112.44
254.261	119.44
254.494	117.44
254.727	124.44
254.96	120.44
255.193	107.44
255.426	115.44
255.659	112.44
255.892	114.44
256.124	109.44
256.357	114.44
256.59	117.44
256.823	128.44
257.056	116.44
257.289	101.44
257.521	125.44
257.754	105.44
257.987	122.44
258.22	113.44
258.452	113.44
258.685	114.44
258.918	117.44
259.151	111.44
259.383	130.44
259.616	127.44
259.849	125.44
260.081	115.44
260.314	122.44
260.547	124.44
260.779	116.44
261.012	127.44
261.244	141.44
261.477	127.44
261.71	132.44
261.942	122.44
262.175	116.44
262.407	125.44
262.64	126.44
262.872	142.44
263.105	115.44
263.337	125.44
263.57	112.44
263.802	117.44
264.035	135.44
264.267	129.44
264.499	121.44
264.732	120.44
264.964	116.44
265.197	115.44
265.429	110.44
265.661	106.44
265.894	125.44
266.126	133.44
266.358	146.44
266.591	117.44
266.823	126.44
267.055	121.44
267.287	118.44
267.52	131.44
267.752	129.44
267.984	131.44
268.216	149.44
268.448	134.44
268.681	136.44
268.913	139.44
269.145	129.44
269.377	126.44
269.609	138.44
269.841	131.44
270.073	132.44
270.306	123.44
270.538	147.44
270.77	129.44
271.002	122.44
271.234	129.44
271.466	128.44
271.698	129.44
271.93	139.44
272.162	137.44
272.394	147.44
272.626	124.44
272.858	137.44
273.09	125.44
273.322	139.44
273.553	139.44
273.785	146.44
274.017	137.44
274.249	138.44
274.481	151.44
274.713	151.44
274.945	146.44
275.176	147.44
275.408	140.44
275.64	141.44
275.872	139.44
276.104	146.44
276.335	151.44
276.567	130.44
276.799	128.44
277.031	129.44
277.262	141.44
277.494	162.44
277.726	146.44
277.957	139.44
278.189	128.44
278.421	156.44
278.652	148.44
278.884	155.44
279.115	147.44
279.347	138.44
279.579	149.44
279.81	169.44
280.042	165.44
280.273	152.44
280.505	135.44
280.736	163.44
280.968	161.44
281.199	144.44
281.431	147.44
281.662	144.44
281.894	146.44
282.125	167.44
282.356	161.44
282.588	162.44
282.819	156.44
283.051	166.44
283.282	151.44
283.513	155.44
283.745	158.44
283.976	149.44
284.207	150.44
284.439	162.44
284.67	175.44
284.901	168.44
285.132	162.44
285.364	151.44
285.595	163.44
285.826	153.44
286.057	169.44
286.288	168.44
286.52	165.44
286.751	172.44
286.982	156.44
287.213	156.44
287.444	168.44
287.675	146.44
287.906	151.44
288.138	166.44
288.369	170.44
288.6	166.44
288.831	157.44
289.062	165.44
289.293	172.44
289.524	166.44
289.755	150.44
289.986	152.44
290.217	167.44
290.448	183.44
290.679	161.44
290.91	179.44
291.141	152.44
291.371	166.44
291.602	162.44
291.833	161.44
292.064	170.44
292.295	162.44
292.526	185.44
292.757	171.44
292.987	161.44
293.218	142.44
293.449	174.44
293.68	179.44
293.91	150.44
294.141	173.44
294.372	181.44
294.603	172.44
294.833	163.44
295.064	171.44
295.295	177.44
295.525	168.44
295.756	179.44
295.987	175.44
296.217	167.44
296.448	185.44
296.679	159.44
296.909	175.44
297.14	157.44
297.37	169.44
297.601	179.44
297.831	188.44
298.062	193.44
298.292	184.44
298.523	180.44
298.753	182.44
298.984	198.44
299.214	175.44
299.445	180.44
299.675	165.44
299.905	167.44
300.136	181.44
300.366	161.44
300.597	182.44
300.827	187.44
301.057	177.44
301.288	191.44
301.518	191.44
301.748	201.44
301.979	180.44
302.209	177.44
302.439	192.44
302.669	189.44
302.9	187.44
303.13	185.44
303.36	180.44
303.59	163.44
303.82	187.44
304.051	206.44
304.281	199.44
304.511	195.44
304.741	196.44
304.971	184.44
305.201	179.44
305.431	175.44
305.661	203.44
305.891	187.44
306.121	195.44
306.352	188.44
306.582	205.44
306.812	194.44
307.042	185.44
307.272	187.44
307.502	196.44
307.731	181.44
307.961	187.44
308.191	198.44
308.421	204.44
308.651	185.44
308.881	177.44
309.111	208.44
309.341	195.44
309.571	196.44
309.8	183.44
310.03	180.44
310.26	189.44
310.49	187.44
310.72	209.44
310.949	207.44
311.179	196.44
311.409	193.44
311.639	180.44
311.868	195.44
312.098	198.44
312.328	200.44
312.557	208.44
312.787	202.44
313.017	196.44
313.246	196.44
313.476	204.44
313.706	205.44
313.935	200.44
314.165	200.44
314.394	205.44
314.624	191.44
314.853	219.44
315.083	199.44
315.312	181.44
315.542	204.44
315.771	197.44
316.001	198.44
316.23	198.44
316.46	213.44
316.689	201.44
316.919	209.44
317.148	215.44
317.377	197.44
317.607	191.44
317.836	217.44
318.065	204.44
318.295	216.44
318.524	209.44
318.753	184.44
318.983	214.44
319.212	212.44
319.441	204.44
319.67	197.44
319.9	202.44
320.129	203.44
320.358	199.44
320.587	204.44
320.816	205.44
321.046	188.44
321.275	207.44
321.504	188.44
321.733	199.44
321.962	203.44
322.191	200.44
322.42	197.44
322.649	199.44
322.878	208.44
323.108	202.44
323.337	209.44
323.566	196.44
323.795	201.44
324.024	209.44
324.253	201.44
324.482	219.44
324.71	204.44
324.939	220.44
325.168	225.44
325.397	223.44
325.626	227.44
325.855	220.44
326.084	225.44
326.313	223.44
326.542	225.44
326.77	214.44
326.999	219.44
327.228	204.44
327.457	226.44
327.686	208.44
327.914	203.44
328.143	207.44
328.372	207.44
328.6	209.44
328.829	224.44
329.058	214.44
329.287	206.44
329.515	228.44
329.744	211.44
329.972	220.44
330.201	225.44
330.43	208.44
330.658	224.44
330.887	228.44
331.115	229.44
331.344	231.44
331.572	228.44
331.801	246.44
332.03	243.44
332.258	253.44
332.486	246.44
332.715	253.44
332.943	246.44
333.172	258.44
333.4	264.44
333.629	274.44
333.857	280.44
334.085	254.44
334.314	263.44
334.542	258.44
334.771	267.44
334.999	261.44
335.227	259.44
335.455	266.44
335.684	258.44
335.912	269.44
336.14	251.44
336.369	256.44
336.597	259.44
336.825	263.44
337.053	256.44
337.281	259.44
337.51	246.44
337.738	232.44
337.966	241.44
338.194	231.44
338.422	266.44
338.65	232.44
338.878	251.44
339.106	235.44
339.334	231.44
339.562	223.44
339.79	235.44
340.018	232.44
340.246	217.44
340.474	231.44
340.702	239.44
340.93	247.44
341.158	237.44
341.386	257.44
341.614	240.44
341.842	233.44
342.07	230.44
342.298	230.44
342.526	219.44
342.754	230.44
342.981	217.44
343.209	223.44
343.437	254.44
343.665	267.44
343.893	251.44
344.12	263.44
344.348	242.44
344.576	246.44
344.804	237.44
345.031	238.44
345.259	237.44
345.487	243.44
345.714	244.44
345.942	222.44
346.17	232.44
346.397	235.44
346.625	241.44
346.853	220.44
347.08	225.44
347.308	231.44
347.535	218.44
347.763	219.44
347.99	221.44
348.218	231.44
348.445	223.44
348.673	218.44
348.9	214.44
349.128	232.44
349.355	218.44
349.583	226.44
349.81	216.44
350.037	207.44
350.265	227.44
350.492	221.44
350.72	224.44
350.947	226.44
351.174	218.44
351.402	227.44
351.629	231.44
351.856	221.44
352.083	227.44
352.311	224.44
352.538	225.44
352.765	219.44
352.992	233.44
353.22	232.44
353.447	223.44
353.674	224.44
353.901	218.44
354.128	219.44
354.355	228.44
354.583	227.44
354.81	229.44
355.037	232.44
355.264	211.44
355.491	201.44
355.718	215.44
355.945	221.44
356.172	202.44
356.399	224.44
356.626	255.44
356.853	215.44
357.08	212.44
357.307	235.44
357.534	228.44
357.761	225.44
357.988	208.44
358.215	220.44
358.441	245.44
358.668	232.44
358.895	229.44
359.122	209.44
359.349	221.44
359.576	237.44
359.802	225.44
360.029	229.44
360.256	236.44
360.483	216.44
360.709	218.44
360.936	234.44
361.163	231.44
361.39	208.44
361.616	228.44
361.843	245.44
362.07	212.44
362.296	227.44
362.523	223.44
362.749	241.44
362.976	215.44
363.203	212.44
363.429	224.44
363.656	223.44
363.882	218.44
364.109	231.44
364.335	237.44
364.562	229.44
364.788	221.44
365.015	215.44
365.241	233.44
365.468	234.44
365.694	229.44
365.92	242.44
366.147	222.44
366.373	234.44
366.599	226.44
366.826	221.44
367.052	228.44
367.278	219.44
367.505	225.44
367.731	224.44
367.957	239.44
368.184	237.44
368.41	226.44
368.636	232.44
368.862	227.44
369.089	234.44
369.315	228.44
369.541	236.44
369.767	221.44
369.993	225.44
370.219	227.44
370.445	227.44
370.672	253.44
370.898	243.44
371.124	245.44
371.35	246.44
371.576	257.44
371.802	243.44
372.028	245.44
372.254	233.44
372.48	255.44
372.706	267.44
372.932	250.44
373.158	267.44
373.384	256.44
373.61	244.44
373.835	237.44
374.061	248.44
374.287	251.44
374.513	228.44
374.739	256.44
374.965	273.44
375.191	256.44
375.416	258.44
375.642	263.44
375.868	269.44
376.094	243.44
376.319	250.44
376.545	233.44
376.771	241.44
376.997	233.44
377.222	251.44
377.448	236.44
377.674	257.44
377.899	248.44
378.125	246.44
378.35	250.44
378.576	256.44
378.802	247.44
379.027	251.44
379.253	253.44
379.478	237.44
379.704	248.44
379.929	239.44
380.155	247.44
380.38	257.44
380.606	241.44
380.831	236.44
381.057	255.44
381.282	237.44
381.507	255.44
381.733	264.44
381.958	247.44
382.184	241.44
382.409	260.44
382.634	267.44
382.86	262.44
383.085	244.44
383.31	267.44
383.535	243.44
383.761	258.44
383.986	257.44
384.211	277.44
384.436	289.44
384.662	287.44
384.887	270.44
385.112	296.44
385.337	290.44
385.562	303.44
385.787	305.44
386.013	301.44
386.238	275.44
386.463	275.44
386.688	263.44
386.913	272.44
387.138	283.44
387.363	298.44
387.588	273.44
387.813	276.44
388.038	283.44
388.263	304.44
388.488	273.44
388.713	269.44
388.938	266.44
389.163	283.44
389.387	280.44
389.612	309.44
389.837	289.44
390.062	277.44
390.287	280.44
390.512	271.44
390.736	289.44
390.961	280.44
391.186	285.44
391.411	299.44
391.636	295.44
391.86	309.44
392.085	299.44
392.31	311.44
392.534	305.44
392.759	295.44
392.984	300.44
393.208	287.44
393.433	303.44
393.658	322.44
393.882	305.44
394.107	297.44
394.331	307.44
394.556	291.44
394.78	280.44
395.005	289.44
395.229	293.44
395.454	306.44
395.678	294.44
395.903	306.44
396.127	308.44
396.352	324.44
396.576	311.44
396.801	309.44
397.025	323.44
397.249	299.44
397.474	314.44
397.698	338.44
397.922	316.44
398.147	311.44
398.371	327.44
398.595	320.44
398.82	333.44
399.044	365.44
399.268	393.44
399.492	417.44
399.717	424.44
399.941	448.44
400.165	419.44
400.389	407.44
400.613	377.44
400.837	354.44
401.062	371.44
401.286	337.44
401.51	351.44
401.734	344.44
401.958	358.44
402.182	343.44
402.406	358.44
402.63	348.44
402.854	344.44
403.078	340.44
403.302	355.44
403.526	351.44
403.75	346.44
403.974	337.44
404.198	371.44
404.422	362.44
404.645	362.44
404.869	369.44
405.093	373.44
405.317	373.44
405.541	358.44
405.765	357.44
405.988	347.44
406.212	364.44
406.436	364.44
406.66	375.44
406.883	389.44
407.107	370.44
407.331	404.44
407.555	407.44
407.778	401.44
408.002	412.44
408.226	414.44
408.449	391.44
408.673	372.44
408.896	379.44
409.12	379.44
409.344	387.44
409.567	355.44
409.791	347.44
410.014	372.44
410.238	359.44
410.461	375.44
410.685	365.44
410.908	361.44
411.132	348.44
411.355	327.44
411.578	365.44
411.802	363.44
412.025	327.44
412.249	356.44
412.472	352.44
412.695	351.44
412.919	344.44
413.142	341.44
413.365	344.44
413.589	361.44
413.812	344.44
414.035	347.44
414.258	330.44
414.482	345.44
414.705	345.44
414.928	329.44
415.151	355.44
415.374	348.44
415.597	329.44
415.821	344.44
416.044	342.44
416.267	318.44
416.49	336.44
416.713	342.44
416.936	350.44
417.159	343.44
417.382	332.44
417.605	335.44
417.828	325.44
418.051	327.44
418.274	332.44
418.497	333.44
418.72	356.44
418.943	330.44
419.166	342.44
419.389	373.44
419.611	344.44
419.834	338.44
420.057	336.44
420.28	354.44
420.503	331.44
420.726	338.44
420.948	342.44
421.171	331.44
421.394	334.44
421.617	341.44
421.839	329.44
422.062	321.44
422.285	335.44
422.507	355.44
422.73	327.44
422.953	335.44
423.175	351.44
423.398	339.44
423.621	345.44
423.843	379.44
424.066	347.44
424.288	348.44
424.511	341.44
424.733	337.44
424.956	327.44
425.178	339.44
425.401	355.44
425.623	322.44
425.846	303.44
426.068	346.44
426.291	327.44
426.513	335.44
426.735	329.44
426.958	319.44
427.18	313.44
427.402	317.44
427.625	313.44
427.847	300.44
428.069	289.44
428.292	291.44
428.514	315.44
428.736	299.44
428.958	311.44
429.181	315.44
429.403	325.44
429.625	316.44
429.847	299.44
430.069	317.44
430.292	312.44
430.514	296.44
430.736	303.44
430.958	297.44
431.18	298.44
431.402	306.44
431.624	286.44
431.846	306.44
432.068	324.44
432.29	312.44
432.512	284.44
432.734	322.44
432.956	316.44
433.178	311.44
433.4	315.44
433.622	315.44
433.844	316.44
434.066	320.44
434.287	321.44
434.509	313.44
434.731	335.44
434.953	341.44
435.175	332.44
435.397	342.44
435.618	324.44
435.84	318.44
436.062	334.44
436.284	305.44
436.505	311.44
436.727	316.44
436.949	323.44
437.17	307.44
437.392	292.44
437.614	299.44
437.835	294.44
438.057	319.44
438.278	307.44
438.5	299.44
438.721	305.44
438.943	302.44
439.165	313.44
439.386	311.44
439.608	306.44
439.829	312.44
440.05	307.44
440.272	291.44
440.493	306.44
440.715	315.44
440.936	298.44
441.158	329.44
441.379	319.44
441.6	328.44
441.822	344.44
442.043	319.44
442.264	337.44
442.486	328.44
442.707	316.44
442.928	344.44
443.149	329.44
443.371	336.44
443.592	328.44
443.813	339.44
444.034	322.44
444.255	319.44
444.476	345.44
444.698	363.44
444.919	351.44
445.14	410.44
445.361	372.44
445.582	352.44
445.803	322.44
446.024	327.44
446.245	313.44
446.466	322.44
446.687	313.44
446.908	310.44
447.129	307.44
447.35	291.44
447.571	308.44
447.792	290.44
448.013	281.44
448.234	290.44
448.455	290.44
448.675	293.44
448.896	280.44
449.117	274.44
449.338	286.44
449.559	278.44
449.779	279.44
450	281.44
450.221	298.44
450.442	294.44
450.662	283.44
450.883	278.44
451.104	274.44
451.324	284.44
451.545	284.44
451.766	279.44
451.986	281.44
452.207	291.44
452.428	281.44
452.648	292.44
452.869	289.44
453.089	276.44
453.31	271.44
453.53	282.44
453.751	279.44
453.971	281.44
454.192	276.44
454.412	276.44
454.633	278.44
454.853	264.44
455.073	295.44
455.294	264.44
455.514	265.44
455.734	261.44
455.955	275.44
456.175	285.44
456.395	265.44
456.616	268.44
456.836	275.44
457.056	269.44
457.276	277.44
457.497	290.44
457.717	279.44
457.937	299.44
458.157	282.44
458.377	277.44
458.598	284.44
458.818	303.44
459.038	304.44
459.258	308.44
459.478	283.44
459.698	306.44
459.918	329.44
460.138	332.44
460.358	339.44
460.578	331.44
460.798	346.44
461.018	357.44
461.238	353.44
461.458	338.44
461.678	341.44
461.898	357.44
462.118	366.44
462.338	373.44
462.558	379.44
462.777	382.44
462.997	394.44
463.217	437.44
463.437	421.44
463.657	399.44
463.876	378.44
464.096	401.44
464.316	373.44
464.536	378.44
464.755	375.44
464.975	362.44
465.195	369.44
465.414	341.44
465.634	335.44
465.854	324.44
466.073	319.44
466.293	307.44
466.512	292.44
466.732	314.44
466.951	297.44
467.171	296.44
467.391	297.44
467.61	320.44
467.829	300.44
468.049	324.44
468.268	300.44
468.488	266.44
468.707	314.44
468.927	303.44
469.146	288.44
469.365	298.44
469.585	295.44
469.804	295.44
470.023	307.44
470.243	316.44
470.462	308.44
470.681	306.44
470.901	317.44
471.12	304.44
471.339	321.44
471.558	316.44
471.777	296.44
471.997	310.44
472.216	297.44
472.435	286.44
472.654	286.44
472.873	293.44
473.092	284.44
473.311	307.44
473.53	320.44
473.749	285.44
473.968	282.44
474.187	275.44
474.406	303.44
474.625	299.44
474.844	284.44
475.063	298.44
475.282	293.44
475.501	298.44
475.72	283.44
475.939	301.44
476.158	295.44
476.377	314.44
476.596	305.44
476.814	314.44
477.033	300.44
477.252	320.44
477.471	300.44
477.69	332.44
477.908	323.44
478.127	334.44
478.346	348.44
478.564	358.44
478.783	341.44
479.002	346.44
479.22	340.44
479.439	328.44
479.658	344.44
479.876	364.44
480.095	361.44
480.313	358.44
480.532	352.44
480.751	365.44
480.969	349.44
481.188	328.44
481.406	339.44
481.624	339.44
481.843	343.44
482.061	333.44
482.28	315.44
482.498	316.44
482.717	317.44
482.935	337.44
483.153	345.44
483.372	326.44
483.59	321.44
483.808	317.44
484.027	327.44
484.245	322.44
484.463	333.44
484.681	329.44
484.9	337.44
485.118	351.44
485.336	330.44
485.554	338.44
485.772	338.44
485.99	358.44
486.209	317.44
486.427	336.44
486.645	362.44
486.863	370.44
487.081	321.44
487.299	339.44
487.517	332.44
487.735	322.44
487.953	352.44
488.171	346.44
488.389	333.44
488.607	335.44
488.825	322.44
489.043	337.44
489.261	325.44
489.479	343.44
489.696	337.44
489.914	340.44
490.132	340.44
490.35	347.44
490.568	341.44
490.786	343.44
491.003	336.44
491.221	347.44
491.439	353.44
491.657	343.44
491.874	348.44
492.092	351.44
492.31	339.44
492.527	345.44
492.745	367.44
492.963	364.44
493.18	357.44
493.398	351.44
493.615	323.44
493.833	370.44
494.05	360.44
494.268	369.44
494.485	374.44
494.703	356.44
494.92	362.44
495.138	344.44
495.355	377.44
495.573	358.44
495.79	370.44
496.008	379.44
496.225	385.44
496.442	381.44
496.66	379.44
496.877	394.44
497.094	385.44
497.312	393.44
497.529	392.44
497.746	401.44
497.963	421.44
498.181	445.44
498.398	462.44
498.615	471.44
498.832	475.44
499.049	521.44
499.267	563.44
499.484	560.44
499.701	625.44
499.918	680.44
500.135	712.44
500.352	786.44
500.569	823.44
500.786	769.44
501.003	755.44
501.22	689.44
501.437	647.44
501.654	614.44
501.871	563.44
502.088	530.44
502.305	501.44
502.522	479.44
