Data from Fe(NO3)3@0.1M.TitratingCurve.Agarose3%dH2O.NegLispCup.LampEnergy10.LIBS07252019_HRD10591_16-37-19-331.txt Node
Date: Thu Jul 25 16:37:19 EDT 2019
User: cochatt
Spectrometer: HR+D1059
Trigger mode: 1
Integration Time (sec): 1.000000E-1
Scans to average: 1
Electric dark correction enabled: true
Nonlinearity correction enabled: false
Boxcar width: 0
XAxis mode: Wavelengths
Number of Pixels in Spectrum: 2048
>>>>>Begin Spectral Data<<<<<
223.165	-12.56
223.4	-12.56
223.635	-12.56
223.869	-21.56
224.104	-11.56
224.338	-13.56
224.573	-32.56
224.808	-7.56
225.042	-8.56
225.277	3.44
225.511	13.44
225.746	3.44
225.98	1.44
226.215	7.44
226.449	9.44
226.683	14.44
226.918	21.44
227.152	33.44
227.387	29.44
227.621	32.44
227.856	44.44
228.09	38.44
228.324	47.44
228.559	56.44
228.793	66.44
229.027	78.44
229.262	70.44
229.496	86.44
229.73	84.44
229.964	92.44
230.199	82.44
230.433	80.44
230.667	99.44
230.901	86.44
231.136	92.44
231.37	94.44
231.604	68.44
231.838	98.44
232.072	91.44
232.306	87.44
232.541	93.44
232.775	88.44
233.009	95.44
233.243	99.44
233.477	105.44
233.711	93.44
233.945	85.44
234.179	97.44
234.413	70.44
234.647	100.44
234.881	91.44
235.115	95.44
235.349	97.44
235.583	107.44
235.817	106.44
236.051	101.44
236.285	90.44
236.519	85.44
236.753	93.44
236.987	91.44
237.221	111.44
237.455	104.44
237.689	95.44
237.922	106.44
238.156	106.44
238.39	91.44
238.624	93.44
238.858	109.44
239.091	90.44
239.325	93.44
239.559	97.44
239.793	107.44
240.027	106.44
240.26	118.44
240.494	107.44
240.728	95.44
240.961	105.44
241.195	100.44
241.429	106.44
241.662	107.44
241.896	106.44
242.13	125.44
242.363	117.44
242.597	120.44
242.83	100.44
243.064	119.44
243.298	113.44
243.531	111.44
243.765	113.44
243.998	116.44
244.232	103.44
244.465	119.44
244.699	112.44
244.932	95.44
245.166	109.44
245.399	118.44
245.633	118.44
245.866	93.44
246.099	110.44
246.333	126.44
246.566	125.44
246.8	137.44
247.033	128.44
247.266	121.44
247.5	117.44
247.733	111.44
247.966	105.44
248.2	130.44
248.433	123.44
248.666	103.44
248.899	115.44
249.133	129.44
249.366	121.44
249.599	120.44
249.832	124.44
250.066	112.44
250.299	117.44
250.532	119.44
250.765	127.44
250.998	124.44
251.231	119.44
251.465	125.44
251.698	121.44
251.931	122.44
252.164	129.44
252.397	119.44
252.63	124.44
252.863	122.44
253.096	131.44
253.329	120.44
253.562	109.44
253.795	126.44
254.028	140.44
254.261	133.44
254.494	125.44
254.727	134.44
254.96	141.44
255.193	139.44
255.426	127.44
255.659	123.44
255.892	141.44
256.124	141.44
256.357	138.44
256.59	133.44
256.823	134.44
257.056	132.44
257.289	137.44
257.521	119.44
257.754	138.44
257.987	132.44
258.22	129.44
258.452	132.44
258.685	136.44
258.918	143.44
259.151	127.44
259.383	150.44
259.616	134.44
259.849	139.44
260.081	164.44
260.314	159.44
260.547	146.44
260.779	152.44
261.012	153.44
261.244	153.44
261.477	154.44
261.71	159.44
261.942	154.44
262.175	137.44
262.407	151.44
262.64	144.44
262.872	138.44
263.105	158.44
263.337	138.44
263.57	140.44
263.802	140.44
264.035	152.44
264.267	134.44
264.499	149.44
264.732	146.44
264.964	156.44
265.197	147.44
265.429	151.44
265.661	153.44
265.894	143.44
266.126	143.44
266.358	154.44
266.591	149.44
266.823	152.44
267.055	135.44
267.287	154.44
267.52	161.44
267.752	140.44
267.984	157.44
268.216	165.44
268.448	155.44
268.681	158.44
268.913	180.44
269.145	180.44
269.377	176.44
269.609	160.44
269.841	161.44
270.073	146.44
270.306	160.44
270.538	155.44
270.77	145.44
271.002	157.44
271.234	137.44
271.466	165.44
271.698	157.44
271.93	172.44
272.162	160.44
272.394	177.44
272.626	156.44
272.858	164.44
273.09	147.44
273.322	179.44
273.553	180.44
273.785	160.44
274.017	157.44
274.249	167.44
274.481	187.44
274.713	154.44
274.945	175.44
275.176	176.44
275.408	189.44
275.64	169.44
275.872	180.44
276.104	184.44
276.335	182.44
276.567	183.44
276.799	167.44
277.031	157.44
277.262	175.44
277.494	175.44
277.726	173.44
277.957	191.44
278.189	164.44
278.421	165.44
278.652	187.44
278.884	159.44
279.115	168.44
279.347	181.44
279.579	164.44
279.81	186.44
280.042	184.44
280.273	169.44
280.505	175.44
280.736	177.44
280.968	192.44
281.199	181.44
281.431	189.44
281.662	186.44
281.894	177.44
282.125	182.44
282.356	197.44
282.588	182.44
282.819	197.44
283.051	200.44
283.282	181.44
283.513	179.44
283.745	187.44
283.976	193.44
284.207	213.44
284.439	192.44
284.67	180.44
284.901	187.44
285.132	192.44
285.364	195.44
285.595	178.44
285.826	194.44
286.057	212.44
286.288	183.44
286.52	187.44
286.751	184.44
286.982	181.44
287.213	195.44
287.444	195.44
287.675	194.44
287.906	199.44
288.138	195.44
288.369	203.44
288.6	203.44
288.831	197.44
289.062	198.44
289.293	190.44
289.524	212.44
289.755	205.44
289.986	192.44
290.217	200.44
290.448	179.44
290.679	199.44
290.91	219.44
291.141	198.44
291.371	193.44
291.602	215.44
291.833	195.44
292.064	197.44
292.295	207.44
292.526	193.44
292.757	197.44
292.987	203.44
293.218	206.44
293.449	211.44
293.68	190.44
293.91	217.44
294.141	216.44
294.372	203.44
294.603	211.44
294.833	207.44
295.064	200.44
295.295	196.44
295.525	211.44
295.756	213.44
295.987	184.44
296.217	206.44
296.448	205.44
296.679	217.44
296.909	206.44
297.14	203.44
297.37	214.44
297.601	205.44
297.831	210.44
298.062	203.44
298.292	206.44
298.523	230.44
298.753	222.44
298.984	213.44
299.214	222.44
299.445	197.44
299.675	210.44
299.905	204.44
300.136	217.44
300.366	219.44
300.597	216.44
300.827	217.44
301.057	235.44
301.288	229.44
301.518	224.44
301.748	234.44
301.979	236.44
302.209	217.44
302.439	208.44
302.669	240.44
302.9	231.44
303.13	223.44
303.36	216.44
303.59	205.44
303.82	226.44
304.051	226.44
304.281	230.44
304.511	228.44
304.741	221.44
304.971	233.44
305.201	206.44
305.431	205.44
305.661	219.44
305.891	225.44
306.121	222.44
306.352	214.44
306.582	202.44
306.812	207.44
307.042	218.44
307.272	208.44
307.502	218.44
307.731	224.44
307.961	223.44
308.191	224.44
308.421	233.44
308.651	215.44
308.881	213.44
309.111	216.44
309.341	209.44
309.571	248.44
309.8	218.44
310.03	219.44
310.26	214.44
310.49	242.44
310.72	221.44
310.949	242.44
311.179	235.44
311.409	228.44
311.639	225.44
311.868	240.44
312.098	233.44
312.328	249.44
312.557	217.44
312.787	223.44
313.017	231.44
313.246	241.44
313.476	221.44
313.706	222.44
313.935	261.44
314.165	243.44
314.394	240.44
314.624	219.44
314.853	217.44
315.083	234.44
315.312	251.44
315.542	223.44
315.771	237.44
316.001	242.44
316.23	225.44
316.46	231.44
316.689	227.44
316.919	236.44
317.148	228.44
317.377	250.44
317.607	226.44
317.836	234.44
318.065	222.44
318.295	234.44
318.524	237.44
318.753	221.44
318.983	233.44
319.212	218.44
319.441	226.44
319.67	238.44
319.9	252.44
320.129	249.44
320.358	227.44
320.587	229.44
320.816	233.44
321.046	217.44
321.275	233.44
321.504	240.44
321.733	241.44
321.962	233.44
322.191	242.44
322.42	219.44
322.649	239.44
322.878	238.44
323.108	242.44
323.337	245.44
323.566	233.44
323.795	231.44
324.024	238.44
324.253	236.44
324.482	256.44
324.71	244.44
324.939	254.44
325.168	234.44
325.397	223.44
325.626	259.44
325.855	250.44
326.084	249.44
326.313	253.44
326.542	263.44
326.77	245.44
326.999	227.44
327.228	249.44
327.457	244.44
327.686	250.44
327.914	253.44
328.143	250.44
328.372	255.44
328.6	243.44
328.829	239.44
329.058	241.44
329.287	257.44
329.515	246.44
329.744	234.44
329.972	253.44
330.201	261.44
330.43	242.44
330.658	263.44
330.887	266.44
331.115	265.44
331.344	277.44
331.572	272.44
331.801	263.44
332.03	255.44
332.258	275.44
332.486	273.44
332.715	287.44
332.943	279.44
333.172	303.44
333.4	317.44
333.629	325.44
333.857	321.44
334.085	330.44
334.314	318.44
334.542	308.44
334.771	307.44
334.999	287.44
335.227	298.44
335.455	337.44
335.684	310.44
335.912	294.44
336.14	297.44
336.369	296.44
336.597	313.44
336.825	306.44
337.053	287.44
337.281	293.44
337.51	284.44
337.738	286.44
337.966	276.44
338.194	260.44
338.422	274.44
338.65	263.44
338.878	287.44
339.106	283.44
339.334	282.44
339.562	275.44
339.79	263.44
340.018	269.44
340.246	275.44
340.474	264.44
340.702	243.44
340.93	273.44
341.158	255.44
341.386	260.44
341.614	259.44
341.842	263.44
342.07	258.44
342.298	267.44
342.526	265.44
342.754	259.44
342.981	266.44
343.209	268.44
343.437	268.44
343.665	285.44
343.893	291.44
344.12	313.44
344.348	281.44
344.576	272.44
344.804	287.44
345.031	270.44
345.259	256.44
345.487	252.44
345.714	255.44
345.942	258.44
346.17	253.44
346.397	256.44
346.625	256.44
346.853	250.44
347.08	238.44
347.308	260.44
347.535	259.44
347.763	266.44
347.99	271.44
348.218	253.44
348.445	248.44
348.673	243.44
348.9	237.44
349.128	255.44
349.355	262.44
349.583	274.44
349.81	259.44
350.037	233.44
350.265	251.44
350.492	238.44
350.72	273.44
350.947	259.44
351.174	243.44
351.402	267.44
351.629	268.44
351.856	261.44
352.083	257.44
352.311	228.44
352.538	258.44
352.765	267.44
352.992	247.44
353.22	240.44
353.447	259.44
353.674	254.44
353.901	250.44
354.128	248.44
354.355	225.44
354.583	245.44
354.81	242.44
355.037	257.44
355.264	251.44
355.491	247.44
355.718	265.44
355.945	272.44
356.172	264.44
356.399	234.44
356.626	255.44
356.853	245.44
357.08	261.44
357.307	258.44
357.534	255.44
357.761	258.44
357.988	251.44
358.215	286.44
358.441	258.44
358.668	270.44
358.895	248.44
359.122	246.44
359.349	248.44
359.576	230.44
359.802	261.44
360.029	251.44
360.256	246.44
360.483	285.44
360.709	242.44
360.936	248.44
361.163	278.44
361.39	250.44
361.616	268.44
361.843	264.44
362.07	255.44
362.296	243.44
362.523	266.44
362.749	241.44
362.976	239.44
363.203	242.44
363.429	252.44
363.656	255.44
363.882	252.44
364.109	250.44
364.335	241.44
364.562	259.44
364.788	263.44
365.015	240.44
365.241	254.44
365.468	256.44
365.694	245.44
365.92	243.44
366.147	260.44
366.373	237.44
366.599	264.44
366.826	253.44
367.052	249.44
367.278	257.44
367.505	251.44
367.731	265.44
367.957	251.44
368.184	232.44
368.41	266.44
368.636	265.44
368.862	265.44
369.089	272.44
369.315	247.44
369.541	278.44
369.767	265.44
369.993	257.44
370.219	277.44
370.445	279.44
370.672	281.44
370.898	267.44
371.124	281.44
371.35	279.44
371.576	271.44
371.802	277.44
372.028	290.44
372.254	281.44
372.48	284.44
372.706	303.44
372.932	286.44
373.158	278.44
373.384	292.44
373.61	289.44
373.835	279.44
374.061	280.44
374.287	276.44
374.513	286.44
374.739	284.44
374.965	302.44
375.191	293.44
375.416	303.44
375.642	290.44
375.868	285.44
376.094	296.44
376.319	296.44
376.545	299.44
376.771	307.44
376.997	292.44
377.222	283.44
377.448	271.44
377.674	276.44
377.899	282.44
378.125	266.44
378.35	286.44
378.576	294.44
378.802	289.44
379.027	289.44
379.253	303.44
379.478	269.44
379.704	285.44
379.929	284.44
380.155	295.44
380.38	285.44
380.606	291.44
380.831	296.44
381.057	301.44
381.282	284.44
381.507	302.44
381.733	280.44
381.958	299.44
382.184	298.44
382.409	310.44
382.634	311.44
382.86	299.44
383.085	316.44
383.31	303.44
383.535	313.44
383.761	313.44
383.986	323.44
384.211	330.44
384.436	330.44
384.662	349.44
384.887	349.44
385.112	315.44
385.337	340.44
385.562	340.44
385.787	347.44
386.013	352.44
386.238	358.44
386.463	342.44
386.688	339.44
386.913	351.44
387.138	333.44
387.363	321.44
387.588	341.44
387.813	344.44
388.038	342.44
388.263	340.44
388.488	332.44
388.713	356.44
388.938	354.44
389.163	349.44
389.387	346.44
389.612	355.44
389.837	345.44
390.062	349.44
390.287	363.44
390.512	365.44
390.736	344.44
390.961	349.44
391.186	365.44
391.411	362.44
391.636	387.44
391.86	376.44
392.085	375.44
392.31	393.44
392.534	359.44
392.759	387.44
392.984	387.44
393.208	378.44
393.433	379.44
393.658	363.44
393.882	372.44
394.107	365.44
394.331	361.44
394.556	387.44
394.78	371.44
395.005	391.44
395.229	369.44
395.454	379.44
395.678	400.44
395.903	393.44
396.127	384.44
396.352	368.44
396.576	380.44
396.801	381.44
397.025	374.44
397.249	385.44
397.474	394.44
397.698	399.44
397.922	422.44
398.147	390.44
398.371	418.44
398.595	434.44
398.82	413.44
399.044	453.44
399.268	494.44
399.492	544.44
399.717	588.44
399.941	597.44
400.165	554.44
400.389	505.44
400.613	483.44
400.837	449.44
401.062	450.44
401.286	445.44
401.51	451.44
401.734	433.44
401.958	453.44
402.182	447.44
402.406	453.44
402.63	448.44
402.854	478.44
403.078	483.44
403.302	477.44
403.526	497.44
403.75	494.44
403.974	497.44
404.198	466.44
404.422	503.44
404.645	498.44
404.869	469.44
405.093	481.44
405.317	469.44
405.541	482.44
405.765	463.44
405.988	470.44
406.212	485.44
406.436	477.44
406.66	496.44
406.883	480.44
407.107	507.44
407.331	533.44
407.555	544.44
407.778	543.44
408.002	544.44
408.226	522.44
408.449	498.44
408.673	509.44
408.896	473.44
409.12	495.44
409.344	479.44
409.567	501.44
409.791	481.44
410.014	475.44
410.238	476.44
410.461	472.44
410.685	497.44
410.908	473.44
411.132	484.44
411.355	473.44
411.578	470.44
411.802	437.44
412.025	449.44
412.249	461.44
412.472	473.44
412.695	438.44
412.919	471.44
413.142	451.44
413.365	457.44
413.589	454.44
413.812	443.44
414.035	445.44
414.258	448.44
414.482	431.44
414.705	449.44
414.928	457.44
415.151	460.44
415.374	450.44
415.597	449.44
415.821	446.44
416.044	439.44
416.267	441.44
416.49	427.44
416.713	450.44
416.936	448.44
417.159	431.44
417.382	464.44
417.605	444.44
417.828	441.44
418.051	439.44
418.274	473.44
418.497	440.44
418.72	438.44
418.943	461.44
419.166	465.44
419.389	510.44
419.611	488.44
419.834	471.44
420.057	462.44
420.28	442.44
420.503	433.44
420.726	433.44
420.948	414.44
421.171	450.44
421.394	432.44
421.617	419.44
421.839	431.44
422.062	442.44
422.285	421.44
422.507	463.44
422.73	462.44
422.953	435.44
423.175	446.44
423.398	479.44
423.621	443.44
423.843	442.44
424.066	466.44
424.288	452.44
424.511	462.44
424.733	442.44
424.956	441.44
425.178	453.44
425.401	418.44
425.623	429.44
425.846	423.44
426.068	431.44
426.291	422.44
426.513	417.44
426.735	422.44
426.958	402.44
427.18	416.44
427.402	422.44
427.625	408.44
427.847	390.44
428.069	380.44
428.292	402.44
428.514	389.44
428.736	406.44
428.958	399.44
429.181	395.44
429.403	382.44
429.625	375.44
429.847	395.44
430.069	395.44
430.292	409.44
430.514	381.44
430.736	411.44
430.958	404.44
431.18	396.44
431.402	393.44
431.624	411.44
431.846	402.44
432.068	392.44
432.29	413.44
432.512	408.44
432.734	422.44
432.956	398.44
433.178	423.44
433.4	417.44
433.622	422.44
433.844	425.44
434.066	409.44
434.287	409.44
434.509	431.44
434.731	443.44
434.953	441.44
435.175	432.44
435.397	442.44
435.618	420.44
435.84	413.44
436.062	408.44
436.284	401.44
436.505	401.44
436.727	398.44
436.949	385.44
437.17	394.44
437.392	401.44
437.614	373.44
437.835	362.44
438.057	369.44
438.278	380.44
438.5	388.44
438.721	390.44
438.943	401.44
439.165	421.44
439.386	399.44
439.608	401.44
439.829	387.44
440.05	390.44
440.272	394.44
440.493	413.44
440.715	417.44
440.936	409.44
441.158	414.44
441.379	432.44
441.6	430.44
441.822	455.44
442.043	445.44
442.264	428.44
442.486	445.44
442.707	437.44
442.928	415.44
443.149	425.44
443.371	440.44
443.592	456.44
443.813	448.44
444.034	461.44
444.255	462.44
444.476	468.44
444.698	475.44
444.919	486.44
445.14	596.44
445.361	518.44
445.582	460.44
445.803	429.44
446.024	441.44
446.245	427.44
446.466	427.44
446.687	421.44
446.908	422.44
447.129	382.44
447.35	391.44
447.571	407.44
447.792	396.44
448.013	385.44
448.234	402.44
448.455	361.44
448.675	373.44
448.896	375.44
449.117	364.44
449.338	369.44
449.559	377.44
449.779	366.44
450	365.44
450.221	373.44
450.442	376.44
450.662	359.44
450.883	352.44
451.104	382.44
451.324	377.44
451.545	375.44
451.766	385.44
451.986	377.44
452.207	371.44
452.428	370.44
452.648	358.44
452.869	383.44
453.089	372.44
453.31	358.44
453.53	369.44
453.751	371.44
453.971	361.44
454.192	356.44
454.412	371.44
454.633	363.44
454.853	358.44
455.073	358.44
455.294	361.44
455.514	364.44
455.734	381.44
455.955	355.44
456.175	345.44
456.395	350.44
456.616	355.44
456.836	360.44
457.056	358.44
457.276	358.44
457.497	354.44
457.717	354.44
457.937	359.44
458.157	363.44
458.377	372.44
458.598	375.44
458.818	363.44
459.038	390.44
459.258	401.44
459.478	411.44
459.698	424.44
459.918	416.44
460.138	426.44
460.358	451.44
460.578	460.44
460.798	459.44
461.018	456.44
461.238	452.44
461.458	455.44
461.678	453.44
461.898	466.44
462.118	471.44
462.338	510.44
462.558	498.44
462.777	499.44
462.997	540.44
463.217	566.44
463.437	577.44
463.657	546.44
463.876	548.44
464.096	516.44
464.316	528.44
464.536	512.44
464.755	511.44
464.975	500.44
465.195	477.44
465.414	470.44
465.634	446.44
465.854	421.44
466.073	393.44
466.293	400.44
466.512	405.44
466.732	387.44
466.951	379.44
467.171	394.44
467.391	384.44
467.61	382.44
467.829	391.44
468.049	390.44
468.268	384.44
468.488	391.44
468.707	372.44
468.927	377.44
469.146	382.44
469.365	391.44
469.585	383.44
469.804	393.44
470.023	408.44
470.243	402.44
470.462	388.44
470.681	413.44
470.901	390.44
471.12	399.44
471.339	375.44
471.558	412.44
471.777	392.44
471.997	389.44
472.216	384.44
472.435	390.44
472.654	365.44
472.873	391.44
473.092	361.44
473.311	395.44
473.53	361.44
473.749	372.44
473.968	378.44
474.187	362.44
474.406	381.44
474.625	358.44
474.844	354.44
475.063	375.44
475.282	381.44
475.501	378.44
475.72	387.44
475.939	392.44
476.158	385.44
476.377	393.44
476.596	375.44
476.814	402.44
477.033	390.44
477.252	397.44
477.471	401.44
477.69	412.44
477.908	405.44
478.127	424.44
478.346	439.44
478.564	429.44
478.783	442.44
479.002	472.44
479.22	482.44
479.439	441.44
479.658	452.44
479.876	450.44
480.095	433.44
480.313	476.44
480.532	460.44
480.751	455.44
480.969	470.44
481.188	449.44
481.406	435.44
481.624	429.44
481.843	443.44
482.061	423.44
482.28	415.44
482.498	430.44
482.717	437.44
482.935	420.44
483.153	425.44
483.372	431.44
483.59	421.44
483.808	401.44
484.027	416.44
484.245	409.44
484.463	434.44
484.681	426.44
484.9	455.44
485.118	433.44
485.336	415.44
485.554	425.44
485.772	431.44
485.99	452.44
486.209	439.44
486.427	449.44
486.645	426.44
486.863	440.44
487.081	432.44
487.299	440.44
487.517	435.44
487.735	434.44
487.953	448.44
488.171	431.44
488.389	443.44
488.607	438.44
488.825	419.44
489.043	421.44
489.261	435.44
489.479	442.44
489.696	433.44
489.914	446.44
490.132	474.44
490.35	424.44
490.568	445.44
490.786	440.44
491.003	459.44
491.221	458.44
491.439	445.44
491.657	445.44
491.874	459.44
492.092	464.44
492.31	464.44
492.527	452.44
492.745	457.44
492.963	450.44
493.18	446.44
493.398	450.44
493.615	470.44
493.833	467.44
494.05	448.44
494.268	469.44
494.485	467.44
494.703	452.44
494.92	497.44
495.138	477.44
495.355	481.44
495.573	489.44
495.79	476.44
496.008	455.44
496.225	473.44
496.442	494.44
496.66	492.44
496.877	485.44
497.094	525.44
497.312	503.44
497.529	522.44
497.746	516.44
497.963	553.44
498.181	569.44
498.398	594.44
498.615	640.44
498.832	652.44
499.049	690.44
499.267	699.44
499.484	768.44
499.701	843.44
499.918	885.44
500.135	998.44
500.352	1100.44
500.569	1134.44
500.786	1140.44
501.003	1084.44
501.22	1002.44
501.437	912.44
501.654	825.44
501.871	753.44
502.088	713.44
