Data from Fe(NO3)3@0.05M.TitratingCurve.Agarose3%dH2O.NegLispCup.LampEnergy10.LIBS07252019_HRD10591_16-48-46-334.txt Node
Date: Thu Jul 25 16:48:46 EDT 2019
User: cochatt
Spectrometer: HR+D1059
Trigger mode: 1
Integration Time (sec): 1.000000E-1
Scans to average: 1
Electric dark correction enabled: true
Nonlinearity correction enabled: false
Boxcar width: 0
XAxis mode: Wavelengths
Number of Pixels in Spectrum: 2048
>>>>>Begin Spectral Data<<<<<
223.165	-10.25
223.4	-10.25
223.635	-10.25
223.869	-19.25
224.104	-15.25
224.338	-6.25
224.573	-11.25
224.808	-12.25
225.042	-15.25
225.277	-9.25
225.511	-1.25
225.746	-4.25
225.98	0.75
226.215	22.75
226.449	23.75
226.683	8.75
226.918	12.75
227.152	35.75
227.387	40.75
227.621	36.75
227.856	37.75
228.09	37.75
228.324	48.75
228.559	52.75
228.793	60.75
229.027	66.75
229.262	78.75
229.496	72.75
229.73	75.75
229.964	77.75
230.199	92.75
230.433	71.75
230.667	82.75
230.901	83.75
231.136	79.75
231.37	79.75
231.604	91.75
231.838	78.75
232.072	72.75
232.306	89.75
232.541	90.75
232.775	87.75
233.009	86.75
233.243	96.75
233.477	75.75
233.711	88.75
233.945	101.75
234.179	87.75
234.413	103.75
234.647	103.75
234.881	95.75
235.115	87.75
235.349	92.75
235.583	92.75
235.817	101.75
236.051	87.75
236.285	88.75
236.519	84.75
236.753	79.75
236.987	87.75
237.221	81.75
237.455	83.75
237.689	85.75
237.922	74.75
238.156	84.75
238.39	89.75
238.624	87.75
238.858	91.75
239.091	89.75
239.325	92.75
239.559	82.75
239.793	105.75
240.027	74.75
240.26	89.75
240.494	87.75
240.728	92.75
240.961	93.75
241.195	100.75
241.429	101.75
241.662	101.75
241.896	99.75
242.13	98.75
242.363	93.75
242.597	91.75
242.83	101.75
243.064	88.75
243.298	97.75
243.531	86.75
243.765	90.75
243.998	91.75
244.232	84.75
244.465	88.75
244.699	91.75
244.932	93.75
245.166	105.75
245.399	99.75
245.633	122.75
245.866	100.75
246.099	100.75
246.333	103.75
246.566	101.75
246.8	105.75
247.033	96.75
247.266	88.75
247.5	93.75
247.733	116.75
247.966	98.75
248.2	97.75
248.433	109.75
248.666	103.75
248.899	113.75
249.133	121.75
249.366	110.75
249.599	108.75
249.832	96.75
250.066	110.75
250.299	84.75
250.532	95.75
250.765	100.75
250.998	109.75
251.231	112.75
251.465	98.75
251.698	103.75
251.931	95.75
252.164	114.75
252.397	111.75
252.63	97.75
252.863	96.75
253.096	120.75
253.329	100.75
253.562	93.75
253.795	112.75
254.028	109.75
254.261	105.75
254.494	122.75
254.727	96.75
254.96	102.75
255.193	99.75
255.426	110.75
255.659	107.75
255.892	115.75
256.124	121.75
256.357	111.75
256.59	112.75
256.823	99.75
257.056	100.75
257.289	105.75
257.521	130.75
257.754	117.75
257.987	101.75
258.22	123.75
258.452	115.75
258.685	111.75
258.918	136.75
259.151	117.75
259.383	113.75
259.616	103.75
259.849	119.75
260.081	120.75
260.314	121.75
260.547	128.75
260.779	128.75
261.012	105.75
261.244	117.75
261.477	124.75
261.71	119.75
261.942	122.75
262.175	120.75
262.407	104.75
262.64	106.75
262.872	121.75
263.105	109.75
263.337	134.75
263.57	121.75
263.802	116.75
264.035	123.75
264.267	116.75
264.499	121.75
264.732	113.75
264.964	125.75
265.197	132.75
265.429	104.75
265.661	121.75
265.894	110.75
266.126	118.75
266.358	136.75
266.591	120.75
266.823	126.75
267.055	120.75
267.287	125.75
267.52	111.75
267.752	120.75
267.984	127.75
268.216	133.75
268.448	128.75
268.681	133.75
268.913	123.75
269.145	124.75
269.377	121.75
269.609	130.75
269.841	130.75
270.073	131.75
270.306	137.75
270.538	119.75
270.77	125.75
271.002	122.75
271.234	121.75
271.466	142.75
271.698	120.75
271.93	136.75
272.162	140.75
272.394	134.75
272.626	125.75
272.858	135.75
273.09	134.75
273.322	126.75
273.553	131.75
273.785	137.75
274.017	129.75
274.249	134.75
274.481	137.75
274.713	126.75
274.945	146.75
275.176	127.75
275.408	136.75
275.64	142.75
275.872	134.75
276.104	140.75
276.335	125.75
276.567	132.75
276.799	126.75
277.031	146.75
277.262	148.75
277.494	138.75
277.726	124.75
277.957	139.75
278.189	135.75
278.421	148.75
278.652	144.75
278.884	122.75
279.115	140.75
279.347	132.75
279.579	150.75
279.81	142.75
280.042	143.75
280.273	144.75
280.505	134.75
280.736	146.75
280.968	116.75
281.199	153.75
281.431	146.75
281.662	128.75
281.894	142.75
282.125	151.75
282.356	147.75
282.588	151.75
282.819	147.75
283.051	134.75
283.282	157.75
283.513	156.75
283.745	142.75
283.976	154.75
284.207	144.75
284.439	171.75
284.67	159.75
284.901	146.75
285.132	140.75
285.364	154.75
285.595	151.75
285.826	154.75
286.057	144.75
286.288	160.75
286.52	136.75
286.751	145.75
286.982	148.75
287.213	150.75
287.444	156.75
287.675	150.75
287.906	145.75
288.138	163.75
288.369	160.75
288.6	156.75
288.831	139.75
289.062	160.75
289.293	128.75
289.524	153.75
289.755	152.75
289.986	148.75
290.217	147.75
290.448	160.75
290.679	152.75
290.91	159.75
291.141	132.75
291.371	141.75
291.602	161.75
291.833	145.75
292.064	144.75
292.295	162.75
292.526	165.75
292.757	159.75
292.987	153.75
293.218	158.75
293.449	157.75
293.68	153.75
293.91	145.75
294.141	156.75
294.372	168.75
294.603	182.75
294.833	165.75
295.064	163.75
295.295	168.75
295.525	162.75
295.756	173.75
295.987	178.75
296.217	165.75
296.448	161.75
296.679	139.75
296.909	162.75
297.14	152.75
297.37	165.75
297.601	170.75
297.831	152.75
298.062	156.75
298.292	174.75
298.523	162.75
298.753	176.75
298.984	181.75
299.214	169.75
299.445	175.75
299.675	159.75
299.905	153.75
300.136	160.75
300.366	179.75
300.597	158.75
300.827	174.75
301.057	164.75
301.288	166.75
301.518	167.75
301.748	169.75
301.979	182.75
302.209	172.75
302.439	168.75
302.669	165.75
302.9	172.75
303.13	167.75
303.36	167.75
303.59	179.75
303.82	167.75
304.051	152.75
304.281	174.75
304.511	179.75
304.741	176.75
304.971	172.75
305.201	166.75
305.431	166.75
305.661	174.75
305.891	167.75
306.121	166.75
306.352	174.75
306.582	164.75
306.812	163.75
307.042	168.75
307.272	168.75
307.502	176.75
307.731	168.75
307.961	178.75
308.191	164.75
308.421	176.75
308.651	185.75
308.881	157.75
309.111	174.75
309.341	172.75
309.571	160.75
309.8	182.75
310.03	172.75
310.26	177.75
310.49	163.75
310.72	172.75
310.949	165.75
311.179	184.75
311.409	190.75
311.639	159.75
311.868	179.75
312.098	166.75
312.328	176.75
312.557	175.75
312.787	183.75
313.017	182.75
313.246	174.75
313.476	186.75
313.706	168.75
313.935	176.75
314.165	167.75
314.394	182.75
314.624	174.75
314.853	179.75
315.083	180.75
315.312	182.75
315.542	190.75
315.771	161.75
316.001	176.75
316.23	171.75
316.46	182.75
316.689	180.75
316.919	177.75
317.148	179.75
317.377	188.75
317.607	175.75
317.836	174.75
318.065	174.75
318.295	186.75
318.524	176.75
318.753	181.75
318.983	183.75
319.212	168.75
319.441	164.75
319.67	175.75
319.9	160.75
320.129	175.75
320.358	179.75
320.587	174.75
320.816	173.75
321.046	170.75
321.275	174.75
321.504	187.75
321.733	185.75
321.962	178.75
322.191	175.75
322.42	176.75
322.649	183.75
322.878	182.75
323.108	184.75
323.337	180.75
323.566	177.75
323.795	184.75
324.024	191.75
324.253	172.75
324.482	167.75
324.71	192.75
324.939	185.75
325.168	172.75
325.397	167.75
325.626	190.75
325.855	193.75
326.084	188.75
326.313	204.75
326.542	203.75
326.77	183.75
326.999	186.75
327.228	192.75
327.457	186.75
327.686	180.75
327.914	194.75
328.143	189.75
328.372	181.75
328.6	176.75
328.829	194.75
329.058	180.75
329.287	205.75
329.515	165.75
329.744	194.75
329.972	192.75
330.201	196.75
330.43	179.75
330.658	175.75
330.887	197.75
331.115	197.75
331.344	193.75
331.572	192.75
331.801	201.75
332.03	197.75
332.258	192.75
332.486	220.75
332.715	208.75
332.943	203.75
333.172	218.75
333.4	217.75
333.629	242.75
333.857	219.75
334.085	223.75
334.314	240.75
334.542	220.75
334.771	212.75
334.999	216.75
335.227	214.75
335.455	220.75
335.684	222.75
335.912	205.75
336.14	217.75
336.369	204.75
336.597	233.75
336.825	195.75
337.053	202.75
337.281	207.75
337.51	205.75
337.738	214.75
337.966	201.75
338.194	198.75
338.422	193.75
338.65	209.75
338.878	209.75
339.106	214.75
339.334	218.75
339.562	183.75
339.79	197.75
340.018	202.75
340.246	190.75
340.474	201.75
340.702	191.75
340.93	190.75
341.158	205.75
341.386	193.75
341.614	195.75
341.842	193.75
342.07	183.75
342.298	206.75
342.526	198.75
342.754	181.75
342.981	190.75
343.209	222.75
343.437	214.75
343.665	215.75
343.893	212.75
344.12	222.75
344.348	230.75
344.576	218.75
344.804	193.75
345.031	203.75
345.259	191.75
345.487	217.75
345.714	208.75
345.942	182.75
346.17	185.75
346.397	187.75
346.625	182.75
346.853	192.75
347.08	202.75
347.308	190.75
347.535	190.75
347.763	206.75
347.99	194.75
348.218	181.75
348.445	189.75
348.673	190.75
348.9	202.75
349.128	199.75
349.355	193.75
349.583	202.75
349.81	192.75
350.037	186.75
350.265	191.75
350.492	186.75
350.72	186.75
350.947	195.75
351.174	196.75
351.402	190.75
351.629	179.75
351.856	190.75
352.083	196.75
352.311	188.75
352.538	179.75
352.765	186.75
352.992	189.75
353.22	178.75
353.447	199.75
353.674	193.75
353.901	174.75
354.128	178.75
354.355	201.75
354.583	179.75
354.81	169.75
355.037	198.75
355.264	188.75
355.491	187.75
355.718	194.75
355.945	192.75
356.172	176.75
356.399	187.75
356.626	196.75
356.853	190.75
357.08	195.75
357.307	202.75
357.534	174.75
357.761	199.75
357.988	190.75
358.215	191.75
358.441	195.75
358.668	176.75
358.895	190.75
359.122	179.75
359.349	187.75
359.576	194.75
359.802	193.75
360.029	200.75
360.256	194.75
360.483	177.75
360.709	192.75
360.936	188.75
361.163	193.75
361.39	185.75
361.616	192.75
361.843	193.75
362.07	184.75
362.296	190.75
362.523	184.75
362.749	183.75
362.976	193.75
363.203	205.75
363.429	197.75
363.656	194.75
363.882	192.75
364.109	180.75
364.335	190.75
364.562	182.75
364.788	198.75
365.015	199.75
365.241	194.75
365.468	184.75
365.694	197.75
365.92	191.75
366.147	196.75
366.373	180.75
366.599	187.75
366.826	197.75
367.052	186.75
367.278	191.75
367.505	200.75
367.731	180.75
367.957	206.75
368.184	196.75
368.41	204.75
368.636	186.75
368.862	204.75
369.089	217.75
369.315	170.75
369.541	189.75
369.767	193.75
369.993	194.75
370.219	187.75
370.445	209.75
370.672	209.75
370.898	206.75
371.124	212.75
371.35	212.75
371.576	198.75
371.802	204.75
372.028	215.75
372.254	205.75
372.48	194.75
372.706	213.75
372.932	227.75
373.158	209.75
373.384	220.75
373.61	211.75
373.835	200.75
374.061	207.75
374.287	215.75
374.513	222.75
374.739	208.75
374.965	231.75
375.191	223.75
375.416	239.75
375.642	229.75
375.868	214.75
376.094	212.75
376.319	212.75
376.545	212.75
376.771	206.75
376.997	226.75
377.222	212.75
377.448	204.75
377.674	222.75
377.899	205.75
378.125	220.75
378.35	225.75
378.576	217.75
378.802	193.75
379.027	216.75
379.253	220.75
379.478	206.75
379.704	199.75
379.929	214.75
380.155	215.75
380.38	208.75
380.606	220.75
380.831	215.75
381.057	217.75
381.282	216.75
381.507	215.75
381.733	230.75
381.958	199.75
382.184	214.75
382.409	209.75
382.634	219.75
382.86	230.75
383.085	225.75
383.31	228.75
383.535	226.75
383.761	227.75
383.986	227.75
384.211	236.75
384.436	233.75
384.662	239.75
384.887	254.75
385.112	237.75
385.337	254.75
385.562	249.75
385.787	258.75
386.013	268.75
386.238	234.75
386.463	241.75
386.688	225.75
386.913	229.75
387.138	254.75
387.363	228.75
387.588	256.75
387.813	263.75
388.038	253.75
388.263	240.75
388.488	259.75
388.713	242.75
388.938	263.75
389.163	235.75
389.387	263.75
389.612	247.75
389.837	250.75
390.062	229.75
390.287	233.75
390.512	249.75
390.736	247.75
390.961	247.75
391.186	264.75
391.411	274.75
391.636	261.75
391.86	274.75
392.085	251.75
392.31	273.75
392.534	266.75
392.759	274.75
392.984	263.75
393.208	256.75
393.433	269.75
393.658	261.75
393.882	264.75
394.107	265.75
394.331	244.75
394.556	263.75
394.78	265.75
395.005	278.75
395.229	266.75
395.454	263.75
395.678	264.75
395.903	264.75
396.127	266.75
396.352	275.75
396.576	266.75
396.801	242.75
397.025	269.75
397.249	270.75
397.474	288.75
397.698	264.75
397.922	286.75
398.147	260.75
398.371	275.75
398.595	286.75
398.82	308.75
399.044	309.75
399.268	339.75
399.492	376.75
399.717	407.75
399.941	414.75
400.165	366.75
400.389	352.75
400.613	325.75
400.837	305.75
401.062	296.75
401.286	288.75
401.51	287.75
401.734	298.75
401.958	285.75
402.182	289.75
402.406	313.75
402.63	317.75
402.854	324.75
403.078	345.75
403.302	320.75
403.526	327.75
403.75	311.75
403.974	353.75
404.198	327.75
404.422	333.75
404.645	332.75
404.869	328.75
405.093	329.75
405.317	325.75
405.541	321.75
405.765	326.75
405.988	336.75
406.212	321.75
406.436	336.75
406.66	352.75
406.883	348.75
407.107	359.75
407.331	365.75
407.555	362.75
407.778	374.75
408.002	346.75
408.226	340.75
408.449	350.75
408.673	355.75
408.896	353.75
409.12	341.75
409.344	342.75
409.567	344.75
409.791	330.75
410.014	352.75
410.238	331.75
410.461	352.75
410.685	318.75
410.908	329.75
411.132	336.75
411.355	323.75
411.578	306.75
411.802	326.75
412.025	313.75
412.249	336.75
412.472	343.75
412.695	311.75
412.919	301.75
413.142	331.75
413.365	302.75
413.589	337.75
413.812	318.75
414.035	306.75
414.258	309.75
414.482	309.75
414.705	324.75
414.928	288.75
415.151	319.75
415.374	317.75
415.597	314.75
415.821	313.75
416.044	296.75
416.267	307.75
416.49	314.75
416.713	316.75
416.936	313.75
417.159	312.75
417.382	311.75
417.605	310.75
417.828	315.75
418.051	306.75
418.274	318.75
418.497	311.75
418.72	325.75
418.943	321.75
419.166	334.75
419.389	345.75
419.611	348.75
419.834	323.75
420.057	345.75
420.28	344.75
420.503	320.75
420.726	306.75
420.948	315.75
421.171	322.75
421.394	323.75
421.617	310.75
421.839	320.75
422.062	320.75
422.285	305.75
422.507	315.75
422.73	325.75
422.953	331.75
423.175	328.75
423.398	318.75
423.621	340.75
423.843	321.75
424.066	330.75
424.288	308.75
424.511	327.75
424.733	308.75
424.956	313.75
425.178	327.75
425.401	309.75
425.623	311.75
425.846	304.75
426.068	314.75
426.291	307.75
426.513	300.75
426.735	301.75
426.958	301.75
427.18	293.75
427.402	295.75
427.625	312.75
427.847	294.75
428.069	294.75
428.292	288.75
428.514	282.75
428.736	286.75
428.958	293.75
429.181	304.75
429.403	288.75
429.625	281.75
429.847	305.75
430.069	293.75
430.292	277.75
430.514	285.75
430.736	290.75
430.958	267.75
431.18	289.75
431.402	286.75
431.624	297.75
431.846	294.75
432.068	292.75
432.29	284.75
432.512	286.75
432.734	296.75
432.956	292.75
433.178	294.75
433.4	283.75
433.622	304.75
433.844	306.75
434.066	309.75
434.287	292.75
434.509	296.75
434.731	319.75
434.953	301.75
435.175	310.75
435.397	326.75
435.618	314.75
435.84	308.75
436.062	301.75
436.284	304.75
436.505	315.75
436.727	294.75
436.949	300.75
437.17	280.75
437.392	294.75
437.614	270.75
437.835	281.75
438.057	298.75
438.278	274.75
438.5	284.75
438.721	281.75
438.943	284.75
439.165	286.75
439.386	286.75
439.608	295.75
439.829	312.75
440.05	313.75
440.272	313.75
440.493	290.75
440.715	290.75
440.936	306.75
441.158	325.75
441.379	323.75
441.6	332.75
441.822	328.75
442.043	337.75
442.264	316.75
442.486	312.75
442.707	317.75
442.928	316.75
443.149	325.75
443.371	324.75
443.592	316.75
443.813	330.75
444.034	324.75
444.255	325.75
444.476	340.75
444.698	352.75
444.919	385.75
445.14	480.75
445.361	399.75
445.582	359.75
445.803	311.75
446.024	315.75
446.245	316.75
446.466	312.75
446.687	309.75
446.908	298.75
447.129	300.75
447.35	291.75
447.571	316.75
447.792	306.75
448.013	286.75
448.234	289.75
448.455	296.75
448.675	290.75
448.896	278.75
449.117	280.75
449.338	289.75
449.559	285.75
449.779	278.75
450	276.75
450.221	296.75
450.442	297.75
450.662	288.75
450.883	296.75
451.104	300.75
451.324	294.75
451.545	292.75
451.766	284.75
451.986	267.75
452.207	295.75
452.428	284.75
452.648	281.75
452.869	294.75
453.089	288.75
453.31	282.75
453.53	282.75
453.751	270.75
453.971	275.75
454.192	269.75
454.412	264.75
454.633	256.75
454.853	261.75
455.073	260.75
455.294	276.75
455.514	275.75
455.734	272.75
455.955	268.75
456.175	280.75
456.395	274.75
456.616	273.75
456.836	269.75
457.056	277.75
457.276	285.75
457.497	263.75
457.717	255.75
457.937	260.75
458.157	276.75
458.377	277.75
458.598	278.75
458.818	296.75
459.038	300.75
459.258	290.75
459.478	293.75
459.698	321.75
459.918	288.75
460.138	313.75
460.358	319.75
460.578	344.75
460.798	344.75
461.018	348.75
461.238	347.75
461.458	330.75
461.678	339.75
461.898	312.75
462.118	335.75
462.338	356.75
462.558	378.75
462.777	374.75
462.997	398.75
463.217	416.75
463.437	429.75
463.657	376.75
463.876	379.75
464.096	374.75
464.316	369.75
464.536	371.75
464.755	368.75
464.975	365.75
465.195	348.75
465.414	336.75
465.634	295.75
465.854	302.75
466.073	314.75
466.293	286.75
466.512	315.75
466.732	290.75
466.951	288.75
467.171	277.75
467.391	305.75
467.61	299.75
467.829	286.75
468.049	289.75
468.268	293.75
468.488	268.75
468.707	319.75
468.927	290.75
469.146	311.75
469.365	280.75
469.585	303.75
469.804	300.75
470.023	285.75
470.243	284.75
470.462	294.75
470.681	320.75
470.901	295.75
471.12	289.75
471.339	312.75
471.558	290.75
471.777	289.75
471.997	286.75
472.216	291.75
472.435	299.75
472.654	268.75
472.873	288.75
473.092	289.75
473.311	285.75
473.53	286.75
473.749	286.75
473.968	284.75
474.187	284.75
474.406	266.75
474.625	292.75
474.844	276.75
475.063	296.75
475.282	276.75
475.501	285.75
475.72	288.75
475.939	293.75
476.158	281.75
476.377	300.75
476.596	276.75
476.814	298.75
477.033	313.75
477.252	309.75
477.471	312.75
477.69	314.75
477.908	303.75
478.127	322.75
478.346	314.75
478.564	327.75
478.783	333.75
479.002	324.75
479.22	337.75
479.439	338.75
479.658	332.75
479.876	330.75
480.095	318.75
480.313	346.75
480.532	348.75
480.751	344.75
480.969	316.75
481.188	326.75
481.406	324.75
481.624	309.75
481.843	316.75
482.061	287.75
482.28	312.75
482.498	319.75
482.717	314.75
482.935	316.75
483.153	314.75
483.372	300.75
483.59	311.75
483.808	297.75
484.027	316.75
484.245	291.75
484.463	314.75
484.681	341.75
484.9	313.75
485.118	328.75
485.336	316.75
485.554	326.75
485.772	308.75
485.99	318.75
486.209	321.75
486.427	313.75
486.645	297.75
486.863	329.75
487.081	317.75
487.299	309.75
487.517	313.75
487.735	327.75
487.953	328.75
488.171	328.75
488.389	334.75
488.607	324.75
488.825	314.75
489.043	300.75
489.261	324.75
489.479	321.75
489.696	325.75
489.914	304.75
490.132	346.75
490.35	324.75
490.568	318.75
490.786	328.75
491.003	311.75
491.221	326.75
491.439	330.75
491.657	332.75
491.874	343.75
492.092	342.75
492.31	358.75
492.527	360.75
492.745	366.75
492.963	336.75
493.18	339.75
493.398	349.75
493.615	344.75
493.833	338.75
494.05	356.75
494.268	357.75
494.485	346.75
494.703	353.75
494.92	332.75
495.138	345.75
495.355	355.75
495.573	336.75
495.79	339.75
496.008	360.75
496.225	340.75
496.442	360.75
496.66	365.75
496.877	367.75
497.094	348.75
497.312	352.75
497.529	365.75
497.746	391.75
497.963	380.75
498.181	384.75
498.398	394.75
498.615	394.75
498.832	430.75
499.049	458.75
499.267	487.75
499.484	533.75
499.701	554.75
499.918	619.75
500.135	698.75
500.352	759.75
500.569	796.75
500.786	762.75
501.003	734.75
501.22	650.75
501.437	594.75
501.654	558.75
501.871	527.75
502.088	480.75
502.305	475.75
502.522	450.75
