Data from Fe(NO3)3@0.0125M.TitratingCurve.Agarose3%dH2O.NegLispCup.LampEnergy10.LIBS07252019_HRD10591_17-01-40-337.txt Node
Date: Thu Jul 25 17:01:40 EDT 2019
User: cochatt
Spectrometer: HR+D1059
Trigger mode: 1
Integration Time (sec): 1.000000E-1
Scans to average: 1
Electric dark correction enabled: true
Nonlinearity correction enabled: false
Boxcar width: 0
XAxis mode: Wavelengths
Number of Pixels in Spectrum: 2048
>>>>>Begin Spectral Data<<<<<
223.165	-18.56
223.4	-18.56
223.635	-18.56
223.869	7.44
224.104	-27.56
224.338	-21.56
224.573	-2.56
224.808	-18.56
225.042	-11.56
225.277	0.44
225.511	1.44
225.746	-6.56
225.98	17.44
226.215	12.44
226.449	12.44
226.683	16.44
226.918	26.44
227.152	12.44
227.387	30.44
227.621	39.44
227.856	43.44
228.09	52.44
228.324	59.44
228.559	60.44
228.793	62.44
229.027	85.44
229.262	75.44
229.496	86.44
229.73	84.44
229.964	93.44
230.199	91.44
230.433	86.44
230.667	98.44
230.901	92.44
231.136	99.44
231.37	115.44
231.604	109.44
231.838	90.44
232.072	107.44
232.306	105.44
232.541	114.44
232.775	101.44
233.009	103.44
233.243	112.44
233.477	118.44
233.711	113.44
233.945	96.44
234.179	105.44
234.413	100.44
234.647	94.44
234.881	108.44
235.115	91.44
235.349	87.44
235.583	96.44
235.817	105.44
236.051	100.44
236.285	109.44
236.519	112.44
236.753	102.44
236.987	100.44
237.221	113.44
237.455	112.44
237.689	95.44
237.922	101.44
238.156	103.44
238.39	106.44
238.624	100.44
238.858	108.44
239.091	121.44
239.325	112.44
239.559	101.44
239.793	112.44
240.027	104.44
240.26	120.44
240.494	95.44
240.728	114.44
240.961	110.44
241.195	108.44
241.429	107.44
241.662	115.44
241.896	100.44
242.13	103.44
242.363	127.44
242.597	123.44
242.83	128.44
243.064	126.44
243.298	106.44
243.531	120.44
243.765	119.44
243.998	124.44
244.232	109.44
244.465	120.44
244.699	121.44
244.932	109.44
245.166	123.44
245.399	124.44
245.633	128.44
245.866	128.44
246.099	133.44
246.333	120.44
246.566	113.44
246.8	126.44
247.033	125.44
247.266	122.44
247.5	118.44
247.733	133.44
247.966	125.44
248.2	123.44
248.433	133.44
248.666	142.44
248.899	128.44
249.133	130.44
249.366	129.44
249.599	130.44
249.832	128.44
250.066	126.44
250.299	130.44
250.532	127.44
250.765	138.44
250.998	135.44
251.231	141.44
251.465	150.44
251.698	151.44
251.931	141.44
252.164	139.44
252.397	128.44
252.63	137.44
252.863	144.44
253.096	146.44
253.329	140.44
253.562	140.44
253.795	123.44
254.028	144.44
254.261	141.44
254.494	127.44
254.727	150.44
254.96	160.44
255.193	154.44
255.426	157.44
255.659	145.44
255.892	145.44
256.124	145.44
256.357	148.44
256.59	140.44
256.823	149.44
257.056	158.44
257.289	146.44
257.521	129.44
257.754	162.44
257.987	160.44
258.22	158.44
258.452	141.44
258.685	167.44
258.918	166.44
259.151	175.44
259.383	166.44
259.616	131.44
259.849	153.44
260.081	152.44
260.314	158.44
260.547	163.44
260.779	152.44
261.012	161.44
261.244	142.44
261.477	170.44
261.71	140.44
261.942	165.44
262.175	150.44
262.407	152.44
262.64	178.44
262.872	169.44
263.105	168.44
263.337	164.44
263.57	155.44
263.802	162.44
264.035	151.44
264.267	156.44
264.499	150.44
264.732	183.44
264.964	179.44
265.197	179.44
265.429	180.44
265.661	172.44
265.894	188.44
266.126	165.44
266.358	160.44
266.591	161.44
266.823	160.44
267.055	165.44
267.287	172.44
267.52	159.44
267.752	191.44
267.984	191.44
268.216	161.44
268.448	171.44
268.681	144.44
268.913	176.44
269.145	178.44
269.377	174.44
269.609	179.44
269.841	171.44
270.073	181.44
270.306	172.44
270.538	170.44
270.77	161.44
271.002	190.44
271.234	170.44
271.466	200.44
271.698	180.44
271.93	185.44
272.162	202.44
272.394	181.44
272.626	177.44
272.858	182.44
273.09	185.44
273.322	187.44
273.553	195.44
273.785	186.44
274.017	218.44
274.249	198.44
274.481	183.44
274.713	180.44
274.945	217.44
275.176	198.44
275.408	208.44
275.64	204.44
275.872	189.44
276.104	208.44
276.335	184.44
276.567	216.44
276.799	200.44
277.031	196.44
277.262	193.44
277.494	195.44
277.726	209.44
277.957	216.44
278.189	191.44
278.421	202.44
278.652	189.44
278.884	196.44
279.115	205.44
279.347	187.44
279.579	194.44
279.81	191.44
280.042	203.44
280.273	201.44
280.505	194.44
280.736	189.44
280.968	201.44
281.199	197.44
281.431	203.44
281.662	210.44
281.894	221.44
282.125	210.44
282.356	232.44
282.588	201.44
282.819	208.44
283.051	210.44
283.282	218.44
283.513	225.44
283.745	229.44
283.976	218.44
284.207	205.44
284.439	223.44
284.67	222.44
284.901	217.44
285.132	226.44
285.364	219.44
285.595	221.44
285.826	224.44
286.057	212.44
286.288	229.44
286.52	217.44
286.751	242.44
286.982	221.44
287.213	231.44
287.444	226.44
287.675	221.44
287.906	219.44
288.138	240.44
288.369	248.44
288.6	232.44
288.831	248.44
289.062	225.44
289.293	243.44
289.524	221.44
289.755	215.44
289.986	233.44
290.217	230.44
290.448	224.44
290.679	258.44
290.91	241.44
291.141	232.44
291.371	249.44
291.602	253.44
291.833	228.44
292.064	249.44
292.295	246.44
292.526	238.44
292.757	237.44
292.987	238.44
293.218	247.44
293.449	245.44
293.68	260.44
293.91	233.44
294.141	226.44
294.372	237.44
294.603	231.44
294.833	251.44
295.064	236.44
295.295	231.44
295.525	243.44
295.756	261.44
295.987	246.44
296.217	245.44
296.448	259.44
296.679	238.44
296.909	242.44
297.14	252.44
297.37	259.44
297.601	259.44
297.831	237.44
298.062	260.44
298.292	249.44
298.523	262.44
298.753	264.44
298.984	252.44
299.214	260.44
299.445	256.44
299.675	266.44
299.905	243.44
300.136	270.44
300.366	267.44
300.597	268.44
300.827	279.44
301.057	283.44
301.288	267.44
301.518	261.44
301.748	257.44
301.979	270.44
302.209	278.44
302.439	263.44
302.669	264.44
302.9	274.44
303.13	259.44
303.36	266.44
303.59	261.44
303.82	276.44
304.051	273.44
304.281	301.44
304.511	280.44
304.741	268.44
304.971	265.44
305.201	259.44
305.431	269.44
305.661	282.44
305.891	289.44
306.121	285.44
306.352	277.44
306.582	286.44
306.812	271.44
307.042	266.44
307.272	273.44
307.502	282.44
307.731	276.44
307.961	277.44
308.191	279.44
308.421	267.44
308.651	282.44
308.881	274.44
309.111	267.44
309.341	264.44
309.571	281.44
309.8	276.44
310.03	267.44
310.26	267.44
310.49	280.44
310.72	277.44
310.949	264.44
311.179	297.44
311.409	291.44
311.639	287.44
311.868	294.44
312.098	284.44
312.328	306.44
312.557	293.44
312.787	296.44
313.017	292.44
313.246	297.44
313.476	296.44
313.706	300.44
313.935	276.44
314.165	282.44
314.394	285.44
314.624	300.44
314.853	292.44
315.083	294.44
315.312	314.44
315.542	287.44
315.771	308.44
316.001	287.44
316.23	282.44
316.46	311.44
316.689	289.44
316.919	316.44
317.148	305.44
317.377	284.44
317.607	294.44
317.836	304.44
318.065	288.44
318.295	292.44
318.524	298.44
318.753	310.44
318.983	283.44
319.212	285.44
319.441	311.44
319.67	298.44
319.9	310.44
320.129	318.44
320.358	300.44
320.587	302.44
320.816	299.44
321.046	315.44
321.275	288.44
321.504	307.44
321.733	300.44
321.962	314.44
322.191	317.44
322.42	294.44
322.649	320.44
322.878	315.44
323.108	315.44
323.337	305.44
323.566	323.44
323.795	319.44
324.024	314.44
324.253	315.44
324.482	326.44
324.71	310.44
324.939	317.44
325.168	318.44
325.397	324.44
325.626	333.44
325.855	329.44
326.084	333.44
326.313	329.44
326.542	328.44
326.77	320.44
326.999	337.44
327.228	313.44
327.457	321.44
327.686	344.44
327.914	322.44
328.143	340.44
328.372	336.44
328.6	322.44
328.829	325.44
329.058	316.44
329.287	320.44
329.515	323.44
329.744	337.44
329.972	343.44
330.201	337.44
330.43	347.44
330.658	357.44
330.887	332.44
331.115	340.44
331.344	343.44
331.572	351.44
331.801	358.44
332.03	353.44
332.258	361.44
332.486	344.44
332.715	370.44
332.943	330.44
333.172	379.44
333.4	388.44
333.629	378.44
333.857	383.44
334.085	409.44
334.314	394.44
334.542	397.44
334.771	377.44
334.999	395.44
335.227	395.44
335.455	376.44
335.684	408.44
335.912	394.44
336.14	385.44
336.369	376.44
336.597	388.44
336.825	394.44
337.053	396.44
337.281	373.44
337.51	379.44
337.738	375.44
337.966	376.44
338.194	369.44
338.422	386.44
338.65	390.44
338.878	364.44
339.106	384.44
339.334	372.44
339.562	348.44
339.79	361.44
340.018	368.44
340.246	353.44
340.474	365.44
340.702	375.44
340.93	362.44
341.158	372.44
341.386	336.44
341.614	356.44
341.842	368.44
342.07	356.44
342.298	370.44
342.526	357.44
342.754	359.44
342.981	357.44
343.209	347.44
343.437	348.44
343.665	379.44
343.893	358.44
344.12	398.44
344.348	377.44
344.576	374.44
344.804	372.44
345.031	373.44
345.259	363.44
345.487	362.44
345.714	361.44
345.942	351.44
346.17	339.44
346.397	352.44
346.625	344.44
346.853	341.44
347.08	342.44
347.308	353.44
347.535	347.44
347.763	346.44
347.99	343.44
348.218	328.44
348.445	344.44
348.673	330.44
348.9	343.44
349.128	344.44
349.355	333.44
349.583	342.44
349.81	340.44
350.037	331.44
350.265	331.44
350.492	356.44
350.72	348.44
350.947	340.44
351.174	355.44
351.402	329.44
351.629	330.44
351.856	338.44
352.083	346.44
352.311	335.44
352.538	342.44
352.765	338.44
352.992	350.44
353.22	329.44
353.447	306.44
353.674	321.44
353.901	337.44
354.128	329.44
354.355	340.44
354.583	332.44
354.81	337.44
355.037	334.44
355.264	341.44
355.491	346.44
355.718	333.44
355.945	332.44
356.172	331.44
356.399	336.44
356.626	341.44
356.853	348.44
357.08	342.44
357.307	331.44
357.534	338.44
357.761	335.44
357.988	369.44
358.215	334.44
358.441	336.44
358.668	339.44
358.895	337.44
359.122	333.44
359.349	346.44
359.576	349.44
359.802	331.44
360.029	339.44
360.256	365.44
360.483	344.44
360.709	339.44
360.936	346.44
361.163	354.44
361.39	363.44
361.616	330.44
361.843	346.44
362.07	349.44
362.296	363.44
362.523	335.44
362.749	342.44
362.976	360.44
363.203	334.44
363.429	343.44
363.656	347.44
363.882	321.44
364.109	339.44
364.335	361.44
364.562	345.44
364.788	374.44
365.015	352.44
365.241	347.44
365.468	353.44
365.694	343.44
365.92	354.44
366.147	341.44
366.373	344.44
366.599	360.44
366.826	345.44
367.052	349.44
367.278	354.44
367.505	367.44
367.731	356.44
367.957	328.44
368.184	354.44
368.41	376.44
368.636	374.44
368.862	363.44
369.089	342.44
369.315	362.44
369.541	383.44
369.767	380.44
369.993	349.44
370.219	363.44
370.445	365.44
370.672	365.44
370.898	371.44
371.124	368.44
371.35	358.44
371.576	355.44
371.802	380.44
372.028	368.44
372.254	383.44
372.48	387.44
372.706	386.44
372.932	384.44
373.158	415.44
373.384	383.44
373.61	390.44
373.835	395.44
374.061	381.44
374.287	366.44
374.513	388.44
374.739	382.44
374.965	398.44
375.191	397.44
375.416	387.44
375.642	404.44
375.868	382.44
376.094	395.44
376.319	381.44
376.545	374.44
376.771	398.44
376.997	373.44
377.222	377.44
377.448	381.44
377.674	361.44
377.899	370.44
378.125	369.44
378.35	366.44
378.576	366.44
378.802	379.44
379.027	370.44
379.253	366.44
379.478	357.44
379.704	363.44
379.929	380.44
380.155	362.44
380.38	363.44
380.606	380.44
380.831	362.44
381.057	370.44
381.282	384.44
381.507	392.44
381.733	395.44
381.958	385.44
382.184	406.44
382.409	407.44
382.634	403.44
382.86	395.44
383.085	386.44
383.31	420.44
383.535	403.44
383.761	384.44
383.986	417.44
384.211	401.44
384.436	395.44
384.662	412.44
384.887	434.44
385.112	426.44
385.337	412.44
385.562	420.44
385.787	414.44
386.013	420.44
386.238	420.44
386.463	437.44
386.688	419.44
386.913	424.44
387.138	439.44
387.363	428.44
387.588	422.44
387.813	423.44
388.038	426.44
388.263	435.44
388.488	436.44
388.713	446.44
388.938	414.44
389.163	438.44
389.387	408.44
389.612	434.44
389.837	429.44
390.062	422.44
390.287	427.44
390.512	434.44
390.736	461.44
390.961	442.44
391.186	449.44
391.411	442.44
391.636	443.44
391.86	461.44
392.085	476.44
392.31	471.44
392.534	470.44
392.759	457.44
392.984	462.44
393.208	476.44
393.433	451.44
393.658	450.44
393.882	445.44
394.107	451.44
394.331	466.44
394.556	452.44
394.78	457.44
395.005	453.44
395.229	473.44
395.454	459.44
395.678	450.44
395.903	439.44
396.127	464.44
396.352	466.44
396.576	449.44
396.801	447.44
397.025	454.44
397.249	485.44
397.474	504.44
397.698	485.44
397.922	505.44
398.147	491.44
398.371	484.44
398.595	512.44
398.82	522.44
399.044	515.44
399.268	560.44
399.492	592.44
399.717	632.44
399.941	622.44
400.165	613.44
400.389	579.44
400.613	545.44
400.837	551.44
401.062	532.44
401.286	541.44
401.51	533.44
401.734	515.44
401.958	517.44
402.182	529.44
402.406	520.44
402.63	525.44
402.854	546.44
403.078	522.44
403.302	537.44
403.526	525.44
403.75	550.44
403.974	532.44
404.198	519.44
404.422	537.44
404.645	550.44
404.869	574.44
405.093	553.44
405.317	541.44
405.541	546.44
405.765	545.44
405.988	527.44
406.212	546.44
406.436	525.44
406.66	568.44
406.883	538.44
407.107	584.44
407.331	603.44
407.555	595.44
407.778	624.44
408.002	587.44
408.226	592.44
408.449	559.44
408.673	562.44
408.896	563.44
409.12	564.44
409.344	582.44
409.567	561.44
409.791	548.44
410.014	539.44
410.238	560.44
410.461	566.44
410.685	573.44
410.908	557.44
411.132	534.44
411.355	552.44
411.578	533.44
411.802	520.44
412.025	538.44
412.249	531.44
412.472	546.44
412.695	539.44
412.919	506.44
413.142	523.44
413.365	532.44
413.589	527.44
413.812	534.44
414.035	539.44
414.258	529.44
414.482	535.44
414.705	530.44
414.928	506.44
415.151	539.44
415.374	516.44
415.597	513.44
415.821	524.44
416.044	500.44
416.267	476.44
416.49	504.44
416.713	508.44
416.936	521.44
417.159	499.44
417.382	490.44
417.605	509.44
417.828	489.44
418.051	493.44
418.274	497.44
418.497	486.44
418.72	518.44
418.943	497.44
419.166	529.44
419.389	556.44
419.611	546.44
419.834	520.44
420.057	523.44
420.28	508.44
420.503	497.44
420.726	508.44
420.948	488.44
421.171	498.44
421.394	496.44
421.617	500.44
421.839	501.44
422.062	502.44
422.285	490.44
422.507	500.44
422.73	502.44
422.953	518.44
423.175	506.44
423.398	501.44
423.621	501.44
423.843	491.44
424.066	507.44
424.288	490.44
424.511	522.44
424.733	487.44
424.956	497.44
425.178	489.44
425.401	475.44
425.623	485.44
425.846	471.44
426.068	478.44
426.291	477.44
426.513	478.44
426.735	488.44
426.958	476.44
427.18	486.44
427.402	476.44
427.625	449.44
427.847	468.44
428.069	472.44
428.292	470.44
428.514	470.44
428.736	472.44
428.958	464.44
429.181	458.44
429.403	460.44
429.625	447.44
429.847	466.44
430.069	474.44
430.292	473.44
430.514	447.44
430.736	481.44
430.958	467.44
431.18	479.44
431.402	456.44
431.624	484.44
431.846	471.44
432.068	463.44
432.29	474.44
432.512	478.44
432.734	473.44
432.956	458.44
433.178	460.44
433.4	467.44
433.622	461.44
433.844	468.44
434.066	478.44
434.287	480.44
434.509	497.44
434.731	504.44
434.953	489.44
435.175	474.44
435.397	491.44
435.618	487.44
435.84	491.44
436.062	480.44
436.284	471.44
436.505	481.44
436.727	467.44
436.949	466.44
437.17	469.44
437.392	470.44
437.614	459.44
437.835	454.44
438.057	450.44
438.278	435.44
438.5	466.44
438.721	451.44
438.943	442.44
439.165	449.44
439.386	462.44
439.608	467.44
439.829	466.44
440.05	466.44
440.272	468.44
440.493	466.44
440.715	443.44
440.936	468.44
441.158	484.44
441.379	472.44
441.6	485.44
441.822	517.44
442.043	479.44
442.264	488.44
442.486	475.44
442.707	492.44
442.928	469.44
443.149	472.44
443.371	485.44
443.592	486.44
443.813	496.44
444.034	482.44
444.255	502.44
444.476	510.44
444.698	524.44
444.919	535.44
445.14	636.44
445.361	558.44
445.582	527.44
445.803	487.44
446.024	488.44
446.245	502.44
446.466	466.44
446.687	476.44
446.908	452.44
447.129	443.44
447.35	449.44
447.571	452.44
447.792	436.44
448.013	449.44
448.234	457.44
448.455	448.44
448.675	432.44
448.896	427.44
449.117	420.44
449.338	436.44
449.559	420.44
449.779	422.44
450	428.44
450.221	453.44
450.442	444.44
450.662	422.44
450.883	425.44
451.104	410.44
451.324	418.44
451.545	424.44
451.766	440.44
451.986	423.44
452.207	434.44
452.428	432.44
452.648	465.44
452.869	423.44
453.089	390.44
453.31	419.44
453.53	412.44
453.751	440.44
453.971	403.44
454.192	405.44
454.412	416.44
454.633	416.44
454.853	408.44
455.073	413.44
455.294	402.44
455.514	415.44
455.734	409.44
455.955	404.44
456.175	410.44
456.395	408.44
456.616	416.44
456.836	406.44
457.056	428.44
457.276	418.44
457.497	400.44
457.717	410.44
457.937	426.44
458.157	414.44
458.377	408.44
458.598	445.44
458.818	444.44
459.038	460.44
459.258	438.44
459.478	465.44
459.698	490.44
459.918	464.44
460.138	507.44
460.358	510.44
460.578	512.44
460.798	516.44
461.018	507.44
461.238	508.44
461.458	522.44
461.678	493.44
461.898	522.44
462.118	525.44
462.338	534.44
462.558	569.44
462.777	573.44
462.997	561.44
463.217	584.44
463.437	583.44
463.657	586.44
463.876	584.44
464.096	577.44
464.316	576.44
464.536	558.44
464.755	544.44
464.975	531.44
465.195	534.44
465.414	497.44
465.634	491.44
465.854	483.44
466.073	490.44
466.293	450.44
466.512	453.44
466.732	457.44
466.951	477.44
467.171	469.44
467.391	470.44
467.61	454.44
467.829	438.44
468.049	455.44
468.268	427.44
468.488	447.44
468.707	431.44
468.927	426.44
469.146	428.44
469.365	446.44
469.585	444.44
469.804	440.44
470.023	455.44
470.243	473.44
470.462	461.44
470.681	459.44
470.901	474.44
471.12	465.44
471.339	452.44
471.558	444.44
471.777	462.44
471.997	468.44
472.216	437.44
472.435	441.44
472.654	447.44
472.873	444.44
473.092	447.44
473.311	455.44
473.53	446.44
473.749	445.44
473.968	443.44
474.187	433.44
474.406	443.44
474.625	426.44
474.844	447.44
475.063	455.44
475.282	459.44
475.501	469.44
475.72	456.44
475.939	461.44
476.158	436.44
476.377	477.44
476.596	454.44
476.814	468.44
477.033	461.44
477.252	492.44
477.471	471.44
477.69	485.44
477.908	489.44
478.127	503.44
478.346	530.44
478.564	511.44
478.783	545.44
479.002	519.44
479.22	530.44
479.439	527.44
479.658	548.44
479.876	524.44
480.095	534.44
480.313	552.44
480.532	540.44
480.751	557.44
480.969	553.44
481.188	548.44
481.406	520.44
481.624	545.44
481.843	522.44
482.061	537.44
482.28	531.44
482.498	516.44
482.717	535.44
482.935	539.44
483.153	529.44
483.372	531.44
483.59	523.44
483.808	529.44
484.027	506.44
484.245	493.44
484.463	485.44
484.681	556.44
484.9	548.44
485.118	558.44
485.336	532.44
485.554	540.44
485.772	531.44
485.99	538.44
486.209	539.44
486.427	541.44
486.645	553.44
486.863	539.44
487.081	552.44
487.299	524.44
487.517	557.44
487.735	531.44
487.953	531.44
488.171	527.44
488.389	542.44
488.607	564.44
488.825	540.44
489.043	516.44
489.261	554.44
489.479	548.44
489.696	561.44
489.914	539.44
490.132	560.44
490.35	548.44
490.568	540.44
490.786	539.44
491.003	545.44
491.221	530.44
491.439	550.44
491.657	534.44
491.874	538.44
492.092	548.44
492.31	550.44
492.527	552.44
492.745	586.44
492.963	552.44
493.18	553.44
493.398	525.44
493.615	538.44
493.833	560.44
494.05	569.44
494.268	574.44
494.485	571.44
494.703	557.44
494.92	564.44
495.138	556.44
495.355	588.44
495.573	572.44
495.79	589.44
496.008	591.44
496.225	585.44
496.442	588.44
496.66	603.44
496.877	616.44
497.094	614.44
497.312	637.44
497.529	602.44
497.746	635.44
497.963	656.44
498.181	682.44
498.398	694.44
498.615	707.44
498.832	758.44
499.049	783.44
499.267	821.44
499.484	867.44
499.701	910.44
499.918	953.44
500.135	1026.44
500.352	1076.44
500.569	1103.44
500.786	1074.44
501.003	1036.44
501.22	977.44
501.437	920.44
501.654	863.44
