Data from Fe(NO3)3@0.025M.TitratingCurve.Agarose3%dH2O.NegLispCup.LampEnergy10.LIBS07252019_HRD10591_16-55-40-335.txt Node
Date: Thu Jul 25 16:55:40 EDT 2019
User: cochatt
Spectrometer: HR+D1059
Trigger mode: 1
Integration Time (sec): 1.000000E-1
Scans to average: 1
Electric dark correction enabled: true
Nonlinearity correction enabled: false
Boxcar width: 0
XAxis mode: Wavelengths
Number of Pixels in Spectrum: 2048
>>>>>Begin Spectral Data<<<<<
223.165	-11.69
223.4	-11.69
223.635	-11.69
223.869	-6.69
224.104	-17.69
224.338	1.31
224.573	-16.69
224.808	-3.69
225.042	-20.69
225.277	-13.69
225.511	-8.69
225.746	8.31
225.98	1.31
226.215	11.31
226.449	17.31
226.683	28.31
226.918	17.31
227.152	14.31
227.387	30.31
227.621	37.31
227.856	44.31
228.09	56.31
228.324	33.31
228.559	68.31
228.793	59.31
229.027	49.31
229.262	72.31
229.496	80.31
229.73	79.31
229.964	79.31
230.199	92.31
230.433	84.31
230.667	83.31
230.901	74.31
231.136	83.31
231.37	85.31
231.604	90.31
231.838	89.31
232.072	83.31
232.306	86.31
232.541	92.31
232.775	86.31
233.009	93.31
233.243	99.31
233.477	89.31
233.711	96.31
233.945	88.31
234.179	86.31
234.413	102.31
234.647	90.31
234.881	91.31
235.115	89.31
235.349	84.31
235.583	75.31
235.817	85.31
236.051	88.31
236.285	110.31
236.519	91.31
236.753	97.31
236.987	95.31
237.221	87.31
237.455	107.31
237.689	76.31
237.922	79.31
238.156	91.31
238.39	86.31
238.624	92.31
238.858	89.31
239.091	78.31
239.325	94.31
239.559	100.31
239.793	87.31
240.027	96.31
240.26	94.31
240.494	103.31
240.728	105.31
240.961	91.31
241.195	85.31
241.429	102.31
241.662	105.31
241.896	91.31
242.13	103.31
242.363	105.31
242.597	96.31
242.83	102.31
243.064	98.31
243.298	99.31
243.531	111.31
243.765	96.31
243.998	100.31
244.232	103.31
244.465	101.31
244.699	99.31
244.932	93.31
245.166	96.31
245.399	104.31
245.633	104.31
245.866	99.31
246.099	94.31
246.333	98.31
246.566	99.31
246.8	112.31
247.033	102.31
247.266	104.31
247.5	108.31
247.733	115.31
247.966	111.31
248.2	94.31
248.433	98.31
248.666	114.31
248.899	111.31
249.133	108.31
249.366	117.31
249.599	118.31
249.832	113.31
250.066	122.31
250.299	114.31
250.532	102.31
250.765	104.31
250.998	111.31
251.231	107.31
251.465	120.31
251.698	102.31
251.931	114.31
252.164	102.31
252.397	120.31
252.63	105.31
252.863	112.31
253.096	117.31
253.329	119.31
253.562	117.31
253.795	120.31
254.028	119.31
254.261	120.31
254.494	115.31
254.727	107.31
254.96	120.31
255.193	122.31
255.426	133.31
255.659	122.31
255.892	132.31
256.124	120.31
256.357	110.31
256.59	132.31
256.823	120.31
257.056	109.31
257.289	121.31
257.521	119.31
257.754	117.31
257.987	130.31
258.22	113.31
258.452	108.31
258.685	105.31
258.918	128.31
259.151	122.31
259.383	109.31
259.616	116.31
259.849	105.31
260.081	144.31
260.314	128.31
260.547	112.31
260.779	107.31
261.012	122.31
261.244	120.31
261.477	135.31
261.71	117.31
261.942	114.31
262.175	124.31
262.407	123.31
262.64	126.31
262.872	112.31
263.105	126.31
263.337	129.31
263.57	129.31
263.802	126.31
264.035	122.31
264.267	136.31
264.499	119.31
264.732	124.31
264.964	130.31
265.197	130.31
265.429	126.31
265.661	121.31
265.894	135.31
266.126	134.31
266.358	132.31
266.591	124.31
266.823	123.31
267.055	120.31
267.287	132.31
267.52	153.31
267.752	148.31
267.984	130.31
268.216	128.31
268.448	127.31
268.681	147.31
268.913	146.31
269.145	136.31
269.377	137.31
269.609	122.31
269.841	140.31
270.073	160.31
270.306	139.31
270.538	151.31
270.77	154.31
271.002	134.31
271.234	140.31
271.466	150.31
271.698	148.31
271.93	144.31
272.162	157.31
272.394	150.31
272.626	144.31
272.858	151.31
273.09	130.31
273.322	152.31
273.553	138.31
273.785	152.31
274.017	139.31
274.249	152.31
274.481	123.31
274.713	147.31
274.945	157.31
275.176	126.31
275.408	142.31
275.64	153.31
275.872	169.31
276.104	147.31
276.335	147.31
276.567	140.31
276.799	135.31
277.031	136.31
277.262	155.31
277.494	152.31
277.726	148.31
277.957	148.31
278.189	140.31
278.421	144.31
278.652	155.31
278.884	162.31
279.115	138.31
279.347	172.31
279.579	160.31
279.81	160.31
280.042	169.31
280.273	158.31
280.505	148.31
280.736	176.31
280.968	162.31
281.199	153.31
281.431	148.31
281.662	157.31
281.894	162.31
282.125	165.31
282.356	161.31
282.588	146.31
282.819	168.31
283.051	151.31
283.282	164.31
283.513	154.31
283.745	168.31
283.976	144.31
284.207	162.31
284.439	155.31
284.67	176.31
284.901	165.31
285.132	153.31
285.364	165.31
285.595	174.31
285.826	188.31
286.057	189.31
286.288	170.31
286.52	163.31
286.751	167.31
286.982	161.31
287.213	174.31
287.444	168.31
287.675	174.31
287.906	169.31
288.138	159.31
288.369	166.31
288.6	166.31
288.831	175.31
289.062	175.31
289.293	187.31
289.524	164.31
289.755	162.31
289.986	172.31
290.217	180.31
290.448	176.31
290.679	187.31
290.91	193.31
291.141	186.31
291.371	186.31
291.602	163.31
291.833	174.31
292.064	177.31
292.295	178.31
292.526	180.31
292.757	178.31
292.987	182.31
293.218	182.31
293.449	177.31
293.68	178.31
293.91	170.31
294.141	174.31
294.372	171.31
294.603	166.31
294.833	191.31
295.064	176.31
295.295	178.31
295.525	162.31
295.756	163.31
295.987	190.31
296.217	185.31
296.448	191.31
296.679	196.31
296.909	202.31
297.14	195.31
297.37	192.31
297.601	175.31
297.831	196.31
298.062	176.31
298.292	177.31
298.523	188.31
298.753	194.31
298.984	201.31
299.214	195.31
299.445	186.31
299.675	201.31
299.905	201.31
300.136	177.31
300.366	198.31
300.597	195.31
300.827	198.31
301.057	203.31
301.288	195.31
301.518	178.31
301.748	177.31
301.979	179.31
302.209	196.31
302.439	184.31
302.669	186.31
302.9	205.31
303.13	188.31
303.36	192.31
303.59	200.31
303.82	184.31
304.051	196.31
304.281	206.31
304.511	203.31
304.741	205.31
304.971	200.31
305.201	210.31
305.431	207.31
305.661	197.31
305.891	190.31
306.121	215.31
306.352	183.31
306.582	203.31
306.812	191.31
307.042	202.31
307.272	200.31
307.502	216.31
307.731	204.31
307.961	199.31
308.191	217.31
308.421	207.31
308.651	195.31
308.881	213.31
309.111	213.31
309.341	213.31
309.571	186.31
309.8	205.31
310.03	201.31
310.26	198.31
310.49	215.31
310.72	208.31
310.949	206.31
311.179	195.31
311.409	214.31
311.639	202.31
311.868	200.31
312.098	184.31
312.328	199.31
312.557	212.31
312.787	207.31
313.017	215.31
313.246	215.31
313.476	218.31
313.706	222.31
313.935	220.31
314.165	196.31
314.394	216.31
314.624	209.31
314.853	211.31
315.083	215.31
315.312	197.31
315.542	203.31
315.771	218.31
316.001	208.31
316.23	217.31
316.46	214.31
316.689	211.31
316.919	225.31
317.148	219.31
317.377	217.31
317.607	210.31
317.836	200.31
318.065	216.31
318.295	217.31
318.524	210.31
318.753	216.31
318.983	226.31
319.212	231.31
319.441	209.31
319.67	229.31
319.9	195.31
320.129	208.31
320.358	201.31
320.587	211.31
320.816	222.31
321.046	205.31
321.275	231.31
321.504	217.31
321.733	218.31
321.962	216.31
322.191	227.31
322.42	225.31
322.649	217.31
322.878	213.31
323.108	207.31
323.337	231.31
323.566	212.31
323.795	220.31
324.024	228.31
324.253	218.31
324.482	239.31
324.71	222.31
324.939	224.31
325.168	227.31
325.397	238.31
325.626	233.31
325.855	208.31
326.084	241.31
326.313	224.31
326.542	229.31
326.77	213.31
326.999	216.31
327.228	227.31
327.457	240.31
327.686	251.31
327.914	243.31
328.143	238.31
328.372	243.31
328.6	247.31
328.829	233.31
329.058	233.31
329.287	234.31
329.515	255.31
329.744	242.31
329.972	238.31
330.201	230.31
330.43	236.31
330.658	235.31
330.887	248.31
331.115	239.31
331.344	232.31
331.572	254.31
331.801	254.31
332.03	236.31
332.258	253.31
332.486	262.31
332.715	265.31
332.943	280.31
333.172	269.31
333.4	283.31
333.629	277.31
333.857	278.31
334.085	283.31
334.314	274.31
334.542	279.31
334.771	284.31
334.999	279.31
335.227	269.31
335.455	278.31
335.684	268.31
335.912	274.31
336.14	249.31
336.369	262.31
336.597	263.31
336.825	271.31
337.053	274.31
337.281	265.31
337.51	242.31
337.738	264.31
337.966	248.31
338.194	258.31
338.422	257.31
338.65	279.31
338.878	268.31
339.106	261.31
339.334	248.31
339.562	242.31
339.79	250.31
340.018	255.31
340.246	252.31
340.474	244.31
340.702	234.31
340.93	252.31
341.158	248.31
341.386	255.31
341.614	260.31
341.842	251.31
342.07	240.31
342.298	257.31
342.526	232.31
342.754	258.31
342.981	248.31
343.209	265.31
343.437	280.31
343.665	278.31
343.893	268.31
344.12	290.31
344.348	297.31
344.576	263.31
344.804	262.31
345.031	254.31
345.259	265.31
345.487	242.31
345.714	244.31
345.942	221.31
346.17	231.31
346.397	227.31
346.625	239.31
346.853	250.31
347.08	252.31
347.308	246.31
347.535	242.31
347.763	228.31
347.99	223.31
348.218	247.31
348.445	256.31
348.673	244.31
348.9	250.31
349.128	254.31
349.355	252.31
349.583	256.31
349.81	248.31
350.037	248.31
350.265	248.31
350.492	242.31
350.72	241.31
350.947	230.31
351.174	244.31
351.402	238.31
351.629	225.31
351.856	252.31
352.083	231.31
352.311	227.31
352.538	244.31
352.765	247.31
352.992	227.31
353.22	240.31
353.447	247.31
353.674	260.31
353.901	256.31
354.128	246.31
354.355	218.31
354.583	240.31
354.81	240.31
355.037	253.31
355.264	246.31
355.491	256.31
355.718	241.31
355.945	232.31
356.172	231.31
356.399	253.31
356.626	236.31
356.853	268.31
357.08	256.31
357.307	229.31
357.534	235.31
357.761	245.31
357.988	268.31
358.215	250.31
358.441	246.31
358.668	256.31
358.895	232.31
359.122	255.31
359.349	253.31
359.576	257.31
359.802	260.31
360.029	252.31
360.256	239.31
360.483	248.31
360.709	230.31
360.936	243.31
361.163	241.31
361.39	247.31
361.616	255.31
361.843	267.31
362.07	240.31
362.296	226.31
362.523	246.31
362.749	264.31
362.976	259.31
363.203	262.31
363.429	258.31
363.656	231.31
363.882	249.31
364.109	233.31
364.335	240.31
364.562	258.31
364.788	252.31
365.015	251.31
365.241	255.31
365.468	262.31
365.694	250.31
365.92	234.31
366.147	252.31
366.373	245.31
366.599	251.31
366.826	246.31
367.052	248.31
367.278	248.31
367.505	249.31
367.731	273.31
367.957	254.31
368.184	252.31
368.41	263.31
368.636	264.31
368.862	249.31
369.089	272.31
369.315	267.31
369.541	255.31
369.767	267.31
369.993	250.31
370.219	241.31
370.445	259.31
370.672	235.31
370.898	270.31
371.124	246.31
371.35	266.31
371.576	258.31
371.802	265.31
372.028	274.31
372.254	262.31
372.48	262.31
372.706	266.31
372.932	269.31
373.158	279.31
373.384	289.31
373.61	275.31
373.835	268.31
374.061	272.31
374.287	265.31
374.513	274.31
374.739	288.31
374.965	277.31
375.191	279.31
375.416	273.31
375.642	295.31
375.868	286.31
376.094	278.31
376.319	264.31
376.545	251.31
376.771	277.31
376.997	273.31
377.222	271.31
377.448	266.31
377.674	272.31
377.899	257.31
378.125	275.31
378.35	256.31
378.576	287.31
378.802	243.31
379.027	270.31
379.253	268.31
379.478	262.31
379.704	263.31
379.929	253.31
380.155	289.31
380.38	258.31
380.606	264.31
380.831	262.31
381.057	277.31
381.282	272.31
381.507	275.31
381.733	279.31
381.958	266.31
382.184	272.31
382.409	283.31
382.634	282.31
382.86	284.31
383.085	298.31
383.31	263.31
383.535	292.31
383.761	278.31
383.986	278.31
384.211	297.31
384.436	288.31
384.662	306.31
384.887	318.31
385.112	305.31
385.337	293.31
385.562	305.31
385.787	286.31
386.013	326.31
386.238	290.31
386.463	291.31
386.688	294.31
386.913	295.31
387.138	329.31
387.363	312.31
387.588	306.31
387.813	304.31
388.038	299.31
388.263	305.31
388.488	300.31
388.713	314.31
388.938	308.31
389.163	308.31
389.387	297.31
389.612	305.31
389.837	286.31
390.062	292.31
390.287	290.31
390.512	323.31
390.736	300.31
390.961	312.31
391.186	311.31
391.411	300.31
391.636	324.31
391.86	318.31
392.085	329.31
392.31	308.31
392.534	340.31
392.759	336.31
392.984	327.31
393.208	308.31
393.433	321.31
393.658	325.31
393.882	328.31
394.107	333.31
394.331	322.31
394.556	317.31
394.78	324.31
395.005	340.31
395.229	322.31
395.454	331.31
395.678	328.31
395.903	334.31
396.127	359.31
396.352	322.31
396.576	348.31
396.801	333.31
397.025	329.31
397.249	337.31
397.474	344.31
397.698	351.31
397.922	343.31
398.147	359.31
398.371	368.31
398.595	366.31
398.82	384.31
399.044	396.31
399.268	423.31
399.492	467.31
399.717	483.31
399.941	466.31
400.165	437.31
400.389	421.31
400.613	411.31
400.837	382.31
401.062	390.31
401.286	364.31
401.51	363.31
401.734	383.31
401.958	381.31
402.182	384.31
402.406	356.31
402.63	374.31
402.854	396.31
403.078	383.31
403.302	391.31
403.526	389.31
403.75	395.31
403.974	391.31
404.198	404.31
404.422	394.31
404.645	383.31
404.869	414.31
405.093	393.31
405.317	383.31
405.541	404.31
405.765	384.31
405.988	394.31
406.212	384.31
406.436	392.31
406.66	434.31
406.883	404.31
407.107	422.31
407.331	436.31
407.555	438.31
407.778	443.31
408.002	419.31
408.226	400.31
408.449	408.31
408.673	415.31
408.896	417.31
409.12	397.31
409.344	412.31
409.567	409.31
409.791	400.31
410.014	426.31
410.238	402.31
410.461	395.31
410.685	398.31
410.908	386.31
411.132	383.31
411.355	373.31
411.578	391.31
411.802	367.31
412.025	382.31
412.249	370.31
412.472	374.31
412.695	373.31
412.919	352.31
413.142	378.31
413.365	378.31
413.589	370.31
413.812	375.31
414.035	359.31
414.258	368.31
414.482	374.31
414.705	371.31
414.928	363.31
415.151	384.31
415.374	370.31
415.597	355.31
415.821	368.31
416.044	352.31
416.267	351.31
416.49	364.31
416.713	351.31
416.936	361.31
417.159	358.31
417.382	334.31
417.605	351.31
417.828	347.31
418.051	371.31
418.274	350.31
418.497	363.31
418.72	346.31
418.943	360.31
419.166	390.31
419.389	386.31
419.611	389.31
419.834	362.31
420.057	358.31
420.28	373.31
420.503	359.31
420.726	342.31
420.948	345.31
421.171	355.31
421.394	357.31
421.617	354.31
421.839	367.31
422.062	371.31
422.285	361.31
422.507	371.31
422.73	347.31
422.953	366.31
423.175	355.31
423.398	388.31
423.621	361.31
423.843	365.31
424.066	363.31
424.288	355.31
424.511	368.31
424.733	361.31
424.956	354.31
425.178	344.31
425.401	337.31
425.623	346.31
425.846	356.31
426.068	332.31
426.291	334.31
426.513	334.31
426.735	334.31
426.958	338.31
427.18	352.31
427.402	329.31
427.625	346.31
427.847	354.31
428.069	313.31
428.292	344.31
428.514	330.31
428.736	338.31
428.958	327.31
429.181	328.31
429.403	326.31
429.625	326.31
429.847	329.31
430.069	323.31
430.292	332.31
430.514	332.31
430.736	318.31
430.958	343.31
431.18	314.31
431.402	320.31
431.624	329.31
431.846	340.31
432.068	331.31
432.29	355.31
432.512	348.31
432.734	326.31
432.956	328.31
433.178	339.31
433.4	324.31
433.622	342.31
433.844	352.31
434.066	329.31
434.287	371.31
434.509	330.31
434.731	342.31
434.953	345.31
435.175	329.31
435.397	327.31
435.618	355.31
435.84	332.31
436.062	328.31
436.284	310.31
436.505	316.31
436.727	329.31
436.949	307.31
437.17	326.31
437.392	326.31
437.614	313.31
437.835	308.31
438.057	313.31
438.278	330.31
438.5	342.31
438.721	319.31
438.943	320.31
439.165	323.31
439.386	321.31
439.608	322.31
439.829	331.31
440.05	317.31
440.272	322.31
440.493	346.31
440.715	323.31
440.936	336.31
441.158	348.31
441.379	342.31
441.6	368.31
441.822	324.31
442.043	344.31
442.264	373.31
442.486	358.31
442.707	354.31
442.928	361.31
443.149	373.31
443.371	350.31
443.592	361.31
443.813	353.31
444.034	360.31
444.255	376.31
444.476	380.31
444.698	393.31
444.919	380.31
445.14	453.31
445.361	402.31
445.582	363.31
445.803	345.31
446.024	316.31
446.245	369.31
446.466	330.31
446.687	327.31
446.908	313.31
447.129	322.31
447.35	329.31
447.571	319.31
447.792	320.31
448.013	305.31
448.234	314.31
448.455	319.31
448.675	307.31
448.896	303.31
449.117	312.31
449.338	314.31
449.559	301.31
449.779	290.31
450	299.31
450.221	318.31
450.442	290.31
450.662	304.31
450.883	277.31
451.104	327.31
451.324	302.31
451.545	307.31
451.766	306.31
451.986	304.31
452.207	292.31
452.428	309.31
452.648	311.31
452.869	310.31
453.089	311.31
453.31	313.31
453.53	318.31
453.751	315.31
453.971	292.31
454.192	286.31
454.412	285.31
454.633	285.31
454.853	305.31
455.073	280.31
455.294	301.31
455.514	291.31
455.734	295.31
455.955	283.31
456.175	299.31
456.395	275.31
456.616	272.31
456.836	286.31
457.056	308.31
457.276	300.31
457.497	298.31
457.717	293.31
457.937	305.31
458.157	324.31
458.377	309.31
458.598	318.31
458.818	323.31
459.038	324.31
459.258	319.31
459.478	332.31
459.698	350.31
459.918	347.31
460.138	354.31
460.358	357.31
460.578	380.31
460.798	374.31
461.018	379.31
461.238	369.31
461.458	372.31
461.678	368.31
461.898	376.31
462.118	405.31
462.338	415.31
462.558	404.31
462.777	409.31
462.997	437.31
463.217	444.31
463.437	435.31
463.657	394.31
463.876	425.31
464.096	432.31
464.316	384.31
464.536	401.31
464.755	424.31
464.975	396.31
465.195	379.31
465.414	360.31
465.634	350.31
465.854	352.31
466.073	351.31
466.293	330.31
466.512	330.31
466.732	315.31
466.951	319.31
467.171	329.31
467.391	313.31
467.61	322.31
467.829	323.31
468.049	329.31
468.268	327.31
468.488	319.31
468.707	306.31
468.927	312.31
469.146	304.31
469.365	318.31
469.585	328.31
469.804	323.31
470.023	341.31
470.243	333.31
470.462	353.31
470.681	328.31
470.901	344.31
471.12	327.31
471.339	326.31
471.558	331.31
471.777	303.31
471.997	314.31
472.216	305.31
472.435	312.31
472.654	335.31
472.873	327.31
473.092	318.31
473.311	312.31
473.53	323.31
473.749	307.31
473.968	327.31
474.187	319.31
474.406	306.31
474.625	329.31
474.844	304.31
475.063	310.31
475.282	315.31
475.501	320.31
475.72	322.31
475.939	333.31
476.158	319.31
476.377	328.31
476.596	320.31
476.814	321.31
477.033	325.31
477.252	338.31
477.471	342.31
477.69	352.31
477.908	344.31
478.127	349.31
478.346	359.31
478.564	354.31
478.783	379.31
479.002	371.31
479.22	354.31
479.439	389.31
479.658	376.31
479.876	385.31
480.095	380.31
480.313	399.31
480.532	378.31
480.751	386.31
480.969	375.31
481.188	382.31
481.406	363.31
481.624	368.31
481.843	364.31
482.061	344.31
482.28	364.31
482.498	339.31
482.717	358.31
482.935	344.31
483.153	350.31
483.372	343.31
483.59	335.31
483.808	357.31
484.027	362.31
484.245	362.31
484.463	349.31
484.681	370.31
484.9	360.31
485.118	347.31
485.336	345.31
485.554	360.31
485.772	366.31
485.99	372.31
486.209	379.31
486.427	372.31
486.645	359.31
486.863	368.31
487.081	347.31
487.299	360.31
487.517	366.31
487.735	386.31
487.953	368.31
488.171	369.31
488.389	355.31
488.607	357.31
488.825	359.31
489.043	366.31
489.261	363.31
489.479	343.31
489.696	375.31
489.914	375.31
490.132	374.31
490.35	374.31
490.568	375.31
490.786	376.31
491.003	377.31
491.221	356.31
491.439	368.31
491.657	379.31
491.874	382.31
492.092	379.31
492.31	360.31
492.527	378.31
492.745	378.31
492.963	363.31
493.18	376.31
493.398	363.31
493.615	365.31
493.833	371.31
494.05	380.31
494.268	403.31
494.485	399.31
494.703	381.31
494.92	380.31
495.138	407.31
495.355	396.31
495.573	407.31
495.79	421.31
496.008	419.31
496.225	420.31
496.442	407.31
496.66	417.31
496.877	405.31
497.094	417.31
497.312	423.31
497.529	431.31
497.746	458.31
497.963	460.31
498.181	494.31
498.398	500.31
498.615	509.31
498.832	536.31
499.049	554.31
499.267	587.31
499.484	630.31
499.701	681.31
499.918	716.31
500.135	788.31
500.352	824.31
500.569	843.31
500.786	820.31
501.003	773.31
501.22	762.31
501.437	660.31
501.654	635.31
501.871	598.31
502.088	551.31
502.305	540.31
