Data from Fe(NO3)3@0.025M.TitratingCurve.Agarose3%dH2O.NegLispCup.LampEnergy10.LIBS07252019_HRD10591_16-55-36-335.txt Node
Date: Thu Jul 25 16:55:36 EDT 2019
User: cochatt
Spectrometer: HR+D1059
Trigger mode: 1
Integration Time (sec): 1.000000E-1
Scans to average: 1
Electric dark correction enabled: true
Nonlinearity correction enabled: false
Boxcar width: 0
XAxis mode: Wavelengths
Number of Pixels in Spectrum: 2048
>>>>>Begin Spectral Data<<<<<
223.165	-11.06
223.4	-11.06
223.635	-11.06
223.869	-24.06
224.104	-16.06
224.338	-16.06
224.573	-11.06
224.808	-26.06
225.042	-19.06
225.277	-16.06
225.511	15.94
225.746	7.94
225.98	7.94
226.215	18.94
226.449	8.94
226.683	23.94
226.918	21.94
227.152	33.94
227.387	39.94
227.621	34.94
227.856	57.94
228.09	43.94
228.324	53.94
228.559	57.94
228.793	49.94
229.027	66.94
229.262	68.94
229.496	76.94
229.73	63.94
229.964	76.94
230.199	81.94
230.433	71.94
230.667	79.94
230.901	83.94
231.136	86.94
231.37	78.94
231.604	94.94
231.838	88.94
232.072	99.94
232.306	85.94
232.541	82.94
232.775	77.94
233.009	85.94
233.243	84.94
233.477	88.94
233.711	84.94
233.945	98.94
234.179	86.94
234.413	90.94
234.647	91.94
234.881	98.94
235.115	98.94
235.349	92.94
235.583	103.94
235.817	89.94
236.051	76.94
236.285	75.94
236.519	86.94
236.753	95.94
236.987	89.94
237.221	92.94
237.455	95.94
237.689	76.94
237.922	76.94
238.156	76.94
238.39	77.94
238.624	96.94
238.858	76.94
239.091	83.94
239.325	86.94
239.559	89.94
239.793	85.94
240.027	92.94
240.26	98.94
240.494	100.94
240.728	91.94
240.961	70.94
241.195	103.94
241.429	102.94
241.662	91.94
241.896	88.94
242.13	98.94
242.363	93.94
242.597	104.94
242.83	101.94
243.064	89.94
243.298	104.94
243.531	88.94
243.765	99.94
243.998	87.94
244.232	82.94
244.465	102.94
244.699	101.94
244.932	85.94
245.166	105.94
245.399	91.94
245.633	93.94
245.866	93.94
246.099	96.94
246.333	90.94
246.566	83.94
246.8	85.94
247.033	93.94
247.266	104.94
247.5	90.94
247.733	104.94
247.966	89.94
248.2	103.94
248.433	107.94
248.666	102.94
248.899	94.94
249.133	105.94
249.366	89.94
249.599	95.94
249.832	115.94
250.066	103.94
250.299	85.94
250.532	105.94
250.765	91.94
250.998	109.94
251.231	116.94
251.465	113.94
251.698	109.94
251.931	105.94
252.164	105.94
252.397	82.94
252.63	105.94
252.863	115.94
253.096	112.94
253.329	115.94
253.562	94.94
253.795	103.94
254.028	114.94
254.261	115.94
254.494	98.94
254.727	120.94
254.96	113.94
255.193	102.94
255.426	105.94
255.659	114.94
255.892	106.94
256.124	107.94
256.357	110.94
256.59	100.94
256.823	109.94
257.056	113.94
257.289	110.94
257.521	117.94
257.754	121.94
257.987	105.94
258.22	113.94
258.452	114.94
258.685	111.94
258.918	106.94
259.151	119.94
259.383	118.94
259.616	121.94
259.849	101.94
260.081	113.94
260.314	101.94
260.547	106.94
260.779	102.94
261.012	108.94
261.244	113.94
261.477	115.94
261.71	126.94
261.942	109.94
262.175	119.94
262.407	119.94
262.64	122.94
262.872	129.94
263.105	130.94
263.337	127.94
263.57	115.94
263.802	121.94
264.035	131.94
264.267	122.94
264.499	120.94
264.732	122.94
264.964	107.94
265.197	120.94
265.429	119.94
265.661	126.94
265.894	121.94
266.126	124.94
266.358	118.94
266.591	123.94
266.823	118.94
267.055	108.94
267.287	123.94
267.52	124.94
267.752	122.94
267.984	129.94
268.216	121.94
268.448	115.94
268.681	129.94
268.913	131.94
269.145	121.94
269.377	129.94
269.609	101.94
269.841	123.94
270.073	116.94
270.306	122.94
270.538	127.94
270.77	142.94
271.002	132.94
271.234	136.94
271.466	124.94
271.698	140.94
271.93	124.94
272.162	131.94
272.394	134.94
272.626	138.94
272.858	126.94
273.09	133.94
273.322	133.94
273.553	121.94
273.785	139.94
274.017	149.94
274.249	135.94
274.481	147.94
274.713	139.94
274.945	133.94
275.176	115.94
275.408	120.94
275.64	149.94
275.872	129.94
276.104	128.94
276.335	125.94
276.567	133.94
276.799	139.94
277.031	145.94
277.262	144.94
277.494	127.94
277.726	137.94
277.957	147.94
278.189	131.94
278.421	131.94
278.652	159.94
278.884	140.94
279.115	146.94
279.347	133.94
279.579	150.94
279.81	134.94
280.042	128.94
280.273	145.94
280.505	127.94
280.736	155.94
280.968	141.94
281.199	144.94
281.431	153.94
281.662	147.94
281.894	153.94
282.125	154.94
282.356	141.94
282.588	151.94
282.819	128.94
283.051	135.94
283.282	134.94
283.513	144.94
283.745	152.94
283.976	141.94
284.207	161.94
284.439	142.94
284.67	132.94
284.901	163.94
285.132	153.94
285.364	146.94
285.595	151.94
285.826	159.94
286.057	141.94
286.288	155.94
286.52	150.94
286.751	145.94
286.982	145.94
287.213	151.94
287.444	159.94
287.675	152.94
287.906	146.94
288.138	151.94
288.369	155.94
288.6	154.94
288.831	156.94
289.062	157.94
289.293	138.94
289.524	148.94
289.755	150.94
289.986	152.94
290.217	161.94
290.448	148.94
290.679	155.94
290.91	154.94
291.141	154.94
291.371	149.94
291.602	159.94
291.833	160.94
292.064	164.94
292.295	165.94
292.526	161.94
292.757	150.94
292.987	164.94
293.218	153.94
293.449	164.94
293.68	166.94
293.91	160.94
294.141	144.94
294.372	179.94
294.603	166.94
294.833	162.94
295.064	155.94
295.295	154.94
295.525	156.94
295.756	172.94
295.987	181.94
296.217	167.94
296.448	153.94
296.679	161.94
296.909	177.94
297.14	169.94
297.37	167.94
297.601	153.94
297.831	161.94
298.062	166.94
298.292	185.94
298.523	155.94
298.753	158.94
298.984	171.94
299.214	163.94
299.445	157.94
299.675	170.94
299.905	167.94
300.136	169.94
300.366	186.94
300.597	164.94
300.827	167.94
301.057	190.94
301.288	179.94
301.518	163.94
301.748	175.94
301.979	181.94
302.209	192.94
302.439	179.94
302.669	164.94
302.9	187.94
303.13	165.94
303.36	158.94
303.59	178.94
303.82	171.94
304.051	174.94
304.281	185.94
304.511	177.94
304.741	192.94
304.971	169.94
305.201	181.94
305.431	177.94
305.661	180.94
305.891	183.94
306.121	182.94
306.352	175.94
306.582	195.94
306.812	175.94
307.042	171.94
307.272	174.94
307.502	161.94
307.731	185.94
307.961	191.94
308.191	172.94
308.421	163.94
308.651	178.94
308.881	191.94
309.111	171.94
309.341	197.94
309.571	173.94
309.8	181.94
310.03	178.94
310.26	178.94
310.49	185.94
310.72	197.94
310.949	189.94
311.179	170.94
311.409	181.94
311.639	185.94
311.868	200.94
312.098	181.94
312.328	190.94
312.557	187.94
312.787	175.94
313.017	199.94
313.246	186.94
313.476	191.94
313.706	185.94
313.935	188.94
314.165	195.94
314.394	189.94
314.624	190.94
314.853	190.94
315.083	200.94
315.312	200.94
315.542	188.94
315.771	184.94
316.001	185.94
316.23	189.94
316.46	203.94
316.689	190.94
316.919	200.94
317.148	183.94
317.377	193.94
317.607	189.94
317.836	192.94
318.065	184.94
318.295	191.94
318.524	195.94
318.753	198.94
318.983	188.94
319.212	178.94
319.441	198.94
319.67	182.94
319.9	197.94
320.129	187.94
320.358	199.94
320.587	193.94
320.816	208.94
321.046	188.94
321.275	201.94
321.504	211.94
321.733	187.94
321.962	194.94
322.191	195.94
322.42	198.94
322.649	199.94
322.878	214.94
323.108	206.94
323.337	210.94
323.566	215.94
323.795	210.94
324.024	210.94
324.253	214.94
324.482	188.94
324.71	202.94
324.939	211.94
325.168	212.94
325.397	191.94
325.626	221.94
325.855	205.94
326.084	212.94
326.313	213.94
326.542	212.94
326.77	232.94
326.999	197.94
327.228	203.94
327.457	204.94
327.686	209.94
327.914	206.94
328.143	224.94
328.372	201.94
328.6	222.94
328.829	205.94
329.058	199.94
329.287	212.94
329.515	209.94
329.744	213.94
329.972	205.94
330.201	218.94
330.43	206.94
330.658	215.94
330.887	201.94
331.115	226.94
331.344	228.94
331.572	211.94
331.801	220.94
332.03	230.94
332.258	224.94
332.486	229.94
332.715	242.94
332.943	227.94
333.172	230.94
333.4	230.94
333.629	250.94
333.857	245.94
334.085	248.94
334.314	259.94
334.542	232.94
334.771	239.94
334.999	246.94
335.227	237.94
335.455	245.94
335.684	236.94
335.912	242.94
336.14	231.94
336.369	235.94
336.597	241.94
336.825	221.94
337.053	217.94
337.281	242.94
337.51	245.94
337.738	233.94
337.966	236.94
338.194	222.94
338.422	236.94
338.65	247.94
338.878	235.94
339.106	221.94
339.334	213.94
339.562	223.94
339.79	229.94
340.018	202.94
340.246	220.94
340.474	226.94
340.702	229.94
340.93	209.94
341.158	227.94
341.386	236.94
341.614	210.94
341.842	203.94
342.07	221.94
342.298	229.94
342.526	222.94
342.754	219.94
342.981	223.94
343.209	229.94
343.437	238.94
343.665	234.94
343.893	222.94
344.12	241.94
344.348	219.94
344.576	234.94
344.804	227.94
345.031	238.94
345.259	226.94
345.487	227.94
345.714	219.94
345.942	218.94
346.17	235.94
346.397	229.94
346.625	209.94
346.853	214.94
347.08	216.94
347.308	208.94
347.535	223.94
347.763	212.94
347.99	226.94
348.218	218.94
348.445	219.94
348.673	226.94
348.9	219.94
349.128	219.94
349.355	210.94
349.583	218.94
349.81	195.94
350.037	207.94
350.265	233.94
350.492	225.94
350.72	214.94
350.947	236.94
351.174	218.94
351.402	210.94
351.629	204.94
351.856	213.94
352.083	209.94
352.311	222.94
352.538	227.94
352.765	208.94
352.992	213.94
353.22	216.94
353.447	205.94
353.674	221.94
353.901	213.94
354.128	219.94
354.355	218.94
354.583	221.94
354.81	221.94
355.037	217.94
355.264	232.94
355.491	217.94
355.718	201.94
355.945	223.94
356.172	207.94
356.399	213.94
356.626	234.94
356.853	197.94
357.08	216.94
357.307	213.94
357.534	227.94
357.761	220.94
357.988	205.94
358.215	216.94
358.441	213.94
358.668	226.94
358.895	214.94
359.122	214.94
359.349	229.94
359.576	209.94
359.802	218.94
360.029	226.94
360.256	234.94
360.483	216.94
360.709	213.94
360.936	233.94
361.163	236.94
361.39	240.94
361.616	227.94
361.843	223.94
362.07	212.94
362.296	215.94
362.523	214.94
362.749	232.94
362.976	219.94
363.203	220.94
363.429	241.94
363.656	228.94
363.882	207.94
364.109	226.94
364.335	223.94
364.562	227.94
364.788	226.94
365.015	235.94
365.241	207.94
365.468	225.94
365.694	202.94
365.92	225.94
366.147	230.94
366.373	228.94
366.599	229.94
366.826	232.94
367.052	227.94
367.278	234.94
367.505	228.94
367.731	225.94
367.957	223.94
368.184	217.94
368.41	221.94
368.636	234.94
368.862	241.94
369.089	228.94
369.315	217.94
369.541	228.94
369.767	238.94
369.993	234.94
370.219	243.94
370.445	225.94
370.672	251.94
370.898	257.94
371.124	231.94
371.35	255.94
371.576	245.94
371.802	237.94
372.028	226.94
372.254	248.94
372.48	245.94
372.706	241.94
372.932	241.94
373.158	241.94
373.384	245.94
373.61	263.94
373.835	247.94
374.061	242.94
374.287	243.94
374.513	259.94
374.739	259.94
374.965	258.94
375.191	259.94
375.416	251.94
375.642	242.94
375.868	242.94
376.094	234.94
376.319	234.94
376.545	236.94
376.771	233.94
376.997	231.94
377.222	245.94
377.448	227.94
377.674	232.94
377.899	241.94
378.125	235.94
378.35	237.94
378.576	226.94
378.802	232.94
379.027	234.94
379.253	237.94
379.478	227.94
379.704	251.94
379.929	234.94
380.155	230.94
380.38	241.94
380.606	238.94
380.831	241.94
381.057	238.94
381.282	245.94
381.507	250.94
381.733	253.94
381.958	261.94
382.184	242.94
382.409	224.94
382.634	245.94
382.86	247.94
383.085	253.94
383.31	245.94
383.535	260.94
383.761	238.94
383.986	252.94
384.211	247.94
384.436	261.94
384.662	283.94
384.887	273.94
385.112	263.94
385.337	252.94
385.562	271.94
385.787	261.94
386.013	281.94
386.238	260.94
386.463	277.94
386.688	272.94
386.913	266.94
387.138	278.94
387.363	261.94
387.588	287.94
387.813	270.94
388.038	279.94
388.263	272.94
388.488	290.94
388.713	270.94
388.938	273.94
389.163	272.94
389.387	282.94
389.612	277.94
389.837	265.94
390.062	286.94
390.287	274.94
390.512	266.94
390.736	270.94
390.961	278.94
391.186	255.94
391.411	288.94
391.636	281.94
391.86	292.94
392.085	293.94
392.31	294.94
392.534	297.94
392.759	297.94
392.984	302.94
393.208	302.94
393.433	266.94
393.658	294.94
393.882	297.94
394.107	287.94
394.331	293.94
394.556	283.94
394.78	296.94
395.005	309.94
395.229	309.94
395.454	289.94
395.678	294.94
395.903	290.94
396.127	300.94
396.352	299.94
396.576	287.94
396.801	301.94
397.025	290.94
397.249	291.94
397.474	301.94
397.698	305.94
397.922	295.94
398.147	318.94
398.371	317.94
398.595	325.94
398.82	328.94
399.044	346.94
399.268	354.94
399.492	364.94
399.717	391.94
399.941	371.94
400.165	380.94
400.389	379.94
400.613	355.94
400.837	369.94
401.062	332.94
401.286	321.94
401.51	328.94
401.734	332.94
401.958	305.94
402.182	321.94
402.406	322.94
402.63	325.94
402.854	326.94
403.078	331.94
403.302	338.94
403.526	318.94
403.75	320.94
403.974	349.94
404.198	319.94
404.422	340.94
404.645	343.94
404.869	331.94
405.093	343.94
405.317	332.94
405.541	350.94
405.765	330.94
405.988	323.94
406.212	329.94
406.436	341.94
406.66	347.94
406.883	355.94
407.107	365.94
407.331	361.94
407.555	349.94
407.778	366.94
408.002	376.94
408.226	354.94
408.449	339.94
408.673	342.94
408.896	335.94
409.12	337.94
409.344	332.94
409.567	341.94
409.791	335.94
410.014	330.94
410.238	321.94
410.461	337.94
410.685	347.94
410.908	336.94
411.132	311.94
411.355	342.94
411.578	332.94
411.802	333.94
412.025	322.94
412.249	331.94
412.472	330.94
412.695	339.94
412.919	333.94
413.142	310.94
413.365	310.94
413.589	321.94
413.812	302.94
414.035	312.94
414.258	314.94
414.482	325.94
414.705	321.94
414.928	321.94
415.151	314.94
415.374	307.94
415.597	313.94
415.821	328.94
416.044	316.94
416.267	309.94
416.49	318.94
416.713	307.94
416.936	304.94
417.159	302.94
417.382	306.94
417.605	285.94
417.828	312.94
418.051	309.94
418.274	322.94
418.497	315.94
418.72	305.94
418.943	308.94
419.166	311.94
419.389	340.94
419.611	315.94
419.834	318.94
420.057	307.94
420.28	310.94
420.503	321.94
420.726	295.94
420.948	324.94
421.171	301.94
421.394	303.94
421.617	309.94
421.839	302.94
422.062	310.94
422.285	319.94
422.507	322.94
422.73	326.94
422.953	314.94
423.175	311.94
423.398	307.94
423.621	319.94
423.843	294.94
424.066	297.94
424.288	322.94
424.511	310.94
424.733	316.94
424.956	314.94
425.178	319.94
425.401	303.94
425.623	321.94
425.846	309.94
426.068	297.94
426.291	321.94
426.513	317.94
426.735	315.94
426.958	308.94
427.18	311.94
427.402	302.94
427.625	278.94
427.847	287.94
428.069	285.94
428.292	284.94
428.514	292.94
428.736	300.94
428.958	284.94
429.181	300.94
429.403	291.94
429.625	302.94
429.847	290.94
430.069	288.94
430.292	296.94
430.514	280.94
430.736	290.94
430.958	293.94
431.18	297.94
431.402	282.94
431.624	282.94
431.846	282.94
432.068	284.94
432.29	294.94
432.512	314.94
432.734	305.94
432.956	286.94
433.178	279.94
433.4	301.94
433.622	294.94
433.844	302.94
434.066	288.94
434.287	292.94
434.509	293.94
434.731	313.94
434.953	317.94
435.175	284.94
435.397	311.94
435.618	316.94
435.84	296.94
436.062	295.94
436.284	289.94
436.505	290.94
436.727	285.94
436.949	281.94
437.17	265.94
437.392	263.94
437.614	276.94
437.835	271.94
438.057	282.94
438.278	293.94
438.5	263.94
438.721	297.94
438.943	267.94
439.165	280.94
439.386	283.94
439.608	284.94
439.829	281.94
440.05	272.94
440.272	272.94
440.493	295.94
440.715	286.94
440.936	313.94
441.158	305.94
441.379	279.94
441.6	313.94
441.822	285.94
442.043	303.94
442.264	290.94
442.486	289.94
442.707	290.94
442.928	297.94
443.149	310.94
443.371	309.94
443.592	319.94
443.813	306.94
444.034	317.94
444.255	311.94
444.476	318.94
444.698	332.94
444.919	337.94
445.14	389.94
445.361	348.94
445.582	319.94
445.803	301.94
446.024	298.94
446.245	315.94
446.466	311.94
446.687	304.94
446.908	309.94
447.129	280.94
447.35	275.94
447.571	293.94
447.792	270.94
448.013	290.94
448.234	262.94
448.455	267.94
448.675	270.94
448.896	273.94
449.117	261.94
449.338	266.94
449.559	265.94
449.779	289.94
450	272.94
450.221	283.94
450.442	270.94
450.662	250.94
450.883	270.94
451.104	283.94
451.324	269.94
451.545	261.94
451.766	255.94
451.986	264.94
452.207	283.94
452.428	275.94
452.648	251.94
452.869	277.94
453.089	241.94
453.31	261.94
453.53	282.94
453.751	253.94
453.971	267.94
454.192	265.94
454.412	245.94
454.633	259.94
454.853	263.94
455.073	245.94
455.294	253.94
455.514	250.94
455.734	262.94
455.955	264.94
456.175	270.94
456.395	237.94
456.616	258.94
456.836	261.94
457.056	261.94
457.276	270.94
457.497	245.94
457.717	268.94
457.937	254.94
458.157	266.94
458.377	263.94
458.598	277.94
458.818	284.94
459.038	292.94
459.258	284.94
459.478	290.94
459.698	296.94
459.918	297.94
460.138	316.94
460.358	319.94
460.578	302.94
460.798	322.94
461.018	300.94
461.238	316.94
461.458	333.94
461.678	338.94
461.898	317.94
462.118	345.94
462.338	343.94
462.558	334.94
462.777	313.94
462.997	362.94
463.217	370.94
463.437	355.94
463.657	377.94
463.876	358.94
464.096	380.94
464.316	346.94
464.536	353.94
464.755	320.94
464.975	320.94
465.195	314.94
465.414	321.94
465.634	285.94
465.854	291.94
466.073	300.94
466.293	287.94
466.512	294.94
466.732	277.94
466.951	299.94
467.171	284.94
467.391	279.94
467.61	284.94
467.829	273.94
468.049	298.94
468.268	282.94
468.488	280.94
468.707	281.94
468.927	281.94
469.146	267.94
469.365	275.94
469.585	278.94
469.804	283.94
470.023	281.94
470.243	281.94
470.462	268.94
470.681	294.94
470.901	282.94
471.12	289.94
471.339	277.94
471.558	294.94
471.777	300.94
471.997	299.94
472.216	284.94
472.435	281.94
472.654	275.94
472.873	294.94
473.092	276.94
473.311	287.94
473.53	283.94
473.749	294.94
473.968	278.94
474.187	285.94
474.406	284.94
474.625	281.94
474.844	279.94
475.063	271.94
475.282	276.94
475.501	298.94
475.72	302.94
475.939	268.94
476.158	297.94
476.377	295.94
476.596	301.94
476.814	299.94
477.033	298.94
477.252	309.94
477.471	317.94
477.69	312.94
477.908	328.94
478.127	316.94
478.346	323.94
478.564	313.94
478.783	329.94
479.002	323.94
479.22	338.94
479.439	321.94
479.658	331.94
479.876	328.94
480.095	336.94
480.313	346.94
480.532	354.94
480.751	337.94
480.969	325.94
481.188	340.94
481.406	335.94
481.624	311.94
481.843	339.94
482.061	321.94
482.28	317.94
482.498	318.94
482.717	314.94
482.935	320.94
483.153	292.94
483.372	339.94
483.59	333.94
483.808	315.94
484.027	314.94
484.245	326.94
484.463	331.94
484.681	319.94
484.9	324.94
485.118	333.94
485.336	353.94
485.554	338.94
485.772	334.94
485.99	336.94
486.209	325.94
486.427	335.94
486.645	340.94
486.863	348.94
487.081	339.94
487.299	318.94
487.517	331.94
487.735	317.94
487.953	323.94
488.171	336.94
488.389	353.94
488.607	310.94
488.825	323.94
489.043	338.94
489.261	350.94
489.479	320.94
489.696	329.94
489.914	321.94
490.132	335.94
490.35	341.94
490.568	328.94
490.786	355.94
491.003	354.94
491.221	314.94
491.439	341.94
491.657	343.94
491.874	348.94
492.092	351.94
492.31	346.94
492.527	342.94
492.745	362.94
492.963	340.94
493.18	351.94
493.398	345.94
493.615	334.94
493.833	354.94
494.05	366.94
494.268	366.94
494.485	364.94
494.703	353.94
494.92	348.94
495.138	345.94
495.355	352.94
495.573	364.94
495.79	371.94
496.008	366.94
496.225	383.94
496.442	396.94
496.66	373.94
496.877	381.94
497.094	379.94
497.312	371.94
497.529	377.94
497.746	400.94
497.963	395.94
498.181	419.94
498.398	419.94
498.615	435.94
498.832	481.94
499.049	471.94
499.267	509.94
499.484	528.94
499.701	558.94
499.918	578.94
500.135	599.94
500.352	629.94
500.569	647.94
500.786	644.94
501.003	634.94
501.22	595.94
501.437	581.94
501.654	529.94
501.871	505.94
502.088	475.94
502.305	481.94
502.522	459.94
