Data from Fe(NO3)3@0.05M.TitratingCurve.Agarose3%dH2O.NegLispCup.LampEnergy10.LIBS07252019_HRD10591_16-46-32-334.txt Node
Date: Thu Jul 25 16:46:32 EDT 2019
User: cochatt
Spectrometer: HR+D1059
Trigger mode: 1
Integration Time (sec): 1.000000E-1
Scans to average: 1
Electric dark correction enabled: true
Nonlinearity correction enabled: false
Boxcar width: 0
XAxis mode: Wavelengths
Number of Pixels in Spectrum: 2048
>>>>>Begin Spectral Data<<<<<
223.165	-2.44
223.4	-2.44
223.635	-2.44
223.869	-24.44
224.104	-21.44
224.338	-14.44
224.573	-4.44
224.808	-13.44
225.042	0.56
225.277	-20.44
225.511	-1.44
225.746	10.56
225.98	-3.44
226.215	16.56
226.449	2.56
226.683	20.56
226.918	28.56
227.152	26.56
227.387	28.56
227.621	41.56
227.856	43.56
228.09	47.56
228.324	60.56
228.559	48.56
228.793	68.56
229.027	87.56
229.262	106.56
229.496	102.56
229.73	100.56
229.964	113.56
230.199	113.56
230.433	112.56
230.667	123.56
230.901	109.56
231.136	121.56
231.37	123.56
231.604	118.56
231.838	133.56
232.072	124.56
232.306	129.56
232.541	131.56
232.775	146.56
233.009	131.56
233.243	139.56
233.477	144.56
233.711	141.56
233.945	140.56
234.179	127.56
234.413	137.56
234.647	131.56
234.881	157.56
235.115	140.56
235.349	138.56
235.583	139.56
235.817	154.56
236.051	153.56
236.285	172.56
236.519	160.56
236.753	145.56
236.987	153.56
237.221	145.56
237.455	167.56
237.689	163.56
237.922	146.56
238.156	144.56
238.39	171.56
238.624	149.56
238.858	159.56
239.091	154.56
239.325	155.56
239.559	169.56
239.793	169.56
240.027	172.56
240.26	175.56
240.494	191.56
240.728	173.56
240.961	181.56
241.195	185.56
241.429	177.56
241.662	183.56
241.896	175.56
242.13	181.56
242.363	177.56
242.597	163.56
242.83	172.56
243.064	170.56
243.298	175.56
243.531	177.56
243.765	198.56
243.998	196.56
244.232	181.56
244.465	195.56
244.699	188.56
244.932	188.56
245.166	210.56
245.399	192.56
245.633	179.56
245.866	196.56
246.099	196.56
246.333	207.56
246.566	181.56
246.8	197.56
247.033	208.56
247.266	203.56
247.5	211.56
247.733	215.56
247.966	202.56
248.2	206.56
248.433	199.56
248.666	215.56
248.899	217.56
249.133	226.56
249.366	219.56
249.599	242.56
249.832	235.56
250.066	222.56
250.299	241.56
250.532	231.56
250.765	213.56
250.998	223.56
251.231	222.56
251.465	227.56
251.698	247.56
251.931	224.56
252.164	248.56
252.397	252.56
252.63	242.56
252.863	256.56
253.096	251.56
253.329	249.56
253.562	240.56
253.795	253.56
254.028	264.56
254.261	263.56
254.494	261.56
254.727	283.56
254.96	259.56
255.193	273.56
255.426	252.56
255.659	252.56
255.892	255.56
256.124	257.56
256.357	244.56
256.59	263.56
256.823	277.56
257.056	256.56
257.289	278.56
257.521	267.56
257.754	265.56
257.987	289.56
258.22	276.56
258.452	277.56
258.685	275.56
258.918	269.56
259.151	277.56
259.383	284.56
259.616	273.56
259.849	308.56
260.081	324.56
260.314	328.56
260.547	286.56
260.779	293.56
261.012	292.56
261.244	301.56
261.477	304.56
261.71	317.56
261.942	297.56
262.175	282.56
262.407	298.56
262.64	295.56
262.872	299.56
263.105	324.56
263.337	329.56
263.57	322.56
263.802	328.56
264.035	286.56
264.267	299.56
264.499	287.56
264.732	298.56
264.964	315.56
265.197	303.56
265.429	284.56
265.661	305.56
265.894	292.56
266.126	296.56
266.358	304.56
266.591	305.56
266.823	310.56
267.055	318.56
267.287	304.56
267.52	309.56
267.752	311.56
267.984	306.56
268.216	317.56
268.448	332.56
268.681	312.56
268.913	310.56
269.145	329.56
269.377	324.56
269.609	328.56
269.841	338.56
270.073	330.56
270.306	337.56
270.538	333.56
270.77	340.56
271.002	322.56
271.234	343.56
271.466	335.56
271.698	324.56
271.93	344.56
272.162	345.56
272.394	342.56
272.626	355.56
272.858	346.56
273.09	360.56
273.322	352.56
273.553	355.56
273.785	347.56
274.017	368.56
274.249	395.56
274.481	388.56
274.713	392.56
274.945	427.56
275.176	427.56
275.408	396.56
275.64	397.56
275.872	407.56
276.104	367.56
276.335	360.56
276.567	358.56
276.799	380.56
277.031	397.56
277.262	397.56
277.494	377.56
277.726	360.56
277.957	354.56
278.189	349.56
278.421	364.56
278.652	372.56
278.884	379.56
279.115	386.56
279.347	396.56
279.579	379.56
279.81	381.56
280.042	389.56
280.273	370.56
280.505	384.56
280.736	378.56
280.968	375.56
281.199	379.56
281.431	404.56
281.662	399.56
281.894	403.56
282.125	402.56
282.356	403.56
282.588	384.56
282.819	417.56
283.051	407.56
283.282	401.56
283.513	416.56
283.745	401.56
283.976	394.56
284.207	423.56
284.439	414.56
284.67	403.56
284.901	411.56
285.132	428.56
285.364	435.56
285.595	423.56
285.826	408.56
286.057	427.56
286.288	429.56
286.52	420.56
286.751	420.56
286.982	408.56
287.213	433.56
287.444	418.56
287.675	430.56
287.906	434.56
288.138	435.56
288.369	431.56
288.6	435.56
288.831	422.56
289.062	428.56
289.293	424.56
289.524	435.56
289.755	435.56
289.986	422.56
290.217	447.56
290.448	431.56
290.679	428.56
290.91	426.56
291.141	440.56
291.371	458.56
291.602	437.56
291.833	444.56
292.064	444.56
292.295	441.56
292.526	453.56
292.757	431.56
292.987	447.56
293.218	431.56
293.449	443.56
293.68	442.56
293.91	427.56
294.141	458.56
294.372	437.56
294.603	443.56
294.833	457.56
295.064	450.56
295.295	450.56
295.525	447.56
295.756	458.56
295.987	457.56
296.217	453.56
296.448	471.56
296.679	452.56
296.909	476.56
297.14	474.56
297.37	477.56
297.601	480.56
297.831	474.56
298.062	486.56
298.292	485.56
298.523	495.56
298.753	489.56
298.984	476.56
299.214	461.56
299.445	491.56
299.675	486.56
299.905	463.56
300.136	476.56
300.366	484.56
300.597	497.56
300.827	496.56
301.057	482.56
301.288	488.56
301.518	490.56
301.748	513.56
301.979	514.56
302.209	504.56
302.439	511.56
302.669	510.56
302.9	516.56
303.13	485.56
303.36	516.56
303.59	490.56
303.82	493.56
304.051	513.56
304.281	506.56
304.511	510.56
304.741	519.56
304.971	507.56
305.201	530.56
305.431	509.56
305.661	528.56
305.891	506.56
306.121	503.56
306.352	516.56
306.582	479.56
306.812	489.56
307.042	528.56
307.272	494.56
307.502	512.56
307.731	497.56
307.961	497.56
308.191	521.56
308.421	515.56
308.651	500.56
308.881	512.56
309.111	520.56
309.341	495.56
309.571	510.56
309.8	504.56
310.03	498.56
310.26	518.56
310.49	515.56
310.72	523.56
310.949	527.56
311.179	515.56
311.409	523.56
311.639	538.56
311.868	530.56
312.098	520.56
312.328	515.56
312.557	525.56
312.787	509.56
313.017	505.56
313.246	540.56
313.476	508.56
313.706	553.56
313.935	547.56
314.165	535.56
314.394	539.56
314.624	538.56
314.853	545.56
315.083	536.56
315.312	547.56
315.542	531.56
315.771	511.56
316.001	525.56
316.23	520.56
316.46	552.56
316.689	557.56
316.919	544.56
317.148	552.56
317.377	540.56
317.607	544.56
317.836	580.56
318.065	553.56
318.295	545.56
318.524	537.56
318.753	519.56
318.983	534.56
319.212	529.56
319.441	568.56
319.67	540.56
319.9	539.56
320.129	561.56
320.358	575.56
320.587	560.56
320.816	542.56
321.046	556.56
321.275	551.56
321.504	563.56
321.733	567.56
321.962	557.56
322.191	579.56
322.42	569.56
322.649	565.56
322.878	578.56
323.108	562.56
323.337	563.56
323.566	580.56
323.795	602.56
324.024	565.56
324.253	555.56
324.482	580.56
324.71	570.56
324.939	596.56
325.168	598.56
325.397	581.56
325.626	601.56
325.855	591.56
326.084	581.56
326.313	598.56
326.542	599.56
326.77	611.56
326.999	624.56
327.228	597.56
327.457	601.56
327.686	580.56
327.914	578.56
328.143	590.56
328.372	595.56
328.6	602.56
328.829	603.56
329.058	586.56
329.287	619.56
329.515	607.56
329.744	590.56
329.972	594.56
330.201	608.56
330.43	599.56
330.658	623.56
330.887	617.56
331.115	602.56
331.344	597.56
331.572	632.56
331.801	629.56
332.03	620.56
332.258	675.56
332.486	651.56
332.715	670.56
332.943	671.56
333.172	675.56
333.4	665.56
333.629	679.56
333.857	706.56
334.085	710.56
334.314	694.56
334.542	669.56
334.771	691.56
334.999	703.56
335.227	699.56
335.455	691.56
335.684	691.56
335.912	699.56
336.14	715.56
336.369	699.56
336.597	711.56
336.825	706.56
337.053	702.56
337.281	668.56
337.51	692.56
337.738	667.56
337.966	645.56
338.194	664.56
338.422	681.56
338.65	656.56
338.878	659.56
339.106	639.56
339.334	660.56
339.562	639.56
339.79	628.56
340.018	641.56
340.246	645.56
340.474	634.56
340.702	639.56
340.93	651.56
341.158	647.56
341.386	628.56
341.614	641.56
341.842	620.56
342.07	623.56
342.298	653.56
342.526	632.56
342.754	640.56
342.981	636.56
343.209	636.56
343.437	657.56
343.665	665.56
343.893	700.56
344.12	728.56
344.348	709.56
344.576	717.56
344.804	663.56
345.031	666.56
345.259	656.56
345.487	638.56
345.714	636.56
345.942	629.56
346.17	624.56
346.397	620.56
346.625	605.56
346.853	610.56
347.08	606.56
347.308	635.56
347.535	618.56
347.763	629.56
347.99	603.56
348.218	614.56
348.445	634.56
348.673	591.56
348.9	607.56
349.128	610.56
349.355	596.56
349.583	595.56
349.81	604.56
350.037	612.56
350.265	632.56
350.492	591.56
350.72	609.56
350.947	625.56
351.174	585.56
351.402	617.56
351.629	609.56
351.856	604.56
352.083	567.56
352.311	593.56
352.538	600.56
352.765	595.56
352.992	591.56
353.22	589.56
353.447	601.56
353.674	600.56
353.901	605.56
354.128	590.56
354.355	584.56
354.583	611.56
354.81	597.56
355.037	632.56
355.264	616.56
355.491	589.56
355.718	628.56
355.945	597.56
356.172	627.56
356.399	605.56
356.626	627.56
356.853	611.56
357.08	625.56
357.307	611.56
357.534	615.56
357.761	601.56
357.988	606.56
358.215	627.56
358.441	614.56
358.668	605.56
358.895	619.56
359.122	607.56
359.349	634.56
359.576	601.56
359.802	591.56
360.029	600.56
360.256	595.56
360.483	610.56
360.709	611.56
360.936	635.56
361.163	635.56
361.39	627.56
361.616	595.56
361.843	625.56
362.07	630.56
362.296	609.56
362.523	639.56
362.749	612.56
362.976	626.56
363.203	626.56
363.429	643.56
363.656	627.56
363.882	609.56
364.109	623.56
364.335	614.56
364.562	633.56
364.788	622.56
365.015	649.56
365.241	623.56
365.468	615.56
365.694	629.56
365.92	616.56
366.147	608.56
366.373	641.56
366.599	644.56
366.826	629.56
367.052	618.56
367.278	627.56
367.505	633.56
367.731	634.56
367.957	633.56
368.184	645.56
368.41	643.56
368.636	619.56
368.862	643.56
369.089	635.56
369.315	676.56
369.541	643.56
369.767	662.56
369.993	630.56
370.219	642.56
370.445	657.56
370.672	661.56
370.898	645.56
371.124	675.56
371.35	669.56
371.576	649.56
371.802	677.56
372.028	691.56
372.254	702.56
372.48	678.56
372.706	698.56
372.932	691.56
373.158	701.56
373.384	689.56
373.61	730.56
373.835	704.56
374.061	692.56
374.287	724.56
374.513	707.56
374.739	717.56
374.965	720.56
375.191	725.56
375.416	727.56
375.642	717.56
375.868	726.56
376.094	674.56
376.319	683.56
376.545	700.56
376.771	685.56
376.997	689.56
377.222	703.56
377.448	671.56
377.674	683.56
377.899	683.56
378.125	676.56
378.35	668.56
378.576	659.56
378.802	701.56
379.027	681.56
379.253	672.56
379.478	658.56
379.704	663.56
379.929	696.56
380.155	695.56
380.38	680.56
380.606	679.56
380.831	677.56
381.057	721.56
381.282	697.56
381.507	684.56
381.733	718.56
381.958	696.56
382.184	736.56
382.409	733.56
382.634	735.56
382.86	729.56
383.085	729.56
383.31	748.56
383.535	738.56
383.761	749.56
383.986	736.56
384.211	759.56
384.436	779.56
384.662	773.56
384.887	752.56
385.112	758.56
385.337	787.56
385.562	792.56
385.787	769.56
386.013	782.56
386.238	807.56
386.463	795.56
386.688	779.56
386.913	809.56
387.138	778.56
387.363	812.56
387.588	812.56
387.813	812.56
388.038	810.56
388.263	784.56
388.488	787.56
388.713	823.56
388.938	847.56
389.163	797.56
389.387	804.56
389.612	788.56
389.837	802.56
390.062	816.56
390.287	830.56
390.512	796.56
390.736	796.56
390.961	819.56
391.186	820.56
391.411	833.56
391.636	832.56
391.86	835.56
392.085	871.56
392.31	872.56
392.534	868.56
392.759	863.56
392.984	860.56
393.208	857.56
393.433	859.56
393.658	853.56
393.882	847.56
394.107	848.56
394.331	856.56
394.556	832.56
394.78	854.56
395.005	840.56
395.229	838.56
395.454	845.56
395.678	872.56
395.903	877.56
396.127	852.56
396.352	866.56
396.576	845.56
396.801	881.56
397.025	879.56
397.249	893.56
397.474	876.56
397.698	891.56
397.922	874.56
398.147	918.56
398.371	941.56
398.595	940.56
398.82	972.56
399.044	991.56
399.268	1055.56
399.492	1117.56
399.717	1197.56
399.941	1180.56
400.165	1145.56
400.389	1095.56
400.613	1046.56
400.837	1004.56
401.062	1007.56
401.286	978.56
401.51	1001.56
401.734	975.56
401.958	953.56
402.182	993.56
402.406	956.56
402.63	1011.56
402.854	997.56
403.078	1001.56
403.302	987.56
403.526	1009.56
403.75	1020.56
403.974	1029.56
404.198	1026.56
404.422	1020.56
404.645	1027.56
404.869	1008.56
405.093	1026.56
405.317	1025.56
405.541	1018.56
405.765	1010.56
405.988	1030.56
406.212	1056.56
406.436	1026.56
406.66	1091.56
406.883	1080.56
407.107	1123.56
407.331	1132.56
407.555	1151.56
407.778	1166.56
408.002	1132.56
408.226	1136.56
408.449	1124.56
408.673	1098.56
408.896	1108.56
409.12	1071.56
409.344	1075.56
409.567	1068.56
409.791	1067.56
410.014	1071.56
410.238	1025.56
410.461	1067.56
410.685	1077.56
410.908	1031.56
411.132	1036.56
411.355	997.56
411.578	998.56
411.802	1019.56
412.025	1032.56
412.249	1027.56
412.472	1047.56
412.695	1005.56
412.919	1019.56
413.142	1055.56
413.365	995.56
413.589	1037.56
413.812	1001.56
414.035	978.56
414.258	975.56
414.482	1004.56
414.705	995.56
414.928	994.56
415.151	992.56
415.374	962.56
415.597	976.56
415.821	965.56
416.044	949.56
416.267	973.56
416.49	966.56
416.713	938.56
416.936	967.56
417.159	936.56
417.382	946.56
417.605	945.56
417.828	960.56
418.051	968.56
418.274	964.56
418.497	960.56
418.72	959.56
418.943	969.56
419.166	1019.56
419.389	1089.56
419.611	1023.56
419.834	1008.56
420.057	1027.56
420.28	979.56
420.503	930.56
420.726	940.56
420.948	941.56
421.171	970.56
421.394	941.56
421.617	949.56
421.839	962.56
422.062	934.56
422.285	934.56
422.507	961.56
422.73	959.56
422.953	943.56
423.175	953.56
423.398	938.56
423.621	951.56
423.843	982.56
424.066	971.56
424.288	940.56
424.511	935.56
424.733	967.56
424.956	959.56
425.178	927.56
425.401	937.56
425.623	969.56
425.846	933.56
426.068	923.56
426.291	919.56
426.513	919.56
426.735	925.56
426.958	941.56
427.18	911.56
427.402	927.56
427.625	899.56
427.847	898.56
428.069	904.56
428.292	935.56
428.514	915.56
428.736	895.56
428.958	901.56
429.181	892.56
429.403	910.56
429.625	884.56
429.847	884.56
430.069	898.56
430.292	896.56
430.514	886.56
430.736	888.56
430.958	902.56
431.18	924.56
431.402	879.56
431.624	895.56
431.846	918.56
432.068	898.56
432.29	918.56
432.512	863.56
432.734	906.56
432.956	908.56
433.178	912.56
433.4	887.56
433.622	905.56
433.844	918.56
434.066	911.56
434.287	905.56
434.509	918.56
434.731	951.56
434.953	935.56
435.175	941.56
435.397	964.56
435.618	946.56
435.84	922.56
436.062	907.56
436.284	898.56
436.505	900.56
436.727	888.56
436.949	922.56
437.17	900.56
437.392	894.56
437.614	870.56
437.835	845.56
438.057	879.56
438.278	883.56
438.5	883.56
438.721	901.56
438.943	881.56
439.165	885.56
439.386	893.56
439.608	868.56
439.829	902.56
440.05	891.56
440.272	906.56
440.493	883.56
440.715	903.56
440.936	896.56
441.158	914.56
441.379	917.56
441.6	971.56
441.822	927.56
442.043	947.56
442.264	932.56
442.486	947.56
442.707	972.56
442.928	945.56
443.149	940.56
443.371	916.56
443.592	952.56
443.813	979.56
444.034	953.56
444.255	989.56
444.476	1012.56
444.698	1026.56
444.919	1031.56
445.14	1129.56
445.361	1069.56
445.582	971.56
445.803	968.56
446.024	939.56
446.245	927.56
446.466	933.56
446.687	913.56
446.908	917.56
447.129	876.56
447.35	901.56
447.571	856.56
447.792	845.56
448.013	874.56
448.234	859.56
448.455	829.56
448.675	847.56
448.896	843.56
449.117	835.56
449.338	835.56
449.559	832.56
449.779	819.56
450	833.56
450.221	855.56
450.442	855.56
450.662	834.56
450.883	824.56
451.104	841.56
451.324	811.56
451.545	817.56
451.766	801.56
451.986	831.56
452.207	831.56
452.428	825.56
452.648	832.56
452.869	788.56
453.089	801.56
453.31	804.56
453.53	783.56
453.751	809.56
453.971	779.56
454.192	801.56
454.412	793.56
454.633	796.56
454.853	808.56
455.073	770.56
455.294	763.56
455.514	790.56
455.734	804.56
455.955	805.56
456.175	806.56
456.395	775.56
456.616	788.56
456.836	808.56
457.056	823.56
457.276	778.56
457.497	791.56
457.717	819.56
457.937	808.56
458.157	821.56
458.377	800.56
458.598	826.56
458.818	845.56
459.038	825.56
459.258	844.56
459.478	885.56
459.698	888.56
459.918	909.56
460.138	929.56
460.358	942.56
460.578	967.56
460.798	952.56
461.018	1004.56
461.238	986.56
461.458	986.56
461.678	972.56
461.898	986.56
462.118	1007.56
462.338	1061.56
462.558	1064.56
462.777	1104.56
462.997	1132.56
463.217	1138.56
463.437	1129.56
463.657	1108.56
463.876	1085.56
464.096	1085.56
464.316	1092.56
464.536	1091.56
464.755	1059.56
464.975	1027.56
465.195	1050.56
465.414	971.56
465.634	940.56
465.854	927.56
466.073	921.56
466.293	905.56
466.512	909.56
466.732	901.56
466.951	889.56
467.171	884.56
467.391	895.56
467.61	867.56
467.829	833.56
468.049	849.56
468.268	841.56
468.488	858.56
468.707	849.56
468.927	828.56
469.146	873.56
469.365	872.56
469.585	875.56
469.804	856.56
470.023	889.56
470.243	898.56
470.462	889.56
470.681	877.56
470.901	895.56
471.12	881.56
471.339	879.56
471.558	862.56
471.777	867.56
471.997	851.56
472.216	874.56
472.435	865.56
472.654	858.56
472.873	859.56
473.092	862.56
473.311	861.56
473.53	843.56
473.749	864.56
473.968	845.56
474.187	861.56
474.406	840.56
474.625	842.56
474.844	851.56
475.063	864.56
475.282	864.56
475.501	863.56
475.72	878.56
475.939	873.56
476.158	868.56
476.377	913.56
476.596	941.56
476.814	917.56
477.033	913.56
477.252	895.56
477.471	934.56
477.69	924.56
477.908	951.56
478.127	979.56
478.346	995.56
478.564	1004.56
478.783	984.56
479.002	976.56
479.22	1017.56
479.439	1075.56
479.658	1023.56
479.876	1035.56
480.095	1036.56
480.313	1058.56
480.532	1041.56
480.751	1036.56
480.969	1021.56
481.188	1034.56
481.406	1015.56
481.624	978.56
481.843	993.56
482.061	1004.56
482.28	976.56
482.498	1008.56
482.717	980.56
482.935	995.56
483.153	1001.56
483.372	1000.56
483.59	1002.56
483.808	1004.56
484.027	965.56
484.245	989.56
484.463	1003.56
484.681	1010.56
484.9	1038.56
485.118	1010.56
485.336	1006.56
485.554	1017.56
485.772	1023.56
485.99	1008.56
486.209	996.56
486.427	1025.56
486.645	1015.56
486.863	1031.56
487.081	996.56
487.299	1031.56
487.517	1039.56
487.735	1025.56
487.953	1009.56
488.171	1046.56
488.389	1037.56
488.607	1035.56
488.825	1007.56
489.043	988.56
489.261	1009.56
489.479	1023.56
489.696	1037.56
489.914	1025.56
490.132	1036.56
490.35	1041.56
490.568	1030.56
490.786	1017.56
491.003	1052.56
491.221	1037.56
491.439	1035.56
491.657	1055.56
491.874	1037.56
492.092	1049.56
492.31	1050.56
492.527	1059.56
492.745	1040.56
492.963	1062.56
493.18	1033.56
493.398	1038.56
493.615	1033.56
493.833	1056.56
494.05	1066.56
494.268	1077.56
494.485	1056.56
494.703	1071.56
494.92	1072.56
495.138	1077.56
495.355	1090.56
495.573	1095.56
495.79	1123.56
496.008	1125.56
496.225	1114.56
496.442	1143.56
496.66	1147.56
496.877	1128.56
497.094	1177.56
497.312	1187.56
497.529	1186.56
497.746	1200.56
497.963	1240.56
498.181	1283.56
498.398	1344.56
498.615	1365.56
498.832	1416.56
499.049	1481.56
499.267	1571.56
