Data from Fe(NO3)3@0.05M.TitratingCurve.Agarose3%dH2O.NegLispCup.LampEnergy10.LIBS07252019_HRD10591_16-45-49-333.txt Node
Date: Thu Jul 25 16:45:49 EDT 2019
User: cochatt
Spectrometer: HR+D1059
Trigger mode: 1
Integration Time (sec): 1.000000E-1
Scans to average: 1
Electric dark correction enabled: true
Nonlinearity correction enabled: false
Boxcar width: 0
XAxis mode: Wavelengths
Number of Pixels in Spectrum: 2048
>>>>>Begin Spectral Data<<<<<
223.165	-16.25
223.4	-16.25
223.635	-16.25
223.869	-16.25
224.104	-15.25
224.338	-15.25
224.573	-29.25
224.808	-11.25
225.042	-4.25
225.277	-3.25
225.511	2.75
225.746	-5.25
225.98	4.75
226.215	13.75
226.449	13.75
226.683	24.75
226.918	19.75
227.152	36.75
227.387	38.75
227.621	33.75
227.856	42.75
228.09	31.75
228.324	40.75
228.559	43.75
228.793	83.75
229.027	125.75
229.262	122.75
229.496	121.75
229.73	127.75
229.964	155.75
230.199	168.75
230.433	162.75
230.667	154.75
230.901	165.75
231.136	149.75
231.37	150.75
231.604	183.75
231.838	167.75
232.072	165.75
232.306	178.75
232.541	180.75
232.775	177.75
233.009	177.75
233.243	180.75
233.477	178.75
233.711	203.75
233.945	195.75
234.179	188.75
234.413	205.75
234.647	188.75
234.881	224.75
235.115	213.75
235.349	214.75
235.583	194.75
235.817	213.75
236.051	200.75
236.285	210.75
236.519	208.75
236.753	221.75
236.987	215.75
237.221	220.75
237.455	228.75
237.689	215.75
237.922	223.75
238.156	234.75
238.39	268.75
238.624	277.75
238.858	280.75
239.091	244.75
239.325	260.75
239.559	231.75
239.793	249.75
240.027	288.75
240.26	284.75
240.494	234.75
240.728	295.75
240.961	294.75
241.195	284.75
241.429	283.75
241.662	278.75
241.896	248.75
242.13	258.75
242.363	259.75
242.597	268.75
242.83	277.75
243.064	283.75
243.298	287.75
243.531	290.75
243.765	307.75
243.998	307.75
244.232	282.75
244.465	281.75
244.699	306.75
244.932	313.75
245.166	309.75
245.399	300.75
245.633	299.75
245.866	304.75
246.099	296.75
246.333	314.75
246.566	323.75
246.8	326.75
247.033	320.75
247.266	314.75
247.5	325.75
247.733	324.75
247.966	297.75
248.2	336.75
248.433	344.75
248.666	343.75
248.899	342.75
249.133	355.75
249.366	386.75
249.599	403.75
249.832	399.75
250.066	360.75
250.299	342.75
250.532	356.75
250.765	344.75
250.998	349.75
251.231	371.75
251.465	367.75
251.698	363.75
251.931	367.75
252.164	371.75
252.397	400.75
252.63	416.75
252.863	412.75
253.096	424.75
253.329	415.75
253.562	428.75
253.795	413.75
254.028	431.75
254.261	478.75
254.494	443.75
254.727	389.75
254.96	407.75
255.193	438.75
255.426	399.75
255.659	400.75
255.892	377.75
256.124	411.75
256.357	437.75
256.59	448.75
256.823	443.75
257.056	428.75
257.289	414.75
257.521	440.75
257.754	419.75
257.987	439.75
258.22	430.75
258.452	442.75
258.685	451.75
258.918	471.75
259.151	461.75
259.383	450.75
259.616	467.75
259.849	493.75
260.081	582.75
260.314	642.75
260.547	537.75
260.779	466.75
261.012	504.75
261.244	549.75
261.477	537.75
261.71	531.75
261.942	499.75
262.175	471.75
262.407	474.75
262.64	483.75
262.872	507.75
263.105	539.75
263.337	563.75
263.57	547.75
263.802	474.75
264.035	476.75
264.267	475.75
264.499	444.75
264.732	459.75
264.964	468.75
265.197	446.75
265.429	465.75
265.661	470.75
265.894	467.75
266.126	499.75
266.358	457.75
266.591	497.75
266.823	515.75
267.055	483.75
267.287	493.75
267.52	508.75
267.752	494.75
267.984	503.75
268.216	481.75
268.448	501.75
268.681	496.75
268.913	502.75
269.145	500.75
269.377	491.75
269.609	523.75
269.841	533.75
270.073	509.75
270.306	523.75
270.538	512.75
270.77	511.75
271.002	531.75
271.234	524.75
271.466	545.75
271.698	572.75
271.93	569.75
272.162	561.75
272.394	552.75
272.626	575.75
272.858	556.75
273.09	570.75
273.322	581.75
273.553	569.75
273.785	612.75
274.017	656.75
274.249	743.75
274.481	736.75
274.713	739.75
274.945	815.75
275.176	851.75
275.408	763.75
275.64	732.75
275.872	726.75
276.104	677.75
276.335	614.75
276.567	600.75
276.799	606.75
277.031	617.75
277.262	637.75
277.494	607.75
277.726	590.75
277.957	588.75
278.189	608.75
278.421	602.75
278.652	615.75
278.884	618.75
279.115	614.75
279.347	593.75
279.579	589.75
279.81	601.75
280.042	598.75
280.273	622.75
280.505	620.75
280.736	603.75
280.968	609.75
281.199	602.75
281.431	621.75
281.662	633.75
281.894	618.75
282.125	629.75
282.356	623.75
282.588	641.75
282.819	630.75
283.051	635.75
283.282	616.75
283.513	634.75
283.745	689.75
283.976	662.75
284.207	662.75
284.439	669.75
284.67	660.75
284.901	665.75
285.132	677.75
285.364	657.75
285.595	651.75
285.826	671.75
286.057	697.75
286.288	664.75
286.52	671.75
286.751	666.75
286.982	671.75
287.213	665.75
287.444	668.75
287.675	707.75
287.906	687.75
288.138	675.75
288.369	705.75
288.6	674.75
288.831	673.75
289.062	668.75
289.293	667.75
289.524	670.75
289.755	679.75
289.986	707.75
290.217	696.75
290.448	703.75
290.679	692.75
290.91	700.75
291.141	676.75
291.371	695.75
291.602	703.75
291.833	686.75
292.064	681.75
292.295	683.75
292.526	688.75
292.757	711.75
292.987	693.75
293.218	695.75
293.449	691.75
293.68	684.75
293.91	673.75
294.141	697.75
294.372	700.75
294.603	719.75
294.833	734.75
295.064	756.75
295.295	733.75
295.525	705.75
295.756	733.75
295.987	719.75
296.217	721.75
296.448	721.75
296.679	709.75
296.909	732.75
297.14	737.75
297.37	731.75
297.601	725.75
297.831	724.75
298.062	751.75
298.292	755.75
298.523	768.75
298.753	791.75
298.984	760.75
299.214	758.75
299.445	740.75
299.675	761.75
299.905	777.75
300.136	739.75
300.366	763.75
300.597	771.75
300.827	800.75
301.057	787.75
301.288	771.75
301.518	793.75
301.748	800.75
301.979	829.75
302.209	838.75
302.439	840.75
302.669	800.75
302.9	791.75
303.13	774.75
303.36	793.75
303.59	773.75
303.82	801.75
304.051	800.75
304.281	806.75
304.511	785.75
304.741	793.75
304.971	797.75
305.201	771.75
305.431	762.75
305.661	791.75
305.891	795.75
306.121	803.75
306.352	796.75
306.582	796.75
306.812	799.75
307.042	812.75
307.272	796.75
307.502	816.75
307.731	771.75
307.961	801.75
308.191	795.75
308.421	779.75
308.651	823.75
308.881	802.75
309.111	791.75
309.341	803.75
309.571	801.75
309.8	810.75
310.03	820.75
310.26	789.75
310.49	822.75
310.72	817.75
310.949	821.75
311.179	833.75
311.409	829.75
311.639	831.75
311.868	841.75
312.098	832.75
312.328	835.75
312.557	821.75
312.787	849.75
313.017	830.75
313.246	843.75
313.476	820.75
313.706	875.75
313.935	875.75
314.165	884.75
314.394	857.75
314.624	842.75
314.853	864.75
315.083	858.75
315.312	872.75
315.542	863.75
315.771	889.75
316.001	875.75
316.23	839.75
316.46	872.75
316.689	896.75
316.919	885.75
317.148	907.75
317.377	880.75
317.607	863.75
317.836	871.75
318.065	864.75
318.295	851.75
318.524	884.75
318.753	884.75
318.983	888.75
319.212	868.75
319.441	880.75
319.67	881.75
319.9	881.75
320.129	885.75
320.358	886.75
320.587	886.75
320.816	906.75
321.046	912.75
321.275	904.75
321.504	918.75
321.733	899.75
321.962	927.75
322.191	914.75
322.42	915.75
322.649	935.75
322.878	933.75
323.108	905.75
323.337	925.75
323.566	932.75
323.795	896.75
324.024	915.75
324.253	932.75
324.482	928.75
324.71	923.75
324.939	942.75
325.168	923.75
325.397	934.75
325.626	939.75
325.855	950.75
326.084	956.75
326.313	967.75
326.542	966.75
326.77	952.75
326.999	945.75
327.228	898.75
327.457	936.75
327.686	966.75
327.914	955.75
328.143	966.75
328.372	943.75
328.6	956.75
328.829	959.75
329.058	954.75
329.287	966.75
329.515	981.75
329.744	950.75
329.972	949.75
330.201	986.75
330.43	984.75
330.658	989.75
330.887	976.75
331.115	966.75
331.344	1027.75
331.572	999.75
331.801	1024.75
332.03	1007.75
332.258	1028.75
332.486	1041.75
332.715	1035.75
332.943	1060.75
333.172	1075.75
333.4	1071.75
333.629	1091.75
333.857	1108.75
334.085	1089.75
334.314	1126.75
334.542	1103.75
334.771	1102.75
334.999	1124.75
335.227	1141.75
335.455	1099.75
335.684	1112.75
335.912	1129.75
336.14	1140.75
336.369	1129.75
336.597	1108.75
336.825	1097.75
337.053	1100.75
337.281	1076.75
337.51	1096.75
337.738	1063.75
337.966	1055.75
338.194	1067.75
338.422	1048.75
338.65	1039.75
338.878	1071.75
339.106	1051.75
339.334	1051.75
339.562	1059.75
339.79	1044.75
340.018	1027.75
340.246	1050.75
340.474	1040.75
340.702	1012.75
340.93	1029.75
341.158	1047.75
341.386	1028.75
341.614	1027.75
341.842	1021.75
342.07	1026.75
342.298	1055.75
342.526	1042.75
342.754	1021.75
342.981	1051.75
343.209	1029.75
343.437	1036.75
343.665	1071.75
343.893	1129.75
344.12	1134.75
344.348	1106.75
344.576	1117.75
344.804	1090.75
345.031	1038.75
345.259	1063.75
345.487	1025.75
345.714	1009.75
345.942	1000.75
346.17	1021.75
346.397	1016.75
346.625	989.75
346.853	995.75
347.08	982.75
347.308	1003.75
347.535	1024.75
347.763	992.75
347.99	986.75
348.218	1001.75
348.445	987.75
348.673	987.75
348.9	981.75
349.128	992.75
349.355	1014.75
349.583	982.75
349.81	963.75
350.037	948.75
350.265	992.75
350.492	971.75
350.72	961.75
350.947	956.75
351.174	981.75
351.402	987.75
351.629	947.75
351.856	988.75
352.083	971.75
352.311	963.75
352.538	972.75
352.765	971.75
352.992	973.75
353.22	1004.75
353.447	952.75
353.674	981.75
353.901	954.75
354.128	988.75
354.355	967.75
354.583	969.75
354.81	988.75
355.037	955.75
355.264	970.75
355.491	987.75
355.718	977.75
355.945	985.75
356.172	1001.75
356.399	961.75
356.626	1010.75
356.853	989.75
357.08	1006.75
357.307	1035.75
357.534	983.75
357.761	987.75
357.988	995.75
358.215	1033.75
358.441	1043.75
358.668	1021.75
358.895	1003.75
359.122	1008.75
359.349	982.75
359.576	1003.75
359.802	968.75
360.029	1008.75
360.256	978.75
360.483	1003.75
360.709	989.75
360.936	1025.75
361.163	985.75
361.39	990.75
361.616	1016.75
361.843	987.75
362.07	1012.75
362.296	990.75
362.523	986.75
362.749	1002.75
362.976	1010.75
363.203	1015.75
363.429	990.75
363.656	997.75
363.882	980.75
364.109	963.75
364.335	1015.75
364.562	1045.75
364.788	1025.75
365.015	1008.75
365.241	1004.75
365.468	1017.75
365.694	1004.75
365.92	1023.75
366.147	1009.75
366.373	1002.75
366.599	1027.75
366.826	999.75
367.052	1015.75
367.278	1010.75
367.505	1009.75
367.731	1018.75
367.957	1015.75
368.184	1058.75
368.41	1026.75
368.636	1030.75
368.862	1061.75
369.089	1053.75
369.315	1038.75
369.541	1023.75
369.767	1037.75
369.993	1072.75
370.219	1057.75
370.445	1021.75
370.672	1079.75
370.898	1078.75
371.124	1080.75
371.35	1081.75
371.576	1071.75
371.802	1092.75
372.028	1113.75
372.254	1127.75
372.48	1130.75
372.706	1106.75
372.932	1129.75
373.158	1120.75
373.384	1144.75
373.61	1212.75
373.835	1243.75
374.061	1135.75
374.287	1140.75
374.513	1153.75
374.739	1207.75
374.965	1210.75
375.191	1233.75
375.416	1173.75
375.642	1135.75
375.868	1148.75
376.094	1170.75
376.319	1117.75
376.545	1149.75
376.771	1129.75
376.997	1116.75
377.222	1096.75
377.448	1075.75
377.674	1107.75
377.899	1088.75
378.125	1095.75
378.35	1080.75
378.576	1081.75
378.802	1106.75
379.027	1122.75
379.253	1097.75
379.478	1068.75
379.704	1091.75
379.929	1084.75
380.155	1119.75
380.38	1113.75
380.606	1089.75
380.831	1119.75
381.057	1093.75
381.282	1095.75
381.507	1145.75
381.733	1109.75
381.958	1166.75
382.184	1210.75
382.409	1215.75
382.634	1213.75
382.86	1201.75
383.085	1194.75
383.31	1172.75
383.535	1204.75
383.761	1196.75
383.986	1169.75
384.211	1193.75
384.436	1228.75
384.662	1239.75
384.887	1213.75
385.112	1206.75
385.337	1231.75
385.562	1254.75
385.787	1279.75
386.013	1322.75
386.238	1307.75
386.463	1267.75
386.688	1299.75
386.913	1252.75
387.138	1231.75
387.363	1272.75
387.588	1263.75
387.813	1280.75
388.038	1317.75
388.263	1276.75
388.488	1330.75
388.713	1303.75
388.938	1299.75
389.163	1317.75
389.387	1308.75
389.612	1309.75
389.837	1311.75
390.062	1275.75
390.287	1307.75
390.512	1318.75
390.736	1306.75
390.961	1357.75
391.186	1320.75
391.411	1347.75
391.636	1339.75
391.86	1351.75
392.085	1360.75
392.31	1375.75
392.534	1372.75
392.759	1377.75
392.984	1375.75
393.208	1373.75
393.433	1356.75
393.658	1348.75
393.882	1367.75
394.107	1332.75
394.331	1345.75
394.556	1342.75
394.78	1361.75
395.005	1370.75
395.229	1343.75
395.454	1373.75
395.678	1389.75
395.903	1396.75
396.127	1435.75
396.352	1431.75
396.576	1355.75
396.801	1388.75
397.025	1413.75
397.249	1447.75
397.474	1424.75
397.698	1437.75
397.922	1465.75
398.147	1451.75
398.371	1505.75
398.595	1504.75
398.82	1588.75
399.044	1611.75
399.268	1703.75
399.492	1727.75
399.717	1798.75
399.941	1803.75
400.165	1780.75
400.389	1719.75
400.613	1690.75
400.837	1623.75
401.062	1601.75
401.286	1579.75
401.51	1591.75
401.734	1519.75
401.958	1568.75
402.182	1594.75
402.406	1555.75
402.63	1589.75
402.854	1562.75
403.078	1560.75
403.302	1544.75
403.526	1550.75
403.75	1583.75
403.974	1600.75
404.198	1560.75
404.422	1609.75
404.645	1624.75
404.869	1655.75
405.093	1644.75
405.317	1619.75
405.541	1648.75
405.765	1631.75
405.988	1626.75
406.212	1660.75
406.436	1683.75
406.66	1731.75
406.883	1704.75
407.107	1745.75
407.331	1805.75
407.555	1811.75
407.778	1819.75
408.002	1758.75
408.226	1753.75
408.449	1779.75
408.673	1742.75
408.896	1749.75
409.12	1723.75
409.344	1711.75
409.567	1682.75
409.791	1705.75
410.014	1694.75
410.238	1662.75
410.461	1693.75
410.685	1663.75
410.908	1685.75
411.132	1616.75
411.355	1619.75
411.578	1651.75
411.802	1625.75
412.025	1638.75
412.249	1655.75
412.472	1652.75
412.695	1650.75
412.919	1573.75
413.142	1574.75
413.365	1577.75
413.589	1602.75
413.812	1591.75
414.035	1620.75
414.258	1560.75
414.482	1583.75
414.705	1595.75
414.928	1585.75
415.151	1591.75
415.374	1586.75
415.597	1552.75
415.821	1548.75
416.044	1537.75
416.267	1532.75
416.49	1512.75
416.713	1539.75
416.936	1526.75
417.159	1507.75
417.382	1513.75
417.605	1517.75
417.828	1513.75
418.051	1538.75
418.274	1514.75
418.497	1521.75
418.72	1507.75
418.943	1492.75
419.166	1610.75
419.389	1683.75
419.611	1653.75
419.834	1611.75
420.057	1563.75
420.28	1563.75
420.503	1539.75
420.726	1482.75
420.948	1492.75
421.171	1500.75
421.394	1485.75
421.617	1460.75
421.839	1509.75
422.062	1515.75
422.285	1457.75
422.507	1491.75
422.73	1493.75
422.953	1484.75
423.175	1522.75
423.398	1504.75
423.621	1483.75
423.843	1539.75
424.066	1500.75
424.288	1542.75
424.511	1511.75
424.733	1487.75
424.956	1498.75
425.178	1497.75
425.401	1540.75
425.623	1485.75
425.846	1459.75
426.068	1492.75
426.291	1479.75
426.513	1498.75
426.735	1447.75
426.958	1483.75
427.18	1489.75
427.402	1485.75
427.625	1471.75
427.847	1406.75
428.069	1430.75
428.292	1433.75
428.514	1417.75
428.736	1453.75
428.958	1475.75
429.181	1445.75
429.403	1434.75
429.625	1425.75
429.847	1438.75
430.069	1427.75
430.292	1400.75
430.514	1410.75
430.736	1463.75
430.958	1496.75
431.18	1434.75
431.402	1389.75
431.624	1395.75
431.846	1415.75
432.068	1419.75
432.29	1442.75
432.512	1448.75
432.734	1503.75
432.956	1434.75
433.178	1435.75
433.4	1418.75
433.622	1435.75
433.844	1472.75
434.066	1477.75
434.287	1449.75
434.509	1481.75
434.731	1516.75
434.953	1499.75
435.175	1519.75
435.397	1506.75
435.618	1455.75
435.84	1475.75
436.062	1480.75
436.284	1462.75
436.505	1458.75
436.727	1435.75
436.949	1415.75
437.17	1417.75
437.392	1465.75
437.614	1427.75
437.835	1394.75
438.057	1393.75
438.278	1408.75
438.5	1462.75
438.721	1448.75
438.943	1422.75
439.165	1417.75
439.386	1360.75
439.608	1395.75
439.829	1409.75
440.05	1402.75
440.272	1434.75
440.493	1440.75
440.715	1481.75
440.936	1489.75
441.158	1468.75
441.379	1451.75
441.6	1515.75
441.822	1524.75
442.043	1493.75
442.264	1499.75
442.486	1493.75
442.707	1500.75
442.928	1500.75
443.149	1497.75
443.371	1507.75
443.592	1517.75
443.813	1463.75
444.034	1518.75
444.255	1534.75
444.476	1528.75
444.698	1567.75
444.919	1588.75
445.14	1661.75
445.361	1605.75
445.582	1555.75
445.803	1509.75
446.024	1474.75
446.245	1463.75
446.466	1531.75
446.687	1413.75
446.908	1442.75
447.129	1401.75
447.35	1367.75
447.571	1403.75
447.792	1355.75
448.013	1382.75
448.234	1353.75
448.455	1349.75
448.675	1335.75
448.896	1320.75
449.117	1326.75
449.338	1334.75
449.559	1299.75
449.779	1305.75
450	1310.75
450.221	1356.75
450.442	1350.75
450.662	1288.75
450.883	1309.75
451.104	1300.75
451.324	1346.75
451.545	1302.75
451.766	1330.75
451.986	1322.75
452.207	1309.75
452.428	1293.75
452.648	1307.75
452.869	1301.75
453.089	1258.75
453.31	1293.75
453.53	1264.75
453.751	1268.75
453.971	1257.75
454.192	1283.75
454.412	1225.75
454.633	1271.75
454.853	1234.75
455.073	1254.75
455.294	1266.75
455.514	1269.75
455.734	1258.75
455.955	1251.75
456.175	1235.75
456.395	1285.75
456.616	1264.75
456.836	1292.75
457.056	1265.75
457.276	1215.75
457.497	1304.75
457.717	1268.75
457.937	1291.75
458.157	1313.75
458.377	1335.75
458.598	1340.75
458.818	1313.75
459.038	1384.75
459.258	1361.75
459.478	1401.75
459.698	1414.75
459.918	1466.75
460.138	1466.75
460.358	1517.75
460.578	1525.75
460.798	1540.75
461.018	1552.75
461.238	1579.75
461.458	1552.75
461.678	1574.75
461.898	1604.75
462.118	1607.75
462.338	1647.75
462.558	1636.75
462.777	1697.75
462.997	1715.75
463.217	1751.75
463.437	1751.75
463.657	1733.75
463.876	1743.75
464.096	1688.75
464.316	1675.75
464.536	1679.75
464.755	1685.75
464.975	1638.75
465.195	1599.75
465.414	1573.75
465.634	1515.75
465.854	1489.75
466.073	1482.75
466.293	1443.75
466.512	1424.75
466.732	1436.75
466.951	1465.75
467.171	1427.75
467.391	1415.75
467.61	1404.75
467.829	1376.75
468.049	1385.75
468.268	1360.75
468.488	1351.75
468.707	1382.75
468.927	1412.75
469.146	1411.75
469.365	1387.75
469.585	1376.75
469.804	1418.75
470.023	1445.75
470.243	1375.75
470.462	1421.75
470.681	1444.75
470.901	1417.75
471.12	1402.75
471.339	1405.75
471.558	1407.75
471.777	1407.75
471.997	1387.75
472.216	1415.75
472.435	1425.75
472.654	1373.75
472.873	1393.75
473.092	1388.75
473.311	1412.75
473.53	1373.75
473.749	1383.75
473.968	1393.75
474.187	1372.75
474.406	1386.75
474.625	1410.75
474.844	1407.75
475.063	1435.75
475.282	1465.75
475.501	1439.75
475.72	1437.75
475.939	1446.75
476.158	1485.75
476.377	1486.75
476.596	1576.75
476.814	1618.75
477.033	1520.75
477.252	1509.75
477.471	1542.75
477.69	1553.75
477.908	1600.75
478.127	1581.75
478.346	1600.75
478.564	1562.75
478.783	1608.75
479.002	1654.75
479.22	1687.75
479.439	1731.75
479.658	1686.75
479.876	1669.75
480.095	1689.75
480.313	1713.75
480.532	1667.75
480.751	1695.75
480.969	1688.75
481.188	1714.75
481.406	1731.75
481.624	1704.75
481.843	1684.75
482.061	1652.75
482.28	1670.75
482.498	1727.75
482.717	1661.75
482.935	1673.75
483.153	1649.75
483.372	1624.75
483.59	1654.75
483.808	1671.75
484.027	1683.75
484.245	1679.75
484.463	1661.75
484.681	1687.75
484.9	1655.75
485.118	1720.75
485.336	1695.75
485.554	1667.75
485.772	1708.75
485.99	1667.75
486.209	1700.75
486.427	1727.75
486.645	1728.75
486.863	1734.75
487.081	1743.75
487.299	1719.75
487.517	1733.75
487.735	1730.75
487.953	1716.75
488.171	1737.75
488.389	1731.75
488.607	1690.75
488.825	1719.75
489.043	1669.75
489.261	1704.75
489.479	1717.75
489.696	1715.75
489.914	1676.75
490.132	1693.75
490.35	1707.75
490.568	1706.75
490.786	1706.75
491.003	1717.75
491.221	1704.75
491.439	1714.75
491.657	1736.75
491.874	1787.75
492.092	1759.75
492.31	1795.75
492.527	1801.75
