Data from Fe(NO3)3@0.025M.TitratingCurve.Agarose3%dH2O.NegLispCup.LampEnergy10.LIBS07252019_HRD10591_16-53-42-335.txt Node
Date: Thu Jul 25 16:53:42 EDT 2019
User: cochatt
Spectrometer: HR+D1059
Trigger mode: 1
Integration Time (sec): 1.000000E-1
Scans to average: 1
Electric dark correction enabled: true
Nonlinearity correction enabled: false
Boxcar width: 0
XAxis mode: Wavelengths
Number of Pixels in Spectrum: 2048
>>>>>Begin Spectral Data<<<<<
223.165	-2.25
223.4	-2.25
223.635	-2.25
223.869	-5.25
224.104	-8.25
224.338	-17.25
224.573	-8.25
224.808	-25.25
225.042	1.75
225.277	-0.25
225.511	-8.25
225.746	9.75
225.98	-6.25
226.215	3.75
226.449	3.75
226.683	25.75
226.918	10.75
227.152	25.75
227.387	14.75
227.621	41.75
227.856	43.75
228.09	41.75
228.324	38.75
228.559	40.75
228.793	57.75
229.027	86.75
229.262	97.75
229.496	109.75
229.73	103.75
229.964	103.75
230.199	95.75
230.433	114.75
230.667	111.75
230.901	123.75
231.136	122.75
231.37	124.75
231.604	116.75
231.838	110.75
232.072	128.75
232.306	122.75
232.541	115.75
232.775	116.75
233.009	138.75
233.243	143.75
233.477	127.75
233.711	137.75
233.945	117.75
234.179	133.75
234.413	134.75
234.647	139.75
234.881	131.75
235.115	123.75
235.349	146.75
235.583	145.75
235.817	128.75
236.051	128.75
236.285	135.75
236.519	139.75
236.753	146.75
236.987	147.75
237.221	130.75
237.455	143.75
237.689	138.75
237.922	132.75
238.156	129.75
238.39	156.75
238.624	165.75
238.858	165.75
239.091	129.75
239.325	147.75
239.559	153.75
239.793	163.75
240.027	170.75
240.26	147.75
240.494	155.75
240.728	160.75
240.961	154.75
241.195	148.75
241.429	153.75
241.662	152.75
241.896	162.75
242.13	180.75
242.363	167.75
242.597	178.75
242.83	159.75
243.064	161.75
243.298	156.75
243.531	196.75
243.765	150.75
243.998	169.75
244.232	178.75
244.465	185.75
244.699	170.75
244.932	177.75
245.166	178.75
245.399	186.75
245.633	184.75
245.866	185.75
246.099	189.75
246.333	191.75
246.566	182.75
246.8	195.75
247.033	193.75
247.266	179.75
247.5	183.75
247.733	203.75
247.966	199.75
248.2	186.75
248.433	199.75
248.666	204.75
248.899	216.75
249.133	186.75
249.366	210.75
249.599	202.75
249.832	216.75
250.066	205.75
250.299	208.75
250.532	202.75
250.765	207.75
250.998	199.75
251.231	215.75
251.465	207.75
251.698	209.75
251.931	225.75
252.164	222.75
252.397	217.75
252.63	225.75
252.863	218.75
253.096	222.75
253.329	215.75
253.562	241.75
253.795	246.75
254.028	239.75
254.261	247.75
254.494	246.75
254.727	248.75
254.96	245.75
255.193	236.75
255.426	256.75
255.659	229.75
255.892	245.75
256.124	255.75
256.357	258.75
256.59	243.75
256.823	247.75
257.056	245.75
257.289	246.75
257.521	242.75
257.754	257.75
257.987	245.75
258.22	263.75
258.452	265.75
258.685	273.75
258.918	261.75
259.151	274.75
259.383	257.75
259.616	260.75
259.849	281.75
260.081	277.75
260.314	288.75
260.547	284.75
260.779	277.75
261.012	289.75
261.244	284.75
261.477	282.75
261.71	285.75
261.942	296.75
262.175	291.75
262.407	290.75
262.64	269.75
262.872	282.75
263.105	298.75
263.337	295.75
263.57	297.75
263.802	288.75
264.035	282.75
264.267	291.75
264.499	281.75
264.732	271.75
264.964	279.75
265.197	298.75
265.429	293.75
265.661	293.75
265.894	301.75
266.126	302.75
266.358	294.75
266.591	294.75
266.823	308.75
267.055	303.75
267.287	302.75
267.52	296.75
267.752	313.75
267.984	302.75
268.216	301.75
268.448	309.75
268.681	310.75
268.913	315.75
269.145	325.75
269.377	301.75
269.609	313.75
269.841	319.75
270.073	322.75
270.306	331.75
270.538	317.75
270.77	318.75
271.002	336.75
271.234	317.75
271.466	326.75
271.698	323.75
271.93	341.75
272.162	314.75
272.394	325.75
272.626	326.75
272.858	337.75
273.09	351.75
273.322	367.75
273.553	350.75
273.785	351.75
274.017	383.75
274.249	369.75
274.481	379.75
274.713	371.75
274.945	392.75
275.176	377.75
275.408	380.75
275.64	371.75
275.872	379.75
276.104	380.75
276.335	345.75
276.567	365.75
276.799	370.75
277.031	362.75
277.262	376.75
277.494	354.75
277.726	360.75
277.957	370.75
278.189	358.75
278.421	371.75
278.652	379.75
278.884	374.75
279.115	376.75
279.347	382.75
279.579	383.75
279.81	396.75
280.042	385.75
280.273	401.75
280.505	400.75
280.736	415.75
280.968	385.75
281.199	383.75
281.431	389.75
281.662	420.75
281.894	400.75
282.125	356.75
282.356	411.75
282.588	405.75
282.819	391.75
283.051	383.75
283.282	396.75
283.513	410.75
283.745	402.75
283.976	405.75
284.207	423.75
284.439	402.75
284.67	416.75
284.901	415.75
285.132	409.75
285.364	416.75
285.595	438.75
285.826	418.75
286.057	429.75
286.288	413.75
286.52	438.75
286.751	431.75
286.982	440.75
287.213	431.75
287.444	417.75
287.675	427.75
287.906	431.75
288.138	437.75
288.369	429.75
288.6	461.75
288.831	440.75
289.062	439.75
289.293	441.75
289.524	451.75
289.755	435.75
289.986	441.75
290.217	454.75
290.448	439.75
290.679	451.75
290.91	448.75
291.141	442.75
291.371	453.75
291.602	432.75
291.833	444.75
292.064	465.75
292.295	438.75
292.526	459.75
292.757	431.75
292.987	471.75
293.218	436.75
293.449	453.75
293.68	472.75
293.91	477.75
294.141	453.75
294.372	463.75
294.603	474.75
294.833	466.75
295.064	477.75
295.295	473.75
295.525	455.75
295.756	458.75
295.987	469.75
296.217	460.75
296.448	462.75
296.679	468.75
296.909	471.75
297.14	465.75
297.37	460.75
297.601	506.75
297.831	477.75
298.062	465.75
298.292	483.75
298.523	471.75
298.753	480.75
298.984	480.75
299.214	489.75
299.445	511.75
299.675	472.75
299.905	484.75
300.136	486.75
300.366	506.75
300.597	486.75
300.827	482.75
301.057	473.75
301.288	498.75
301.518	481.75
301.748	511.75
301.979	537.75
302.209	510.75
302.439	491.75
302.669	509.75
302.9	517.75
303.13	537.75
303.36	531.75
303.59	516.75
303.82	505.75
304.051	517.75
304.281	532.75
304.511	533.75
304.741	534.75
304.971	542.75
305.201	511.75
305.431	521.75
305.661	532.75
305.891	535.75
306.121	530.75
306.352	536.75
306.582	514.75
306.812	516.75
307.042	535.75
307.272	529.75
307.502	531.75
307.731	546.75
307.961	533.75
308.191	537.75
308.421	516.75
308.651	529.75
308.881	513.75
309.111	536.75
309.341	527.75
309.571	544.75
309.8	541.75
310.03	555.75
310.26	562.75
310.49	548.75
310.72	554.75
310.949	552.75
311.179	549.75
311.409	538.75
311.639	568.75
311.868	560.75
312.098	566.75
312.328	549.75
312.557	558.75
312.787	548.75
313.017	560.75
313.246	561.75
313.476	587.75
313.706	585.75
313.935	577.75
314.165	583.75
314.394	599.75
314.624	592.75
314.853	590.75
315.083	575.75
315.312	585.75
315.542	598.75
315.771	570.75
316.001	588.75
316.23	595.75
316.46	601.75
316.689	591.75
316.919	573.75
317.148	606.75
317.377	574.75
317.607	587.75
317.836	605.75
318.065	603.75
318.295	608.75
318.524	588.75
318.753	601.75
318.983	584.75
319.212	596.75
319.441	603.75
319.67	604.75
319.9	585.75
320.129	607.75
320.358	602.75
320.587	624.75
320.816	604.75
321.046	610.75
321.275	583.75
321.504	610.75
321.733	606.75
321.962	611.75
322.191	618.75
322.42	633.75
322.649	610.75
322.878	618.75
323.108	614.75
323.337	637.75
323.566	627.75
323.795	610.75
324.024	633.75
324.253	641.75
324.482	635.75
324.71	624.75
324.939	620.75
325.168	621.75
325.397	635.75
325.626	650.75
325.855	642.75
326.084	635.75
326.313	625.75
326.542	641.75
326.77	643.75
326.999	649.75
327.228	621.75
327.457	662.75
327.686	647.75
327.914	632.75
328.143	652.75
328.372	663.75
328.6	657.75
328.829	649.75
329.058	661.75
329.287	664.75
329.515	655.75
329.744	649.75
329.972	669.75
330.201	666.75
330.43	662.75
330.658	665.75
330.887	647.75
331.115	679.75
331.344	673.75
331.572	669.75
331.801	683.75
332.03	653.75
332.258	690.75
332.486	667.75
332.715	687.75
332.943	688.75
333.172	663.75
333.4	689.75
333.629	685.75
333.857	701.75
334.085	690.75
334.314	711.75
334.542	720.75
334.771	736.75
334.999	745.75
335.227	714.75
335.455	746.75
335.684	719.75
335.912	717.75
336.14	704.75
336.369	735.75
336.597	730.75
336.825	743.75
337.053	740.75
337.281	752.75
337.51	727.75
337.738	731.75
337.966	722.75
338.194	723.75
338.422	703.75
338.65	709.75
338.878	725.75
339.106	697.75
339.334	713.75
339.562	707.75
339.79	727.75
340.018	709.75
340.246	711.75
340.474	707.75
340.702	696.75
340.93	664.75
341.158	693.75
341.386	679.75
341.614	725.75
341.842	699.75
342.07	691.75
342.298	689.75
342.526	705.75
342.754	677.75
342.981	673.75
343.209	687.75
343.437	705.75
343.665	687.75
343.893	725.75
344.12	732.75
344.348	721.75
344.576	702.75
344.804	731.75
345.031	708.75
345.259	698.75
345.487	706.75
345.714	706.75
345.942	709.75
346.17	697.75
346.397	697.75
346.625	686.75
346.853	691.75
347.08	704.75
347.308	691.75
347.535	688.75
347.763	689.75
347.99	687.75
348.218	683.75
348.445	678.75
348.673	681.75
348.9	680.75
349.128	681.75
349.355	673.75
349.583	674.75
349.81	696.75
350.037	654.75
350.265	671.75
350.492	689.75
350.72	674.75
350.947	661.75
351.174	669.75
351.402	653.75
351.629	681.75
351.856	674.75
352.083	681.75
352.311	676.75
352.538	671.75
352.765	671.75
352.992	660.75
353.22	678.75
353.447	653.75
353.674	662.75
353.901	663.75
354.128	689.75
354.355	645.75
354.583	673.75
354.81	661.75
355.037	658.75
355.264	677.75
355.491	671.75
355.718	679.75
355.945	662.75
356.172	674.75
356.399	680.75
356.626	685.75
356.853	661.75
357.08	670.75
357.307	704.75
357.534	664.75
357.761	655.75
357.988	680.75
358.215	697.75
358.441	689.75
358.668	685.75
358.895	661.75
359.122	698.75
359.349	685.75
359.576	669.75
359.802	679.75
360.029	661.75
360.256	685.75
360.483	681.75
360.709	678.75
360.936	689.75
361.163	679.75
361.39	669.75
361.616	675.75
361.843	677.75
362.07	690.75
362.296	699.75
362.523	684.75
362.749	683.75
362.976	671.75
363.203	686.75
363.429	679.75
363.656	694.75
363.882	691.75
364.109	691.75
364.335	702.75
364.562	701.75
364.788	696.75
365.015	687.75
365.241	685.75
365.468	695.75
365.694	710.75
365.92	671.75
366.147	698.75
366.373	703.75
366.599	670.75
366.826	727.75
367.052	696.75
367.278	692.75
367.505	719.75
367.731	718.75
367.957	719.75
368.184	722.75
368.41	693.75
368.636	699.75
368.862	715.75
369.089	722.75
369.315	712.75
369.541	700.75
369.767	712.75
369.993	711.75
370.219	710.75
370.445	721.75
370.672	723.75
370.898	721.75
371.124	726.75
371.35	737.75
371.576	725.75
371.802	744.75
372.028	741.75
372.254	741.75
372.48	749.75
372.706	727.75
372.932	760.75
373.158	747.75
373.384	756.75
373.61	740.75
373.835	726.75
374.061	713.75
374.287	745.75
374.513	731.75
374.739	737.75
374.965	776.75
375.191	744.75
375.416	725.75
375.642	725.75
375.868	743.75
376.094	745.75
376.319	743.75
376.545	746.75
376.771	751.75
376.997	723.75
377.222	718.75
377.448	723.75
377.674	743.75
377.899	739.75
378.125	718.75
378.35	733.75
378.576	711.75
378.802	714.75
379.027	731.75
379.253	711.75
379.478	735.75
379.704	714.75
379.929	710.75
380.155	736.75
380.38	716.75
380.606	735.75
380.831	750.75
381.057	735.75
381.282	725.75
381.507	746.75
381.733	750.75
381.958	738.75
382.184	767.75
382.409	744.75
382.634	753.75
382.86	751.75
383.085	766.75
383.31	762.75
383.535	766.75
383.761	767.75
383.986	778.75
384.211	774.75
384.436	806.75
384.662	780.75
384.887	792.75
385.112	778.75
385.337	789.75
385.562	801.75
385.787	818.75
386.013	827.75
386.238	797.75
386.463	792.75
386.688	815.75
386.913	815.75
387.138	817.75
387.363	823.75
387.588	818.75
387.813	815.75
388.038	829.75
388.263	829.75
388.488	832.75
388.713	787.75
388.938	833.75
389.163	818.75
389.387	836.75
389.612	833.75
389.837	835.75
390.062	843.75
390.287	825.75
390.512	818.75
390.736	853.75
390.961	833.75
391.186	822.75
391.411	854.75
391.636	824.75
391.86	860.75
392.085	853.75
392.31	868.75
392.534	862.75
392.759	878.75
392.984	853.75
393.208	859.75
393.433	870.75
393.658	883.75
393.882	877.75
394.107	854.75
394.331	874.75
394.556	855.75
394.78	855.75
395.005	878.75
395.229	857.75
395.454	889.75
395.678	898.75
395.903	861.75
396.127	883.75
396.352	878.75
396.576	878.75
396.801	889.75
397.025	905.75
397.249	906.75
397.474	893.75
397.698	871.75
397.922	929.75
398.147	879.75
398.371	910.75
398.595	946.75
398.82	937.75
399.044	935.75
399.268	964.75
399.492	969.75
399.717	1021.75
399.941	1002.75
400.165	998.75
400.389	977.75
400.613	947.75
400.837	1005.75
401.062	963.75
401.286	968.75
401.51	964.75
401.734	953.75
401.958	939.75
402.182	971.75
402.406	919.75
402.63	949.75
402.854	928.75
403.078	946.75
403.302	919.75
403.526	954.75
403.75	958.75
403.974	958.75
404.198	938.75
404.422	964.75
404.645	924.75
404.869	960.75
405.093	938.75
405.317	935.75
405.541	925.75
405.765	969.75
405.988	946.75
406.212	968.75
406.436	976.75
406.66	1002.75
406.883	973.75
407.107	984.75
407.331	993.75
407.555	1010.75
407.778	1022.75
408.002	1005.75
408.226	1037.75
408.449	1032.75
408.673	1018.75
408.896	1003.75
409.12	995.75
409.344	1032.75
409.567	937.75
409.791	980.75
410.014	961.75
410.238	970.75
410.461	985.75
410.685	988.75
410.908	974.75
411.132	957.75
411.355	943.75
411.578	932.75
411.802	959.75
412.025	949.75
412.249	985.75
412.472	952.75
412.695	929.75
412.919	937.75
413.142	941.75
413.365	946.75
413.589	911.75
413.812	943.75
414.035	931.75
414.258	923.75
414.482	929.75
414.705	930.75
414.928	963.75
415.151	962.75
415.374	937.75
415.597	914.75
415.821	900.75
416.044	904.75
416.267	897.75
416.49	915.75
416.713	906.75
416.936	881.75
417.159	893.75
417.382	890.75
417.605	879.75
417.828	879.75
418.051	893.75
418.274	890.75
418.497	882.75
418.72	867.75
418.943	869.75
419.166	926.75
419.389	969.75
419.611	925.75
419.834	929.75
420.057	913.75
420.28	911.75
420.503	882.75
420.726	869.75
420.948	861.75
421.171	854.75
421.394	863.75
421.617	882.75
421.839	863.75
422.062	887.75
422.285	845.75
422.507	875.75
422.73	849.75
422.953	837.75
423.175	878.75
423.398	887.75
423.621	842.75
423.843	874.75
424.066	847.75
424.288	876.75
424.511	851.75
424.733	877.75
424.956	877.75
425.178	872.75
425.401	819.75
425.623	865.75
425.846	836.75
426.068	873.75
426.291	871.75
426.513	857.75
426.735	865.75
426.958	890.75
427.18	846.75
427.402	860.75
427.625	886.75
427.847	847.75
428.069	867.75
428.292	866.75
428.514	869.75
428.736	852.75
428.958	862.75
429.181	856.75
429.403	841.75
429.625	848.75
429.847	829.75
430.069	856.75
430.292	846.75
430.514	829.75
430.736	837.75
430.958	867.75
431.18	853.75
431.402	839.75
431.624	848.75
431.846	833.75
432.068	825.75
432.29	861.75
432.512	858.75
432.734	861.75
432.956	832.75
433.178	852.75
433.4	835.75
433.622	856.75
433.844	865.75
434.066	854.75
434.287	864.75
434.509	853.75
434.731	853.75
434.953	851.75
435.175	856.75
435.397	859.75
435.618	857.75
435.84	839.75
436.062	861.75
436.284	839.75
436.505	834.75
436.727	823.75
436.949	839.75
437.17	831.75
437.392	836.75
437.614	849.75
437.835	804.75
438.057	826.75
438.278	813.75
438.5	795.75
438.721	823.75
438.943	805.75
439.165	819.75
439.386	817.75
439.608	817.75
439.829	835.75
440.05	830.75
440.272	817.75
440.493	804.75
440.715	838.75
440.936	827.75
441.158	844.75
441.379	835.75
441.6	838.75
441.822	849.75
442.043	859.75
442.264	840.75
442.486	819.75
442.707	829.75
442.928	827.75
443.149	828.75
443.371	835.75
443.592	837.75
443.813	826.75
444.034	820.75
444.255	847.75
444.476	838.75
444.698	837.75
444.919	867.75
445.14	930.75
445.361	885.75
445.582	836.75
445.803	817.75
446.024	839.75
446.245	825.75
446.466	843.75
446.687	800.75
446.908	820.75
447.129	817.75
447.35	799.75
447.571	802.75
447.792	786.75
448.013	783.75
448.234	751.75
448.455	779.75
448.675	754.75
448.896	791.75
449.117	758.75
449.338	790.75
449.559	795.75
449.779	779.75
450	781.75
450.221	722.75
450.442	770.75
450.662	745.75
450.883	767.75
451.104	760.75
451.324	758.75
451.545	743.75
451.766	745.75
451.986	745.75
452.207	774.75
452.428	766.75
452.648	774.75
452.869	748.75
453.089	750.75
453.31	738.75
453.53	775.75
453.751	761.75
453.971	749.75
454.192	746.75
454.412	739.75
454.633	752.75
454.853	775.75
455.073	728.75
455.294	769.75
455.514	740.75
455.734	744.75
455.955	747.75
456.175	737.75
456.395	721.75
456.616	754.75
456.836	727.75
457.056	767.75
457.276	759.75
457.497	744.75
457.717	740.75
457.937	775.75
458.157	751.75
458.377	773.75
458.598	794.75
458.818	783.75
459.038	773.75
459.258	783.75
459.478	808.75
459.698	823.75
459.918	802.75
460.138	814.75
460.358	810.75
460.578	823.75
460.798	836.75
461.018	849.75
461.238	827.75
461.458	873.75
461.678	829.75
461.898	848.75
462.118	847.75
462.338	854.75
462.558	874.75
462.777	880.75
462.997	891.75
463.217	889.75
463.437	935.75
463.657	912.75
463.876	867.75
464.096	903.75
464.316	879.75
464.536	866.75
464.755	884.75
464.975	879.75
465.195	870.75
465.414	848.75
465.634	842.75
465.854	817.75
466.073	874.75
466.293	841.75
466.512	807.75
466.732	808.75
466.951	800.75
467.171	821.75
467.391	823.75
467.61	815.75
467.829	791.75
468.049	798.75
468.268	796.75
468.488	803.75
468.707	806.75
468.927	834.75
469.146	817.75
469.365	822.75
469.585	803.75
469.804	831.75
470.023	824.75
470.243	819.75
470.462	794.75
470.681	793.75
470.901	808.75
471.12	801.75
471.339	795.75
471.558	823.75
471.777	832.75
471.997	793.75
472.216	795.75
472.435	832.75
472.654	821.75
472.873	833.75
473.092	841.75
473.311	824.75
473.53	810.75
473.749	837.75
473.968	821.75
474.187	833.75
474.406	834.75
474.625	841.75
474.844	810.75
475.063	829.75
475.282	845.75
475.501	831.75
475.72	840.75
475.939	828.75
476.158	880.75
476.377	884.75
476.596	846.75
476.814	868.75
477.033	862.75
477.252	874.75
477.471	881.75
477.69	913.75
477.908	923.75
478.127	921.75
478.346	889.75
478.564	906.75
478.783	911.75
479.002	911.75
479.22	943.75
479.439	962.75
479.658	934.75
479.876	946.75
480.095	953.75
480.313	977.75
480.532	966.75
480.751	964.75
480.969	949.75
481.188	967.75
481.406	982.75
481.624	975.75
481.843	959.75
482.061	967.75
482.28	963.75
482.498	983.75
482.717	947.75
482.935	981.75
483.153	991.75
483.372	984.75
483.59	942.75
483.808	967.75
484.027	976.75
484.245	1005.75
484.463	988.75
484.681	1004.75
484.9	987.75
485.118	991.75
485.336	1006.75
485.554	991.75
485.772	1028.75
485.99	1013.75
486.209	1007.75
486.427	999.75
486.645	962.75
486.863	988.75
487.081	997.75
487.299	995.75
487.517	1017.75
487.735	1015.75
487.953	1018.75
488.171	1005.75
488.389	1017.75
488.607	991.75
488.825	1016.75
489.043	1001.75
489.261	1007.75
489.479	1005.75
489.696	1014.75
489.914	1030.75
490.132	1010.75
490.35	1009.75
490.568	977.75
490.786	1023.75
491.003	1032.75
491.221	1023.75
491.439	1025.75
491.657	1009.75
491.874	1028.75
492.092	1003.75
492.31	1027.75
492.527	1021.75
492.745	1043.75
492.963	1056.75
493.18	1017.75
493.398	1037.75
493.615	1035.75
493.833	1074.75
494.05	1035.75
494.268	1070.75
494.485	1025.75
494.703	1037.75
494.92	1062.75
495.138	1069.75
495.355	1088.75
495.573	1081.75
495.79	1091.75
496.008	1096.75
496.225	1112.75
496.442	1102.75
496.66	1118.75
496.877	1082.75
497.094	1142.75
497.312	1140.75
497.529	1121.75
497.746	1119.75
497.963	1163.75
498.181	1183.75
498.398	1184.75
498.615	1219.75
498.832	1210.75
499.049	1249.75
499.267	1305.75
499.484	1299.75
499.701	1375.75
499.918	1338.75
500.135	1391.75
500.352	1376.75
500.569	1361.75
