Data from Fe(NO3)3@0.1M.TitratingCurve.Agarose3%dH2O.NegLispCup.LampEnergy10.LIBS07252019_HRD10591_16-38-04-331.txt Node
Date: Thu Jul 25 16:38:04 EDT 2019
User: cochatt
Spectrometer: HR+D1059
Trigger mode: 1
Integration Time (sec): 1.000000E-1
Scans to average: 1
Electric dark correction enabled: true
Nonlinearity correction enabled: false
Boxcar width: 0
XAxis mode: Wavelengths
Number of Pixels in Spectrum: 2048
>>>>>Begin Spectral Data<<<<<
223.165	-14.19
223.4	-14.19
223.635	-14.19
223.869	-13.19
224.104	-17.19
224.338	-8.19
224.573	-9.19
224.808	-2.19
225.042	-13.19
225.277	-9.19
225.511	-3.19
225.746	1.81
225.98	-6.19
226.215	6.81
226.449	6.81
226.683	19.81
226.918	17.81
227.152	42.81
227.387	30.81
227.621	37.81
227.856	49.81
228.09	44.81
228.324	69.81
228.559	52.81
228.793	61.81
229.027	73.81
229.262	74.81
229.496	81.81
229.73	83.81
229.964	73.81
230.199	76.81
230.433	91.81
230.667	91.81
230.901	84.81
231.136	104.81
231.37	83.81
231.604	101.81
231.838	104.81
232.072	97.81
232.306	104.81
232.541	97.81
232.775	107.81
233.009	88.81
233.243	85.81
233.477	95.81
233.711	88.81
233.945	94.81
234.179	94.81
234.413	101.81
234.647	99.81
234.881	84.81
235.115	94.81
235.349	100.81
235.583	83.81
235.817	83.81
236.051	95.81
236.285	98.81
236.519	87.81
236.753	94.81
236.987	88.81
237.221	103.81
237.455	90.81
237.689	98.81
237.922	116.81
238.156	97.81
238.39	93.81
238.624	104.81
238.858	106.81
239.091	116.81
239.325	117.81
239.559	94.81
239.793	113.81
240.027	108.81
240.26	107.81
240.494	113.81
240.728	94.81
240.961	99.81
241.195	113.81
241.429	97.81
241.662	102.81
241.896	99.81
242.13	108.81
242.363	102.81
242.597	113.81
242.83	119.81
243.064	114.81
243.298	111.81
243.531	118.81
243.765	119.81
243.998	105.81
244.232	102.81
244.465	103.81
244.699	102.81
244.932	118.81
245.166	119.81
245.399	115.81
245.633	115.81
245.866	122.81
246.099	107.81
246.333	124.81
246.566	115.81
246.8	105.81
247.033	100.81
247.266	109.81
247.5	105.81
247.733	110.81
247.966	117.81
248.2	133.81
248.433	122.81
248.666	116.81
248.899	108.81
249.133	121.81
249.366	119.81
249.599	117.81
249.832	125.81
250.066	119.81
250.299	125.81
250.532	130.81
250.765	119.81
250.998	127.81
251.231	125.81
251.465	117.81
251.698	123.81
251.931	118.81
252.164	123.81
252.397	122.81
252.63	126.81
252.863	139.81
253.096	133.81
253.329	133.81
253.562	128.81
253.795	119.81
254.028	128.81
254.261	133.81
254.494	130.81
254.727	129.81
254.96	122.81
255.193	122.81
255.426	126.81
255.659	135.81
255.892	139.81
256.124	123.81
256.357	126.81
256.59	126.81
256.823	124.81
257.056	137.81
257.289	137.81
257.521	115.81
257.754	123.81
257.987	140.81
258.22	129.81
258.452	143.81
258.685	132.81
258.918	125.81
259.151	135.81
259.383	145.81
259.616	137.81
259.849	133.81
260.081	144.81
260.314	140.81
260.547	142.81
260.779	130.81
261.012	141.81
261.244	157.81
261.477	141.81
261.71	149.81
261.942	142.81
262.175	155.81
262.407	141.81
262.64	145.81
262.872	143.81
263.105	150.81
263.337	145.81
263.57	147.81
263.802	142.81
264.035	143.81
264.267	158.81
264.499	146.81
264.732	165.81
264.964	143.81
265.197	144.81
265.429	156.81
265.661	138.81
265.894	143.81
266.126	147.81
266.358	136.81
266.591	152.81
266.823	150.81
267.055	142.81
267.287	143.81
267.52	148.81
267.752	149.81
267.984	154.81
268.216	142.81
268.448	149.81
268.681	161.81
268.913	159.81
269.145	150.81
269.377	152.81
269.609	178.81
269.841	156.81
270.073	157.81
270.306	158.81
270.538	147.81
270.77	157.81
271.002	169.81
271.234	149.81
271.466	158.81
271.698	155.81
271.93	148.81
272.162	166.81
272.394	170.81
272.626	152.81
272.858	167.81
273.09	170.81
273.322	158.81
273.553	157.81
273.785	159.81
274.017	151.81
274.249	167.81
274.481	167.81
274.713	162.81
274.945	163.81
275.176	176.81
275.408	172.81
275.64	168.81
275.872	184.81
276.104	144.81
276.335	166.81
276.567	161.81
276.799	164.81
277.031	171.81
277.262	148.81
277.494	154.81
277.726	185.81
277.957	165.81
278.189	173.81
278.421	167.81
278.652	165.81
278.884	177.81
279.115	178.81
279.347	174.81
279.579	159.81
279.81	179.81
280.042	161.81
280.273	170.81
280.505	172.81
280.736	182.81
280.968	174.81
281.199	172.81
281.431	177.81
281.662	175.81
281.894	194.81
282.125	185.81
282.356	191.81
282.588	177.81
282.819	181.81
283.051	174.81
283.282	172.81
283.513	187.81
283.745	184.81
283.976	176.81
284.207	191.81
284.439	171.81
284.67	199.81
284.901	189.81
285.132	177.81
285.364	180.81
285.595	179.81
285.826	184.81
286.057	182.81
286.288	173.81
286.52	177.81
286.751	177.81
286.982	201.81
287.213	190.81
287.444	203.81
287.675	173.81
287.906	180.81
288.138	195.81
288.369	199.81
288.6	198.81
288.831	189.81
289.062	185.81
289.293	193.81
289.524	186.81
289.755	177.81
289.986	197.81
290.217	198.81
290.448	196.81
290.679	203.81
290.91	200.81
291.141	185.81
291.371	190.81
291.602	176.81
291.833	194.81
292.064	213.81
292.295	196.81
292.526	184.81
292.757	185.81
292.987	201.81
293.218	212.81
293.449	196.81
293.68	195.81
293.91	181.81
294.141	187.81
294.372	197.81
294.603	179.81
294.833	202.81
295.064	213.81
295.295	207.81
295.525	193.81
295.756	212.81
295.987	202.81
296.217	199.81
296.448	190.81
296.679	174.81
296.909	205.81
297.14	196.81
297.37	197.81
297.601	205.81
297.831	211.81
298.062	220.81
298.292	197.81
298.523	211.81
298.753	209.81
298.984	206.81
299.214	200.81
299.445	214.81
299.675	203.81
299.905	189.81
300.136	205.81
300.366	197.81
300.597	211.81
300.827	197.81
301.057	206.81
301.288	216.81
301.518	188.81
301.748	204.81
301.979	206.81
302.209	210.81
302.439	216.81
302.669	216.81
302.9	207.81
303.13	197.81
303.36	205.81
303.59	203.81
303.82	221.81
304.051	197.81
304.281	213.81
304.511	217.81
304.741	219.81
304.971	211.81
305.201	208.81
305.431	207.81
305.661	197.81
305.891	207.81
306.121	209.81
306.352	201.81
306.582	211.81
306.812	203.81
307.042	210.81
307.272	213.81
307.502	211.81
307.731	217.81
307.961	226.81
308.191	216.81
308.421	210.81
308.651	203.81
308.881	209.81
309.111	214.81
309.341	205.81
309.571	213.81
309.8	210.81
310.03	202.81
310.26	204.81
310.49	213.81
310.72	202.81
310.949	217.81
311.179	212.81
311.409	215.81
311.639	201.81
311.868	220.81
312.098	207.81
312.328	208.81
312.557	218.81
312.787	221.81
313.017	215.81
313.246	207.81
313.476	222.81
313.706	242.81
313.935	230.81
314.165	212.81
314.394	226.81
314.624	222.81
314.853	219.81
315.083	222.81
315.312	233.81
315.542	221.81
315.771	220.81
316.001	228.81
316.23	215.81
316.46	219.81
316.689	217.81
316.919	217.81
317.148	208.81
317.377	218.81
317.607	217.81
317.836	222.81
318.065	206.81
318.295	214.81
318.524	217.81
318.753	238.81
318.983	238.81
319.212	213.81
319.441	222.81
319.67	210.81
319.9	214.81
320.129	220.81
320.358	220.81
320.587	230.81
320.816	233.81
321.046	243.81
321.275	232.81
321.504	223.81
321.733	216.81
321.962	219.81
322.191	217.81
322.42	226.81
322.649	225.81
322.878	226.81
323.108	220.81
323.337	229.81
323.566	219.81
323.795	237.81
324.024	229.81
324.253	222.81
324.482	223.81
324.71	222.81
324.939	223.81
325.168	236.81
325.397	234.81
325.626	233.81
325.855	220.81
326.084	232.81
326.313	247.81
326.542	225.81
326.77	233.81
326.999	229.81
327.228	234.81
327.457	224.81
327.686	232.81
327.914	247.81
328.143	252.81
328.372	246.81
328.6	229.81
328.829	232.81
329.058	241.81
329.287	229.81
329.515	234.81
329.744	245.81
329.972	221.81
330.201	243.81
330.43	227.81
330.658	227.81
330.887	229.81
331.115	242.81
331.344	231.81
331.572	256.81
331.801	246.81
332.03	257.81
332.258	257.81
332.486	264.81
332.715	263.81
332.943	269.81
333.172	286.81
333.4	284.81
333.629	302.81
333.857	291.81
334.085	299.81
334.314	287.81
334.542	309.81
334.771	281.81
334.999	294.81
335.227	281.81
335.455	281.81
335.684	269.81
335.912	266.81
336.14	275.81
336.369	269.81
336.597	281.81
336.825	282.81
337.053	265.81
337.281	271.81
337.51	268.81
337.738	267.81
337.966	258.81
338.194	236.81
338.422	251.81
338.65	264.81
338.878	257.81
339.106	261.81
339.334	250.81
339.562	237.81
339.79	249.81
340.018	245.81
340.246	260.81
340.474	263.81
340.702	249.81
340.93	238.81
341.158	228.81
341.386	235.81
341.614	245.81
341.842	241.81
342.07	234.81
342.298	234.81
342.526	249.81
342.754	228.81
342.981	247.81
343.209	258.81
343.437	253.81
343.665	253.81
343.893	253.81
344.12	272.81
344.348	277.81
344.576	272.81
344.804	258.81
345.031	266.81
345.259	265.81
345.487	249.81
345.714	238.81
345.942	235.81
346.17	245.81
346.397	228.81
346.625	245.81
346.853	231.81
347.08	234.81
347.308	259.81
347.535	266.81
347.763	233.81
347.99	239.81
348.218	227.81
348.445	248.81
348.673	230.81
348.9	247.81
349.128	259.81
349.355	234.81
349.583	236.81
349.81	233.81
350.037	228.81
350.265	227.81
350.492	236.81
350.72	218.81
350.947	221.81
351.174	237.81
351.402	235.81
351.629	223.81
351.856	223.81
352.083	223.81
352.311	222.81
352.538	226.81
352.765	236.81
352.992	226.81
353.22	222.81
353.447	207.81
353.674	220.81
353.901	230.81
354.128	219.81
354.355	235.81
354.583	238.81
354.81	215.81
355.037	224.81
355.264	221.81
355.491	231.81
355.718	237.81
355.945	233.81
356.172	243.81
356.399	220.81
356.626	249.81
356.853	230.81
357.08	245.81
357.307	222.81
357.534	237.81
357.761	225.81
357.988	222.81
358.215	243.81
358.441	245.81
358.668	217.81
358.895	241.81
359.122	222.81
359.349	231.81
359.576	222.81
359.802	228.81
360.029	235.81
360.256	239.81
360.483	232.81
360.709	212.81
360.936	229.81
361.163	229.81
361.39	237.81
361.616	225.81
361.843	222.81
362.07	238.81
362.296	222.81
362.523	220.81
362.749	234.81
362.976	239.81
363.203	237.81
363.429	231.81
363.656	235.81
363.882	230.81
364.109	259.81
364.335	234.81
364.562	227.81
364.788	230.81
365.015	239.81
365.241	222.81
365.468	235.81
365.694	255.81
365.92	248.81
366.147	236.81
366.373	230.81
366.599	232.81
366.826	234.81
367.052	233.81
367.278	234.81
367.505	230.81
367.731	217.81
367.957	224.81
368.184	230.81
368.41	234.81
368.636	235.81
368.862	232.81
369.089	231.81
369.315	245.81
369.541	237.81
369.767	227.81
369.993	250.81
370.219	250.81
370.445	249.81
370.672	252.81
370.898	249.81
371.124	255.81
371.35	247.81
371.576	268.81
371.802	264.81
372.028	252.81
372.254	242.81
372.48	276.81
372.706	265.81
372.932	242.81
373.158	271.81
373.384	249.81
373.61	249.81
373.835	252.81
374.061	248.81
374.287	251.81
374.513	249.81
374.739	268.81
374.965	278.81
375.191	283.81
375.416	280.81
375.642	237.81
375.868	262.81
376.094	273.81
376.319	271.81
376.545	268.81
376.771	251.81
376.997	235.81
377.222	261.81
377.448	260.81
377.674	272.81
377.899	249.81
378.125	246.81
378.35	264.81
378.576	265.81
378.802	255.81
379.027	276.81
379.253	264.81
379.478	269.81
379.704	234.81
379.929	242.81
380.155	275.81
380.38	237.81
380.606	262.81
380.831	245.81
381.057	267.81
381.282	282.81
381.507	252.81
381.733	275.81
381.958	272.81
382.184	279.81
382.409	266.81
382.634	269.81
382.86	275.81
383.085	272.81
383.31	273.81
383.535	268.81
383.761	270.81
383.986	273.81
384.211	276.81
384.436	291.81
384.662	308.81
384.887	302.81
385.112	305.81
385.337	305.81
385.562	315.81
385.787	309.81
386.013	310.81
386.238	308.81
386.463	311.81
386.688	317.81
386.913	302.81
387.138	311.81
387.363	305.81
387.588	308.81
387.813	284.81
388.038	310.81
388.263	285.81
388.488	300.81
388.713	300.81
388.938	318.81
389.163	291.81
389.387	322.81
389.612	303.81
389.837	295.81
390.062	299.81
390.287	300.81
390.512	289.81
390.736	301.81
390.961	316.81
391.186	317.81
391.411	320.81
391.636	343.81
391.86	337.81
392.085	331.81
392.31	325.81
392.534	333.81
392.759	345.81
392.984	323.81
393.208	327.81
393.433	347.81
393.658	317.81
393.882	317.81
394.107	338.81
394.331	336.81
394.556	327.81
394.78	309.81
395.005	336.81
395.229	318.81
395.454	342.81
395.678	348.81
395.903	349.81
396.127	334.81
396.352	339.81
396.576	340.81
396.801	334.81
397.025	314.81
397.249	350.81
397.474	348.81
397.698	349.81
397.922	350.81
398.147	342.81
398.371	345.81
398.595	363.81
398.82	370.81
399.044	395.81
399.268	416.81
399.492	466.81
399.717	525.81
399.941	525.81
400.165	457.81
400.389	424.81
400.613	412.81
400.837	389.81
401.062	374.81
401.286	370.81
401.51	382.81
401.734	382.81
401.958	379.81
402.182	414.81
402.406	399.81
402.63	389.81
402.854	388.81
403.078	414.81
403.302	417.81
403.526	405.81
403.75	420.81
403.974	404.81
404.198	400.81
404.422	433.81
404.645	399.81
404.869	407.81
405.093	395.81
405.317	399.81
405.541	399.81
405.765	405.81
405.988	397.81
406.212	391.81
406.436	408.81
406.66	412.81
406.883	417.81
407.107	426.81
407.331	467.81
407.555	452.81
407.778	466.81
408.002	462.81
408.226	447.81
408.449	461.81
408.673	442.81
408.896	439.81
409.12	410.81
409.344	427.81
409.567	425.81
409.791	412.81
410.014	409.81
410.238	404.81
410.461	419.81
410.685	418.81
410.908	397.81
411.132	407.81
411.355	391.81
411.578	394.81
411.802	381.81
412.025	404.81
412.249	413.81
412.472	389.81
412.695	379.81
412.919	377.81
413.142	386.81
413.365	385.81
413.589	382.81
413.812	385.81
414.035	382.81
414.258	372.81
414.482	393.81
414.705	389.81
414.928	383.81
415.151	387.81
415.374	394.81
415.597	372.81
415.821	377.81
416.044	377.81
416.267	374.81
416.49	350.81
416.713	347.81
416.936	381.81
417.159	379.81
417.382	377.81
417.605	376.81
417.828	375.81
418.051	369.81
418.274	382.81
418.497	391.81
418.72	390.81
418.943	374.81
419.166	424.81
419.389	414.81
419.611	392.81
419.834	417.81
420.057	399.81
420.28	391.81
420.503	365.81
420.726	392.81
420.948	365.81
421.171	377.81
421.394	385.81
421.617	385.81
421.839	374.81
422.062	375.81
422.285	373.81
422.507	395.81
422.73	392.81
422.953	390.81
423.175	403.81
423.398	389.81
423.621	401.81
423.843	394.81
424.066	377.81
424.288	394.81
424.511	405.81
424.733	405.81
424.956	403.81
425.178	358.81
425.401	365.81
425.623	394.81
425.846	375.81
426.068	360.81
426.291	353.81
426.513	359.81
426.735	357.81
426.958	355.81
427.18	342.81
427.402	341.81
427.625	347.81
427.847	343.81
428.069	356.81
428.292	374.81
428.514	341.81
428.736	339.81
428.958	352.81
429.181	343.81
429.403	331.81
429.625	327.81
429.847	351.81
430.069	334.81
430.292	342.81
430.514	342.81
430.736	333.81
430.958	359.81
431.18	350.81
431.402	350.81
431.624	338.81
431.846	343.81
432.068	350.81
432.29	344.81
432.512	363.81
432.734	346.81
432.956	359.81
433.178	356.81
433.4	342.81
433.622	369.81
433.844	347.81
434.066	350.81
434.287	378.81
434.509	357.81
434.731	377.81
434.953	395.81
435.175	382.81
435.397	372.81
435.618	348.81
435.84	369.81
436.062	343.81
436.284	345.81
436.505	352.81
436.727	350.81
436.949	362.81
437.17	347.81
437.392	326.81
437.614	338.81
437.835	330.81
438.057	333.81
438.278	325.81
438.5	331.81
438.721	337.81
438.943	334.81
439.165	334.81
439.386	353.81
439.608	340.81
439.829	350.81
440.05	357.81
440.272	353.81
440.493	361.81
440.715	343.81
440.936	343.81
441.158	351.81
441.379	362.81
441.6	395.81
441.822	379.81
442.043	392.81
442.264	369.81
442.486	370.81
442.707	369.81
442.928	379.81
443.149	373.81
443.371	372.81
443.592	375.81
443.813	380.81
444.034	385.81
444.255	389.81
444.476	396.81
444.698	412.81
444.919	440.81
445.14	541.81
445.361	451.81
445.582	395.81
445.803	383.81
446.024	349.81
446.245	377.81
446.466	349.81
446.687	365.81
446.908	371.81
447.129	354.81
447.35	326.81
447.571	332.81
447.792	342.81
448.013	332.81
448.234	333.81
448.455	335.81
448.675	335.81
448.896	331.81
449.117	333.81
449.338	324.81
449.559	327.81
449.779	334.81
450	311.81
450.221	307.81
450.442	310.81
450.662	320.81
450.883	340.81
451.104	321.81
451.324	317.81
451.545	331.81
451.766	343.81
451.986	317.81
452.207	337.81
452.428	305.81
452.648	330.81
452.869	313.81
453.089	319.81
453.31	333.81
453.53	314.81
453.751	314.81
453.971	310.81
454.192	318.81
454.412	303.81
454.633	301.81
454.853	300.81
455.073	320.81
455.294	323.81
455.514	301.81
455.734	302.81
455.955	315.81
456.175	290.81
456.395	305.81
456.616	302.81
456.836	321.81
457.056	305.81
457.276	309.81
457.497	321.81
457.717	322.81
457.937	301.81
458.157	328.81
458.377	321.81
458.598	321.81
458.818	331.81
459.038	331.81
459.258	349.81
459.478	353.81
459.698	379.81
459.918	355.81
460.138	366.81
460.358	378.81
460.578	394.81
460.798	398.81
461.018	407.81
461.238	397.81
461.458	400.81
461.678	385.81
461.898	405.81
462.118	425.81
462.338	425.81
462.558	425.81
462.777	437.81
462.997	475.81
463.217	479.81
463.437	513.81
463.657	472.81
463.876	467.81
464.096	446.81
464.316	450.81
464.536	474.81
464.755	446.81
464.975	420.81
465.195	419.81
465.414	409.81
465.634	387.81
465.854	384.81
466.073	352.81
466.293	381.81
466.512	365.81
466.732	343.81
466.951	343.81
467.171	329.81
467.391	342.81
467.61	350.81
467.829	351.81
468.049	343.81
468.268	345.81
468.488	342.81
468.707	333.81
468.927	316.81
469.146	349.81
469.365	337.81
469.585	322.81
469.804	359.81
470.023	353.81
470.243	360.81
470.462	341.81
470.681	353.81
470.901	344.81
471.12	339.81
471.339	350.81
471.558	341.81
471.777	319.81
471.997	337.81
472.216	339.81
472.435	329.81
472.654	331.81
472.873	318.81
473.092	321.81
473.311	327.81
473.53	314.81
473.749	317.81
473.968	325.81
474.187	322.81
474.406	333.81
474.625	335.81
474.844	324.81
475.063	313.81
475.282	327.81
475.501	329.81
475.72	331.81
475.939	314.81
476.158	329.81
476.377	326.81
476.596	333.81
476.814	343.81
477.033	334.81
477.252	323.81
477.471	348.81
477.69	361.81
477.908	379.81
478.127	368.81
478.346	379.81
478.564	381.81
478.783	379.81
479.002	397.81
479.22	389.81
479.439	387.81
479.658	396.81
479.876	383.81
480.095	383.81
480.313	389.81
480.532	405.81
480.751	413.81
480.969	382.81
481.188	373.81
481.406	379.81
481.624	360.81
481.843	367.81
482.061	354.81
482.28	369.81
482.498	366.81
482.717	363.81
482.935	356.81
483.153	361.81
483.372	367.81
483.59	361.81
483.808	375.81
484.027	365.81
484.245	363.81
484.463	375.81
484.681	371.81
484.9	371.81
485.118	382.81
485.336	383.81
485.554	377.81
485.772	382.81
485.99	389.81
486.209	360.81
486.427	363.81
486.645	403.81
486.863	375.81
487.081	375.81
487.299	373.81
487.517	384.81
487.735	371.81
487.953	380.81
488.171	383.81
488.389	377.81
488.607	373.81
488.825	368.81
489.043	373.81
489.261	362.81
489.479	387.81
489.696	380.81
489.914	374.81
490.132	372.81
490.35	388.81
490.568	382.81
490.786	379.81
491.003	383.81
491.221	387.81
491.439	382.81
491.657	391.81
491.874	382.81
492.092	395.81
492.31	415.81
492.527	395.81
492.745	373.81
492.963	396.81
493.18	390.81
493.398	390.81
493.615	394.81
493.833	401.81
494.05	387.81
494.268	375.81
494.485	407.81
494.703	404.81
494.92	413.81
495.138	392.81
495.355	397.81
495.573	378.81
495.79	421.81
496.008	409.81
496.225	397.81
496.442	415.81
496.66	399.81
496.877	418.81
497.094	430.81
497.312	425.81
497.529	451.81
497.746	470.81
497.963	466.81
498.181	469.81
498.398	496.81
498.615	523.81
498.832	548.81
499.049	579.81
499.267	609.81
499.484	657.81
499.701	723.81
499.918	762.81
500.135	842.81
500.352	918.81
500.569	939.81
500.786	937.81
501.003	913.81
501.22	837.81
501.437	761.81
501.654	699.81
501.871	620.81
502.088	565.81
