Data from Fe(NO3)3@0.1M.TitratingCurve.Agarose3%dH2O.NegLispCup.LampEnergy10.LIBS07252019_HRD10591_16-40-15-333.txt Node
Date: Thu Jul 25 16:40:15 EDT 2019
User: cochatt
Spectrometer: HR+D1059
Trigger mode: 1
Integration Time (sec): 1.000000E-1
Scans to average: 1
Electric dark correction enabled: true
Nonlinearity correction enabled: false
Boxcar width: 0
XAxis mode: Wavelengths
Number of Pixels in Spectrum: 2048
>>>>>Begin Spectral Data<<<<<
223.165	-20.88
223.4	-20.88
223.635	-20.88
223.869	-24.88
224.104	-25.88
224.338	-17.88
224.573	-10.88
224.808	-6.88
225.042	-6.88
225.277	-14.88
225.511	8.12
225.746	0.12
225.98	4.12
226.215	15.12
226.449	8.12
226.683	28.12
226.918	32.12
227.152	33.12
227.387	27.12
227.621	47.12
227.856	35.12
228.09	56.12
228.324	49.12
228.559	50.12
228.793	67.12
229.027	87.12
229.262	68.12
229.496	63.12
229.73	78.12
229.964	75.12
230.199	81.12
230.433	79.12
230.667	81.12
230.901	89.12
231.136	85.12
231.37	87.12
231.604	71.12
231.838	95.12
232.072	80.12
232.306	85.12
232.541	86.12
232.775	83.12
233.009	82.12
233.243	79.12
233.477	90.12
233.711	108.12
233.945	85.12
234.179	93.12
234.413	84.12
234.647	90.12
234.881	76.12
235.115	89.12
235.349	87.12
235.583	76.12
235.817	75.12
236.051	71.12
236.285	85.12
236.519	80.12
236.753	92.12
236.987	91.12
237.221	90.12
237.455	92.12
237.689	89.12
237.922	89.12
238.156	84.12
238.39	87.12
238.624	64.12
238.858	83.12
239.091	76.12
239.325	89.12
239.559	82.12
239.793	77.12
240.027	88.12
240.26	89.12
240.494	91.12
240.728	85.12
240.961	80.12
241.195	84.12
241.429	90.12
241.662	98.12
241.896	87.12
242.13	81.12
242.363	89.12
242.597	85.12
242.83	89.12
243.064	81.12
243.298	75.12
243.531	85.12
243.765	103.12
243.998	92.12
244.232	85.12
244.465	88.12
244.699	81.12
244.932	88.12
245.166	80.12
245.399	81.12
245.633	69.12
245.866	95.12
246.099	80.12
246.333	87.12
246.566	82.12
246.8	85.12
247.033	93.12
247.266	90.12
247.5	99.12
247.733	89.12
247.966	80.12
248.2	90.12
248.433	100.12
248.666	103.12
248.899	97.12
249.133	93.12
249.366	88.12
249.599	93.12
249.832	98.12
250.066	79.12
250.299	96.12
250.532	100.12
250.765	92.12
250.998	104.12
251.231	101.12
251.465	104.12
251.698	92.12
251.931	93.12
252.164	89.12
252.397	87.12
252.63	95.12
252.863	95.12
253.096	107.12
253.329	99.12
253.562	96.12
253.795	101.12
254.028	101.12
254.261	78.12
254.494	93.12
254.727	105.12
254.96	107.12
255.193	93.12
255.426	92.12
255.659	83.12
255.892	76.12
256.124	93.12
256.357	102.12
256.59	94.12
256.823	96.12
257.056	88.12
257.289	91.12
257.521	90.12
257.754	94.12
257.987	96.12
258.22	96.12
258.452	96.12
258.685	94.12
258.918	104.12
259.151	94.12
259.383	96.12
259.616	103.12
259.849	100.12
260.081	98.12
260.314	92.12
260.547	100.12
260.779	97.12
261.012	85.12
261.244	101.12
261.477	101.12
261.71	89.12
261.942	106.12
262.175	100.12
262.407	106.12
262.64	99.12
262.872	99.12
263.105	99.12
263.337	97.12
263.57	99.12
263.802	90.12
264.035	96.12
264.267	91.12
264.499	96.12
264.732	103.12
264.964	102.12
265.197	99.12
265.429	79.12
265.661	117.12
265.894	100.12
266.126	109.12
266.358	94.12
266.591	114.12
266.823	115.12
267.055	116.12
267.287	106.12
267.52	105.12
267.752	112.12
267.984	108.12
268.216	109.12
268.448	101.12
268.681	104.12
268.913	119.12
269.145	105.12
269.377	103.12
269.609	103.12
269.841	106.12
270.073	101.12
270.306	95.12
270.538	106.12
270.77	117.12
271.002	129.12
271.234	120.12
271.466	100.12
271.698	100.12
271.93	119.12
272.162	115.12
272.394	113.12
272.626	106.12
272.858	120.12
273.09	101.12
273.322	98.12
273.553	106.12
273.785	105.12
274.017	120.12
274.249	113.12
274.481	112.12
274.713	115.12
274.945	117.12
275.176	121.12
275.408	111.12
275.64	115.12
275.872	98.12
276.104	121.12
276.335	125.12
276.567	105.12
276.799	103.12
277.031	125.12
277.262	127.12
277.494	115.12
277.726	128.12
277.957	119.12
278.189	117.12
278.421	117.12
278.652	124.12
278.884	103.12
279.115	108.12
279.347	103.12
279.579	106.12
279.81	120.12
280.042	123.12
280.273	123.12
280.505	118.12
280.736	122.12
280.968	128.12
281.199	108.12
281.431	123.12
281.662	125.12
281.894	110.12
282.125	120.12
282.356	123.12
282.588	115.12
282.819	125.12
283.051	114.12
283.282	120.12
283.513	120.12
283.745	128.12
283.976	121.12
284.207	108.12
284.439	116.12
284.67	124.12
284.901	124.12
285.132	126.12
285.364	130.12
285.595	120.12
285.826	117.12
286.057	133.12
286.288	125.12
286.52	117.12
286.751	127.12
286.982	120.12
287.213	137.12
287.444	137.12
287.675	120.12
287.906	141.12
288.138	117.12
288.369	112.12
288.6	123.12
288.831	105.12
289.062	131.12
289.293	117.12
289.524	121.12
289.755	134.12
289.986	121.12
290.217	119.12
290.448	137.12
290.679	124.12
290.91	140.12
291.141	117.12
291.371	122.12
291.602	133.12
291.833	132.12
292.064	120.12
292.295	127.12
292.526	127.12
292.757	127.12
292.987	140.12
293.218	113.12
293.449	111.12
293.68	148.12
293.91	148.12
294.141	123.12
294.372	131.12
294.603	126.12
294.833	139.12
295.064	122.12
295.295	131.12
295.525	120.12
295.756	138.12
295.987	122.12
296.217	144.12
296.448	142.12
296.679	140.12
296.909	138.12
297.14	132.12
297.37	149.12
297.601	133.12
297.831	135.12
298.062	131.12
298.292	130.12
298.523	147.12
298.753	123.12
298.984	139.12
299.214	127.12
299.445	132.12
299.675	127.12
299.905	137.12
300.136	137.12
300.366	127.12
300.597	134.12
300.827	149.12
301.057	139.12
301.288	137.12
301.518	130.12
301.748	135.12
301.979	135.12
302.209	140.12
302.439	137.12
302.669	145.12
302.9	141.12
303.13	138.12
303.36	135.12
303.59	139.12
303.82	127.12
304.051	139.12
304.281	158.12
304.511	135.12
304.741	133.12
304.971	145.12
305.201	127.12
305.431	136.12
305.661	134.12
305.891	132.12
306.121	129.12
306.352	144.12
306.582	129.12
306.812	132.12
307.042	142.12
307.272	149.12
307.502	133.12
307.731	148.12
307.961	149.12
308.191	148.12
308.421	122.12
308.651	137.12
308.881	134.12
309.111	151.12
309.341	147.12
309.571	131.12
309.8	126.12
310.03	143.12
310.26	147.12
310.49	115.12
310.72	152.12
310.949	132.12
311.179	153.12
311.409	138.12
311.639	132.12
311.868	134.12
312.098	152.12
312.328	137.12
312.557	128.12
312.787	140.12
313.017	143.12
313.246	146.12
313.476	137.12
313.706	136.12
313.935	156.12
314.165	159.12
314.394	144.12
314.624	146.12
314.853	143.12
315.083	135.12
315.312	141.12
315.542	148.12
315.771	145.12
316.001	141.12
316.23	144.12
316.46	138.12
316.689	150.12
316.919	139.12
317.148	147.12
317.377	164.12
317.607	154.12
317.836	145.12
318.065	129.12
318.295	147.12
318.524	131.12
318.753	153.12
318.983	145.12
319.212	162.12
319.441	143.12
319.67	149.12
319.9	140.12
320.129	141.12
320.358	144.12
320.587	146.12
320.816	146.12
321.046	168.12
321.275	139.12
321.504	150.12
321.733	144.12
321.962	163.12
322.191	141.12
322.42	156.12
322.649	138.12
322.878	160.12
323.108	135.12
323.337	149.12
323.566	152.12
323.795	157.12
324.024	139.12
324.253	159.12
324.482	135.12
324.71	164.12
324.939	163.12
325.168	155.12
325.397	128.12
325.626	135.12
325.855	143.12
326.084	157.12
326.313	159.12
326.542	150.12
326.77	150.12
326.999	153.12
327.228	149.12
327.457	145.12
327.686	151.12
327.914	158.12
328.143	153.12
328.372	147.12
328.6	155.12
328.829	167.12
329.058	164.12
329.287	156.12
329.515	148.12
329.744	146.12
329.972	151.12
330.201	186.12
330.43	151.12
330.658	176.12
330.887	172.12
331.115	157.12
331.344	160.12
331.572	159.12
331.801	163.12
332.03	169.12
332.258	178.12
332.486	155.12
332.715	173.12
332.943	175.12
333.172	189.12
333.4	185.12
333.629	186.12
333.857	189.12
334.085	171.12
334.314	179.12
334.542	164.12
334.771	171.12
334.999	171.12
335.227	180.12
335.455	187.12
335.684	180.12
335.912	189.12
336.14	175.12
336.369	169.12
336.597	170.12
336.825	164.12
337.053	159.12
337.281	177.12
337.51	160.12
337.738	172.12
337.966	161.12
338.194	152.12
338.422	154.12
338.65	188.12
338.878	165.12
339.106	182.12
339.334	153.12
339.562	163.12
339.79	163.12
340.018	175.12
340.246	162.12
340.474	158.12
340.702	171.12
340.93	179.12
341.158	158.12
341.386	155.12
341.614	161.12
341.842	153.12
342.07	171.12
342.298	155.12
342.526	163.12
342.754	169.12
342.981	171.12
343.209	169.12
343.437	166.12
343.665	175.12
343.893	195.12
344.12	184.12
344.348	181.12
344.576	184.12
344.804	162.12
345.031	151.12
345.259	156.12
345.487	171.12
345.714	162.12
345.942	166.12
346.17	166.12
346.397	169.12
346.625	165.12
346.853	163.12
347.08	153.12
347.308	165.12
347.535	155.12
347.763	151.12
347.99	159.12
348.218	157.12
348.445	157.12
348.673	163.12
348.9	152.12
349.128	162.12
349.355	171.12
349.583	160.12
349.81	151.12
350.037	152.12
350.265	168.12
350.492	156.12
350.72	175.12
350.947	179.12
351.174	165.12
351.402	153.12
351.629	170.12
351.856	140.12
352.083	154.12
352.311	158.12
352.538	160.12
352.765	162.12
352.992	168.12
353.22	160.12
353.447	149.12
353.674	156.12
353.901	168.12
354.128	177.12
354.355	151.12
354.583	166.12
354.81	172.12
355.037	166.12
355.264	170.12
355.491	178.12
355.718	176.12
355.945	154.12
356.172	164.12
356.399	166.12
356.626	176.12
356.853	166.12
357.08	155.12
357.307	145.12
357.534	152.12
357.761	160.12
357.988	183.12
358.215	164.12
358.441	161.12
358.668	156.12
358.895	160.12
359.122	165.12
359.349	163.12
359.576	140.12
359.802	154.12
360.029	156.12
360.256	154.12
360.483	150.12
360.709	171.12
360.936	161.12
361.163	158.12
361.39	173.12
361.616	152.12
361.843	163.12
362.07	163.12
362.296	159.12
362.523	147.12
362.749	168.12
362.976	165.12
363.203	176.12
363.429	159.12
363.656	168.12
363.882	154.12
364.109	150.12
364.335	160.12
364.562	148.12
364.788	162.12
365.015	161.12
365.241	168.12
365.468	167.12
365.694	168.12
365.92	179.12
366.147	160.12
366.373	169.12
366.599	184.12
366.826	162.12
367.052	157.12
367.278	166.12
367.505	176.12
367.731	155.12
367.957	157.12
368.184	156.12
368.41	166.12
368.636	178.12
368.862	160.12
369.089	160.12
369.315	174.12
369.541	178.12
369.767	172.12
369.993	168.12
370.219	171.12
370.445	170.12
370.672	171.12
370.898	163.12
371.124	168.12
371.35	166.12
371.576	171.12
371.802	169.12
372.028	178.12
372.254	170.12
372.48	167.12
372.706	192.12
372.932	197.12
373.158	193.12
373.384	178.12
373.61	157.12
373.835	185.12
374.061	193.12
374.287	171.12
374.513	164.12
374.739	191.12
374.965	156.12
375.191	187.12
375.416	169.12
375.642	174.12
375.868	168.12
376.094	187.12
376.319	191.12
376.545	172.12
376.771	184.12
376.997	179.12
377.222	166.12
377.448	177.12
377.674	161.12
377.899	180.12
378.125	171.12
378.35	170.12
378.576	182.12
378.802	170.12
379.027	165.12
379.253	183.12
379.478	163.12
379.704	190.12
379.929	177.12
380.155	180.12
380.38	171.12
380.606	185.12
380.831	178.12
381.057	179.12
381.282	176.12
381.507	187.12
381.733	183.12
381.958	194.12
382.184	181.12
382.409	165.12
382.634	195.12
382.86	204.12
383.085	191.12
383.31	187.12
383.535	197.12
383.761	187.12
383.986	201.12
384.211	195.12
384.436	184.12
384.662	191.12
384.887	195.12
385.112	205.12
385.337	209.12
385.562	202.12
385.787	197.12
386.013	194.12
386.238	208.12
386.463	212.12
386.688	211.12
386.913	193.12
387.138	227.12
387.363	206.12
387.588	197.12
387.813	194.12
388.038	204.12
388.263	212.12
388.488	201.12
388.713	218.12
388.938	184.12
389.163	199.12
389.387	214.12
389.612	214.12
389.837	200.12
390.062	182.12
390.287	187.12
390.512	193.12
390.736	202.12
390.961	204.12
391.186	203.12
391.411	209.12
391.636	209.12
391.86	203.12
392.085	232.12
392.31	207.12
392.534	204.12
392.759	203.12
392.984	195.12
393.208	204.12
393.433	210.12
393.658	215.12
393.882	209.12
394.107	199.12
394.331	214.12
394.556	201.12
394.78	219.12
395.005	206.12
395.229	211.12
395.454	220.12
395.678	221.12
395.903	214.12
396.127	216.12
396.352	201.12
396.576	197.12
396.801	196.12
397.025	232.12
397.249	213.12
397.474	227.12
397.698	209.12
397.922	219.12
398.147	205.12
398.371	219.12
398.595	241.12
398.82	220.12
399.044	259.12
399.268	273.12
399.492	288.12
399.717	310.12
399.941	300.12
400.165	276.12
400.389	263.12
400.613	255.12
400.837	221.12
401.062	243.12
401.286	237.12
401.51	237.12
401.734	237.12
401.958	236.12
402.182	229.12
402.406	245.12
402.63	231.12
402.854	259.12
403.078	220.12
403.302	242.12
403.526	246.12
403.75	262.12
403.974	271.12
404.198	257.12
404.422	244.12
404.645	271.12
404.869	244.12
405.093	255.12
405.317	245.12
405.541	243.12
405.765	256.12
405.988	259.12
406.212	240.12
406.436	255.12
406.66	250.12
406.883	258.12
407.107	280.12
407.331	277.12
407.555	289.12
407.778	280.12
408.002	278.12
408.226	283.12
408.449	268.12
408.673	243.12
408.896	271.12
409.12	260.12
409.344	249.12
409.567	242.12
409.791	267.12
410.014	256.12
410.238	252.12
410.461	237.12
410.685	249.12
410.908	239.12
411.132	248.12
411.355	237.12
411.578	255.12
411.802	243.12
412.025	262.12
412.249	247.12
412.472	234.12
412.695	259.12
412.919	231.12
413.142	230.12
413.365	236.12
413.589	234.12
413.812	229.12
414.035	245.12
414.258	244.12
414.482	256.12
414.705	236.12
414.928	247.12
415.151	250.12
415.374	236.12
415.597	258.12
415.821	253.12
416.044	244.12
416.267	246.12
416.49	240.12
416.713	243.12
416.936	230.12
417.159	233.12
417.382	232.12
417.605	243.12
417.828	248.12
418.051	265.12
418.274	251.12
418.497	234.12
418.72	232.12
418.943	241.12
419.166	257.12
419.389	258.12
419.611	265.12
419.834	259.12
420.057	242.12
420.28	236.12
420.503	225.12
420.726	235.12
420.948	239.12
421.171	239.12
421.394	257.12
421.617	255.12
421.839	260.12
422.062	243.12
422.285	243.12
422.507	267.12
422.73	251.12
422.953	253.12
423.175	247.12
423.398	252.12
423.621	240.12
423.843	248.12
424.066	248.12
424.288	252.12
424.511	233.12
424.733	253.12
424.956	259.12
425.178	247.12
425.401	258.12
425.623	243.12
425.846	258.12
426.068	229.12
426.291	249.12
426.513	230.12
426.735	252.12
426.958	248.12
427.18	234.12
427.402	253.12
427.625	242.12
427.847	225.12
428.069	232.12
428.292	215.12
428.514	241.12
428.736	212.12
428.958	234.12
429.181	227.12
429.403	221.12
429.625	237.12
429.847	226.12
430.069	209.12
430.292	220.12
430.514	232.12
430.736	231.12
430.958	219.12
431.18	213.12
431.402	242.12
431.624	236.12
431.846	225.12
432.068	237.12
432.29	214.12
432.512	219.12
432.734	239.12
432.956	249.12
433.178	234.12
433.4	247.12
433.622	242.12
433.844	247.12
434.066	243.12
434.287	233.12
434.509	246.12
434.731	243.12
434.953	241.12
435.175	260.12
435.397	254.12
435.618	237.12
435.84	228.12
436.062	262.12
436.284	221.12
436.505	236.12
436.727	241.12
436.949	240.12
437.17	234.12
437.392	232.12
437.614	240.12
437.835	220.12
438.057	230.12
438.278	247.12
438.5	247.12
438.721	231.12
438.943	244.12
439.165	248.12
439.386	247.12
439.608	241.12
439.829	240.12
440.05	227.12
440.272	263.12
440.493	242.12
440.715	255.12
440.936	267.12
441.158	247.12
441.379	249.12
441.6	256.12
441.822	265.12
442.043	257.12
442.264	265.12
442.486	265.12
442.707	258.12
442.928	264.12
443.149	268.12
443.371	256.12
443.592	268.12
443.813	271.12
444.034	261.12
444.255	287.12
444.476	274.12
444.698	279.12
444.919	304.12
445.14	405.12
445.361	304.12
445.582	275.12
445.803	282.12
446.024	258.12
446.245	255.12
446.466	261.12
446.687	257.12
446.908	266.12
447.129	257.12
447.35	252.12
447.571	268.12
447.792	244.12
448.013	240.12
448.234	246.12
448.455	245.12
448.675	247.12
448.896	238.12
449.117	225.12
449.338	233.12
449.559	232.12
449.779	227.12
450	231.12
450.221	225.12
450.442	230.12
450.662	227.12
450.883	238.12
451.104	245.12
451.324	247.12
451.545	240.12
451.766	243.12
451.986	215.12
452.207	230.12
452.428	227.12
452.648	236.12
452.869	233.12
453.089	225.12
453.31	228.12
453.53	226.12
453.751	241.12
453.971	208.12
454.192	216.12
454.412	219.12
454.633	223.12
454.853	205.12
455.073	220.12
455.294	220.12
455.514	243.12
455.734	211.12
455.955	195.12
456.175	226.12
456.395	216.12
456.616	212.12
456.836	210.12
457.056	229.12
457.276	218.12
457.497	228.12
457.717	229.12
457.937	213.12
458.157	231.12
458.377	211.12
458.598	207.12
458.818	223.12
459.038	201.12
459.258	238.12
459.478	233.12
459.698	237.12
459.918	230.12
460.138	255.12
460.358	257.12
460.578	268.12
460.798	268.12
461.018	273.12
461.238	261.12
461.458	261.12
461.678	255.12
461.898	267.12
462.118	267.12
462.338	278.12
462.558	268.12
462.777	290.12
462.997	314.12
463.217	322.12
463.437	321.12
463.657	294.12
463.876	289.12
464.096	283.12
464.316	304.12
464.536	292.12
464.755	285.12
464.975	267.12
465.195	263.12
465.414	247.12
465.634	265.12
465.854	248.12
466.073	236.12
466.293	254.12
466.512	255.12
466.732	242.12
466.951	239.12
467.171	227.12
467.391	225.12
467.61	225.12
467.829	245.12
468.049	245.12
468.268	230.12
468.488	227.12
468.707	232.12
468.927	247.12
469.146	212.12
469.365	239.12
469.585	240.12
469.804	231.12
470.023	239.12
470.243	249.12
470.462	236.12
470.681	245.12
470.901	239.12
471.12	236.12
471.339	257.12
471.558	241.12
471.777	242.12
471.997	237.12
472.216	229.12
472.435	248.12
472.654	228.12
472.873	211.12
473.092	220.12
473.311	229.12
473.53	232.12
473.749	207.12
473.968	226.12
474.187	221.12
474.406	219.12
474.625	212.12
474.844	237.12
475.063	230.12
475.282	239.12
475.501	251.12
475.72	227.12
475.939	203.12
476.158	230.12
476.377	233.12
476.596	229.12
476.814	248.12
477.033	237.12
477.252	242.12
477.471	248.12
477.69	251.12
477.908	238.12
478.127	259.12
478.346	261.12
478.564	248.12
478.783	266.12
479.002	267.12
479.22	258.12
479.439	254.12
479.658	232.12
479.876	258.12
480.095	268.12
480.313	277.12
480.532	275.12
480.751	248.12
480.969	274.12
481.188	257.12
481.406	243.12
481.624	244.12
481.843	242.12
482.061	246.12
482.28	260.12
482.498	249.12
482.717	248.12
482.935	242.12
483.153	259.12
483.372	252.12
483.59	260.12
483.808	243.12
484.027	247.12
484.245	255.12
484.463	251.12
484.681	249.12
484.9	266.12
485.118	264.12
485.336	249.12
485.554	246.12
485.772	248.12
485.99	259.12
486.209	257.12
486.427	266.12
486.645	255.12
486.863	242.12
487.081	246.12
487.299	266.12
487.517	259.12
487.735	263.12
487.953	261.12
488.171	271.12
488.389	243.12
488.607	254.12
488.825	248.12
489.043	251.12
489.261	256.12
489.479	259.12
489.696	263.12
489.914	261.12
490.132	270.12
490.35	277.12
490.568	280.12
490.786	265.12
491.003	277.12
491.221	250.12
491.439	270.12
491.657	275.12
491.874	292.12
492.092	272.12
492.31	280.12
492.527	290.12
492.745	277.12
492.963	277.12
493.18	271.12
493.398	276.12
493.615	285.12
493.833	270.12
494.05	274.12
494.268	264.12
494.485	260.12
494.703	282.12
494.92	279.12
495.138	281.12
495.355	263.12
495.573	284.12
495.79	277.12
496.008	294.12
496.225	267.12
496.442	303.12
496.66	293.12
496.877	288.12
497.094	291.12
497.312	300.12
497.529	306.12
497.746	291.12
497.963	305.12
498.181	285.12
498.398	298.12
498.615	330.12
498.832	317.12
499.049	358.12
499.267	371.12
499.484	400.12
499.701	420.12
499.918	457.12
500.135	484.12
500.352	540.12
500.569	563.12
500.786	549.12
501.003	512.12
501.22	463.12
501.437	434.12
501.654	394.12
501.871	376.12
502.088	365.12
502.305	350.12
502.522	336.12
502.739	324.12
502.956	303.12
503.172	302.12
503.389	283.12
