Data from Fe(NO3)3@0.0125M.TitratingCurve.Agarose3%dH2O.NegLispCup.LampEnergy10.LIBS07252019_HRD10591_17-00-33-336.txt Node
Date: Thu Jul 25 17:00:33 EDT 2019
User: cochatt
Spectrometer: HR+D1059
Trigger mode: 1
Integration Time (sec): 1.000000E-1
Scans to average: 1
Electric dark correction enabled: true
Nonlinearity correction enabled: false
Boxcar width: 0
XAxis mode: Wavelengths
Number of Pixels in Spectrum: 2048
>>>>>Begin Spectral Data<<<<<
223.165	-22.12
223.4	-22.12
223.635	-22.12
223.869	-26.12
224.104	-16.12
224.338	-13.12
224.573	2.88
224.808	-21.12
225.042	1.88
225.277	-3.12
225.511	-13.12
225.746	-1.12
225.98	-0.12
226.215	15.88
226.449	10.88
226.683	25.88
226.918	21.88
227.152	36.88
227.387	31.88
227.621	36.88
227.856	52.88
228.09	56.88
228.324	42.88
228.559	64.88
228.793	66.88
229.027	71.88
229.262	80.88
229.496	73.88
229.73	84.88
229.964	96.88
230.199	94.88
230.433	78.88
230.667	88.88
230.901	101.88
231.136	96.88
231.37	96.88
231.604	81.88
231.838	89.88
232.072	101.88
232.306	84.88
232.541	117.88
232.775	102.88
233.009	97.88
233.243	99.88
233.477	117.88
233.711	100.88
233.945	106.88
234.179	97.88
234.413	102.88
234.647	111.88
234.881	110.88
235.115	120.88
235.349	112.88
235.583	95.88
235.817	100.88
236.051	108.88
236.285	118.88
236.519	111.88
236.753	102.88
236.987	100.88
237.221	102.88
237.455	87.88
237.689	100.88
237.922	84.88
238.156	113.88
238.39	102.88
238.624	102.88
238.858	97.88
239.091	106.88
239.325	117.88
239.559	104.88
239.793	96.88
240.027	114.88
240.26	120.88
240.494	114.88
240.728	124.88
240.961	111.88
241.195	118.88
241.429	112.88
241.662	118.88
241.896	120.88
242.13	113.88
242.363	109.88
242.597	117.88
242.83	121.88
243.064	125.88
243.298	122.88
243.531	110.88
243.765	134.88
243.998	129.88
244.232	129.88
244.465	117.88
244.699	126.88
244.932	116.88
245.166	120.88
245.399	136.88
245.633	132.88
245.866	111.88
246.099	124.88
246.333	114.88
246.566	124.88
246.8	146.88
247.033	144.88
247.266	129.88
247.5	122.88
247.733	118.88
247.966	126.88
248.2	144.88
248.433	137.88
248.666	131.88
248.899	122.88
249.133	136.88
249.366	152.88
249.599	149.88
249.832	132.88
250.066	128.88
250.299	133.88
250.532	121.88
250.765	126.88
250.998	124.88
251.231	134.88
251.465	136.88
251.698	132.88
251.931	132.88
252.164	131.88
252.397	133.88
252.63	157.88
252.863	142.88
253.096	128.88
253.329	139.88
253.562	146.88
253.795	140.88
254.028	145.88
254.261	126.88
254.494	144.88
254.727	137.88
254.96	150.88
255.193	139.88
255.426	143.88
255.659	149.88
255.892	150.88
256.124	143.88
256.357	152.88
256.59	148.88
256.823	164.88
257.056	152.88
257.289	158.88
257.521	145.88
257.754	159.88
257.987	168.88
258.22	144.88
258.452	144.88
258.685	152.88
258.918	148.88
259.151	153.88
259.383	154.88
259.616	156.88
259.849	160.88
260.081	166.88
260.314	186.88
260.547	153.88
260.779	159.88
261.012	163.88
261.244	181.88
261.477	181.88
261.71	155.88
261.942	159.88
262.175	161.88
262.407	179.88
262.64	164.88
262.872	169.88
263.105	181.88
263.337	188.88
263.57	166.88
263.802	179.88
264.035	176.88
264.267	174.88
264.499	178.88
264.732	175.88
264.964	168.88
265.197	155.88
265.429	180.88
265.661	179.88
265.894	177.88
266.126	174.88
266.358	174.88
266.591	164.88
266.823	182.88
267.055	189.88
267.287	180.88
267.52	165.88
267.752	168.88
267.984	164.88
268.216	169.88
268.448	180.88
268.681	185.88
268.913	189.88
269.145	185.88
269.377	176.88
269.609	174.88
269.841	172.88
270.073	176.88
270.306	182.88
270.538	198.88
270.77	190.88
271.002	191.88
271.234	207.88
271.466	181.88
271.698	191.88
271.93	192.88
272.162	188.88
272.394	194.88
272.626	193.88
272.858	186.88
273.09	180.88
273.322	198.88
273.553	193.88
273.785	211.88
274.017	201.88
274.249	210.88
274.481	211.88
274.713	229.88
274.945	217.88
275.176	208.88
275.408	212.88
275.64	196.88
275.872	217.88
276.104	208.88
276.335	210.88
276.567	199.88
276.799	208.88
277.031	211.88
277.262	205.88
277.494	208.88
277.726	211.88
277.957	198.88
278.189	217.88
278.421	222.88
278.652	207.88
278.884	210.88
279.115	219.88
279.347	209.88
279.579	218.88
279.81	214.88
280.042	220.88
280.273	220.88
280.505	215.88
280.736	219.88
280.968	223.88
281.199	232.88
281.431	225.88
281.662	215.88
281.894	212.88
282.125	216.88
282.356	221.88
282.588	213.88
282.819	228.88
283.051	218.88
283.282	216.88
283.513	232.88
283.745	221.88
283.976	228.88
284.207	234.88
284.439	226.88
284.67	237.88
284.901	229.88
285.132	227.88
285.364	231.88
285.595	233.88
285.826	229.88
286.057	217.88
286.288	241.88
286.52	222.88
286.751	254.88
286.982	252.88
287.213	230.88
287.444	243.88
287.675	225.88
287.906	232.88
288.138	233.88
288.369	222.88
288.6	252.88
288.831	258.88
289.062	239.88
289.293	231.88
289.524	238.88
289.755	240.88
289.986	238.88
290.217	254.88
290.448	242.88
290.679	255.88
290.91	244.88
291.141	242.88
291.371	221.88
291.602	236.88
291.833	240.88
292.064	259.88
292.295	252.88
292.526	244.88
292.757	249.88
292.987	248.88
293.218	248.88
293.449	246.88
293.68	255.88
293.91	257.88
294.141	249.88
294.372	262.88
294.603	262.88
294.833	260.88
295.064	260.88
295.295	261.88
295.525	236.88
295.756	247.88
295.987	241.88
296.217	241.88
296.448	270.88
296.679	260.88
296.909	264.88
297.14	248.88
297.37	294.88
297.601	266.88
297.831	274.88
298.062	253.88
298.292	276.88
298.523	285.88
298.753	254.88
298.984	271.88
299.214	274.88
299.445	260.88
299.675	257.88
299.905	251.88
300.136	272.88
300.366	272.88
300.597	277.88
300.827	300.88
301.057	270.88
301.288	295.88
301.518	280.88
301.748	274.88
301.979	269.88
302.209	275.88
302.439	275.88
302.669	263.88
302.9	296.88
303.13	282.88
303.36	279.88
303.59	272.88
303.82	287.88
304.051	286.88
304.281	272.88
304.511	276.88
304.741	286.88
304.971	267.88
305.201	285.88
305.431	260.88
305.661	304.88
305.891	289.88
306.121	285.88
306.352	293.88
306.582	287.88
306.812	276.88
307.042	295.88
307.272	283.88
307.502	267.88
307.731	285.88
307.961	279.88
308.191	310.88
308.421	295.88
308.651	290.88
308.881	288.88
309.111	297.88
309.341	288.88
309.571	284.88
309.8	297.88
310.03	292.88
310.26	294.88
310.49	303.88
310.72	310.88
310.949	289.88
311.179	296.88
311.409	287.88
311.639	297.88
311.868	306.88
312.098	295.88
312.328	295.88
312.557	285.88
312.787	289.88
313.017	314.88
313.246	299.88
313.476	298.88
313.706	292.88
313.935	288.88
314.165	311.88
314.394	313.88
314.624	324.88
314.853	300.88
315.083	310.88
315.312	321.88
315.542	310.88
315.771	319.88
316.001	306.88
316.23	318.88
316.46	312.88
316.689	319.88
316.919	311.88
317.148	308.88
317.377	312.88
317.607	314.88
317.836	305.88
318.065	327.88
318.295	319.88
318.524	314.88
318.753	304.88
318.983	328.88
319.212	322.88
319.441	338.88
319.67	328.88
319.9	327.88
320.129	312.88
320.358	324.88
320.587	317.88
320.816	322.88
321.046	322.88
321.275	321.88
321.504	336.88
321.733	333.88
321.962	322.88
322.191	323.88
322.42	318.88
322.649	330.88
322.878	324.88
323.108	325.88
323.337	329.88
323.566	310.88
323.795	316.88
324.024	326.88
324.253	332.88
324.482	340.88
324.71	332.88
324.939	310.88
325.168	349.88
325.397	326.88
325.626	330.88
325.855	326.88
326.084	342.88
326.313	330.88
326.542	354.88
326.77	334.88
326.999	343.88
327.228	336.88
327.457	350.88
327.686	344.88
327.914	330.88
328.143	355.88
328.372	344.88
328.6	345.88
328.829	346.88
329.058	335.88
329.287	354.88
329.515	358.88
329.744	342.88
329.972	361.88
330.201	335.88
330.43	343.88
330.658	360.88
330.887	354.88
331.115	351.88
331.344	346.88
331.572	362.88
331.801	368.88
332.03	350.88
332.258	362.88
332.486	363.88
332.715	361.88
332.943	376.88
333.172	380.88
333.4	373.88
333.629	394.88
333.857	385.88
334.085	398.88
334.314	393.88
334.542	384.88
334.771	398.88
334.999	387.88
335.227	414.88
335.455	402.88
335.684	393.88
335.912	384.88
336.14	380.88
336.369	393.88
336.597	393.88
336.825	395.88
337.053	380.88
337.281	388.88
337.51	393.88
337.738	408.88
337.966	385.88
338.194	387.88
338.422	377.88
338.65	400.88
338.878	381.88
339.106	362.88
339.334	388.88
339.562	380.88
339.79	374.88
340.018	374.88
340.246	369.88
340.474	355.88
340.702	367.88
340.93	370.88
341.158	370.88
341.386	368.88
341.614	356.88
341.842	367.88
342.07	373.88
342.298	360.88
342.526	360.88
342.754	364.88
342.981	364.88
343.209	364.88
343.437	380.88
343.665	377.88
343.893	382.88
344.12	380.88
344.348	383.88
344.576	391.88
344.804	368.88
345.031	365.88
345.259	378.88
345.487	381.88
345.714	374.88
345.942	373.88
346.17	356.88
346.397	367.88
346.625	360.88
346.853	364.88
347.08	376.88
347.308	377.88
347.535	365.88
347.763	355.88
347.99	369.88
348.218	360.88
348.445	346.88
348.673	344.88
348.9	370.88
349.128	381.88
349.355	359.88
349.583	359.88
349.81	368.88
350.037	348.88
350.265	342.88
350.492	356.88
350.72	345.88
350.947	360.88
351.174	375.88
351.402	379.88
351.629	362.88
351.856	361.88
352.083	349.88
352.311	362.88
352.538	358.88
352.765	357.88
352.992	376.88
353.22	358.88
353.447	370.88
353.674	350.88
353.901	340.88
354.128	357.88
354.355	361.88
354.583	377.88
354.81	380.88
355.037	377.88
355.264	360.88
355.491	357.88
355.718	361.88
355.945	347.88
356.172	368.88
356.399	357.88
356.626	350.88
356.853	377.88
357.08	366.88
357.307	369.88
357.534	387.88
357.761	370.88
357.988	377.88
358.215	366.88
358.441	370.88
358.668	356.88
358.895	356.88
359.122	353.88
359.349	352.88
359.576	369.88
359.802	358.88
360.029	354.88
360.256	374.88
360.483	376.88
360.709	382.88
360.936	375.88
361.163	382.88
361.39	376.88
361.616	366.88
361.843	382.88
362.07	366.88
362.296	358.88
362.523	360.88
362.749	377.88
362.976	385.88
363.203	371.88
363.429	366.88
363.656	357.88
363.882	372.88
364.109	368.88
364.335	365.88
364.562	363.88
364.788	370.88
365.015	366.88
365.241	404.88
365.468	381.88
365.694	368.88
365.92	389.88
366.147	353.88
366.373	341.88
366.599	383.88
366.826	376.88
367.052	360.88
367.278	380.88
367.505	367.88
367.731	383.88
367.957	377.88
368.184	360.88
368.41	384.88
368.636	364.88
368.862	385.88
369.089	382.88
369.315	386.88
369.541	397.88
369.767	374.88
369.993	374.88
370.219	392.88
370.445	381.88
370.672	407.88
370.898	377.88
371.124	403.88
371.35	408.88
371.576	405.88
371.802	408.88
372.028	419.88
372.254	416.88
372.48	393.88
372.706	402.88
372.932	391.88
373.158	404.88
373.384	409.88
373.61	404.88
373.835	413.88
374.061	414.88
374.287	396.88
374.513	409.88
374.739	416.88
374.965	422.88
375.191	420.88
375.416	402.88
375.642	417.88
375.868	417.88
376.094	405.88
376.319	410.88
376.545	432.88
376.771	397.88
376.997	393.88
377.222	400.88
377.448	404.88
377.674	396.88
377.899	408.88
378.125	390.88
378.35	380.88
378.576	397.88
378.802	382.88
379.027	411.88
379.253	395.88
379.478	393.88
379.704	402.88
379.929	387.88
380.155	410.88
380.38	394.88
380.606	403.88
380.831	423.88
381.057	393.88
381.282	389.88
381.507	426.88
381.733	402.88
381.958	414.88
382.184	425.88
382.409	423.88
382.634	407.88
382.86	413.88
383.085	436.88
383.31	404.88
383.535	401.88
383.761	448.88
383.986	420.88
384.211	400.88
384.436	407.88
384.662	429.88
384.887	434.88
385.112	412.88
385.337	434.88
385.562	459.88
385.787	449.88
386.013	448.88
386.238	457.88
386.463	433.88
386.688	440.88
386.913	436.88
387.138	445.88
387.363	458.88
387.588	444.88
387.813	432.88
388.038	447.88
388.263	440.88
388.488	457.88
388.713	479.88
388.938	452.88
389.163	461.88
389.387	442.88
389.612	457.88
389.837	458.88
390.062	442.88
390.287	457.88
390.512	472.88
390.736	454.88
390.961	448.88
391.186	464.88
391.411	463.88
391.636	485.88
391.86	484.88
392.085	483.88
392.31	478.88
392.534	467.88
392.759	499.88
392.984	490.88
393.208	492.88
393.433	484.88
393.658	491.88
393.882	496.88
394.107	470.88
394.331	476.88
394.556	489.88
394.78	499.88
395.005	468.88
395.229	480.88
395.454	478.88
395.678	500.88
395.903	484.88
396.127	494.88
396.352	492.88
396.576	477.88
396.801	489.88
397.025	507.88
397.249	490.88
397.474	488.88
397.698	506.88
397.922	515.88
398.147	516.88
398.371	517.88
398.595	522.88
398.82	521.88
399.044	547.88
399.268	558.88
399.492	598.88
399.717	616.88
399.941	617.88
400.165	595.88
400.389	566.88
400.613	553.88
400.837	572.88
401.062	565.88
401.286	539.88
401.51	544.88
401.734	523.88
401.958	538.88
402.182	525.88
402.406	536.88
402.63	518.88
402.854	516.88
403.078	519.88
403.302	546.88
403.526	526.88
403.75	554.88
403.974	540.88
404.198	559.88
404.422	543.88
404.645	565.88
404.869	558.88
405.093	565.88
405.317	539.88
405.541	567.88
405.765	570.88
405.988	566.88
406.212	561.88
406.436	585.88
406.66	581.88
406.883	587.88
407.107	583.88
407.331	600.88
407.555	581.88
407.778	602.88
408.002	608.88
408.226	628.88
408.449	622.88
408.673	590.88
408.896	585.88
409.12	589.88
409.344	601.88
409.567	582.88
409.791	588.88
410.014	589.88
410.238	578.88
410.461	572.88
410.685	581.88
410.908	554.88
411.132	562.88
411.355	561.88
411.578	572.88
411.802	571.88
412.025	546.88
412.249	570.88
412.472	579.88
412.695	544.88
412.919	564.88
413.142	542.88
413.365	548.88
413.589	553.88
413.812	529.88
414.035	540.88
414.258	553.88
414.482	576.88
414.705	550.88
414.928	541.88
415.151	567.88
415.374	536.88
415.597	527.88
415.821	529.88
416.044	532.88
416.267	508.88
416.49	532.88
416.713	513.88
416.936	519.88
417.159	533.88
417.382	522.88
417.605	499.88
417.828	520.88
418.051	512.88
418.274	498.88
418.497	504.88
418.72	527.88
418.943	539.88
419.166	550.88
419.389	568.88
419.611	549.88
419.834	552.88
420.057	570.88
420.28	522.88
420.503	513.88
420.726	508.88
420.948	524.88
421.171	531.88
421.394	519.88
421.617	522.88
421.839	514.88
422.062	520.88
422.285	529.88
422.507	535.88
422.73	519.88
422.953	510.88
423.175	528.88
423.398	543.88
423.621	508.88
423.843	528.88
424.066	521.88
424.288	513.88
424.511	536.88
424.733	515.88
424.956	513.88
425.178	513.88
425.401	490.88
425.623	514.88
425.846	479.88
426.068	529.88
426.291	533.88
426.513	533.88
426.735	506.88
426.958	503.88
427.18	497.88
427.402	513.88
427.625	511.88
427.847	500.88
428.069	512.88
428.292	493.88
428.514	528.88
428.736	523.88
428.958	507.88
429.181	482.88
429.403	502.88
429.625	494.88
429.847	494.88
430.069	478.88
430.292	505.88
430.514	501.88
430.736	520.88
430.958	499.88
431.18	508.88
431.402	487.88
431.624	496.88
431.846	504.88
432.068	495.88
432.29	487.88
432.512	498.88
432.734	537.88
432.956	498.88
433.178	494.88
433.4	487.88
433.622	494.88
433.844	484.88
434.066	485.88
434.287	510.88
434.509	533.88
434.731	514.88
434.953	525.88
435.175	510.88
435.397	530.88
435.618	519.88
435.84	486.88
436.062	508.88
436.284	510.88
436.505	527.88
436.727	501.88
436.949	516.88
437.17	497.88
437.392	502.88
437.614	492.88
437.835	510.88
438.057	489.88
438.278	487.88
438.5	489.88
438.721	499.88
438.943	512.88
439.165	488.88
439.386	476.88
439.608	502.88
439.829	496.88
440.05	477.88
440.272	485.88
440.493	490.88
440.715	518.88
440.936	516.88
441.158	522.88
441.379	515.88
441.6	480.88
441.822	499.88
442.043	526.88
442.264	489.88
442.486	497.88
442.707	532.88
442.928	527.88
443.149	509.88
443.371	498.88
443.592	504.88
443.813	520.88
444.034	497.88
444.255	512.88
444.476	529.88
444.698	541.88
444.919	572.88
445.14	612.88
445.361	559.88
445.582	547.88
445.803	518.88
446.024	485.88
446.245	499.88
446.466	504.88
446.687	489.88
446.908	497.88
447.129	510.88
447.35	477.88
447.571	499.88
447.792	475.88
448.013	480.88
448.234	473.88
448.455	481.88
448.675	488.88
448.896	475.88
449.117	478.88
449.338	457.88
449.559	475.88
449.779	468.88
450	465.88
450.221	457.88
450.442	449.88
450.662	453.88
450.883	473.88
451.104	486.88
451.324	472.88
451.545	473.88
451.766	468.88
451.986	465.88
452.207	460.88
452.428	462.88
452.648	460.88
452.869	457.88
453.089	457.88
453.31	444.88
453.53	436.88
453.751	435.88
453.971	434.88
454.192	464.88
454.412	441.88
454.633	459.88
454.853	436.88
455.073	449.88
455.294	441.88
455.514	451.88
455.734	470.88
455.955	460.88
456.175	464.88
456.395	462.88
456.616	445.88
456.836	440.88
457.056	457.88
457.276	458.88
457.497	461.88
457.717	456.88
457.937	446.88
458.157	478.88
458.377	465.88
458.598	457.88
458.818	465.88
459.038	485.88
459.258	481.88
459.478	472.88
459.698	496.88
459.918	506.88
460.138	507.88
460.358	526.88
460.578	512.88
460.798	534.88
461.018	549.88
461.238	544.88
461.458	550.88
461.678	531.88
461.898	566.88
462.118	558.88
462.338	552.88
462.558	571.88
462.777	583.88
462.997	565.88
463.217	573.88
463.437	592.88
463.657	584.88
463.876	582.88
464.096	585.88
464.316	563.88
464.536	560.88
464.755	564.88
464.975	569.88
465.195	557.88
465.414	550.88
465.634	525.88
465.854	511.88
466.073	541.88
466.293	506.88
466.512	509.88
466.732	508.88
466.951	516.88
467.171	524.88
467.391	513.88
467.61	510.88
467.829	493.88
468.049	497.88
468.268	501.88
468.488	506.88
468.707	502.88
468.927	507.88
469.146	506.88
469.365	486.88
469.585	514.88
469.804	518.88
470.023	500.88
470.243	484.88
470.462	477.88
470.681	504.88
470.901	488.88
471.12	511.88
471.339	512.88
471.558	492.88
471.777	477.88
471.997	512.88
472.216	495.88
472.435	516.88
472.654	483.88
472.873	507.88
473.092	518.88
473.311	490.88
473.53	498.88
473.749	496.88
473.968	513.88
474.187	489.88
474.406	504.88
474.625	494.88
474.844	525.88
475.063	508.88
475.282	504.88
475.501	500.88
475.72	509.88
475.939	510.88
476.158	526.88
476.377	526.88
476.596	542.88
476.814	552.88
477.033	538.88
477.252	538.88
477.471	550.88
477.69	562.88
477.908	542.88
478.127	562.88
478.346	567.88
478.564	586.88
478.783	567.88
479.002	595.88
479.22	562.88
479.439	599.88
479.658	581.88
479.876	592.88
480.095	590.88
480.313	579.88
480.532	604.88
480.751	612.88
480.969	589.88
481.188	595.88
481.406	596.88
481.624	609.88
481.843	570.88
482.061	562.88
482.28	594.88
482.498	567.88
482.717	592.88
482.935	587.88
483.153	600.88
483.372	612.88
483.59	602.88
483.808	587.88
484.027	573.88
484.245	588.88
484.463	607.88
484.681	630.88
484.9	626.88
485.118	604.88
485.336	603.88
485.554	615.88
485.772	591.88
485.99	592.88
486.209	625.88
486.427	622.88
486.645	623.88
486.863	625.88
487.081	608.88
487.299	626.88
487.517	598.88
487.735	602.88
487.953	616.88
488.171	618.88
488.389	637.88
488.607	634.88
488.825	620.88
489.043	603.88
489.261	628.88
489.479	604.88
489.696	622.88
489.914	619.88
490.132	611.88
490.35	622.88
490.568	625.88
490.786	638.88
491.003	637.88
491.221	621.88
491.439	631.88
491.657	622.88
491.874	629.88
492.092	628.88
492.31	657.88
492.527	620.88
492.745	614.88
492.963	652.88
493.18	624.88
493.398	622.88
493.615	641.88
493.833	661.88
494.05	633.88
494.268	640.88
494.485	639.88
494.703	671.88
494.92	646.88
495.138	661.88
495.355	665.88
495.573	664.88
495.79	638.88
496.008	652.88
496.225	669.88
496.442	687.88
496.66	697.88
496.877	705.88
497.094	689.88
497.312	678.88
497.529	722.88
497.746	702.88
497.963	716.88
498.181	740.88
498.398	757.88
498.615	765.88
498.832	773.88
499.049	809.88
499.267	842.88
499.484	879.88
499.701	908.88
499.918	947.88
500.135	982.88
500.352	1005.88
500.569	1016.88
500.786	1022.88
501.003	992.88
501.22	968.88
501.437	947.88
501.654	927.88
501.871	869.88
