Data from Fe(NO3)3@0.1M.TitratingCurve.Agarose3%dH2O.NegLispCup.LampEnergy10.LIBS07252019_HRD10591_16-41-45-333.txt Node
Date: Thu Jul 25 16:41:45 EDT 2019
User: cochatt
Spectrometer: HR+D1059
Trigger mode: 1
Integration Time (sec): 1.000000E-1
Scans to average: 1
Electric dark correction enabled: true
Nonlinearity correction enabled: false
Boxcar width: 0
XAxis mode: Wavelengths
Number of Pixels in Spectrum: 2048
>>>>>Begin Spectral Data<<<<<
223.165	-24.44
223.4	-24.44
223.635	-24.44
223.869	-21.44
224.104	-3.44
224.338	-9.44
224.573	-1.44
224.808	2.56
225.042	-22.44
225.277	-10.44
225.511	-0.44
225.746	-1.44
225.98	8.56
226.215	8.56
226.449	11.56
226.683	12.56
226.918	23.56
227.152	27.56
227.387	25.56
227.621	48.56
227.856	47.56
228.09	38.56
228.324	35.56
228.559	47.56
228.793	63.56
229.027	63.56
229.262	56.56
229.496	57.56
229.73	83.56
229.964	95.56
230.199	94.56
230.433	78.56
230.667	83.56
230.901	71.56
231.136	75.56
231.37	89.56
231.604	85.56
231.838	81.56
232.072	84.56
232.306	74.56
232.541	97.56
232.775	87.56
233.009	91.56
233.243	104.56
233.477	98.56
233.711	86.56
233.945	86.56
234.179	97.56
234.413	91.56
234.647	87.56
234.881	99.56
235.115	85.56
235.349	82.56
235.583	83.56
235.817	91.56
236.051	90.56
236.285	84.56
236.519	88.56
236.753	71.56
236.987	84.56
237.221	81.56
237.455	84.56
237.689	93.56
237.922	89.56
238.156	86.56
238.39	85.56
238.624	85.56
238.858	84.56
239.091	65.56
239.325	75.56
239.559	87.56
239.793	77.56
240.027	92.56
240.26	90.56
240.494	86.56
240.728	99.56
240.961	82.56
241.195	85.56
241.429	79.56
241.662	92.56
241.896	96.56
242.13	89.56
242.363	102.56
242.597	77.56
242.83	91.56
243.064	84.56
243.298	91.56
243.531	71.56
243.765	86.56
243.998	84.56
244.232	86.56
244.465	87.56
244.699	103.56
244.932	92.56
245.166	100.56
245.399	104.56
245.633	84.56
245.866	92.56
246.099	81.56
246.333	86.56
246.566	93.56
246.8	108.56
247.033	83.56
247.266	91.56
247.5	96.56
247.733	87.56
247.966	95.56
248.2	99.56
248.433	93.56
248.666	89.56
248.899	96.56
249.133	111.56
249.366	96.56
249.599	97.56
249.832	90.56
250.066	89.56
250.299	91.56
250.532	97.56
250.765	86.56
250.998	83.56
251.231	105.56
251.465	97.56
251.698	94.56
251.931	98.56
252.164	105.56
252.397	104.56
252.63	95.56
252.863	86.56
253.096	89.56
253.329	103.56
253.562	106.56
253.795	91.56
254.028	95.56
254.261	96.56
254.494	105.56
254.727	106.56
254.96	101.56
255.193	98.56
255.426	101.56
255.659	97.56
255.892	109.56
256.124	98.56
256.357	105.56
256.59	95.56
256.823	109.56
257.056	102.56
257.289	109.56
257.521	119.56
257.754	99.56
257.987	101.56
258.22	105.56
258.452	98.56
258.685	92.56
258.918	109.56
259.151	104.56
259.383	92.56
259.616	104.56
259.849	99.56
260.081	108.56
260.314	117.56
260.547	109.56
260.779	123.56
261.012	115.56
261.244	104.56
261.477	103.56
261.71	104.56
261.942	104.56
262.175	104.56
262.407	107.56
262.64	106.56
262.872	107.56
263.105	100.56
263.337	122.56
263.57	114.56
263.802	101.56
264.035	116.56
264.267	123.56
264.499	103.56
264.732	114.56
264.964	99.56
265.197	109.56
265.429	106.56
265.661	112.56
265.894	100.56
266.126	115.56
266.358	115.56
266.591	97.56
266.823	101.56
267.055	107.56
267.287	108.56
267.52	111.56
267.752	113.56
267.984	114.56
268.216	102.56
268.448	111.56
268.681	93.56
268.913	108.56
269.145	116.56
269.377	101.56
269.609	115.56
269.841	113.56
270.073	106.56
270.306	114.56
270.538	113.56
270.77	112.56
271.002	116.56
271.234	120.56
271.466	115.56
271.698	121.56
271.93	119.56
272.162	104.56
272.394	127.56
272.626	114.56
272.858	117.56
273.09	117.56
273.322	113.56
273.553	108.56
273.785	109.56
274.017	123.56
274.249	117.56
274.481	105.56
274.713	113.56
274.945	121.56
275.176	116.56
275.408	121.56
275.64	113.56
275.872	123.56
276.104	123.56
276.335	121.56
276.567	116.56
276.799	107.56
277.031	123.56
277.262	131.56
277.494	122.56
277.726	126.56
277.957	125.56
278.189	117.56
278.421	133.56
278.652	118.56
278.884	124.56
279.115	108.56
279.347	123.56
279.579	125.56
279.81	127.56
280.042	133.56
280.273	116.56
280.505	129.56
280.736	126.56
280.968	126.56
281.199	123.56
281.431	133.56
281.662	126.56
281.894	139.56
282.125	129.56
282.356	124.56
282.588	131.56
282.819	126.56
283.051	135.56
283.282	128.56
283.513	130.56
283.745	138.56
283.976	131.56
284.207	122.56
284.439	140.56
284.67	128.56
284.901	117.56
285.132	147.56
285.364	127.56
285.595	141.56
285.826	146.56
286.057	146.56
286.288	131.56
286.52	121.56
286.751	127.56
286.982	126.56
287.213	143.56
287.444	123.56
287.675	141.56
287.906	147.56
288.138	127.56
288.369	131.56
288.6	133.56
288.831	138.56
289.062	141.56
289.293	136.56
289.524	114.56
289.755	142.56
289.986	148.56
290.217	142.56
290.448	124.56
290.679	145.56
290.91	132.56
291.141	133.56
291.371	115.56
291.602	153.56
291.833	143.56
292.064	129.56
292.295	131.56
292.526	135.56
292.757	144.56
292.987	136.56
293.218	126.56
293.449	137.56
293.68	148.56
293.91	150.56
294.141	136.56
294.372	136.56
294.603	129.56
294.833	125.56
295.064	144.56
295.295	135.56
295.525	127.56
295.756	131.56
295.987	132.56
296.217	132.56
296.448	139.56
296.679	136.56
296.909	141.56
297.14	139.56
297.37	145.56
297.601	139.56
297.831	147.56
298.062	143.56
298.292	149.56
298.523	153.56
298.753	156.56
298.984	148.56
299.214	136.56
299.445	138.56
299.675	141.56
299.905	162.56
300.136	161.56
300.366	148.56
300.597	156.56
300.827	159.56
301.057	151.56
301.288	155.56
301.518	163.56
301.748	162.56
301.979	160.56
302.209	141.56
302.439	151.56
302.669	145.56
302.9	148.56
303.13	153.56
303.36	147.56
303.59	136.56
303.82	151.56
304.051	155.56
304.281	146.56
304.511	148.56
304.741	155.56
304.971	152.56
305.201	146.56
305.431	163.56
305.661	159.56
305.891	147.56
306.121	148.56
306.352	148.56
306.582	141.56
306.812	147.56
307.042	162.56
307.272	149.56
307.502	149.56
307.731	132.56
307.961	145.56
308.191	155.56
308.421	159.56
308.651	151.56
308.881	133.56
309.111	140.56
309.341	162.56
309.571	146.56
309.8	162.56
310.03	164.56
310.26	169.56
310.49	141.56
310.72	157.56
310.949	165.56
311.179	148.56
311.409	147.56
311.639	146.56
311.868	139.56
312.098	153.56
312.328	157.56
312.557	156.56
312.787	143.56
313.017	163.56
313.246	161.56
313.476	149.56
313.706	176.56
313.935	156.56
314.165	170.56
314.394	166.56
314.624	162.56
314.853	161.56
315.083	153.56
315.312	149.56
315.542	137.56
315.771	165.56
316.001	152.56
316.23	175.56
316.46	166.56
316.689	159.56
316.919	156.56
317.148	159.56
317.377	176.56
317.607	161.56
317.836	163.56
318.065	161.56
318.295	163.56
318.524	148.56
318.753	162.56
318.983	147.56
319.212	173.56
319.441	177.56
319.67	165.56
319.9	155.56
320.129	143.56
320.358	166.56
320.587	152.56
320.816	164.56
321.046	160.56
321.275	156.56
321.504	175.56
321.733	150.56
321.962	157.56
322.191	171.56
322.42	150.56
322.649	169.56
322.878	171.56
323.108	155.56
323.337	164.56
323.566	167.56
323.795	181.56
324.024	169.56
324.253	168.56
324.482	172.56
324.71	155.56
324.939	163.56
325.168	163.56
325.397	173.56
325.626	155.56
325.855	171.56
326.084	163.56
326.313	172.56
326.542	168.56
326.77	156.56
326.999	166.56
327.228	175.56
327.457	177.56
327.686	181.56
327.914	155.56
328.143	179.56
328.372	180.56
328.6	185.56
328.829	185.56
329.058	162.56
329.287	165.56
329.515	165.56
329.744	182.56
329.972	156.56
330.201	177.56
330.43	171.56
330.658	173.56
330.887	168.56
331.115	175.56
331.344	167.56
331.572	189.56
331.801	194.56
332.03	186.56
332.258	192.56
332.486	175.56
332.715	196.56
332.943	205.56
333.172	195.56
333.4	200.56
333.629	219.56
333.857	210.56
334.085	204.56
334.314	194.56
334.542	191.56
334.771	194.56
334.999	179.56
335.227	175.56
335.455	210.56
335.684	192.56
335.912	196.56
336.14	192.56
336.369	195.56
336.597	188.56
336.825	188.56
337.053	195.56
337.281	207.56
337.51	180.56
337.738	175.56
337.966	196.56
338.194	171.56
338.422	168.56
338.65	187.56
338.878	172.56
339.106	176.56
339.334	191.56
339.562	178.56
339.79	177.56
340.018	185.56
340.246	196.56
340.474	185.56
340.702	192.56
340.93	176.56
341.158	191.56
341.386	165.56
341.614	192.56
341.842	172.56
342.07	187.56
342.298	191.56
342.526	160.56
342.754	185.56
342.981	186.56
343.209	195.56
343.437	195.56
343.665	199.56
343.893	186.56
344.12	189.56
344.348	214.56
344.576	187.56
344.804	199.56
345.031	189.56
345.259	188.56
345.487	179.56
345.714	181.56
345.942	175.56
346.17	172.56
346.397	171.56
346.625	188.56
346.853	204.56
347.08	191.56
347.308	175.56
347.535	185.56
347.763	179.56
347.99	190.56
348.218	183.56
348.445	193.56
348.673	176.56
348.9	183.56
349.128	179.56
349.355	168.56
349.583	179.56
349.81	175.56
350.037	191.56
350.265	179.56
350.492	170.56
350.72	166.56
350.947	163.56
351.174	187.56
351.402	159.56
351.629	190.56
351.856	172.56
352.083	175.56
352.311	171.56
352.538	164.56
352.765	184.56
352.992	183.56
353.22	168.56
353.447	148.56
353.674	183.56
353.901	171.56
354.128	185.56
354.355	175.56
354.583	182.56
354.81	191.56
355.037	183.56
355.264	181.56
355.491	166.56
355.718	176.56
355.945	194.56
356.172	172.56
356.399	169.56
356.626	188.56
356.853	187.56
357.08	185.56
357.307	182.56
357.534	170.56
357.761	161.56
357.988	194.56
358.215	181.56
358.441	176.56
358.668	169.56
358.895	154.56
359.122	167.56
359.349	144.56
359.576	166.56
359.802	164.56
360.029	164.56
360.256	180.56
360.483	175.56
360.709	179.56
360.936	178.56
361.163	158.56
361.39	179.56
361.616	179.56
361.843	192.56
362.07	188.56
362.296	166.56
362.523	180.56
362.749	193.56
362.976	195.56
363.203	171.56
363.429	158.56
363.656	181.56
363.882	178.56
364.109	165.56
364.335	166.56
364.562	175.56
364.788	165.56
365.015	167.56
365.241	167.56
365.468	175.56
365.694	189.56
365.92	177.56
366.147	186.56
366.373	187.56
366.599	176.56
366.826	175.56
367.052	167.56
367.278	176.56
367.505	182.56
367.731	174.56
367.957	159.56
368.184	164.56
368.41	185.56
368.636	191.56
368.862	190.56
369.089	167.56
369.315	170.56
369.541	187.56
369.767	179.56
369.993	165.56
370.219	183.56
370.445	183.56
370.672	193.56
370.898	195.56
371.124	174.56
371.35	187.56
371.576	187.56
371.802	198.56
372.028	176.56
372.254	210.56
372.48	205.56
372.706	190.56
372.932	196.56
373.158	177.56
373.384	180.56
373.61	188.56
373.835	202.56
374.061	189.56
374.287	217.56
374.513	180.56
374.739	189.56
374.965	219.56
375.191	200.56
375.416	209.56
375.642	197.56
375.868	213.56
376.094	209.56
376.319	202.56
376.545	182.56
376.771	193.56
376.997	191.56
377.222	206.56
377.448	192.56
377.674	183.56
377.899	191.56
378.125	191.56
378.35	183.56
378.576	187.56
378.802	165.56
379.027	201.56
379.253	188.56
379.478	190.56
379.704	179.56
379.929	193.56
380.155	180.56
380.38	183.56
380.606	177.56
380.831	198.56
381.057	190.56
381.282	203.56
381.507	185.56
381.733	205.56
381.958	196.56
382.184	188.56
382.409	200.56
382.634	206.56
382.86	207.56
383.085	201.56
383.31	219.56
383.535	220.56
383.761	197.56
383.986	213.56
384.211	205.56
384.436	209.56
384.662	211.56
384.887	218.56
385.112	222.56
385.337	195.56
385.562	210.56
385.787	222.56
386.013	230.56
386.238	221.56
386.463	223.56
386.688	203.56
386.913	224.56
387.138	220.56
387.363	216.56
387.588	211.56
387.813	199.56
388.038	221.56
388.263	210.56
388.488	201.56
388.713	203.56
388.938	201.56
389.163	211.56
389.387	217.56
389.612	221.56
389.837	222.56
390.062	217.56
390.287	218.56
390.512	220.56
390.736	214.56
390.961	228.56
391.186	233.56
391.411	234.56
391.636	249.56
391.86	233.56
392.085	227.56
392.31	235.56
392.534	201.56
392.759	228.56
392.984	236.56
393.208	238.56
393.433	245.56
393.658	228.56
393.882	229.56
394.107	236.56
394.331	232.56
394.556	248.56
394.78	224.56
395.005	221.56
395.229	222.56
395.454	244.56
395.678	251.56
395.903	239.56
396.127	239.56
396.352	230.56
396.576	230.56
396.801	228.56
397.025	237.56
397.249	231.56
397.474	244.56
397.698	235.56
397.922	261.56
398.147	239.56
398.371	268.56
398.595	281.56
398.82	239.56
399.044	257.56
399.268	300.56
399.492	322.56
399.717	336.56
399.941	333.56
400.165	323.56
400.389	299.56
400.613	260.56
400.837	272.56
401.062	276.56
401.286	276.56
401.51	268.56
401.734	275.56
401.958	257.56
402.182	254.56
402.406	265.56
402.63	282.56
402.854	277.56
403.078	274.56
403.302	286.56
403.526	265.56
403.75	281.56
403.974	284.56
404.198	277.56
404.422	294.56
404.645	287.56
404.869	282.56
405.093	303.56
405.317	277.56
405.541	275.56
405.765	284.56
405.988	272.56
406.212	290.56
406.436	294.56
406.66	299.56
406.883	296.56
407.107	305.56
407.331	327.56
407.555	311.56
407.778	313.56
408.002	333.56
408.226	317.56
408.449	316.56
408.673	297.56
408.896	283.56
409.12	314.56
409.344	273.56
409.567	290.56
409.791	295.56
410.014	280.56
410.238	288.56
410.461	277.56
410.685	297.56
410.908	281.56
411.132	285.56
411.355	268.56
411.578	264.56
411.802	273.56
412.025	263.56
412.249	260.56
412.472	260.56
412.695	261.56
412.919	258.56
413.142	264.56
413.365	265.56
413.589	284.56
413.812	273.56
414.035	248.56
414.258	279.56
414.482	284.56
414.705	267.56
414.928	274.56
415.151	276.56
415.374	265.56
415.597	260.56
415.821	284.56
416.044	245.56
416.267	274.56
416.49	260.56
416.713	259.56
416.936	281.56
417.159	295.56
417.382	270.56
417.605	265.56
417.828	256.56
418.051	271.56
418.274	278.56
418.497	263.56
418.72	276.56
418.943	269.56
419.166	293.56
419.389	286.56
419.611	284.56
419.834	276.56
420.057	273.56
420.28	271.56
420.503	278.56
420.726	274.56
420.948	264.56
421.171	264.56
421.394	266.56
421.617	258.56
421.839	274.56
422.062	280.56
422.285	263.56
422.507	266.56
422.73	284.56
422.953	270.56
423.175	261.56
423.398	283.56
423.621	288.56
423.843	276.56
424.066	272.56
424.288	289.56
424.511	295.56
424.733	294.56
424.956	282.56
425.178	261.56
425.401	277.56
425.623	271.56
425.846	271.56
426.068	261.56
426.291	251.56
426.513	251.56
426.735	268.56
426.958	267.56
427.18	246.56
427.402	240.56
427.625	242.56
427.847	260.56
428.069	249.56
428.292	245.56
428.514	255.56
428.736	245.56
428.958	239.56
429.181	235.56
429.403	247.56
429.625	241.56
429.847	248.56
430.069	258.56
430.292	236.56
430.514	234.56
430.736	259.56
430.958	259.56
431.18	236.56
431.402	253.56
431.624	262.56
431.846	255.56
432.068	263.56
432.29	256.56
432.512	244.56
432.734	256.56
432.956	234.56
433.178	237.56
433.4	260.56
433.622	266.56
433.844	261.56
434.066	268.56
434.287	257.56
434.509	263.56
434.731	294.56
434.953	287.56
435.175	269.56
435.397	274.56
435.618	273.56
435.84	265.56
436.062	263.56
436.284	261.56
436.505	249.56
436.727	264.56
436.949	248.56
437.17	247.56
437.392	235.56
437.614	255.56
437.835	250.56
438.057	259.56
438.278	263.56
438.5	255.56
438.721	246.56
438.943	268.56
439.165	263.56
439.386	270.56
439.608	265.56
439.829	267.56
440.05	266.56
440.272	256.56
440.493	270.56
440.715	273.56
440.936	278.56
441.158	269.56
441.379	288.56
441.6	292.56
441.822	320.56
442.043	309.56
442.264	276.56
442.486	285.56
442.707	273.56
442.928	279.56
443.149	288.56
443.371	312.56
443.592	295.56
443.813	298.56
444.034	288.56
444.255	292.56
444.476	293.56
444.698	337.56
444.919	329.56
445.14	395.56
445.361	347.56
445.582	289.56
445.803	307.56
446.024	284.56
446.245	284.56
446.466	269.56
446.687	252.56
446.908	285.56
447.129	266.56
447.35	267.56
447.571	277.56
447.792	249.56
448.013	257.56
448.234	265.56
448.455	236.56
448.675	254.56
448.896	244.56
449.117	229.56
449.338	255.56
449.559	247.56
449.779	255.56
450	250.56
450.221	252.56
450.442	258.56
450.662	251.56
450.883	245.56
451.104	232.56
451.324	266.56
451.545	255.56
451.766	255.56
451.986	240.56
452.207	247.56
452.428	259.56
452.648	243.56
452.869	241.56
453.089	247.56
453.31	236.56
453.53	245.56
453.751	226.56
453.971	241.56
454.192	235.56
454.412	225.56
454.633	245.56
454.853	209.56
455.073	228.56
455.294	239.56
455.514	243.56
455.734	221.56
455.955	227.56
456.175	236.56
456.395	216.56
456.616	216.56
456.836	217.56
457.056	234.56
457.276	211.56
457.497	223.56
457.717	232.56
457.937	249.56
458.157	224.56
458.377	232.56
458.598	223.56
458.818	230.56
459.038	255.56
459.258	256.56
459.478	265.56
459.698	266.56
459.918	270.56
460.138	279.56
460.358	287.56
460.578	287.56
460.798	288.56
461.018	291.56
461.238	281.56
461.458	299.56
461.678	292.56
461.898	293.56
462.118	304.56
462.338	315.56
462.558	301.56
462.777	325.56
462.997	338.56
463.217	360.56
463.437	352.56
463.657	326.56
463.876	315.56
464.096	315.56
464.316	323.56
464.536	333.56
464.755	317.56
464.975	295.56
465.195	289.56
465.414	315.56
465.634	267.56
465.854	259.56
466.073	257.56
466.293	253.56
466.512	251.56
466.732	257.56
466.951	239.56
467.171	265.56
467.391	255.56
467.61	258.56
467.829	266.56
468.049	246.56
468.268	260.56
468.488	257.56
468.707	261.56
468.927	259.56
469.146	255.56
469.365	248.56
469.585	225.56
469.804	236.56
470.023	273.56
470.243	260.56
470.462	254.56
470.681	265.56
470.901	260.56
471.12	257.56
471.339	268.56
471.558	249.56
471.777	239.56
471.997	237.56
472.216	259.56
472.435	236.56
472.654	230.56
472.873	246.56
473.092	255.56
473.311	228.56
473.53	260.56
473.749	257.56
473.968	240.56
474.187	243.56
474.406	223.56
474.625	235.56
474.844	252.56
475.063	250.56
475.282	239.56
475.501	253.56
475.72	256.56
475.939	243.56
476.158	251.56
476.377	222.56
476.596	255.56
476.814	261.56
477.033	259.56
477.252	254.56
477.471	240.56
477.69	258.56
477.908	275.56
478.127	272.56
478.346	273.56
478.564	242.56
478.783	266.56
479.002	277.56
479.22	299.56
479.439	299.56
479.658	274.56
479.876	287.56
480.095	269.56
480.313	298.56
480.532	291.56
480.751	287.56
480.969	273.56
481.188	267.56
481.406	269.56
481.624	270.56
481.843	250.56
482.061	273.56
482.28	261.56
482.498	269.56
482.717	260.56
482.935	265.56
483.153	273.56
483.372	261.56
483.59	278.56
483.808	271.56
484.027	272.56
484.245	252.56
484.463	263.56
484.681	295.56
484.9	278.56
485.118	277.56
485.336	261.56
485.554	259.56
485.772	266.56
485.99	271.56
486.209	268.56
486.427	255.56
486.645	263.56
486.863	271.56
487.081	269.56
487.299	253.56
487.517	280.56
487.735	260.56
487.953	281.56
488.171	289.56
488.389	295.56
488.607	261.56
488.825	261.56
489.043	243.56
489.261	265.56
489.479	269.56
489.696	257.56
489.914	250.56
490.132	275.56
490.35	276.56
490.568	254.56
490.786	271.56
491.003	292.56
491.221	280.56
491.439	278.56
491.657	281.56
491.874	291.56
492.092	315.56
492.31	293.56
492.527	276.56
492.745	287.56
492.963	266.56
493.18	292.56
493.398	305.56
493.615	281.56
493.833	295.56
494.05	267.56
494.268	286.56
494.485	266.56
494.703	296.56
494.92	296.56
495.138	282.56
495.355	280.56
495.573	295.56
495.79	293.56
496.008	295.56
496.225	286.56
496.442	305.56
496.66	299.56
496.877	303.56
497.094	308.56
497.312	301.56
497.529	292.56
497.746	304.56
497.963	303.56
498.181	319.56
498.398	331.56
498.615	358.56
498.832	381.56
499.049	382.56
499.267	425.56
499.484	447.56
499.701	494.56
499.918	512.56
500.135	570.56
500.352	670.56
500.569	657.56
500.786	665.56
501.003	623.56
501.22	551.56
501.437	491.56
501.654	465.56
501.871	431.56
502.088	383.56
502.305	362.56
502.522	370.56
502.739	353.56
502.956	329.56
503.172	314.56
