Data from Fe(NO3)3@0.1M.TitratingCurve.Agarose3%dH2O.NegLispCup.LampEnergy10.LIBS07252019_HRD10591_16-41-52-333.txt Node
Date: Thu Jul 25 16:41:52 EDT 2019
User: cochatt
Spectrometer: HR+D1059
Trigger mode: 1
Integration Time (sec): 1.000000E-1
Scans to average: 1
Electric dark correction enabled: true
Nonlinearity correction enabled: false
Boxcar width: 0
XAxis mode: Wavelengths
Number of Pixels in Spectrum: 2048
>>>>>Begin Spectral Data<<<<<
223.165	1.94
223.4	1.94
223.635	1.94
223.869	-15.06
224.104	-14.06
224.338	-23.06
224.573	-24.06
224.808	-0.06
225.042	-14.06
225.277	-7.06
225.511	-9.06
225.746	3.94
225.98	12.94
226.215	13.94
226.449	5.94
226.683	19.94
226.918	23.94
227.152	23.94
227.387	24.94
227.621	25.94
227.856	40.94
228.09	41.94
228.324	56.94
228.559	55.94
228.793	42.94
229.027	75.94
229.262	74.94
229.496	74.94
229.73	77.94
229.964	85.94
230.199	69.94
230.433	90.94
230.667	55.94
230.901	75.94
231.136	82.94
231.37	79.94
231.604	96.94
231.838	87.94
232.072	91.94
232.306	92.94
232.541	80.94
232.775	95.94
233.009	78.94
233.243	88.94
233.477	91.94
233.711	83.94
233.945	90.94
234.179	75.94
234.413	98.94
234.647	80.94
234.881	89.94
235.115	83.94
235.349	96.94
235.583	85.94
235.817	82.94
236.051	91.94
236.285	97.94
236.519	81.94
236.753	76.94
236.987	80.94
237.221	80.94
237.455	84.94
237.689	84.94
237.922	81.94
238.156	98.94
238.39	82.94
238.624	77.94
238.858	106.94
239.091	96.94
239.325	89.94
239.559	83.94
239.793	97.94
240.027	78.94
240.26	74.94
240.494	90.94
240.728	71.94
240.961	78.94
241.195	92.94
241.429	95.94
241.662	72.94
241.896	78.94
242.13	90.94
242.363	88.94
242.597	78.94
242.83	85.94
243.064	87.94
243.298	94.94
243.531	81.94
243.765	88.94
243.998	99.94
244.232	77.94
244.465	98.94
244.699	86.94
244.932	82.94
245.166	88.94
245.399	105.94
245.633	99.94
245.866	86.94
246.099	85.94
246.333	84.94
246.566	96.94
246.8	98.94
247.033	99.94
247.266	81.94
247.5	103.94
247.733	90.94
247.966	84.94
248.2	91.94
248.433	78.94
248.666	93.94
248.899	81.94
249.133	88.94
249.366	93.94
249.599	93.94
249.832	90.94
250.066	93.94
250.299	85.94
250.532	96.94
250.765	100.94
250.998	88.94
251.231	91.94
251.465	100.94
251.698	86.94
251.931	87.94
252.164	81.94
252.397	92.94
252.63	94.94
252.863	95.94
253.096	97.94
253.329	92.94
253.562	105.94
253.795	93.94
254.028	100.94
254.261	87.94
254.494	95.94
254.727	93.94
254.96	95.94
255.193	103.94
255.426	97.94
255.659	100.94
255.892	100.94
256.124	94.94
256.357	82.94
256.59	100.94
256.823	94.94
257.056	101.94
257.289	104.94
257.521	93.94
257.754	103.94
257.987	100.94
258.22	121.94
258.452	94.94
258.685	102.94
258.918	89.94
259.151	99.94
259.383	96.94
259.616	105.94
259.849	93.94
260.081	104.94
260.314	93.94
260.547	109.94
260.779	122.94
261.012	97.94
261.244	100.94
261.477	103.94
261.71	91.94
261.942	100.94
262.175	107.94
262.407	100.94
262.64	97.94
262.872	114.94
263.105	100.94
263.337	99.94
263.57	81.94
263.802	95.94
264.035	100.94
264.267	123.94
264.499	95.94
264.732	104.94
264.964	92.94
265.197	103.94
265.429	121.94
265.661	112.94
265.894	108.94
266.126	122.94
266.358	114.94
266.591	111.94
266.823	109.94
267.055	121.94
267.287	113.94
267.52	101.94
267.752	114.94
267.984	115.94
268.216	105.94
268.448	105.94
268.681	106.94
268.913	119.94
269.145	117.94
269.377	115.94
269.609	99.94
269.841	110.94
270.073	108.94
270.306	106.94
270.538	106.94
270.77	111.94
271.002	122.94
271.234	112.94
271.466	104.94
271.698	99.94
271.93	108.94
272.162	113.94
272.394	103.94
272.626	123.94
272.858	104.94
273.09	116.94
273.322	117.94
273.553	108.94
273.785	108.94
274.017	122.94
274.249	115.94
274.481	97.94
274.713	111.94
274.945	111.94
275.176	111.94
275.408	116.94
275.64	115.94
275.872	122.94
276.104	119.94
276.335	105.94
276.567	120.94
276.799	117.94
277.031	124.94
277.262	122.94
277.494	120.94
277.726	114.94
277.957	118.94
278.189	113.94
278.421	112.94
278.652	123.94
278.884	104.94
279.115	115.94
279.347	114.94
279.579	110.94
279.81	111.94
280.042	116.94
280.273	114.94
280.505	132.94
280.736	121.94
280.968	127.94
281.199	111.94
281.431	126.94
281.662	119.94
281.894	124.94
282.125	111.94
282.356	131.94
282.588	108.94
282.819	105.94
283.051	125.94
283.282	128.94
283.513	127.94
283.745	119.94
283.976	140.94
284.207	131.94
284.439	122.94
284.67	122.94
284.901	130.94
285.132	123.94
285.364	129.94
285.595	121.94
285.826	125.94
286.057	126.94
286.288	143.94
286.52	123.94
286.751	121.94
286.982	127.94
287.213	133.94
287.444	120.94
287.675	125.94
287.906	132.94
288.138	143.94
288.369	139.94
288.6	116.94
288.831	131.94
289.062	116.94
289.293	105.94
289.524	119.94
289.755	128.94
289.986	132.94
290.217	120.94
290.448	129.94
290.679	132.94
290.91	132.94
291.141	120.94
291.371	129.94
291.602	125.94
291.833	131.94
292.064	114.94
292.295	131.94
292.526	139.94
292.757	133.94
292.987	133.94
293.218	132.94
293.449	118.94
293.68	116.94
293.91	127.94
294.141	134.94
294.372	131.94
294.603	136.94
294.833	137.94
295.064	139.94
295.295	138.94
295.525	129.94
295.756	131.94
295.987	124.94
296.217	129.94
296.448	134.94
296.679	143.94
296.909	142.94
297.14	137.94
297.37	123.94
297.601	125.94
297.831	131.94
298.062	151.94
298.292	137.94
298.523	143.94
298.753	133.94
298.984	141.94
299.214	117.94
299.445	137.94
299.675	128.94
299.905	139.94
300.136	149.94
300.366	137.94
300.597	125.94
300.827	135.94
301.057	135.94
301.288	147.94
301.518	138.94
301.748	135.94
301.979	137.94
302.209	149.94
302.439	148.94
302.669	134.94
302.9	129.94
303.13	121.94
303.36	136.94
303.59	155.94
303.82	142.94
304.051	148.94
304.281	165.94
304.511	142.94
304.741	143.94
304.971	153.94
305.201	128.94
305.431	131.94
305.661	140.94
305.891	140.94
306.121	144.94
306.352	145.94
306.582	124.94
306.812	136.94
307.042	126.94
307.272	147.94
307.502	134.94
307.731	131.94
307.961	142.94
308.191	151.94
308.421	136.94
308.651	137.94
308.881	127.94
309.111	141.94
309.341	147.94
309.571	144.94
309.8	141.94
310.03	129.94
310.26	146.94
310.49	135.94
310.72	141.94
310.949	143.94
311.179	137.94
311.409	163.94
311.639	142.94
311.868	146.94
312.098	140.94
312.328	141.94
312.557	124.94
312.787	137.94
313.017	140.94
313.246	142.94
313.476	137.94
313.706	149.94
313.935	143.94
314.165	139.94
314.394	149.94
314.624	148.94
314.853	144.94
315.083	145.94
315.312	150.94
315.542	149.94
315.771	146.94
316.001	148.94
316.23	156.94
316.46	153.94
316.689	143.94
316.919	159.94
317.148	144.94
317.377	148.94
317.607	148.94
317.836	145.94
318.065	153.94
318.295	146.94
318.524	151.94
318.753	128.94
318.983	148.94
319.212	152.94
319.441	164.94
319.67	151.94
319.9	161.94
320.129	149.94
320.358	141.94
320.587	139.94
320.816	159.94
321.046	165.94
321.275	138.94
321.504	147.94
321.733	152.94
321.962	140.94
322.191	145.94
322.42	160.94
322.649	156.94
322.878	154.94
323.108	155.94
323.337	136.94
323.566	154.94
323.795	141.94
324.024	165.94
324.253	151.94
324.482	174.94
324.71	145.94
324.939	154.94
325.168	166.94
325.397	166.94
325.626	151.94
325.855	149.94
326.084	152.94
326.313	149.94
326.542	156.94
326.77	162.94
326.999	153.94
327.228	154.94
327.457	163.94
327.686	170.94
327.914	147.94
328.143	140.94
328.372	171.94
328.6	157.94
328.829	139.94
329.058	157.94
329.287	149.94
329.515	164.94
329.744	156.94
329.972	151.94
330.201	172.94
330.43	163.94
330.658	155.94
330.887	153.94
331.115	148.94
331.344	151.94
331.572	153.94
331.801	155.94
332.03	152.94
332.258	171.94
332.486	185.94
332.715	195.94
332.943	188.94
333.172	188.94
333.4	193.94
333.629	199.94
333.857	184.94
334.085	179.94
334.314	170.94
334.542	183.94
334.771	194.94
334.999	187.94
335.227	161.94
335.455	172.94
335.684	172.94
335.912	197.94
336.14	193.94
336.369	164.94
336.597	179.94
336.825	183.94
337.053	169.94
337.281	191.94
337.51	173.94
337.738	177.94
337.966	171.94
338.194	167.94
338.422	153.94
338.65	172.94
338.878	165.94
339.106	164.94
339.334	185.94
339.562	162.94
339.79	175.94
340.018	177.94
340.246	166.94
340.474	165.94
340.702	156.94
340.93	171.94
341.158	173.94
341.386	151.94
341.614	175.94
341.842	157.94
342.07	164.94
342.298	156.94
342.526	160.94
342.754	186.94
342.981	189.94
343.209	177.94
343.437	178.94
343.665	171.94
343.893	181.94
344.12	202.94
344.348	167.94
344.576	163.94
344.804	185.94
345.031	178.94
345.259	156.94
345.487	159.94
345.714	159.94
345.942	168.94
346.17	156.94
346.397	171.94
346.625	177.94
346.853	167.94
347.08	156.94
347.308	156.94
347.535	159.94
347.763	154.94
347.99	155.94
348.218	157.94
348.445	161.94
348.673	164.94
348.9	165.94
349.128	164.94
349.355	161.94
349.583	165.94
349.81	154.94
350.037	163.94
350.265	160.94
350.492	145.94
350.72	154.94
350.947	156.94
351.174	156.94
351.402	159.94
351.629	167.94
351.856	162.94
352.083	156.94
352.311	179.94
352.538	159.94
352.765	155.94
352.992	164.94
353.22	160.94
353.447	162.94
353.674	178.94
353.901	166.94
354.128	169.94
354.355	168.94
354.583	177.94
354.81	148.94
355.037	160.94
355.264	160.94
355.491	163.94
355.718	174.94
355.945	168.94
356.172	167.94
356.399	184.94
356.626	176.94
356.853	170.94
357.08	167.94
357.307	156.94
357.534	162.94
357.761	170.94
357.988	159.94
358.215	173.94
358.441	164.94
358.668	168.94
358.895	175.94
359.122	169.94
359.349	170.94
359.576	156.94
359.802	166.94
360.029	155.94
360.256	160.94
360.483	160.94
360.709	163.94
360.936	168.94
361.163	168.94
361.39	140.94
361.616	160.94
361.843	157.94
362.07	188.94
362.296	164.94
362.523	170.94
362.749	170.94
362.976	162.94
363.203	170.94
363.429	151.94
363.656	183.94
363.882	170.94
364.109	175.94
364.335	176.94
364.562	157.94
364.788	150.94
365.015	175.94
365.241	170.94
365.468	185.94
365.694	161.94
365.92	159.94
366.147	161.94
366.373	167.94
366.599	176.94
366.826	159.94
367.052	164.94
367.278	167.94
367.505	163.94
367.731	157.94
367.957	165.94
368.184	175.94
368.41	168.94
368.636	165.94
368.862	168.94
369.089	139.94
369.315	171.94
369.541	173.94
369.767	170.94
369.993	163.94
370.219	158.94
370.445	181.94
370.672	176.94
370.898	180.94
371.124	172.94
371.35	174.94
371.576	165.94
371.802	184.94
372.028	168.94
372.254	176.94
372.48	169.94
372.706	175.94
372.932	181.94
373.158	180.94
373.384	175.94
373.61	172.94
373.835	173.94
374.061	178.94
374.287	181.94
374.513	185.94
374.739	179.94
374.965	195.94
375.191	169.94
375.416	177.94
375.642	161.94
375.868	160.94
376.094	179.94
376.319	177.94
376.545	182.94
376.771	186.94
376.997	184.94
377.222	177.94
377.448	169.94
377.674	166.94
377.899	163.94
378.125	168.94
378.35	179.94
378.576	177.94
378.802	163.94
379.027	157.94
379.253	166.94
379.478	177.94
379.704	181.94
379.929	175.94
380.155	179.94
380.38	180.94
380.606	176.94
380.831	172.94
381.057	172.94
381.282	179.94
381.507	183.94
381.733	185.94
381.958	188.94
382.184	190.94
382.409	183.94
382.634	186.94
382.86	183.94
383.085	186.94
383.31	171.94
383.535	188.94
383.761	179.94
383.986	184.94
384.211	208.94
384.436	189.94
384.662	193.94
384.887	205.94
385.112	201.94
385.337	199.94
385.562	197.94
385.787	197.94
386.013	192.94
386.238	201.94
386.463	205.94
386.688	192.94
386.913	191.94
387.138	181.94
387.363	186.94
387.588	194.94
387.813	193.94
388.038	197.94
388.263	197.94
388.488	205.94
388.713	194.94
388.938	180.94
389.163	193.94
389.387	197.94
389.612	199.94
389.837	201.94
390.062	193.94
390.287	193.94
390.512	195.94
390.736	190.94
390.961	201.94
391.186	200.94
391.411	184.94
391.636	210.94
391.86	223.94
392.085	203.94
392.31	205.94
392.534	213.94
392.759	211.94
392.984	195.94
393.208	197.94
393.433	197.94
393.658	205.94
393.882	199.94
394.107	190.94
394.331	204.94
394.556	214.94
394.78	205.94
395.005	206.94
395.229	210.94
395.454	213.94
395.678	205.94
395.903	204.94
396.127	217.94
396.352	207.94
396.576	216.94
396.801	217.94
397.025	205.94
397.249	205.94
397.474	227.94
397.698	197.94
397.922	206.94
398.147	219.94
398.371	224.94
398.595	228.94
398.82	248.94
399.044	243.94
399.268	251.94
399.492	291.94
399.717	308.94
399.941	282.94
400.165	259.94
400.389	260.94
400.613	233.94
400.837	229.94
401.062	230.94
401.286	220.94
401.51	233.94
401.734	245.94
401.958	219.94
402.182	234.94
402.406	241.94
402.63	252.94
402.854	261.94
403.078	241.94
403.302	239.94
403.526	260.94
403.75	271.94
403.974	251.94
404.198	243.94
404.422	267.94
404.645	251.94
404.869	242.94
405.093	235.94
405.317	243.94
405.541	253.94
405.765	229.94
405.988	235.94
406.212	239.94
406.436	239.94
406.66	253.94
406.883	265.94
407.107	265.94
407.331	275.94
407.555	258.94
407.778	267.94
408.002	267.94
408.226	274.94
408.449	266.94
408.673	251.94
408.896	250.94
409.12	252.94
409.344	258.94
409.567	258.94
409.791	265.94
410.014	269.94
410.238	260.94
410.461	234.94
410.685	247.94
410.908	236.94
411.132	259.94
411.355	247.94
411.578	244.94
411.802	248.94
412.025	272.94
412.249	235.94
412.472	231.94
412.695	223.94
412.919	229.94
413.142	246.94
413.365	248.94
413.589	243.94
413.812	245.94
414.035	261.94
414.258	237.94
414.482	221.94
414.705	248.94
414.928	251.94
415.151	244.94
415.374	241.94
415.597	237.94
415.821	237.94
416.044	230.94
416.267	232.94
416.49	245.94
416.713	247.94
416.936	257.94
417.159	234.94
417.382	259.94
417.605	231.94
417.828	238.94
418.051	230.94
418.274	255.94
418.497	231.94
418.72	233.94
418.943	257.94
419.166	247.94
419.389	249.94
419.611	236.94
419.834	263.94
420.057	220.94
420.28	246.94
420.503	251.94
420.726	231.94
420.948	244.94
421.171	248.94
421.394	242.94
421.617	242.94
421.839	257.94
422.062	253.94
422.285	245.94
422.507	249.94
422.73	237.94
422.953	244.94
423.175	238.94
423.398	239.94
423.621	246.94
423.843	240.94
424.066	256.94
424.288	245.94
424.511	245.94
424.733	248.94
424.956	239.94
425.178	241.94
425.401	240.94
425.623	260.94
425.846	246.94
426.068	236.94
426.291	220.94
426.513	229.94
426.735	239.94
426.958	245.94
427.18	232.94
427.402	227.94
427.625	227.94
427.847	220.94
428.069	224.94
428.292	215.94
428.514	228.94
428.736	231.94
428.958	239.94
429.181	212.94
429.403	218.94
429.625	227.94
429.847	235.94
430.069	220.94
430.292	209.94
430.514	226.94
430.736	209.94
430.958	225.94
431.18	228.94
431.402	223.94
431.624	215.94
431.846	226.94
432.068	224.94
432.29	229.94
432.512	208.94
432.734	231.94
432.956	230.94
433.178	217.94
433.4	232.94
433.622	224.94
433.844	231.94
434.066	231.94
434.287	231.94
434.509	247.94
434.731	228.94
434.953	223.94
435.175	236.94
435.397	232.94
435.618	227.94
435.84	248.94
436.062	219.94
436.284	222.94
436.505	225.94
436.727	236.94
436.949	255.94
437.17	224.94
437.392	225.94
437.614	216.94
437.835	222.94
438.057	223.94
438.278	224.94
438.5	229.94
438.721	210.94
438.943	240.94
439.165	211.94
439.386	228.94
439.608	247.94
439.829	239.94
440.05	233.94
440.272	246.94
440.493	253.94
440.715	242.94
440.936	232.94
441.158	244.94
441.379	259.94
441.6	252.94
441.822	251.94
442.043	266.94
442.264	247.94
442.486	258.94
442.707	262.94
442.928	246.94
443.149	264.94
443.371	255.94
443.592	258.94
443.813	272.94
444.034	277.94
444.255	280.94
444.476	298.94
444.698	289.94
444.919	279.94
445.14	369.94
445.361	311.94
445.582	268.94
445.803	233.94
446.024	244.94
446.245	257.94
446.466	243.94
446.687	233.94
446.908	251.94
447.129	255.94
447.35	245.94
447.571	237.94
447.792	248.94
448.013	232.94
448.234	233.94
448.455	245.94
448.675	243.94
448.896	239.94
449.117	232.94
449.338	231.94
449.559	230.94
449.779	241.94
450	231.94
450.221	236.94
450.442	221.94
450.662	231.94
450.883	231.94
451.104	228.94
451.324	241.94
451.545	222.94
451.766	205.94
451.986	225.94
452.207	218.94
452.428	215.94
452.648	219.94
452.869	209.94
453.089	204.94
453.31	221.94
453.53	214.94
453.751	208.94
453.971	198.94
454.192	210.94
454.412	205.94
454.633	203.94
454.853	212.94
455.073	215.94
455.294	224.94
455.514	226.94
455.734	219.94
455.955	210.94
456.175	209.94
456.395	223.94
456.616	199.94
456.836	214.94
457.056	207.94
457.276	208.94
457.497	203.94
457.717	221.94
457.937	204.94
458.157	220.94
458.377	202.94
458.598	209.94
458.818	208.94
459.038	234.94
459.258	222.94
459.478	229.94
459.698	218.94
459.918	241.94
460.138	237.94
460.358	243.94
460.578	259.94
460.798	243.94
461.018	263.94
461.238	263.94
461.458	265.94
461.678	259.94
461.898	267.94
462.118	266.94
462.338	267.94
462.558	285.94
462.777	249.94
462.997	268.94
463.217	302.94
463.437	306.94
463.657	292.94
463.876	293.94
464.096	297.94
464.316	266.94
464.536	291.94
464.755	284.94
464.975	268.94
465.195	262.94
465.414	255.94
465.634	250.94
465.854	252.94
466.073	225.94
466.293	232.94
466.512	249.94
466.732	230.94
466.951	233.94
467.171	244.94
467.391	234.94
467.61	243.94
467.829	234.94
468.049	233.94
468.268	236.94
468.488	228.94
468.707	223.94
468.927	226.94
469.146	223.94
469.365	237.94
469.585	224.94
469.804	233.94
470.023	251.94
470.243	239.94
470.462	237.94
470.681	235.94
470.901	233.94
471.12	234.94
471.339	254.94
471.558	221.94
471.777	226.94
471.997	220.94
472.216	224.94
472.435	223.94
472.654	208.94
472.873	201.94
473.092	214.94
473.311	214.94
473.53	216.94
473.749	212.94
473.968	227.94
474.187	227.94
474.406	240.94
474.625	219.94
474.844	232.94
475.063	234.94
475.282	227.94
475.501	235.94
475.72	232.94
475.939	211.94
476.158	233.94
476.377	234.94
476.596	223.94
476.814	231.94
477.033	207.94
477.252	223.94
477.471	243.94
477.69	233.94
477.908	224.94
478.127	240.94
478.346	244.94
478.564	239.94
478.783	247.94
479.002	267.94
479.22	267.94
479.439	261.94
479.658	263.94
479.876	245.94
480.095	242.94
480.313	269.94
480.532	255.94
480.751	256.94
480.969	242.94
481.188	241.94
481.406	244.94
481.624	233.94
481.843	236.94
482.061	236.94
482.28	248.94
482.498	232.94
482.717	231.94
482.935	256.94
483.153	243.94
483.372	240.94
483.59	240.94
483.808	237.94
484.027	241.94
484.245	233.94
484.463	247.94
484.681	252.94
484.9	244.94
485.118	229.94
485.336	261.94
485.554	234.94
485.772	219.94
485.99	237.94
486.209	246.94
486.427	228.94
486.645	237.94
486.863	227.94
487.081	230.94
487.299	245.94
487.517	253.94
487.735	245.94
487.953	226.94
488.171	258.94
488.389	260.94
488.607	242.94
488.825	226.94
489.043	239.94
489.261	259.94
489.479	249.94
489.696	268.94
489.914	250.94
490.132	261.94
490.35	253.94
490.568	249.94
490.786	245.94
491.003	257.94
491.221	249.94
491.439	241.94
491.657	241.94
491.874	263.94
492.092	266.94
492.31	266.94
492.527	267.94
492.745	264.94
492.963	281.94
493.18	262.94
493.398	264.94
493.615	257.94
493.833	273.94
494.05	267.94
494.268	284.94
494.485	259.94
494.703	262.94
494.92	255.94
495.138	262.94
495.355	269.94
495.573	272.94
495.79	270.94
496.008	270.94
496.225	266.94
496.442	259.94
496.66	264.94
496.877	284.94
497.094	288.94
497.312	270.94
497.529	265.94
497.746	284.94
497.963	295.94
498.181	285.94
498.398	315.94
498.615	312.94
498.832	332.94
499.049	344.94
499.267	369.94
499.484	388.94
499.701	433.94
499.918	435.94
500.135	476.94
500.352	513.94
500.569	523.94
500.786	534.94
501.003	516.94
501.22	447.94
501.437	419.94
501.654	378.94
501.871	379.94
502.088	352.94
502.305	340.94
502.522	314.94
502.739	309.94
502.956	315.94
503.172	289.94
503.389	284.94
