Data from Fe(NO3)3@0.0125M.TitratingCurve.Agarose3%dH2O.NegLispCup.LampEnergy10.LIBS07252019_HRD10591_17-00-53-337.txt Node
Date: Thu Jul 25 17:00:53 EDT 2019
User: cochatt
Spectrometer: HR+D1059
Trigger mode: 1
Integration Time (sec): 1.000000E-1
Scans to average: 1
Electric dark correction enabled: true
Nonlinearity correction enabled: false
Boxcar width: 0
XAxis mode: Wavelengths
Number of Pixels in Spectrum: 2048
>>>>>Begin Spectral Data<<<<<
223.165	-16.94
223.4	-16.94
223.635	-16.94
223.869	-18.94
224.104	-26.94
224.338	-20.94
224.573	-11.94
224.808	-10.94
225.042	-10.94
225.277	2.06
225.511	-5.94
225.746	3.06
225.98	15.06
226.215	5.06
226.449	14.06
226.683	23.06
226.918	23.06
227.152	38.06
227.387	38.06
227.621	40.06
227.856	38.06
228.09	47.06
228.324	50.06
228.559	70.06
228.793	62.06
229.027	85.06
229.262	96.06
229.496	94.06
229.73	88.06
229.964	100.06
230.199	98.06
230.433	109.06
230.667	95.06
230.901	105.06
231.136	120.06
231.37	123.06
231.604	100.06
231.838	105.06
232.072	113.06
232.306	110.06
232.541	109.06
232.775	118.06
233.009	124.06
233.243	115.06
233.477	125.06
233.711	106.06
233.945	120.06
234.179	118.06
234.413	126.06
234.647	106.06
234.881	139.06
235.115	127.06
235.349	122.06
235.583	118.06
235.817	127.06
236.051	109.06
236.285	121.06
236.519	119.06
236.753	107.06
236.987	126.06
237.221	129.06
237.455	113.06
237.689	119.06
237.922	131.06
238.156	131.06
238.39	134.06
238.624	137.06
238.858	147.06
239.091	140.06
239.325	133.06
239.559	131.06
239.793	138.06
240.027	146.06
240.26	121.06
240.494	136.06
240.728	123.06
240.961	133.06
241.195	145.06
241.429	154.06
241.662	131.06
241.896	133.06
242.13	134.06
242.363	129.06
242.597	131.06
242.83	120.06
243.064	140.06
243.298	141.06
243.531	133.06
243.765	150.06
243.998	140.06
244.232	133.06
244.465	141.06
244.699	139.06
244.932	139.06
245.166	150.06
245.399	141.06
245.633	151.06
245.866	127.06
246.099	140.06
246.333	155.06
246.566	170.06
246.8	161.06
247.033	158.06
247.266	155.06
247.5	147.06
247.733	158.06
247.966	154.06
248.2	138.06
248.433	153.06
248.666	146.06
248.899	147.06
249.133	166.06
249.366	175.06
249.599	190.06
249.832	165.06
250.066	151.06
250.299	163.06
250.532	160.06
250.765	166.06
250.998	167.06
251.231	157.06
251.465	162.06
251.698	160.06
251.931	174.06
252.164	186.06
252.397	185.06
252.63	174.06
252.863	181.06
253.096	181.06
253.329	186.06
253.562	159.06
253.795	183.06
254.028	193.06
254.261	182.06
254.494	178.06
254.727	196.06
254.96	179.06
255.193	181.06
255.426	171.06
255.659	180.06
255.892	180.06
256.124	181.06
256.357	187.06
256.59	195.06
256.823	184.06
257.056	181.06
257.289	195.06
257.521	184.06
257.754	174.06
257.987	173.06
258.22	181.06
258.452	177.06
258.685	195.06
258.918	204.06
259.151	196.06
259.383	200.06
259.616	186.06
259.849	218.06
260.081	234.06
260.314	213.06
260.547	207.06
260.779	210.06
261.012	190.06
261.244	210.06
261.477	209.06
261.71	214.06
261.942	199.06
262.175	216.06
262.407	229.06
262.64	204.06
262.872	226.06
263.105	220.06
263.337	231.06
263.57	215.06
263.802	221.06
264.035	204.06
264.267	210.06
264.499	218.06
264.732	205.06
264.964	194.06
265.197	218.06
265.429	213.06
265.661	212.06
265.894	214.06
266.126	198.06
266.358	212.06
266.591	210.06
266.823	194.06
267.055	220.06
267.287	203.06
267.52	225.06
267.752	202.06
267.984	226.06
268.216	222.06
268.448	216.06
268.681	217.06
268.913	223.06
269.145	206.06
269.377	215.06
269.609	236.06
269.841	235.06
270.073	236.06
270.306	232.06
270.538	227.06
270.77	219.06
271.002	218.06
271.234	237.06
271.466	238.06
271.698	225.06
271.93	222.06
272.162	261.06
272.394	235.06
272.626	230.06
272.858	245.06
273.09	231.06
273.322	237.06
273.553	248.06
273.785	267.06
274.017	287.06
274.249	286.06
274.481	266.06
274.713	286.06
274.945	305.06
275.176	287.06
275.408	273.06
275.64	278.06
275.872	263.06
276.104	235.06
276.335	246.06
276.567	252.06
276.799	241.06
277.031	250.06
277.262	245.06
277.494	256.06
277.726	259.06
277.957	254.06
278.189	269.06
278.421	248.06
278.652	290.06
278.884	262.06
279.115	279.06
279.347	249.06
279.579	266.06
279.81	259.06
280.042	268.06
280.273	266.06
280.505	293.06
280.736	273.06
280.968	278.06
281.199	265.06
281.431	269.06
281.662	267.06
281.894	267.06
282.125	282.06
282.356	265.06
282.588	262.06
282.819	278.06
283.051	276.06
283.282	283.06
283.513	305.06
283.745	287.06
283.976	279.06
284.207	310.06
284.439	290.06
284.67	283.06
284.901	301.06
285.132	284.06
285.364	296.06
285.595	280.06
285.826	288.06
286.057	281.06
286.288	295.06
286.52	286.06
286.751	305.06
286.982	306.06
287.213	292.06
287.444	299.06
287.675	282.06
287.906	297.06
288.138	301.06
288.369	291.06
288.6	289.06
288.831	309.06
289.062	316.06
289.293	292.06
289.524	293.06
289.755	296.06
289.986	299.06
290.217	275.06
290.448	306.06
290.679	299.06
290.91	295.06
291.141	302.06
291.371	301.06
291.602	327.06
291.833	313.06
292.064	300.06
292.295	304.06
292.526	303.06
292.757	313.06
292.987	318.06
293.218	316.06
293.449	330.06
293.68	305.06
293.91	313.06
294.141	300.06
294.372	286.06
294.603	320.06
294.833	318.06
295.064	309.06
295.295	317.06
295.525	317.06
295.756	324.06
295.987	308.06
296.217	310.06
296.448	335.06
296.679	321.06
296.909	333.06
297.14	332.06
297.37	339.06
297.601	326.06
297.831	342.06
298.062	327.06
298.292	319.06
298.523	339.06
298.753	336.06
298.984	330.06
299.214	326.06
299.445	324.06
299.675	330.06
299.905	334.06
300.136	327.06
300.366	347.06
300.597	326.06
300.827	355.06
301.057	332.06
301.288	340.06
301.518	344.06
301.748	342.06
301.979	379.06
302.209	377.06
302.439	377.06
302.669	358.06
302.9	364.06
303.13	358.06
303.36	372.06
303.59	357.06
303.82	358.06
304.051	337.06
304.281	358.06
304.511	369.06
304.741	356.06
304.971	365.06
305.201	381.06
305.431	345.06
305.661	373.06
305.891	351.06
306.121	360.06
306.352	378.06
306.582	336.06
306.812	374.06
307.042	371.06
307.272	359.06
307.502	355.06
307.731	371.06
307.961	353.06
308.191	352.06
308.421	356.06
308.651	357.06
308.881	355.06
309.111	369.06
309.341	361.06
309.571	352.06
309.8	345.06
310.03	360.06
310.26	367.06
310.49	358.06
310.72	369.06
310.949	379.06
311.179	365.06
311.409	362.06
311.639	360.06
311.868	367.06
312.098	375.06
312.328	382.06
312.557	385.06
312.787	362.06
313.017	373.06
313.246	393.06
313.476	393.06
313.706	395.06
313.935	380.06
314.165	379.06
314.394	376.06
314.624	381.06
314.853	388.06
315.083	370.06
315.312	396.06
315.542	395.06
315.771	370.06
316.001	379.06
316.23	395.06
316.46	403.06
316.689	385.06
316.919	389.06
317.148	395.06
317.377	387.06
317.607	386.06
317.836	399.06
318.065	406.06
318.295	372.06
318.524	397.06
318.753	417.06
318.983	403.06
319.212	393.06
319.441	380.06
319.67	409.06
319.9	396.06
320.129	404.06
320.358	390.06
320.587	409.06
320.816	388.06
321.046	413.06
321.275	406.06
321.504	405.06
321.733	420.06
321.962	412.06
322.191	405.06
322.42	405.06
322.649	407.06
322.878	411.06
323.108	420.06
323.337	417.06
323.566	443.06
323.795	445.06
324.024	420.06
324.253	411.06
324.482	439.06
324.71	409.06
324.939	414.06
325.168	405.06
325.397	410.06
325.626	429.06
325.855	419.06
326.084	431.06
326.313	429.06
326.542	429.06
326.77	442.06
326.999	405.06
327.228	433.06
327.457	423.06
327.686	441.06
327.914	435.06
328.143	443.06
328.372	448.06
328.6	446.06
328.829	414.06
329.058	431.06
329.287	441.06
329.515	423.06
329.744	440.06
329.972	449.06
330.201	452.06
330.43	438.06
330.658	451.06
330.887	443.06
331.115	447.06
331.344	458.06
331.572	445.06
331.801	460.06
332.03	471.06
332.258	469.06
332.486	444.06
332.715	466.06
332.943	475.06
333.172	474.06
333.4	492.06
333.629	503.06
333.857	497.06
334.085	477.06
334.314	483.06
334.542	490.06
334.771	502.06
334.999	510.06
335.227	503.06
335.455	499.06
335.684	487.06
335.912	501.06
336.14	485.06
336.369	484.06
336.597	487.06
336.825	463.06
337.053	475.06
337.281	484.06
337.51	484.06
337.738	469.06
337.966	456.06
338.194	473.06
338.422	483.06
338.65	467.06
338.878	481.06
339.106	470.06
339.334	476.06
339.562	464.06
339.79	455.06
340.018	448.06
340.246	455.06
340.474	493.06
340.702	452.06
340.93	458.06
341.158	440.06
341.386	470.06
341.614	460.06
341.842	450.06
342.07	459.06
342.298	476.06
342.526	456.06
342.754	486.06
342.981	471.06
343.209	461.06
343.437	483.06
343.665	467.06
343.893	491.06
344.12	510.06
344.348	502.06
344.576	495.06
344.804	488.06
345.031	458.06
345.259	474.06
345.487	471.06
345.714	465.06
345.942	467.06
346.17	461.06
346.397	447.06
346.625	462.06
346.853	453.06
347.08	430.06
347.308	451.06
347.535	460.06
347.763	436.06
347.99	444.06
348.218	472.06
348.445	453.06
348.673	443.06
348.9	477.06
349.128	455.06
349.355	435.06
349.583	450.06
349.81	465.06
350.037	452.06
350.265	431.06
350.492	437.06
350.72	463.06
350.947	417.06
351.174	447.06
351.402	454.06
351.629	441.06
351.856	451.06
352.083	440.06
352.311	446.06
352.538	426.06
352.765	433.06
352.992	433.06
353.22	428.06
353.447	444.06
353.674	427.06
353.901	439.06
354.128	462.06
354.355	443.06
354.583	451.06
354.81	460.06
355.037	430.06
355.264	438.06
355.491	441.06
355.718	426.06
355.945	442.06
356.172	452.06
356.399	457.06
356.626	443.06
356.853	438.06
357.08	454.06
357.307	463.06
357.534	455.06
357.761	462.06
357.988	470.06
358.215	456.06
358.441	451.06
358.668	450.06
358.895	444.06
359.122	460.06
359.349	437.06
359.576	440.06
359.802	454.06
360.029	467.06
360.256	453.06
360.483	452.06
360.709	444.06
360.936	465.06
361.163	456.06
361.39	464.06
361.616	455.06
361.843	454.06
362.07	470.06
362.296	451.06
362.523	442.06
362.749	458.06
362.976	465.06
363.203	476.06
363.429	457.06
363.656	482.06
363.882	463.06
364.109	460.06
364.335	453.06
364.562	440.06
364.788	453.06
365.015	479.06
365.241	459.06
365.468	463.06
365.694	474.06
365.92	475.06
366.147	458.06
366.373	453.06
366.599	465.06
366.826	456.06
367.052	467.06
367.278	464.06
367.505	470.06
367.731	478.06
367.957	466.06
368.184	481.06
368.41	474.06
368.636	477.06
368.862	478.06
369.089	481.06
369.315	459.06
369.541	470.06
369.767	469.06
369.993	478.06
370.219	493.06
370.445	465.06
370.672	471.06
370.898	504.06
371.124	505.06
371.35	469.06
371.576	495.06
371.802	479.06
372.028	488.06
372.254	527.06
372.48	502.06
372.706	501.06
372.932	489.06
373.158	500.06
373.384	507.06
373.61	543.06
373.835	531.06
374.061	490.06
374.287	499.06
374.513	538.06
374.739	521.06
374.965	504.06
375.191	516.06
375.416	514.06
375.642	515.06
375.868	519.06
376.094	495.06
376.319	486.06
376.545	504.06
376.771	476.06
376.997	484.06
377.222	471.06
377.448	493.06
377.674	483.06
377.899	479.06
378.125	479.06
378.35	503.06
378.576	491.06
378.802	476.06
379.027	463.06
379.253	484.06
379.478	494.06
379.704	488.06
379.929	492.06
380.155	498.06
380.38	497.06
380.606	505.06
380.831	491.06
381.057	495.06
381.282	490.06
381.507	501.06
381.733	499.06
381.958	508.06
382.184	493.06
382.409	525.06
382.634	516.06
382.86	514.06
383.085	534.06
383.31	516.06
383.535	533.06
383.761	509.06
383.986	534.06
384.211	529.06
384.436	522.06
384.662	537.06
384.887	537.06
385.112	540.06
385.337	536.06
385.562	566.06
385.787	538.06
386.013	557.06
386.238	551.06
386.463	556.06
386.688	579.06
386.913	558.06
387.138	549.06
387.363	562.06
387.588	575.06
387.813	564.06
388.038	547.06
388.263	573.06
388.488	558.06
388.713	565.06
388.938	584.06
389.163	548.06
389.387	550.06
389.612	547.06
389.837	558.06
390.062	553.06
390.287	559.06
390.512	559.06
390.736	582.06
390.961	558.06
391.186	542.06
391.411	556.06
391.636	573.06
391.86	554.06
392.085	593.06
392.31	571.06
392.534	566.06
392.759	574.06
392.984	577.06
393.208	592.06
393.433	612.06
393.658	615.06
393.882	586.06
394.107	575.06
394.331	567.06
394.556	555.06
394.78	581.06
395.005	577.06
395.229	600.06
395.454	595.06
395.678	589.06
395.903	581.06
396.127	603.06
396.352	591.06
396.576	586.06
396.801	590.06
397.025	636.06
397.249	636.06
397.474	614.06
397.698	602.06
397.922	626.06
398.147	626.06
398.371	648.06
398.595	651.06
398.82	632.06
399.044	634.06
399.268	694.06
399.492	711.06
399.717	726.06
399.941	735.06
400.165	741.06
400.389	716.06
400.613	695.06
400.837	673.06
401.062	668.06
401.286	677.06
401.51	653.06
401.734	663.06
401.958	628.06
402.182	633.06
402.406	651.06
402.63	656.06
402.854	645.06
403.078	673.06
403.302	637.06
403.526	666.06
403.75	656.06
403.974	657.06
404.198	652.06
404.422	657.06
404.645	665.06
404.869	666.06
405.093	670.06
405.317	666.06
405.541	670.06
405.765	659.06
405.988	671.06
406.212	689.06
406.436	684.06
406.66	723.06
406.883	701.06
407.107	696.06
407.331	722.06
407.555	758.06
407.778	743.06
408.002	740.06
408.226	727.06
408.449	739.06
408.673	715.06
408.896	679.06
409.12	697.06
409.344	698.06
409.567	689.06
409.791	705.06
410.014	678.06
410.238	688.06
410.461	681.06
410.685	695.06
410.908	676.06
411.132	677.06
411.355	685.06
411.578	663.06
411.802	659.06
412.025	655.06
412.249	693.06
412.472	683.06
412.695	651.06
412.919	670.06
413.142	651.06
413.365	666.06
413.589	658.06
413.812	660.06
414.035	644.06
414.258	665.06
414.482	659.06
414.705	671.06
414.928	666.06
415.151	654.06
415.374	654.06
415.597	630.06
415.821	650.06
416.044	644.06
416.267	615.06
416.49	626.06
416.713	627.06
416.936	636.06
417.159	648.06
417.382	613.06
417.605	651.06
417.828	610.06
418.051	641.06
418.274	639.06
418.497	587.06
418.72	622.06
418.943	618.06
419.166	645.06
419.389	661.06
419.611	680.06
419.834	649.06
420.057	632.06
420.28	632.06
420.503	610.06
420.726	631.06
420.948	625.06
421.171	618.06
421.394	625.06
421.617	628.06
421.839	620.06
422.062	621.06
422.285	639.06
422.507	619.06
422.73	604.06
422.953	629.06
423.175	613.06
423.398	623.06
423.621	596.06
423.843	636.06
424.066	632.06
424.288	603.06
424.511	621.06
424.733	618.06
424.956	643.06
425.178	592.06
425.401	591.06
425.623	633.06
425.846	578.06
426.068	607.06
426.291	617.06
426.513	622.06
426.735	620.06
426.958	604.06
427.18	586.06
427.402	625.06
427.625	604.06
427.847	592.06
428.069	616.06
428.292	596.06
428.514	603.06
428.736	597.06
428.958	593.06
429.181	581.06
429.403	566.06
429.625	582.06
429.847	574.06
430.069	603.06
430.292	586.06
430.514	604.06
430.736	608.06
430.958	613.06
431.18	589.06
431.402	602.06
431.624	595.06
431.846	598.06
432.068	601.06
432.29	568.06
432.512	585.06
432.734	607.06
432.956	566.06
433.178	596.06
433.4	629.06
433.622	592.06
433.844	605.06
434.066	616.06
434.287	602.06
434.509	599.06
434.731	607.06
434.953	612.06
435.175	637.06
435.397	634.06
435.618	603.06
435.84	590.06
436.062	589.06
436.284	597.06
436.505	591.06
436.727	580.06
436.949	568.06
437.17	593.06
437.392	587.06
437.614	566.06
437.835	550.06
438.057	570.06
438.278	579.06
438.5	596.06
438.721	591.06
438.943	574.06
439.165	548.06
439.386	576.06
439.608	569.06
439.829	579.06
440.05	579.06
440.272	588.06
440.493	580.06
440.715	583.06
440.936	589.06
441.158	582.06
441.379	578.06
441.6	611.06
441.822	591.06
442.043	571.06
442.264	609.06
442.486	606.06
442.707	602.06
442.928	602.06
443.149	609.06
443.371	620.06
443.592	608.06
443.813	588.06
444.034	629.06
444.255	603.06
444.476	636.06
444.698	631.06
444.919	627.06
445.14	723.06
445.361	645.06
445.582	606.06
445.803	593.06
446.024	582.06
446.245	591.06
446.466	592.06
446.687	585.06
446.908	599.06
447.129	581.06
447.35	563.06
447.571	567.06
447.792	569.06
448.013	566.06
448.234	536.06
448.455	553.06
448.675	551.06
448.896	549.06
449.117	542.06
449.338	553.06
449.559	527.06
449.779	523.06
450	518.06
450.221	532.06
450.442	542.06
450.662	533.06
450.883	542.06
451.104	548.06
451.324	534.06
451.545	549.06
451.766	535.06
451.986	539.06
452.207	541.06
452.428	532.06
452.648	552.06
452.869	532.06
453.089	542.06
453.31	538.06
453.53	555.06
453.751	523.06
453.971	514.06
454.192	521.06
454.412	517.06
454.633	524.06
454.853	502.06
455.073	526.06
455.294	521.06
455.514	501.06
455.734	527.06
455.955	530.06
456.175	538.06
456.395	530.06
456.616	517.06
456.836	522.06
457.056	543.06
457.276	510.06
457.497	551.06
457.717	533.06
457.937	531.06
458.157	543.06
458.377	544.06
458.598	547.06
458.818	565.06
459.038	565.06
459.258	562.06
459.478	579.06
459.698	574.06
459.918	585.06
460.138	590.06
460.358	597.06
460.578	618.06
460.798	605.06
461.018	629.06
461.238	636.06
461.458	613.06
461.678	620.06
461.898	637.06
462.118	609.06
462.338	653.06
462.558	635.06
462.777	659.06
462.997	674.06
463.217	689.06
463.437	699.06
463.657	684.06
463.876	693.06
464.096	704.06
464.316	689.06
464.536	663.06
464.755	662.06
464.975	649.06
465.195	652.06
465.414	639.06
465.634	628.06
465.854	589.06
466.073	595.06
466.293	591.06
466.512	569.06
466.732	574.06
466.951	571.06
467.171	559.06
467.391	581.06
467.61	568.06
467.829	593.06
468.049	570.06
468.268	598.06
468.488	565.06
468.707	548.06
468.927	576.06
469.146	549.06
469.365	582.06
469.585	587.06
469.804	581.06
470.023	569.06
470.243	564.06
470.462	580.06
470.681	582.06
470.901	565.06
471.12	599.06
471.339	590.06
471.558	576.06
471.777	579.06
471.997	592.06
472.216	558.06
472.435	585.06
472.654	573.06
472.873	566.06
473.092	587.06
473.311	566.06
473.53	589.06
473.749	572.06
473.968	597.06
474.187	579.06
474.406	576.06
474.625	587.06
474.844	573.06
475.063	582.06
475.282	579.06
475.501	596.06
475.72	577.06
475.939	595.06
476.158	617.06
476.377	610.06
476.596	605.06
476.814	643.06
477.033	599.06
477.252	646.06
477.471	623.06
477.69	647.06
477.908	655.06
478.127	670.06
478.346	654.06
478.564	678.06
478.783	665.06
479.002	658.06
479.22	691.06
479.439	678.06
479.658	686.06
479.876	666.06
480.095	685.06
480.313	675.06
480.532	697.06
480.751	712.06
480.969	683.06
481.188	715.06
481.406	696.06
481.624	668.06
481.843	687.06
482.061	688.06
482.28	716.06
482.498	690.06
482.717	678.06
482.935	702.06
483.153	703.06
483.372	712.06
483.59	694.06
483.808	705.06
484.027	699.06
484.245	720.06
484.463	713.06
484.681	718.06
484.9	727.06
485.118	723.06
485.336	697.06
485.554	701.06
485.772	721.06
485.99	724.06
486.209	709.06
486.427	709.06
486.645	730.06
486.863	732.06
487.081	731.06
487.299	714.06
487.517	722.06
487.735	712.06
487.953	734.06
488.171	729.06
488.389	715.06
488.607	742.06
488.825	709.06
489.043	718.06
489.261	743.06
489.479	722.06
489.696	715.06
489.914	717.06
490.132	717.06
490.35	726.06
490.568	719.06
490.786	731.06
491.003	719.06
491.221	702.06
491.439	713.06
491.657	719.06
491.874	725.06
492.092	697.06
492.31	708.06
492.527	726.06
492.745	713.06
492.963	737.06
493.18	745.06
493.398	720.06
493.615	717.06
493.833	729.06
494.05	735.06
494.268	726.06
494.485	741.06
494.703	773.06
494.92	746.06
495.138	751.06
495.355	743.06
495.573	774.06
495.79	745.06
496.008	749.06
496.225	772.06
496.442	801.06
496.66	779.06
496.877	789.06
497.094	805.06
497.312	796.06
497.529	803.06
497.746	808.06
497.963	835.06
498.181	846.06
498.398	861.06
498.615	878.06
498.832	913.06
499.049	943.06
499.267	975.06
499.484	1005.06
499.701	1036.06
499.918	1096.06
500.135	1119.06
500.352	1174.06
500.569	1149.06
500.786	1166.06
501.003	1181.06
501.22	1115.06
501.437	1077.06
