Data from Fe(NO3)3@0.05M.TitratingCurve.Agarose3%dH2O.NegLispCup.LampEnergy10.LIBS07252019_HRD10591_16-47-53-334.txt Node
Date: Thu Jul 25 16:47:53 EDT 2019
User: cochatt
Spectrometer: HR+D1059
Trigger mode: 1
Integration Time (sec): 1.000000E-1
Scans to average: 1
Electric dark correction enabled: true
Nonlinearity correction enabled: false
Boxcar width: 0
XAxis mode: Wavelengths
Number of Pixels in Spectrum: 2048
>>>>>Begin Spectral Data<<<<<
223.165	-4.44
223.4	-4.44
223.635	-4.44
223.869	-25.44
224.104	-32.44
224.338	-20.44
224.573	-19.44
224.808	-3.44
225.042	5.56
225.277	-1.44
225.511	-12.44
225.746	5.56
225.98	16.56
226.215	16.56
226.449	10.56
226.683	24.56
226.918	22.56
227.152	17.56
227.387	34.56
227.621	36.56
227.856	29.56
228.09	59.56
228.324	39.56
228.559	63.56
228.793	52.56
229.027	60.56
229.262	68.56
229.496	66.56
229.73	62.56
229.964	75.56
230.199	79.56
230.433	81.56
230.667	80.56
230.901	71.56
231.136	86.56
231.37	80.56
231.604	91.56
231.838	82.56
232.072	76.56
232.306	83.56
232.541	83.56
232.775	80.56
233.009	95.56
233.243	107.56
233.477	91.56
233.711	95.56
233.945	83.56
234.179	93.56
234.413	98.56
234.647	99.56
234.881	96.56
235.115	76.56
235.349	90.56
235.583	80.56
235.817	84.56
236.051	82.56
236.285	90.56
236.519	93.56
236.753	82.56
236.987	98.56
237.221	87.56
237.455	80.56
237.689	90.56
237.922	80.56
238.156	77.56
238.39	85.56
238.624	100.56
238.858	100.56
239.091	97.56
239.325	91.56
239.559	90.56
239.793	81.56
240.027	94.56
240.26	89.56
240.494	94.56
240.728	94.56
240.961	100.56
241.195	89.56
241.429	91.56
241.662	94.56
241.896	84.56
242.13	86.56
242.363	64.56
242.597	76.56
242.83	86.56
243.064	86.56
243.298	102.56
243.531	91.56
243.765	88.56
243.998	80.56
244.232	99.56
244.465	94.56
244.699	88.56
244.932	95.56
245.166	82.56
245.399	98.56
245.633	91.56
245.866	89.56
246.099	86.56
246.333	88.56
246.566	98.56
246.8	94.56
247.033	89.56
247.266	100.56
247.5	96.56
247.733	86.56
247.966	84.56
248.2	83.56
248.433	90.56
248.666	90.56
248.899	107.56
249.133	103.56
249.366	98.56
249.599	100.56
249.832	110.56
250.066	95.56
250.299	88.56
250.532	89.56
250.765	91.56
250.998	89.56
251.231	96.56
251.465	103.56
251.698	100.56
251.931	93.56
252.164	97.56
252.397	92.56
252.63	94.56
252.863	115.56
253.096	110.56
253.329	111.56
253.562	105.56
253.795	118.56
254.028	95.56
254.261	114.56
254.494	106.56
254.727	107.56
254.96	97.56
255.193	99.56
255.426	102.56
255.659	107.56
255.892	103.56
256.124	101.56
256.357	117.56
256.59	117.56
256.823	104.56
257.056	107.56
257.289	101.56
257.521	93.56
257.754	99.56
257.987	106.56
258.22	122.56
258.452	120.56
258.685	121.56
258.918	114.56
259.151	125.56
259.383	105.56
259.616	120.56
259.849	110.56
260.081	129.56
260.314	140.56
260.547	108.56
260.779	118.56
261.012	128.56
261.244	136.56
261.477	133.56
261.71	138.56
261.942	110.56
262.175	121.56
262.407	115.56
262.64	117.56
262.872	126.56
263.105	126.56
263.337	122.56
263.57	118.56
263.802	121.56
264.035	117.56
264.267	103.56
264.499	116.56
264.732	102.56
264.964	112.56
265.197	105.56
265.429	118.56
265.661	110.56
265.894	111.56
266.126	112.56
266.358	120.56
266.591	122.56
266.823	123.56
267.055	110.56
267.287	108.56
267.52	123.56
267.752	94.56
267.984	98.56
268.216	107.56
268.448	116.56
268.681	94.56
268.913	110.56
269.145	98.56
269.377	104.56
269.609	103.56
269.841	93.56
270.073	118.56
270.306	106.56
270.538	115.56
270.77	126.56
271.002	109.56
271.234	111.56
271.466	136.56
271.698	113.56
271.93	126.56
272.162	118.56
272.394	121.56
272.626	105.56
272.858	131.56
273.09	138.56
273.322	115.56
273.553	125.56
273.785	123.56
274.017	142.56
274.249	145.56
274.481	169.56
274.713	147.56
274.945	165.56
275.176	180.56
275.408	154.56
275.64	158.56
275.872	151.56
276.104	143.56
276.335	127.56
276.567	116.56
276.799	122.56
277.031	119.56
277.262	115.56
277.494	137.56
277.726	114.56
277.957	108.56
278.189	123.56
278.421	116.56
278.652	132.56
278.884	133.56
279.115	128.56
279.347	128.56
279.579	115.56
279.81	121.56
280.042	125.56
280.273	121.56
280.505	118.56
280.736	117.56
280.968	116.56
281.199	128.56
281.431	126.56
281.662	115.56
281.894	124.56
282.125	113.56
282.356	112.56
282.588	127.56
282.819	120.56
283.051	131.56
283.282	123.56
283.513	135.56
283.745	125.56
283.976	121.56
284.207	126.56
284.439	122.56
284.67	117.56
284.901	128.56
285.132	136.56
285.364	131.56
285.595	129.56
285.826	127.56
286.057	136.56
286.288	132.56
286.52	134.56
286.751	138.56
286.982	139.56
287.213	131.56
287.444	124.56
287.675	111.56
287.906	121.56
288.138	135.56
288.369	146.56
288.6	144.56
288.831	141.56
289.062	137.56
289.293	122.56
289.524	121.56
289.755	134.56
289.986	136.56
290.217	143.56
290.448	131.56
290.679	119.56
290.91	133.56
291.141	125.56
291.371	144.56
291.602	146.56
291.833	131.56
292.064	120.56
292.295	133.56
292.526	132.56
292.757	122.56
292.987	128.56
293.218	118.56
293.449	122.56
293.68	126.56
293.91	125.56
294.141	138.56
294.372	130.56
294.603	140.56
294.833	138.56
295.064	147.56
295.295	129.56
295.525	123.56
295.756	141.56
295.987	130.56
296.217	148.56
296.448	126.56
296.679	145.56
296.909	162.56
297.14	136.56
297.37	139.56
297.601	131.56
297.831	133.56
298.062	130.56
298.292	131.56
298.523	140.56
298.753	128.56
298.984	162.56
299.214	138.56
299.445	132.56
299.675	140.56
299.905	142.56
300.136	132.56
300.366	140.56
300.597	138.56
300.827	154.56
301.057	150.56
301.288	138.56
301.518	156.56
301.748	149.56
301.979	133.56
302.209	143.56
302.439	157.56
302.669	151.56
302.9	138.56
303.13	153.56
303.36	147.56
303.59	134.56
303.82	144.56
304.051	140.56
304.281	136.56
304.511	139.56
304.741	150.56
304.971	148.56
305.201	143.56
305.431	141.56
305.661	138.56
305.891	155.56
306.121	140.56
306.352	138.56
306.582	150.56
306.812	149.56
307.042	146.56
307.272	131.56
307.502	140.56
307.731	152.56
307.961	140.56
308.191	149.56
308.421	137.56
308.651	147.56
308.881	151.56
309.111	140.56
309.341	134.56
309.571	156.56
309.8	136.56
310.03	147.56
310.26	143.56
310.49	138.56
310.72	144.56
310.949	149.56
311.179	146.56
311.409	150.56
311.639	153.56
311.868	148.56
312.098	146.56
312.328	148.56
312.557	144.56
312.787	139.56
313.017	146.56
313.246	152.56
313.476	146.56
313.706	156.56
313.935	152.56
314.165	153.56
314.394	139.56
314.624	142.56
314.853	158.56
315.083	156.56
315.312	147.56
315.542	143.56
315.771	167.56
316.001	155.56
316.23	152.56
316.46	146.56
316.689	153.56
316.919	170.56
317.148	146.56
317.377	156.56
317.607	168.56
317.836	165.56
318.065	155.56
318.295	151.56
318.524	156.56
318.753	163.56
318.983	151.56
319.212	162.56
319.441	156.56
319.67	137.56
319.9	153.56
320.129	144.56
320.358	150.56
320.587	159.56
320.816	141.56
321.046	157.56
321.275	159.56
321.504	182.56
321.733	161.56
321.962	169.56
322.191	161.56
322.42	154.56
322.649	162.56
322.878	155.56
323.108	172.56
323.337	157.56
323.566	144.56
323.795	175.56
324.024	139.56
324.253	162.56
324.482	154.56
324.71	164.56
324.939	155.56
325.168	150.56
325.397	154.56
325.626	155.56
325.855	169.56
326.084	152.56
326.313	170.56
326.542	149.56
326.77	160.56
326.999	152.56
327.228	159.56
327.457	147.56
327.686	152.56
327.914	163.56
328.143	174.56
328.372	156.56
328.6	173.56
328.829	144.56
329.058	152.56
329.287	154.56
329.515	155.56
329.744	163.56
329.972	160.56
330.201	181.56
330.43	158.56
330.658	163.56
330.887	160.56
331.115	162.56
331.344	164.56
331.572	159.56
331.801	158.56
332.03	158.56
332.258	176.56
332.486	171.56
332.715	164.56
332.943	181.56
333.172	166.56
333.4	154.56
333.629	166.56
333.857	191.56
334.085	166.56
334.314	172.56
334.542	176.56
334.771	177.56
334.999	163.56
335.227	180.56
335.455	180.56
335.684	175.56
335.912	191.56
336.14	179.56
336.369	169.56
336.597	167.56
336.825	171.56
337.053	180.56
337.281	172.56
337.51	166.56
337.738	178.56
337.966	180.56
338.194	174.56
338.422	160.56
338.65	171.56
338.878	167.56
339.106	175.56
339.334	179.56
339.562	172.56
339.79	158.56
340.018	144.56
340.246	163.56
340.474	165.56
340.702	187.56
340.93	174.56
341.158	162.56
341.386	160.56
341.614	163.56
341.842	155.56
342.07	167.56
342.298	167.56
342.526	164.56
342.754	169.56
342.981	166.56
343.209	169.56
343.437	174.56
343.665	166.56
343.893	187.56
344.12	194.56
344.348	191.56
344.576	174.56
344.804	166.56
345.031	173.56
345.259	168.56
345.487	176.56
345.714	171.56
345.942	180.56
346.17	182.56
346.397	176.56
346.625	175.56
346.853	179.56
347.08	163.56
347.308	170.56
347.535	164.56
347.763	162.56
347.99	166.56
348.218	184.56
348.445	171.56
348.673	176.56
348.9	157.56
349.128	170.56
349.355	154.56
349.583	136.56
349.81	166.56
350.037	175.56
350.265	159.56
350.492	159.56
350.72	175.56
350.947	168.56
351.174	159.56
351.402	163.56
351.629	152.56
351.856	180.56
352.083	162.56
352.311	186.56
352.538	163.56
352.765	167.56
352.992	166.56
353.22	162.56
353.447	170.56
353.674	161.56
353.901	171.56
354.128	174.56
354.355	178.56
354.583	159.56
354.81	171.56
355.037	179.56
355.264	186.56
355.491	167.56
355.718	178.56
355.945	174.56
356.172	160.56
356.399	174.56
356.626	174.56
356.853	180.56
357.08	171.56
357.307	176.56
357.534	175.56
357.761	176.56
357.988	182.56
358.215	190.56
358.441	193.56
358.668	175.56
358.895	168.56
359.122	171.56
359.349	164.56
359.576	172.56
359.802	159.56
360.029	176.56
360.256	178.56
360.483	210.56
360.709	174.56
360.936	187.56
361.163	185.56
361.39	176.56
361.616	175.56
361.843	180.56
362.07	171.56
362.296	186.56
362.523	174.56
362.749	187.56
362.976	186.56
363.203	176.56
363.429	182.56
363.656	163.56
363.882	182.56
364.109	182.56
364.335	167.56
364.562	174.56
364.788	175.56
365.015	170.56
365.241	171.56
365.468	185.56
365.694	172.56
365.92	185.56
366.147	174.56
366.373	170.56
366.599	190.56
366.826	186.56
367.052	172.56
367.278	177.56
367.505	194.56
367.731	182.56
367.957	184.56
368.184	189.56
368.41	181.56
368.636	187.56
368.862	195.56
369.089	177.56
369.315	183.56
369.541	178.56
369.767	184.56
369.993	183.56
370.219	172.56
370.445	163.56
370.672	197.56
370.898	190.56
371.124	195.56
371.35	200.56
371.576	187.56
371.802	186.56
372.028	212.56
372.254	214.56
372.48	208.56
372.706	178.56
372.932	199.56
373.158	187.56
373.384	201.56
373.61	215.56
373.835	227.56
374.061	202.56
374.287	206.56
374.513	200.56
374.739	223.56
374.965	215.56
375.191	210.56
375.416	200.56
375.642	199.56
375.868	211.56
376.094	207.56
376.319	200.56
376.545	216.56
376.771	203.56
376.997	198.56
377.222	175.56
377.448	197.56
377.674	202.56
377.899	190.56
378.125	204.56
378.35	218.56
378.576	195.56
378.802	198.56
379.027	217.56
379.253	198.56
379.478	199.56
379.704	207.56
379.929	205.56
380.155	205.56
380.38	230.56
380.606	203.56
380.831	204.56
381.057	221.56
381.282	190.56
381.507	204.56
381.733	202.56
381.958	230.56
382.184	229.56
382.409	211.56
382.634	240.56
382.86	226.56
383.085	216.56
383.31	207.56
383.535	228.56
383.761	216.56
383.986	219.56
384.211	230.56
384.436	231.56
384.662	243.56
384.887	238.56
385.112	230.56
385.337	243.56
385.562	228.56
385.787	235.56
386.013	258.56
386.238	254.56
386.463	242.56
386.688	231.56
386.913	223.56
387.138	232.56
387.363	248.56
387.588	253.56
387.813	240.56
388.038	240.56
388.263	240.56
388.488	227.56
388.713	236.56
388.938	250.56
389.163	252.56
389.387	242.56
389.612	247.56
389.837	235.56
390.062	254.56
390.287	238.56
390.512	241.56
390.736	242.56
390.961	253.56
391.186	244.56
391.411	243.56
391.636	266.56
391.86	246.56
392.085	269.56
392.31	252.56
392.534	254.56
392.759	261.56
392.984	250.56
393.208	267.56
393.433	255.56
393.658	244.56
393.882	260.56
394.107	244.56
394.331	263.56
394.556	252.56
394.78	262.56
395.005	275.56
395.229	255.56
395.454	252.56
395.678	274.56
395.903	263.56
396.127	255.56
396.352	251.56
396.576	260.56
396.801	262.56
397.025	260.56
397.249	270.56
397.474	283.56
397.698	250.56
397.922	244.56
398.147	277.56
398.371	262.56
398.595	267.56
398.82	273.56
399.044	297.56
399.268	311.56
399.492	328.56
399.717	315.56
399.941	348.56
400.165	321.56
400.389	311.56
400.613	302.56
400.837	282.56
401.062	280.56
401.286	294.56
401.51	285.56
401.734	308.56
401.958	315.56
402.182	280.56
402.406	285.56
402.63	294.56
402.854	309.56
403.078	304.56
403.302	303.56
403.526	287.56
403.75	299.56
403.974	292.56
404.198	307.56
404.422	283.56
404.645	309.56
404.869	310.56
405.093	281.56
405.317	299.56
405.541	293.56
405.765	308.56
405.988	318.56
406.212	298.56
406.436	318.56
406.66	321.56
406.883	316.56
407.107	304.56
407.331	321.56
407.555	322.56
407.778	332.56
408.002	323.56
408.226	331.56
408.449	320.56
408.673	306.56
408.896	318.56
409.12	313.56
409.344	331.56
409.567	323.56
409.791	302.56
410.014	314.56
410.238	324.56
410.461	290.56
410.685	298.56
410.908	299.56
411.132	295.56
411.355	291.56
411.578	311.56
411.802	318.56
412.025	314.56
412.249	324.56
412.472	316.56
412.695	300.56
412.919	291.56
413.142	298.56
413.365	306.56
413.589	312.56
413.812	299.56
414.035	302.56
414.258	304.56
414.482	321.56
414.705	310.56
414.928	297.56
415.151	311.56
415.374	304.56
415.597	300.56
415.821	299.56
416.044	299.56
416.267	286.56
416.49	299.56
416.713	298.56
416.936	297.56
417.159	292.56
417.382	302.56
417.605	313.56
417.828	286.56
418.051	306.56
418.274	306.56
418.497	295.56
418.72	292.56
418.943	293.56
419.166	299.56
419.389	318.56
419.611	299.56
419.834	293.56
420.057	310.56
420.28	298.56
420.503	311.56
420.726	291.56
420.948	282.56
421.171	284.56
421.394	298.56
421.617	304.56
421.839	312.56
422.062	305.56
422.285	306.56
422.507	295.56
422.73	318.56
422.953	297.56
423.175	305.56
423.398	298.56
423.621	305.56
423.843	308.56
424.066	310.56
424.288	320.56
424.511	295.56
424.733	302.56
424.956	310.56
425.178	298.56
425.401	291.56
425.623	310.56
425.846	304.56
426.068	308.56
426.291	296.56
426.513	304.56
426.735	304.56
426.958	303.56
427.18	299.56
427.402	316.56
427.625	297.56
427.847	287.56
428.069	293.56
428.292	288.56
428.514	295.56
428.736	275.56
428.958	276.56
429.181	300.56
429.403	286.56
429.625	302.56
429.847	288.56
430.069	298.56
430.292	286.56
430.514	294.56
430.736	304.56
430.958	310.56
431.18	310.56
431.402	306.56
431.624	291.56
431.846	301.56
432.068	280.56
432.29	298.56
432.512	303.56
432.734	292.56
432.956	299.56
433.178	283.56
433.4	304.56
433.622	299.56
433.844	295.56
434.066	323.56
434.287	302.56
434.509	313.56
434.731	318.56
434.953	325.56
435.175	325.56
435.397	318.56
435.618	324.56
435.84	303.56
436.062	308.56
436.284	300.56
436.505	299.56
436.727	303.56
436.949	314.56
437.17	321.56
437.392	297.56
437.614	319.56
437.835	307.56
438.057	304.56
438.278	307.56
438.5	318.56
438.721	316.56
438.943	317.56
439.165	297.56
439.386	299.56
439.608	331.56
439.829	311.56
440.05	327.56
440.272	327.56
440.493	309.56
440.715	320.56
440.936	312.56
441.158	327.56
441.379	320.56
441.6	325.56
441.822	328.56
442.043	330.56
442.264	339.56
442.486	320.56
442.707	328.56
442.928	323.56
443.149	332.56
443.371	319.56
443.592	335.56
443.813	325.56
444.034	326.56
444.255	338.56
444.476	344.56
444.698	338.56
444.919	352.56
445.14	468.56
445.361	404.56
445.582	340.56
445.803	318.56
446.024	328.56
446.245	320.56
446.466	331.56
446.687	323.56
446.908	325.56
447.129	320.56
447.35	291.56
447.571	319.56
447.792	312.56
448.013	305.56
448.234	291.56
448.455	308.56
448.675	300.56
448.896	313.56
449.117	304.56
449.338	297.56
449.559	309.56
449.779	298.56
450	295.56
450.221	304.56
450.442	291.56
450.662	267.56
450.883	297.56
451.104	312.56
451.324	299.56
451.545	287.56
451.766	293.56
451.986	306.56
452.207	302.56
452.428	295.56
452.648	302.56
452.869	297.56
453.089	289.56
453.31	285.56
453.53	279.56
453.751	287.56
453.971	288.56
454.192	279.56
454.412	274.56
454.633	290.56
454.853	280.56
455.073	275.56
455.294	278.56
455.514	274.56
455.734	291.56
455.955	280.56
456.175	280.56
456.395	290.56
456.616	295.56
456.836	292.56
457.056	279.56
457.276	280.56
457.497	270.56
457.717	293.56
457.937	296.56
458.157	275.56
458.377	287.56
458.598	271.56
458.818	292.56
459.038	279.56
459.258	285.56
459.478	298.56
459.698	310.56
459.918	338.56
460.138	310.56
460.358	314.56
460.578	337.56
460.798	341.56
461.018	355.56
461.238	348.56
461.458	335.56
461.678	350.56
461.898	368.56
462.118	349.56
462.338	357.56
462.558	361.56
462.777	358.56
462.997	382.56
463.217	378.56
463.437	383.56
463.657	364.56
463.876	360.56
464.096	378.56
464.316	368.56
464.536	362.56
464.755	358.56
464.975	352.56
465.195	354.56
465.414	341.56
465.634	341.56
465.854	342.56
466.073	332.56
466.293	336.56
466.512	328.56
466.732	329.56
466.951	314.56
467.171	318.56
467.391	336.56
467.61	319.56
467.829	313.56
468.049	324.56
468.268	302.56
468.488	333.56
468.707	330.56
468.927	327.56
469.146	306.56
469.365	322.56
469.585	318.56
469.804	330.56
470.023	342.56
470.243	319.56
470.462	317.56
470.681	323.56
470.901	321.56
471.12	324.56
471.339	326.56
471.558	326.56
471.777	327.56
471.997	316.56
472.216	340.56
472.435	321.56
472.654	308.56
472.873	332.56
473.092	308.56
473.311	310.56
473.53	318.56
473.749	318.56
473.968	321.56
474.187	324.56
474.406	317.56
474.625	315.56
474.844	314.56
475.063	341.56
475.282	331.56
475.501	345.56
475.72	330.56
475.939	328.56
476.158	333.56
476.377	347.56
476.596	333.56
476.814	360.56
477.033	340.56
477.252	356.56
477.471	353.56
477.69	355.56
477.908	366.56
478.127	372.56
478.346	367.56
478.564	378.56
478.783	373.56
479.002	401.56
479.22	396.56
479.439	404.56
479.658	388.56
479.876	389.56
480.095	393.56
480.313	402.56
480.532	386.56
480.751	381.56
480.969	391.56
481.188	403.56
481.406	404.56
481.624	394.56
481.843	377.56
482.061	393.56
482.28	410.56
482.498	399.56
482.717	384.56
482.935	396.56
483.153	419.56
483.372	410.56
483.59	394.56
483.808	420.56
484.027	391.56
484.245	407.56
484.463	389.56
484.681	407.56
484.9	429.56
485.118	414.56
485.336	426.56
485.554	399.56
485.772	388.56
485.99	406.56
486.209	416.56
486.427	400.56
486.645	419.56
486.863	427.56
487.081	437.56
487.299	427.56
487.517	425.56
487.735	411.56
487.953	443.56
488.171	427.56
488.389	421.56
488.607	393.56
488.825	416.56
489.043	406.56
489.261	413.56
489.479	416.56
489.696	401.56
489.914	399.56
490.132	420.56
490.35	426.56
490.568	410.56
490.786	395.56
491.003	417.56
491.221	400.56
491.439	411.56
491.657	386.56
491.874	426.56
492.092	437.56
492.31	428.56
492.527	432.56
492.745	425.56
492.963	401.56
493.18	418.56
493.398	422.56
493.615	414.56
493.833	430.56
494.05	416.56
494.268	403.56
494.485	406.56
494.703	402.56
494.92	407.56
495.138	422.56
495.355	424.56
495.573	423.56
495.79	422.56
496.008	423.56
496.225	429.56
496.442	414.56
496.66	412.56
496.877	416.56
497.094	436.56
497.312	438.56
497.529	432.56
497.746	431.56
497.963	443.56
498.181	451.56
498.398	437.56
498.615	475.56
498.832	449.56
499.049	507.56
499.267	539.56
499.484	543.56
499.701	576.56
499.918	566.56
500.135	614.56
500.352	635.56
500.569	640.56
500.786	664.56
501.003	637.56
501.22	597.56
501.437	574.56
501.654	539.56
501.871	510.56
502.088	497.56
502.305	475.56
502.522	455.56
502.739	464.56
502.956	450.56
