Data from Fe(NO3)3@0.05M.TitratingCurve.Agarose3%dH2O.NegLispCup.LampEnergy10.LIBS07252019_HRD10591_16-45-48-334.txt Node
Date: Thu Jul 25 16:45:48 EDT 2019
User: cochatt
Spectrometer: HR+D1059
Trigger mode: 1
Integration Time (sec): 1.000000E-1
Scans to average: 1
Electric dark correction enabled: true
Nonlinearity correction enabled: false
Boxcar width: 0
XAxis mode: Wavelengths
Number of Pixels in Spectrum: 2048
>>>>>Begin Spectral Data<<<<<
223.165	-8
223.4	-8
223.635	-8
223.869	-18
224.104	-12
224.338	-11
224.573	-22
224.808	-18
225.042	-9
225.277	-5
225.511	-16
225.746	6
225.98	17
226.215	15
226.449	21
226.683	7
226.918	19
227.152	34
227.387	36
227.621	41
227.856	55
228.09	53
228.324	55
228.559	45
228.793	75
229.027	128
229.262	144
229.496	142
229.73	134
229.964	152
230.199	165
230.433	144
230.667	162
230.901	161
231.136	161
231.37	158
231.604	169
231.838	183
232.072	166
232.306	177
232.541	167
232.775	178
233.009	178
233.243	185
233.477	204
233.711	209
233.945	212
234.179	203
234.413	205
234.647	238
234.881	270
235.115	232
235.349	241
235.583	203
235.817	196
236.051	224
236.285	227
236.519	243
236.753	253
236.987	243
237.221	236
237.455	214
237.689	237
237.922	252
238.156	264
238.39	292
238.624	334
238.858	316
239.091	259
239.325	271
239.559	290
239.793	306
240.027	331
240.26	326
240.494	302
240.728	303
240.961	324
241.195	315
241.429	315
241.662	320
241.896	295
242.13	277
242.363	260
242.597	280
242.83	294
243.064	324
243.298	306
243.531	327
243.765	315
243.998	322
244.232	315
244.465	319
244.699	311
244.932	337
245.166	340
245.399	307
245.633	310
245.866	301
246.099	324
246.333	340
246.566	345
246.8	354
247.033	360
247.266	334
247.5	347
247.733	341
247.966	332
248.2	356
248.433	360
248.666	387
248.899	385
249.133	386
249.366	418
249.599	444
249.832	426
250.066	391
250.299	396
250.532	393
250.765	384
250.998	393
251.231	374
251.465	385
251.698	409
251.931	390
252.164	394
252.397	436
252.63	452
252.863	488
253.096	470
253.329	465
253.562	457
253.795	474
254.028	500
254.261	526
254.494	498
254.727	458
254.96	436
255.193	470
255.426	461
255.659	429
255.892	442
256.124	425
256.357	454
256.59	475
256.823	505
257.056	469
257.289	434
257.521	435
257.754	437
257.987	450
258.22	459
258.452	473
258.685	492
258.918	539
259.151	498
259.383	489
259.616	510
259.849	568
260.081	678
260.314	767
260.547	623
260.779	538
261.012	587
261.244	596
261.477	597
261.71	615
261.942	539
262.175	542
262.407	516
262.64	532
262.872	569
263.105	598
263.337	652
263.57	630
263.802	530
264.035	497
264.267	520
264.499	465
264.732	512
264.964	480
265.197	490
265.429	496
265.661	485
265.894	493
266.126	500
266.358	503
266.591	494
266.823	549
267.055	510
267.287	526
267.52	504
267.752	526
267.984	544
268.216	516
268.448	517
268.681	528
268.913	542
269.145	537
269.377	564
269.609	564
269.841	570
270.073	545
270.306	525
270.538	534
270.77	573
271.002	556
271.234	574
271.466	572
271.698	629
271.93	605
272.162	603
272.394	600
272.626	586
272.858	635
273.09	637
273.322	618
273.553	636
273.785	644
274.017	766
274.249	835
274.481	810
274.713	861
274.945	980
275.176	1032
275.408	901
275.64	867
275.872	875
276.104	758
276.335	655
276.567	651
276.799	650
277.031	699
277.262	664
277.494	640
277.726	644
277.957	636
278.189	666
278.421	663
278.652	653
278.884	635
279.115	646
279.347	658
279.579	646
279.81	653
280.042	669
280.273	642
280.505	636
280.736	632
280.968	635
281.199	661
281.431	644
281.662	651
281.894	653
282.125	659
282.356	664
282.588	681
282.819	664
283.051	676
283.282	678
283.513	694
283.745	696
283.976	690
284.207	688
284.439	706
284.67	690
284.901	684
285.132	718
285.364	691
285.595	718
285.826	699
286.057	716
286.288	696
286.52	713
286.751	715
286.982	693
287.213	702
287.444	724
287.675	746
287.906	717
288.138	724
288.369	732
288.6	718
288.831	732
289.062	694
289.293	736
289.524	732
289.755	693
289.986	713
290.217	717
290.448	731
290.679	729
290.91	700
291.141	729
291.371	715
291.602	744
291.833	701
292.064	744
292.295	734
292.526	718
292.757	734
292.987	726
293.218	722
293.449	730
293.68	739
293.91	754
294.141	724
294.372	728
294.603	731
294.833	758
295.064	748
295.295	742
295.525	732
295.756	734
295.987	748
296.217	757
296.448	766
296.679	763
296.909	771
297.14	778
297.37	818
297.601	781
297.831	782
298.062	789
298.292	802
298.523	830
298.753	827
298.984	788
299.214	791
299.445	813
299.675	769
299.905	786
300.136	777
300.366	816
300.597	804
300.827	828
301.057	816
301.288	812
301.518	786
301.748	831
301.979	852
302.209	876
302.439	860
302.669	843
302.9	826
303.13	830
303.36	836
303.59	834
303.82	837
304.051	850
304.281	836
304.511	836
304.741	836
304.971	842
305.201	836
305.431	835
305.661	862
305.891	861
306.121	830
306.352	866
306.582	799
306.812	806
307.042	836
307.272	841
307.502	832
307.731	851
307.961	824
308.191	852
308.421	834
308.651	845
308.881	833
309.111	858
309.341	848
309.571	851
309.8	860
310.03	844
310.26	883
310.49	829
310.72	860
310.949	865
311.179	849
311.409	853
311.639	869
311.868	874
312.098	878
312.328	901
312.557	891
312.787	884
313.017	883
313.246	904
313.476	878
313.706	906
313.935	898
314.165	907
314.394	904
314.624	872
314.853	895
315.083	898
315.312	914
315.542	912
315.771	899
316.001	902
316.23	917
316.46	911
316.689	917
316.919	929
317.148	900
317.377	922
317.607	914
317.836	921
318.065	932
318.295	937
318.524	941
318.753	939
318.983	924
319.212	940
319.441	948
319.67	950
319.9	961
320.129	944
320.358	944
320.587	927
320.816	914
321.046	945
321.275	967
321.504	976
321.733	939
321.962	948
322.191	973
322.42	948
322.649	970
322.878	973
323.108	960
323.337	965
323.566	943
323.795	973
324.024	966
324.253	982
324.482	978
324.71	993
324.939	972
325.168	989
325.397	960
325.626	974
325.855	992
326.084	976
326.313	993
326.542	1004
326.77	1008
326.999	1032
327.228	994
327.457	1012
327.686	980
327.914	996
328.143	992
328.372	1005
328.6	1000
328.829	993
329.058	1013
329.287	1010
329.515	1015
329.744	1011
329.972	1026
330.201	1012
330.43	1025
330.658	1037
330.887	1033
331.115	1027
331.344	1024
331.572	999
331.801	1042
332.03	1026
332.258	1070
332.486	1091
332.715	1064
332.943	1061
333.172	1101
333.4	1109
333.629	1098
333.857	1148
334.085	1144
334.314	1140
334.542	1140
334.771	1145
334.999	1125
335.227	1143
335.455	1162
335.684	1172
335.912	1136
336.14	1152
336.369	1140
336.597	1134
336.825	1137
337.053	1154
337.281	1140
337.51	1126
337.738	1154
337.966	1124
338.194	1110
338.422	1109
338.65	1150
338.878	1105
339.106	1084
339.334	1113
339.562	1128
339.79	1093
340.018	1044
340.246	1112
340.474	1096
340.702	1086
340.93	1068
341.158	1124
341.386	1075
341.614	1104
341.842	1089
342.07	1093
342.298	1096
342.526	1074
342.754	1114
342.981	1060
343.209	1073
343.437	1110
343.665	1124
343.893	1144
344.12	1172
344.348	1179
344.576	1157
344.804	1130
345.031	1106
345.259	1091
345.487	1107
345.714	1074
345.942	1102
346.17	1066
346.397	1068
346.625	1053
346.853	1055
347.08	1045
347.308	1074
347.535	1066
347.763	1048
347.99	1046
348.218	1021
348.445	1040
348.673	1012
348.9	1037
349.128	1058
349.355	1030
349.583	1060
349.81	1045
350.037	1025
350.265	1032
350.492	1046
350.72	1008
350.947	1022
351.174	1028
351.402	1023
351.629	1035
351.856	1016
352.083	1032
352.311	1013
352.538	1008
352.765	1022
352.992	1022
353.22	1005
353.447	998
353.674	1026
353.901	1005
354.128	1048
354.355	1032
354.583	1008
354.81	1027
355.037	1039
355.264	1044
355.491	1057
355.718	1053
355.945	1009
356.172	1044
356.399	1053
356.626	1083
356.853	1064
357.08	1067
357.307	1081
357.534	1042
357.761	1032
357.988	1076
358.215	1106
358.441	1121
358.668	1088
358.895	1072
359.122	1057
359.349	1023
359.576	1029
359.802	1001
360.029	1030
360.256	1042
360.483	1052
360.709	1046
360.936	1076
361.163	1114
361.39	1066
361.616	1028
361.843	1048
362.07	1074
362.296	1080
362.523	1050
362.749	1058
362.976	1053
363.203	1060
363.429	1099
363.656	1037
363.882	1056
364.109	1068
364.335	1058
364.562	1042
364.788	1027
365.015	1099
365.241	1074
365.468	1083
365.694	1057
365.92	1071
366.147	1063
366.373	1089
366.599	1093
366.826	1051
367.052	1061
367.278	1100
367.505	1081
367.731	1110
367.957	1072
368.184	1096
368.41	1094
368.636	1114
368.862	1129
369.089	1110
369.315	1081
369.541	1088
369.767	1129
369.993	1105
370.219	1114
370.445	1126
370.672	1147
370.898	1144
371.124	1140
371.35	1142
371.576	1129
371.802	1147
372.028	1176
372.254	1209
372.48	1186
372.706	1164
372.932	1155
373.158	1219
373.384	1210
373.61	1259
373.835	1272
374.061	1197
374.287	1175
374.513	1192
374.739	1253
374.965	1280
375.191	1259
375.416	1256
375.642	1172
375.868	1224
376.094	1229
376.319	1197
376.545	1197
376.771	1189
376.997	1161
377.222	1123
377.448	1138
377.674	1120
377.899	1114
378.125	1132
378.35	1133
378.576	1133
378.802	1132
379.027	1141
379.253	1154
379.478	1144
379.704	1147
379.929	1155
380.155	1201
380.38	1163
380.606	1173
380.831	1167
381.057	1190
381.282	1154
381.507	1172
381.733	1208
381.958	1188
382.184	1245
382.409	1258
382.634	1248
382.86	1274
383.085	1241
383.31	1246
383.535	1252
383.761	1241
383.986	1246
384.211	1290
384.436	1235
384.662	1254
384.887	1270
385.112	1285
385.337	1300
385.562	1302
385.787	1316
386.013	1336
386.238	1370
386.463	1312
386.688	1310
386.913	1304
387.138	1349
387.363	1370
387.588	1311
387.813	1348
388.038	1314
388.263	1332
388.488	1332
388.713	1359
388.938	1336
389.163	1343
389.387	1344
389.612	1299
389.837	1360
390.062	1351
390.287	1358
390.512	1335
390.736	1342
390.961	1358
391.186	1411
391.411	1366
391.636	1382
391.86	1405
392.085	1415
392.31	1423
392.534	1431
392.759	1399
392.984	1446
393.208	1431
393.433	1412
393.658	1410
393.882	1394
394.107	1391
394.331	1419
394.556	1378
394.78	1422
395.005	1420
395.229	1388
395.454	1460
395.678	1438
395.903	1469
396.127	1460
396.352	1446
396.576	1443
396.801	1457
397.025	1491
397.249	1483
397.474	1500
397.698	1454
397.922	1479
398.147	1566
398.371	1539
398.595	1547
398.82	1567
399.044	1612
399.268	1661
399.492	1736
399.717	1762
399.941	1833
400.165	1785
400.389	1782
400.613	1723
400.837	1677
401.062	1645
401.286	1657
401.51	1629
401.734	1575
401.958	1602
402.182	1606
402.406	1574
402.63	1604
402.854	1591
403.078	1594
403.302	1601
403.526	1577
403.75	1634
403.974	1616
404.198	1622
404.422	1609
404.645	1614
404.869	1664
405.093	1654
405.317	1646
405.541	1641
405.765	1659
405.988	1683
406.212	1688
406.436	1692
406.66	1747
406.883	1710
407.107	1709
407.331	1786
407.555	1844
407.778	1799
408.002	1774
408.226	1827
408.449	1805
408.673	1805
408.896	1719
409.12	1718
409.344	1792
409.567	1702
409.791	1748
410.014	1689
410.238	1687
410.461	1736
410.685	1710
410.908	1664
411.132	1683
411.355	1651
411.578	1682
411.802	1650
412.025	1623
412.249	1656
412.472	1679
412.695	1652
412.919	1649
413.142	1653
413.365	1638
413.589	1673
413.812	1643
414.035	1638
414.258	1620
414.482	1629
414.705	1606
414.928	1608
415.151	1603
415.374	1581
415.597	1585
415.821	1583
416.044	1572
416.267	1543
416.49	1543
416.713	1553
416.936	1570
417.159	1522
417.382	1505
417.605	1554
417.828	1551
418.051	1544
418.274	1512
418.497	1521
418.72	1522
418.943	1497
419.166	1605
419.389	1713
419.611	1690
419.834	1631
420.057	1607
420.28	1564
420.503	1523
420.726	1495
420.948	1495
421.171	1517
421.394	1560
421.617	1494
421.839	1540
422.062	1531
422.285	1457
422.507	1550
422.73	1531
422.953	1505
423.175	1540
423.398	1541
423.621	1518
423.843	1548
424.066	1548
424.288	1524
424.511	1503
424.733	1514
424.956	1507
425.178	1543
425.401	1517
425.623	1530
425.846	1532
426.068	1516
426.291	1493
426.513	1507
426.735	1498
426.958	1519
427.18	1467
427.402	1495
427.625	1490
427.847	1466
428.069	1477
428.292	1469
428.514	1475
428.736	1439
428.958	1532
429.181	1440
429.403	1464
429.625	1461
429.847	1462
430.069	1439
430.292	1472
430.514	1467
430.736	1510
430.958	1518
431.18	1499
431.402	1473
431.624	1463
431.846	1456
432.068	1468
432.29	1522
432.512	1481
432.734	1498
432.956	1472
433.178	1518
433.4	1477
433.622	1511
433.844	1512
434.066	1493
434.287	1550
434.509	1513
434.731	1551
434.953	1518
435.175	1514
435.397	1537
435.618	1552
435.84	1540
436.062	1491
436.284	1484
436.505	1528
436.727	1455
436.949	1474
437.17	1486
437.392	1456
437.614	1469
437.835	1424
438.057	1470
438.278	1448
438.5	1483
438.721	1454
438.943	1432
439.165	1399
439.386	1467
439.608	1445
439.829	1448
440.05	1445
440.272	1461
440.493	1450
440.715	1485
440.936	1452
441.158	1469
441.379	1506
441.6	1542
441.822	1515
442.043	1522
442.264	1516
442.486	1517
442.707	1489
442.928	1490
443.149	1525
443.371	1515
443.592	1514
443.813	1518
444.034	1503
444.255	1529
444.476	1548
444.698	1579
444.919	1590
445.14	1686
445.361	1612
445.582	1558
445.803	1552
446.024	1493
446.245	1499
446.466	1476
446.687	1465
446.908	1462
447.129	1444
447.35	1444
447.571	1411
447.792	1414
448.013	1375
448.234	1379
448.455	1371
448.675	1369
448.896	1356
449.117	1330
449.338	1369
449.559	1369
449.779	1376
450	1355
450.221	1355
450.442	1357
450.662	1337
450.883	1314
451.104	1363
451.324	1355
451.545	1363
451.766	1364
451.986	1308
452.207	1332
452.428	1328
452.648	1310
452.869	1297
453.089	1296
453.31	1323
453.53	1264
453.751	1323
453.971	1293
454.192	1334
454.412	1298
454.633	1292
454.853	1292
455.073	1277
455.294	1266
455.514	1289
455.734	1281
455.955	1272
456.175	1257
456.395	1286
456.616	1280
456.836	1293
457.056	1308
457.276	1326
457.497	1328
457.717	1294
457.937	1328
458.157	1281
458.377	1350
458.598	1342
458.818	1351
459.038	1380
459.258	1406
459.478	1446
459.698	1426
459.918	1466
460.138	1484
460.358	1527
460.578	1524
460.798	1548
461.018	1604
461.238	1547
461.458	1561
461.678	1554
461.898	1628
462.118	1580
462.338	1617
462.558	1645
462.777	1694
462.997	1736
463.217	1724
463.437	1734
463.657	1720
463.876	1680
464.096	1738
464.316	1657
464.536	1690
464.755	1678
464.975	1652
465.195	1604
465.414	1588
465.634	1556
465.854	1513
466.073	1518
466.293	1477
466.512	1454
466.732	1486
466.951	1492
467.171	1469
467.391	1416
467.61	1402
467.829	1434
468.049	1449
468.268	1413
468.488	1443
468.707	1427
468.927	1502
469.146	1508
469.365	1442
469.585	1419
469.804	1502
470.023	1506
470.243	1473
470.462	1499
470.681	1438
470.901	1430
471.12	1449
471.339	1474
471.558	1415
471.777	1444
471.997	1467
472.216	1463
472.435	1470
472.654	1434
472.873	1426
473.092	1478
473.311	1456
473.53	1461
473.749	1427
473.968	1433
474.187	1454
474.406	1434
474.625	1453
474.844	1460
475.063	1494
475.282	1484
475.501	1485
475.72	1469
475.939	1480
476.158	1551
476.377	1578
476.596	1678
476.814	1724
477.033	1610
477.252	1616
477.471	1610
477.69	1620
477.908	1644
478.127	1651
478.346	1643
478.564	1669
478.783	1713
479.002	1701
479.22	1744
479.439	1888
479.658	1767
479.876	1760
480.095	1763
480.313	1777
480.532	1802
480.751	1779
480.969	1755
481.188	1837
481.406	1856
481.624	1840
481.843	1781
482.061	1782
482.28	1757
482.498	1805
482.717	1759
482.935	1773
483.153	1799
483.372	1768
483.59	1798
483.808	1804
484.027	1755
484.245	1807
484.463	1809
484.681	1807
484.9	1815
485.118	1812
485.336	1821
485.554	1837
485.772	1849
485.99	1830
486.209	1844
486.427	1794
486.645	1854
486.863	1852
487.081	1847
487.299	1869
487.517	1841
487.735	1848
487.953	1878
488.171	1849
488.389	1856
488.607	1837
488.825	1806
489.043	1841
489.261	1819
489.479	1850
489.696	1830
489.914	1764
490.132	1800
490.35	1841
490.568	1818
490.786	1795
491.003	1800
491.221	1855
491.439	1829
491.657	1824
491.874	1835
492.092	1842
492.31	1892
492.527	1868
492.745	1888
492.963	1867
493.18	1861
493.398	1888
493.615	1880
493.833	1865
494.05	1828
494.268	1858
494.485	1837
494.703	1842
494.92	1873
495.138	1856
495.355	1890
495.573	1884
495.79	1840
496.008	1942
496.225	1930
496.442	1935
496.66	1947
496.877	1967
497.094	1976
497.312	2002
497.529	2039
497.746	2053
497.963	2141
498.181	2171
498.398	2227
498.615	2264
498.832	2347
499.049	2452
499.267	2448
499.484	2552
499.701	2631
499.918	2775
500.135	2896
500.352	2984
500.569	2946
500.786	3015
501.003	2931
501.22	2832
501.437	2714
501.654	2572
501.871	2507
502.088	2418
502.305	2334
502.522	2254
502.739	2243
502.956	2171
503.172	2140
503.389	2057
503.606	2012
503.823	2000
504.04	2004
504.256	1957
504.473	1930
504.69	1918
504.907	1904
505.123	1849
505.34	1838
505.557	1773
505.773	1779
505.99	1776
506.207	1730
506.423	1721
506.64	1692
506.856	1650
507.073	1689
507.289	1624
507.506	1628
507.722	1651
507.939	1642
508.155	1618
508.372	1583
508.588	1582
508.805	1573
509.021	1553
509.238	1552
509.454	1523
509.67	1515
509.887	1502
510.103	1536
510.319	1483
510.536	1452
510.752	1450
510.968	1442
511.184	1434
511.401	1430
511.617	1453
511.833	1464
512.049	1457
512.265	1473
512.481	1436
512.698	1502
512.914	1487
513.13	1466
513.346	1469
513.562	1422
513.778	1452
513.994	1447
514.21	1475
514.426	1460
514.642	1449
514.858	1464
515.074	1489
515.29	1518
515.506	1465
515.721	1495
515.937	1500
516.153	1520
516.369	1531
516.585	1530
516.801	1540
517.016	1529
517.232	1577
517.448	1655
517.664	1608
517.879	1576
518.095	1603
518.311	1550
518.527	1555
518.742	1584
518.958	1561
519.173	1510
519.389	1501
519.605	1467
519.82	1514
520.036	1648
520.251	1589
520.467	1483
520.682	1397
520.898	1394
521.113	1372
521.329	1378
521.544	1427
521.76	1414
521.975	1381
522.19	1338
522.406	1370
522.621	1416
522.836	1402
523.052	1390
523.267	1354
523.482	1351
523.698	1336
523.913	1336
524.128	1332
524.343	1318
524.559	1315
524.774	1334
524.989	1305
525.204	1333
525.419	1353
525.634	1356
525.849	1311
526.064	1344
526.28	1318
526.495	1372
526.71	1289
526.925	1273
527.14	1261
527.355	1257
527.57	1240
527.785	1237
527.999	1231
528.214	1227
528.429	1253
528.644	1250
528.859	1262
529.074	1243
529.289	1235
529.503	1256
529.718	1203
529.933	1229
530.148	1239
530.363	1247
530.577	1246
530.792	1226
531.007	1228
531.221	1214
531.436	1214
531.651	1235
531.865	1220
532.08	1243
532.295	1248
532.509	1229
532.724	1196
532.938	1224
533.153	1255
533.367	1209
533.582	1210
533.796	1188
534.011	1209
534.225	1202
534.44	1188
534.654	1212
534.868	1182
535.083	1209
535.297	1210
535.511	1165
535.726	1184
535.94	1184
536.154	1187
536.369	1148
536.583	1141
536.797	1158
537.011	1159
537.225	1128
537.44	1143
537.654	1134
537.868	1118
538.082	1116
538.296	1139
538.51	1128
538.724	1111
538.938	1134
539.153	1137
539.367	1128
539.581	1116
539.795	1101
540.009	1138
540.222	1109
540.436	1121
540.65	1117
540.864	1116
541.078	1125
541.292	1116
541.506	1113
541.72	1117
541.934	1102
542.147	1142
542.361	1121
542.575	1096
542.789	1098
543.002	1079
543.216	1096
543.43	1108
543.644	1089
543.857	1066
544.071	1102
544.285	1114
544.498	1099
544.712	1105
544.925	1118
545.139	1118
545.352	1099
545.566	1111
545.779	1138
545.993	1101
546.206	1120
546.42	1123
546.633	1083
546.847	1107
