Data from Fe(NO3)3@0.0125M.TitratingCurve.Agarose3%dH2O.NegLispCup.LampEnergy10.LIBS07252019_HRD10591_16-59-07-337.txt Node
Date: Thu Jul 25 16:59:07 EDT 2019
User: cochatt
Spectrometer: HR+D1059
Trigger mode: 1
Integration Time (sec): 1.000000E-1
Scans to average: 1
Electric dark correction enabled: true
Nonlinearity correction enabled: false
Boxcar width: 0
XAxis mode: Wavelengths
Number of Pixels in Spectrum: 2048
>>>>>Begin Spectral Data<<<<<
223.165	-21.12
223.4	-21.12
223.635	-21.12
223.869	-17.12
224.104	-22.12
224.338	-11.12
224.573	-2.12
224.808	-19.12
225.042	-8.12
225.277	-7.12
225.511	12.88
225.746	1.88
225.98	17.88
226.215	6.88
226.449	7.88
226.683	1.88
226.918	28.88
227.152	29.88
227.387	27.88
227.621	40.88
227.856	41.88
228.09	42.88
228.324	56.88
228.559	66.88
228.793	62.88
229.027	93.88
229.262	89.88
229.496	102.88
229.73	97.88
229.964	93.88
230.199	114.88
230.433	111.88
230.667	118.88
230.901	126.88
231.136	109.88
231.37	127.88
231.604	126.88
231.838	122.88
232.072	124.88
232.306	123.88
232.541	116.88
232.775	128.88
233.009	125.88
233.243	120.88
233.477	142.88
233.711	128.88
233.945	131.88
234.179	130.88
234.413	134.88
234.647	131.88
234.881	136.88
235.115	129.88
235.349	131.88
235.583	142.88
235.817	135.88
236.051	145.88
236.285	125.88
236.519	134.88
236.753	135.88
236.987	132.88
237.221	130.88
237.455	130.88
237.689	128.88
237.922	128.88
238.156	143.88
238.39	146.88
238.624	153.88
238.858	133.88
239.091	155.88
239.325	154.88
239.559	141.88
239.793	157.88
240.027	145.88
240.26	131.88
240.494	158.88
240.728	162.88
240.961	143.88
241.195	150.88
241.429	167.88
241.662	178.88
241.896	167.88
242.13	155.88
242.363	172.88
242.597	156.88
242.83	179.88
243.064	168.88
243.298	169.88
243.531	180.88
243.765	180.88
243.998	174.88
244.232	178.88
244.465	161.88
244.699	173.88
244.932	161.88
245.166	164.88
245.399	181.88
245.633	170.88
245.866	164.88
246.099	179.88
246.333	173.88
246.566	180.88
246.8	195.88
247.033	176.88
247.266	195.88
247.5	197.88
247.733	173.88
247.966	178.88
248.2	198.88
248.433	202.88
248.666	211.88
248.899	179.88
249.133	194.88
249.366	196.88
249.599	192.88
249.832	208.88
250.066	199.88
250.299	198.88
250.532	198.88
250.765	211.88
250.998	213.88
251.231	206.88
251.465	212.88
251.698	209.88
251.931	198.88
252.164	197.88
252.397	211.88
252.63	210.88
252.863	222.88
253.096	220.88
253.329	211.88
253.562	218.88
253.795	221.88
254.028	227.88
254.261	220.88
254.494	230.88
254.727	221.88
254.96	222.88
255.193	217.88
255.426	233.88
255.659	226.88
255.892	221.88
256.124	225.88
256.357	227.88
256.59	244.88
256.823	227.88
257.056	249.88
257.289	248.88
257.521	216.88
257.754	230.88
257.987	223.88
258.22	232.88
258.452	243.88
258.685	245.88
258.918	236.88
259.151	259.88
259.383	251.88
259.616	262.88
259.849	250.88
260.081	281.88
260.314	288.88
260.547	274.88
260.779	248.88
261.012	242.88
261.244	270.88
261.477	280.88
261.71	265.88
261.942	258.88
262.175	290.88
262.407	269.88
262.64	276.88
262.872	258.88
263.105	265.88
263.337	270.88
263.57	283.88
263.802	272.88
264.035	264.88
264.267	262.88
264.499	272.88
264.732	278.88
264.964	285.88
265.197	285.88
265.429	272.88
265.661	280.88
265.894	277.88
266.126	299.88
266.358	287.88
266.591	285.88
266.823	289.88
267.055	288.88
267.287	289.88
267.52	301.88
267.752	287.88
267.984	278.88
268.216	295.88
268.448	294.88
268.681	301.88
268.913	293.88
269.145	283.88
269.377	292.88
269.609	312.88
269.841	325.88
270.073	290.88
270.306	294.88
270.538	301.88
270.77	305.88
271.002	313.88
271.234	310.88
271.466	329.88
271.698	319.88
271.93	333.88
272.162	326.88
272.394	319.88
272.626	306.88
272.858	342.88
273.09	325.88
273.322	308.88
273.553	320.88
273.785	334.88
274.017	350.88
274.249	362.88
274.481	347.88
274.713	353.88
274.945	356.88
275.176	377.88
275.408	366.88
275.64	345.88
275.872	358.88
276.104	360.88
276.335	347.88
276.567	341.88
276.799	354.88
277.031	366.88
277.262	347.88
277.494	361.88
277.726	344.88
277.957	346.88
278.189	369.88
278.421	376.88
278.652	362.88
278.884	364.88
279.115	376.88
279.347	373.88
279.579	353.88
279.81	379.88
280.042	363.88
280.273	355.88
280.505	370.88
280.736	394.88
280.968	376.88
281.199	372.88
281.431	388.88
281.662	380.88
281.894	381.88
282.125	369.88
282.356	390.88
282.588	384.88
282.819	394.88
283.051	395.88
283.282	394.88
283.513	382.88
283.745	392.88
283.976	399.88
284.207	419.88
284.439	414.88
284.67	408.88
284.901	414.88
285.132	386.88
285.364	409.88
285.595	424.88
285.826	412.88
286.057	406.88
286.288	402.88
286.52	401.88
286.751	438.88
286.982	411.88
287.213	410.88
287.444	430.88
287.675	423.88
287.906	422.88
288.138	441.88
288.369	414.88
288.6	419.88
288.831	409.88
289.062	424.88
289.293	434.88
289.524	439.88
289.755	441.88
289.986	434.88
290.217	426.88
290.448	419.88
290.679	403.88
290.91	442.88
291.141	409.88
291.371	426.88
291.602	438.88
291.833	419.88
292.064	425.88
292.295	423.88
292.526	414.88
292.757	447.88
292.987	468.88
293.218	436.88
293.449	453.88
293.68	450.88
293.91	440.88
294.141	439.88
294.372	450.88
294.603	447.88
294.833	452.88
295.064	461.88
295.295	449.88
295.525	482.88
295.756	464.88
295.987	461.88
296.217	469.88
296.448	474.88
296.679	475.88
296.909	474.88
297.14	441.88
297.37	459.88
297.601	471.88
297.831	455.88
298.062	477.88
298.292	482.88
298.523	475.88
298.753	496.88
298.984	471.88
299.214	485.88
299.445	498.88
299.675	480.88
299.905	474.88
300.136	473.88
300.366	474.88
300.597	494.88
300.827	496.88
301.057	496.88
301.288	497.88
301.518	459.88
301.748	507.88
301.979	507.88
302.209	503.88
302.439	493.88
302.669	479.88
302.9	517.88
303.13	513.88
303.36	501.88
303.59	524.88
303.82	515.88
304.051	501.88
304.281	515.88
304.511	538.88
304.741	517.88
304.971	536.88
305.201	514.88
305.431	514.88
305.661	529.88
305.891	510.88
306.121	532.88
306.352	510.88
306.582	524.88
306.812	534.88
307.042	517.88
307.272	521.88
307.502	526.88
307.731	533.88
307.961	539.88
308.191	517.88
308.421	518.88
308.651	523.88
308.881	522.88
309.111	523.88
309.341	533.88
309.571	527.88
309.8	556.88
310.03	526.88
310.26	554.88
310.49	555.88
310.72	549.88
310.949	550.88
311.179	553.88
311.409	545.88
311.639	547.88
311.868	549.88
312.098	552.88
312.328	560.88
312.557	587.88
312.787	559.88
313.017	563.88
313.246	568.88
313.476	565.88
313.706	583.88
313.935	582.88
314.165	562.88
314.394	550.88
314.624	583.88
314.853	571.88
315.083	552.88
315.312	593.88
315.542	577.88
315.771	566.88
316.001	576.88
316.23	587.88
316.46	586.88
316.689	591.88
316.919	573.88
317.148	604.88
317.377	581.88
317.607	582.88
317.836	585.88
318.065	613.88
318.295	594.88
318.524	609.88
318.753	605.88
318.983	593.88
319.212	591.88
319.441	612.88
319.67	605.88
319.9	587.88
320.129	613.88
320.358	629.88
320.587	616.88
320.816	618.88
321.046	620.88
321.275	606.88
321.504	632.88
321.733	620.88
321.962	611.88
322.191	643.88
322.42	607.88
322.649	618.88
322.878	634.88
323.108	607.88
323.337	626.88
323.566	636.88
323.795	649.88
324.024	620.88
324.253	660.88
324.482	622.88
324.71	613.88
324.939	642.88
325.168	640.88
325.397	646.88
325.626	636.88
325.855	631.88
326.084	654.88
326.313	644.88
326.542	649.88
326.77	665.88
326.999	646.88
327.228	644.88
327.457	646.88
327.686	647.88
327.914	645.88
328.143	662.88
328.372	646.88
328.6	673.88
328.829	610.88
329.058	662.88
329.287	648.88
329.515	646.88
329.744	665.88
329.972	688.88
330.201	656.88
330.43	662.88
330.658	678.88
330.887	665.88
331.115	664.88
331.344	661.88
331.572	654.88
331.801	677.88
332.03	683.88
332.258	677.88
332.486	688.88
332.715	672.88
332.943	664.88
333.172	712.88
333.4	702.88
333.629	694.88
333.857	691.88
334.085	702.88
334.314	683.88
334.542	715.88
334.771	720.88
334.999	699.88
335.227	719.88
335.455	718.88
335.684	721.88
335.912	705.88
336.14	716.88
336.369	713.88
336.597	729.88
336.825	709.88
337.053	707.88
337.281	715.88
337.51	731.88
337.738	675.88
337.966	692.88
338.194	716.88
338.422	716.88
338.65	673.88
338.878	730.88
339.106	710.88
339.334	696.88
339.562	684.88
339.79	688.88
340.018	698.88
340.246	710.88
340.474	701.88
340.702	711.88
340.93	709.88
341.158	701.88
341.386	711.88
341.614	706.88
341.842	705.88
342.07	708.88
342.298	725.88
342.526	706.88
342.754	703.88
342.981	684.88
343.209	674.88
343.437	739.88
343.665	725.88
343.893	711.88
344.12	730.88
344.348	729.88
344.576	727.88
344.804	724.88
345.031	712.88
345.259	707.88
345.487	707.88
345.714	696.88
345.942	697.88
346.17	713.88
346.397	693.88
346.625	697.88
346.853	712.88
347.08	688.88
347.308	689.88
347.535	684.88
347.763	690.88
347.99	701.88
348.218	685.88
348.445	685.88
348.673	661.88
348.9	691.88
349.128	671.88
349.355	708.88
349.583	700.88
349.81	700.88
350.037	698.88
350.265	691.88
350.492	679.88
350.72	671.88
350.947	654.88
351.174	665.88
351.402	700.88
351.629	677.88
351.856	685.88
352.083	676.88
352.311	671.88
352.538	708.88
352.765	694.88
352.992	681.88
353.22	652.88
353.447	653.88
353.674	683.88
353.901	694.88
354.128	675.88
354.355	668.88
354.583	682.88
354.81	696.88
355.037	684.88
355.264	678.88
355.491	683.88
355.718	684.88
355.945	675.88
356.172	679.88
356.399	694.88
356.626	681.88
356.853	714.88
357.08	675.88
357.307	679.88
357.534	676.88
357.761	672.88
357.988	684.88
358.215	705.88
358.441	688.88
358.668	700.88
358.895	701.88
359.122	694.88
359.349	711.88
359.576	663.88
359.802	682.88
360.029	680.88
360.256	701.88
360.483	696.88
360.709	685.88
360.936	682.88
361.163	663.88
361.39	673.88
361.616	680.88
361.843	676.88
362.07	709.88
362.296	697.88
362.523	689.88
362.749	697.88
362.976	706.88
363.203	690.88
363.429	700.88
363.656	693.88
363.882	691.88
364.109	713.88
364.335	714.88
364.562	703.88
364.788	715.88
365.015	700.88
365.241	683.88
365.468	684.88
365.694	707.88
365.92	704.88
366.147	715.88
366.373	711.88
366.599	722.88
366.826	693.88
367.052	704.88
367.278	703.88
367.505	706.88
367.731	704.88
367.957	715.88
368.184	716.88
368.41	734.88
368.636	728.88
368.862	710.88
369.089	729.88
369.315	727.88
369.541	711.88
369.767	727.88
369.993	729.88
370.219	724.88
370.445	754.88
370.672	722.88
370.898	746.88
371.124	746.88
371.35	774.88
371.576	736.88
371.802	755.88
372.028	737.88
372.254	755.88
372.48	752.88
372.706	760.88
372.932	738.88
373.158	729.88
373.384	747.88
373.61	770.88
373.835	719.88
374.061	768.88
374.287	756.88
374.513	742.88
374.739	742.88
374.965	747.88
375.191	735.88
375.416	739.88
375.642	732.88
375.868	770.88
376.094	750.88
376.319	769.88
376.545	750.88
376.771	774.88
376.997	708.88
377.222	726.88
377.448	737.88
377.674	738.88
377.899	716.88
378.125	762.88
378.35	754.88
378.576	742.88
378.802	721.88
379.027	737.88
379.253	768.88
379.478	724.88
379.704	738.88
379.929	737.88
380.155	740.88
380.38	737.88
380.606	733.88
380.831	747.88
381.057	741.88
381.282	735.88
381.507	753.88
381.733	748.88
381.958	747.88
382.184	787.88
382.409	740.88
382.634	768.88
382.86	739.88
383.085	766.88
383.31	756.88
383.535	746.88
383.761	761.88
383.986	786.88
384.211	772.88
384.436	790.88
384.662	797.88
384.887	778.88
385.112	772.88
385.337	790.88
385.562	800.88
385.787	791.88
386.013	804.88
386.238	815.88
386.463	820.88
386.688	809.88
386.913	806.88
387.138	796.88
387.363	805.88
387.588	834.88
387.813	786.88
388.038	802.88
388.263	825.88
388.488	802.88
388.713	816.88
388.938	813.88
389.163	824.88
389.387	838.88
389.612	786.88
389.837	806.88
390.062	826.88
390.287	813.88
390.512	804.88
390.736	809.88
390.961	813.88
391.186	812.88
391.411	829.88
391.636	818.88
391.86	808.88
392.085	826.88
392.31	858.88
392.534	832.88
392.759	852.88
392.984	809.88
393.208	829.88
393.433	850.88
393.658	803.88
393.882	837.88
394.107	813.88
394.331	840.88
394.556	826.88
394.78	827.88
395.005	850.88
395.229	833.88
395.454	851.88
395.678	839.88
395.903	855.88
396.127	857.88
396.352	844.88
396.576	837.88
396.801	839.88
397.025	864.88
397.249	836.88
397.474	829.88
397.698	889.88
397.922	830.88
398.147	858.88
398.371	896.88
398.595	899.88
398.82	901.88
399.044	907.88
399.268	897.88
399.492	902.88
399.717	933.88
399.941	939.88
400.165	923.88
400.389	930.88
400.613	918.88
400.837	906.88
401.062	921.88
401.286	887.88
401.51	896.88
401.734	898.88
401.958	902.88
402.182	901.88
402.406	903.88
402.63	886.88
402.854	899.88
403.078	885.88
403.302	894.88
403.526	913.88
403.75	882.88
403.974	893.88
404.198	898.88
404.422	911.88
404.645	913.88
404.869	905.88
405.093	898.88
405.317	875.88
405.541	925.88
405.765	921.88
405.988	907.88
406.212	935.88
406.436	917.88
406.66	940.88
406.883	923.88
407.107	920.88
407.331	942.88
407.555	936.88
407.778	958.88
408.002	925.88
408.226	965.88
408.449	985.88
408.673	930.88
408.896	931.88
409.12	936.88
409.344	950.88
409.567	941.88
409.791	973.88
410.014	914.88
410.238	915.88
410.461	923.88
410.685	918.88
410.908	918.88
411.132	896.88
411.355	898.88
411.578	896.88
411.802	897.88
412.025	914.88
412.249	928.88
412.472	904.88
412.695	902.88
412.919	945.88
413.142	903.88
413.365	877.88
413.589	920.88
413.812	910.88
414.035	891.88
414.258	891.88
414.482	880.88
414.705	918.88
414.928	883.88
415.151	887.88
415.374	883.88
415.597	860.88
415.821	852.88
416.044	890.88
416.267	882.88
416.49	884.88
416.713	858.88
416.936	879.88
417.159	862.88
417.382	840.88
417.605	841.88
417.828	825.88
418.051	874.88
418.274	855.88
418.497	833.88
418.72	849.88
418.943	860.88
419.166	887.88
419.389	924.88
419.611	915.88
419.834	896.88
420.057	881.88
420.28	846.88
420.503	846.88
420.726	851.88
420.948	817.88
421.171	850.88
421.394	862.88
421.617	829.88
421.839	816.88
422.062	836.88
422.285	801.88
422.507	845.88
422.73	848.88
422.953	858.88
423.175	837.88
423.398	833.88
423.621	845.88
423.843	838.88
424.066	844.88
424.288	844.88
424.511	826.88
424.733	829.88
424.956	844.88
425.178	820.88
425.401	857.88
425.623	837.88
425.846	846.88
426.068	874.88
426.291	825.88
426.513	820.88
426.735	840.88
426.958	831.88
427.18	796.88
427.402	849.88
427.625	827.88
427.847	854.88
428.069	817.88
428.292	842.88
428.514	817.88
428.736	812.88
428.958	838.88
429.181	819.88
429.403	800.88
429.625	828.88
429.847	824.88
430.069	809.88
430.292	843.88
430.514	825.88
430.736	838.88
430.958	832.88
431.18	826.88
431.402	827.88
431.624	823.88
431.846	809.88
432.068	824.88
432.29	814.88
432.512	785.88
432.734	832.88
432.956	811.88
433.178	854.88
433.4	813.88
433.622	840.88
433.844	847.88
434.066	810.88
434.287	810.88
434.509	844.88
434.731	830.88
434.953	823.88
435.175	845.88
435.397	861.88
435.618	829.88
435.84	825.88
436.062	826.88
436.284	806.88
436.505	816.88
436.727	830.88
436.949	804.88
437.17	826.88
437.392	812.88
437.614	778.88
437.835	797.88
438.057	814.88
438.278	782.88
438.5	794.88
438.721	808.88
438.943	806.88
439.165	805.88
439.386	800.88
439.608	816.88
439.829	823.88
440.05	811.88
440.272	820.88
440.493	793.88
440.715	841.88
440.936	842.88
441.158	830.88
441.379	805.88
441.6	867.88
441.822	846.88
442.043	834.88
442.264	833.88
442.486	792.88
442.707	837.88
442.928	830.88
443.149	799.88
443.371	818.88
443.592	797.88
443.813	832.88
444.034	822.88
444.255	806.88
444.476	827.88
444.698	816.88
444.919	820.88
445.14	929.88
445.361	850.88
445.582	820.88
445.803	795.88
446.024	832.88
446.245	795.88
446.466	805.88
446.687	772.88
446.908	784.88
447.129	804.88
447.35	776.88
447.571	801.88
447.792	782.88
448.013	776.88
448.234	764.88
448.455	775.88
448.675	760.88
448.896	782.88
449.117	778.88
449.338	778.88
449.559	774.88
449.779	743.88
450	733.88
450.221	768.88
450.442	757.88
450.662	756.88
450.883	746.88
451.104	756.88
451.324	762.88
451.545	754.88
451.766	741.88
451.986	732.88
452.207	758.88
452.428	782.88
452.648	771.88
452.869	733.88
453.089	731.88
453.31	752.88
453.53	730.88
453.751	756.88
453.971	752.88
454.192	738.88
454.412	717.88
454.633	743.88
454.853	745.88
455.073	721.88
455.294	743.88
455.514	721.88
455.734	759.88
455.955	746.88
456.175	744.88
456.395	747.88
456.616	742.88
456.836	741.88
457.056	746.88
457.276	735.88
457.497	736.88
457.717	736.88
457.937	733.88
458.157	749.88
458.377	765.88
458.598	756.88
458.818	761.88
459.038	747.88
459.258	769.88
459.478	776.88
459.698	787.88
459.918	787.88
460.138	825.88
460.358	796.88
460.578	774.88
460.798	824.88
461.018	822.88
461.238	831.88
461.458	814.88
461.678	813.88
461.898	804.88
462.118	813.88
462.338	834.88
462.558	820.88
462.777	852.88
462.997	853.88
463.217	873.88
463.437	881.88
463.657	883.88
463.876	854.88
464.096	849.88
464.316	853.88
464.536	860.88
464.755	872.88
464.975	874.88
465.195	866.88
465.414	841.88
465.634	823.88
465.854	838.88
466.073	829.88
466.293	833.88
466.512	790.88
466.732	779.88
466.951	800.88
467.171	800.88
467.391	795.88
467.61	798.88
467.829	811.88
468.049	774.88
468.268	796.88
468.488	793.88
468.707	810.88
468.927	790.88
469.146	798.88
469.365	785.88
469.585	772.88
469.804	796.88
470.023	798.88
470.243	783.88
470.462	830.88
470.681	812.88
470.901	789.88
471.12	820.88
471.339	828.88
471.558	821.88
471.777	802.88
471.997	811.88
472.216	811.88
472.435	827.88
472.654	833.88
472.873	825.88
473.092	822.88
473.311	816.88
473.53	840.88
473.749	829.88
473.968	840.88
474.187	812.88
474.406	846.88
474.625	843.88
474.844	808.88
475.063	817.88
475.282	828.88
475.501	851.88
475.72	854.88
475.939	874.88
476.158	893.88
476.377	874.88
476.596	868.88
476.814	890.88
477.033	874.88
477.252	901.88
477.471	884.88
477.69	872.88
477.908	884.88
478.127	916.88
478.346	870.88
478.564	878.88
478.783	896.88
479.002	939.88
479.22	906.88
479.439	949.88
479.658	944.88
479.876	953.88
480.095	942.88
480.313	956.88
480.532	947.88
480.751	970.88
480.969	968.88
481.188	931.88
481.406	957.88
481.624	977.88
481.843	974.88
482.061	966.88
482.28	976.88
482.498	977.88
482.717	968.88
482.935	994.88
483.153	972.88
483.372	972.88
483.59	974.88
483.808	989.88
484.027	1016.88
484.245	995.88
484.463	1009.88
484.681	1022.88
484.9	1022.88
485.118	973.88
485.336	971.88
485.554	997.88
485.772	971.88
485.99	975.88
486.209	988.88
486.427	1005.88
486.645	1008.88
486.863	988.88
487.081	1013.88
487.299	1008.88
487.517	980.88
487.735	1016.88
487.953	1021.88
488.171	1019.88
488.389	1004.88
488.607	997.88
488.825	1003.88
489.043	989.88
489.261	992.88
489.479	1008.88
489.696	1026.88
489.914	1026.88
490.132	1029.88
490.35	1012.88
490.568	1036.88
490.786	1017.88
491.003	1016.88
491.221	1027.88
491.439	1037.88
491.657	1022.88
491.874	1027.88
492.092	1054.88
492.31	1037.88
492.527	1040.88
492.745	1073.88
492.963	1045.88
493.18	1064.88
493.398	1034.88
493.615	1047.88
493.833	1027.88
494.05	1013.88
494.268	1057.88
494.485	1033.88
494.703	1050.88
494.92	1056.88
495.138	1053.88
495.355	1047.88
495.573	1078.88
495.79	1090.88
496.008	1076.88
496.225	1076.88
496.442	1080.88
496.66	1090.88
496.877	1096.88
497.094	1124.88
497.312	1128.88
497.529	1128.88
497.746	1118.88
497.963	1125.88
498.181	1112.88
498.398	1125.88
498.615	1182.88
498.832	1187.88
499.049	1201.88
499.267	1209.88
499.484	1236.88
499.701	1291.88
499.918	1272.88
500.135	1328.88
500.352	1326.88
500.569	1325.88
500.786	1309.88
