Data from Fe(NO3)3@0.0125M.TitratingCurve.Agarose3%dH2O.NegLispCup.LampEnergy10.LIBS07252019_HRD10591_17-01-45-337.txt Node
Date: Thu Jul 25 17:01:45 EDT 2019
User: cochatt
Spectrometer: HR+D1059
Trigger mode: 1
Integration Time (sec): 1.000000E-1
Scans to average: 1
Electric dark correction enabled: true
Nonlinearity correction enabled: false
Boxcar width: 0
XAxis mode: Wavelengths
Number of Pixels in Spectrum: 2048
>>>>>Begin Spectral Data<<<<<
223.165	-21.75
223.4	-21.75
223.635	-21.75
223.869	-22.75
224.104	-20.75
224.338	-8.75
224.573	-21.75
224.808	-8.75
225.042	-20.75
225.277	-0.75
225.511	-0.75
225.746	15.25
225.98	7.25
226.215	31.25
226.449	11.25
226.683	22.25
226.918	17.25
227.152	22.25
227.387	26.25
227.621	49.25
227.856	50.25
228.09	47.25
228.324	39.25
228.559	44.25
228.793	69.25
229.027	81.25
229.262	81.25
229.496	83.25
229.73	84.25
229.964	82.25
230.199	78.25
230.433	91.25
230.667	103.25
230.901	90.25
231.136	98.25
231.37	102.25
231.604	90.25
231.838	103.25
232.072	100.25
232.306	90.25
232.541	99.25
232.775	106.25
233.009	111.25
233.243	105.25
233.477	99.25
233.711	107.25
233.945	99.25
234.179	102.25
234.413	91.25
234.647	99.25
234.881	113.25
235.115	111.25
235.349	97.25
235.583	105.25
235.817	114.25
236.051	114.25
236.285	106.25
236.519	90.25
236.753	102.25
236.987	109.25
237.221	106.25
237.455	104.25
237.689	104.25
237.922	109.25
238.156	103.25
238.39	94.25
238.624	95.25
238.858	104.25
239.091	106.25
239.325	99.25
239.559	111.25
239.793	115.25
240.027	118.25
240.26	103.25
240.494	109.25
240.728	103.25
240.961	112.25
241.195	105.25
241.429	102.25
241.662	107.25
241.896	103.25
242.13	108.25
242.363	119.25
242.597	111.25
242.83	118.25
243.064	116.25
243.298	118.25
243.531	106.25
243.765	109.25
243.998	113.25
244.232	107.25
244.465	111.25
244.699	123.25
244.932	114.25
245.166	98.25
245.399	122.25
245.633	118.25
245.866	130.25
246.099	127.25
246.333	121.25
246.566	101.25
246.8	137.25
247.033	118.25
247.266	121.25
247.5	115.25
247.733	109.25
247.966	119.25
248.2	134.25
248.433	130.25
248.666	124.25
248.899	122.25
249.133	126.25
249.366	113.25
249.599	126.25
249.832	123.25
250.066	122.25
250.299	130.25
250.532	144.25
250.765	130.25
250.998	138.25
251.231	126.25
251.465	137.25
251.698	138.25
251.931	125.25
252.164	127.25
252.397	126.25
252.63	137.25
252.863	139.25
253.096	127.25
253.329	151.25
253.562	128.25
253.795	140.25
254.028	148.25
254.261	151.25
254.494	158.25
254.727	133.25
254.96	139.25
255.193	140.25
255.426	149.25
255.659	129.25
255.892	132.25
256.124	120.25
256.357	137.25
256.59	134.25
256.823	134.25
257.056	137.25
257.289	134.25
257.521	165.25
257.754	138.25
257.987	145.25
258.22	131.25
258.452	133.25
258.685	144.25
258.918	155.25
259.151	148.25
259.383	150.25
259.616	151.25
259.849	144.25
260.081	170.25
260.314	161.25
260.547	162.25
260.779	134.25
261.012	145.25
261.244	153.25
261.477	168.25
261.71	165.25
261.942	143.25
262.175	147.25
262.407	163.25
262.64	161.25
262.872	164.25
263.105	163.25
263.337	161.25
263.57	159.25
263.802	162.25
264.035	161.25
264.267	154.25
264.499	156.25
264.732	170.25
264.964	163.25
265.197	149.25
265.429	156.25
265.661	149.25
265.894	142.25
266.126	149.25
266.358	165.25
266.591	152.25
266.823	156.25
267.055	153.25
267.287	173.25
267.52	152.25
267.752	166.25
267.984	174.25
268.216	162.25
268.448	170.25
268.681	152.25
268.913	165.25
269.145	171.25
269.377	159.25
269.609	164.25
269.841	191.25
270.073	178.25
270.306	178.25
270.538	164.25
270.77	173.25
271.002	166.25
271.234	175.25
271.466	175.25
271.698	175.25
271.93	179.25
272.162	174.25
272.394	182.25
272.626	168.25
272.858	180.25
273.09	191.25
273.322	191.25
273.553	168.25
273.785	187.25
274.017	193.25
274.249	187.25
274.481	189.25
274.713	195.25
274.945	190.25
275.176	204.25
275.408	201.25
275.64	194.25
275.872	204.25
276.104	176.25
276.335	181.25
276.567	183.25
276.799	198.25
277.031	176.25
277.262	200.25
277.494	181.25
277.726	178.25
277.957	185.25
278.189	191.25
278.421	203.25
278.652	194.25
278.884	193.25
279.115	197.25
279.347	188.25
279.579	193.25
279.81	187.25
280.042	181.25
280.273	192.25
280.505	208.25
280.736	213.25
280.968	208.25
281.199	194.25
281.431	191.25
281.662	184.25
281.894	198.25
282.125	201.25
282.356	197.25
282.588	191.25
282.819	205.25
283.051	190.25
283.282	215.25
283.513	204.25
283.745	208.25
283.976	192.25
284.207	194.25
284.439	215.25
284.67	216.25
284.901	218.25
285.132	199.25
285.364	205.25
285.595	210.25
285.826	223.25
286.057	220.25
286.288	209.25
286.52	219.25
286.751	207.25
286.982	207.25
287.213	213.25
287.444	207.25
287.675	224.25
287.906	230.25
288.138	223.25
288.369	215.25
288.6	210.25
288.831	225.25
289.062	209.25
289.293	222.25
289.524	220.25
289.755	238.25
289.986	234.25
290.217	219.25
290.448	234.25
290.679	217.25
290.91	226.25
291.141	226.25
291.371	215.25
291.602	250.25
291.833	222.25
292.064	237.25
292.295	216.25
292.526	219.25
292.757	233.25
292.987	226.25
293.218	222.25
293.449	226.25
293.68	234.25
293.91	206.25
294.141	220.25
294.372	225.25
294.603	221.25
294.833	230.25
295.064	231.25
295.295	237.25
295.525	243.25
295.756	238.25
295.987	211.25
296.217	239.25
296.448	231.25
296.679	227.25
296.909	248.25
297.14	242.25
297.37	254.25
297.601	242.25
297.831	239.25
298.062	250.25
298.292	237.25
298.523	243.25
298.753	244.25
298.984	233.25
299.214	232.25
299.445	239.25
299.675	257.25
299.905	243.25
300.136	232.25
300.366	228.25
300.597	265.25
300.827	258.25
301.057	261.25
301.288	256.25
301.518	249.25
301.748	271.25
301.979	257.25
302.209	255.25
302.439	254.25
302.669	261.25
302.9	261.25
303.13	264.25
303.36	254.25
303.59	246.25
303.82	269.25
304.051	253.25
304.281	267.25
304.511	262.25
304.741	267.25
304.971	247.25
305.201	268.25
305.431	253.25
305.661	261.25
305.891	270.25
306.121	263.25
306.352	252.25
306.582	273.25
306.812	256.25
307.042	270.25
307.272	274.25
307.502	262.25
307.731	267.25
307.961	260.25
308.191	257.25
308.421	278.25
308.651	262.25
308.881	247.25
309.111	266.25
309.341	250.25
309.571	263.25
309.8	262.25
310.03	250.25
310.26	278.25
310.49	262.25
310.72	260.25
310.949	268.25
311.179	267.25
311.409	261.25
311.639	263.25
311.868	283.25
312.098	279.25
312.328	263.25
312.557	276.25
312.787	292.25
313.017	277.25
313.246	285.25
313.476	264.25
313.706	291.25
313.935	282.25
314.165	279.25
314.394	297.25
314.624	285.25
314.853	289.25
315.083	286.25
315.312	287.25
315.542	290.25
315.771	296.25
316.001	270.25
316.23	266.25
316.46	270.25
316.689	291.25
316.919	295.25
317.148	293.25
317.377	290.25
317.607	281.25
317.836	290.25
318.065	294.25
318.295	287.25
318.524	276.25
318.753	286.25
318.983	272.25
319.212	280.25
319.441	301.25
319.67	281.25
319.9	293.25
320.129	275.25
320.358	274.25
320.587	293.25
320.816	278.25
321.046	301.25
321.275	296.25
321.504	303.25
321.733	290.25
321.962	311.25
322.191	299.25
322.42	283.25
322.649	296.25
322.878	299.25
323.108	297.25
323.337	273.25
323.566	298.25
323.795	283.25
324.024	299.25
324.253	306.25
324.482	321.25
324.71	294.25
324.939	309.25
325.168	308.25
325.397	296.25
325.626	295.25
325.855	299.25
326.084	307.25
326.313	312.25
326.542	294.25
326.77	297.25
326.999	301.25
327.228	293.25
327.457	298.25
327.686	319.25
327.914	329.25
328.143	312.25
328.372	319.25
328.6	324.25
328.829	317.25
329.058	301.25
329.287	305.25
329.515	322.25
329.744	328.25
329.972	310.25
330.201	329.25
330.43	317.25
330.658	324.25
330.887	337.25
331.115	321.25
331.344	322.25
331.572	318.25
331.801	325.25
332.03	338.25
332.258	327.25
332.486	352.25
332.715	358.25
332.943	348.25
333.172	345.25
333.4	345.25
333.629	365.25
333.857	377.25
334.085	369.25
334.314	365.25
334.542	359.25
334.771	365.25
334.999	367.25
335.227	376.25
335.455	373.25
335.684	361.25
335.912	387.25
336.14	362.25
336.369	360.25
336.597	367.25
336.825	361.25
337.053	359.25
337.281	342.25
337.51	347.25
337.738	349.25
337.966	363.25
338.194	353.25
338.422	335.25
338.65	349.25
338.878	351.25
339.106	342.25
339.334	331.25
339.562	343.25
339.79	333.25
340.018	351.25
340.246	343.25
340.474	337.25
340.702	338.25
340.93	347.25
341.158	322.25
341.386	327.25
341.614	339.25
341.842	333.25
342.07	336.25
342.298	347.25
342.526	320.25
342.754	336.25
342.981	336.25
343.209	354.25
343.437	347.25
343.665	353.25
343.893	369.25
344.12	375.25
344.348	384.25
344.576	354.25
344.804	358.25
345.031	359.25
345.259	347.25
345.487	347.25
345.714	348.25
345.942	341.25
346.17	341.25
346.397	332.25
346.625	326.25
346.853	340.25
347.08	348.25
347.308	326.25
347.535	323.25
347.763	329.25
347.99	325.25
348.218	329.25
348.445	330.25
348.673	325.25
348.9	331.25
349.128	314.25
349.355	307.25
349.583	336.25
349.81	332.25
350.037	335.25
350.265	321.25
350.492	325.25
350.72	326.25
350.947	333.25
351.174	329.25
351.402	344.25
351.629	317.25
351.856	327.25
352.083	333.25
352.311	296.25
352.538	309.25
352.765	313.25
352.992	334.25
353.22	322.25
353.447	329.25
353.674	307.25
353.901	315.25
354.128	320.25
354.355	322.25
354.583	330.25
354.81	324.25
355.037	298.25
355.264	322.25
355.491	330.25
355.718	345.25
355.945	336.25
356.172	337.25
356.399	337.25
356.626	330.25
356.853	328.25
357.08	331.25
357.307	318.25
357.534	317.25
357.761	317.25
357.988	330.25
358.215	303.25
358.441	341.25
358.668	322.25
358.895	317.25
359.122	331.25
359.349	366.25
359.576	326.25
359.802	319.25
360.029	325.25
360.256	317.25
360.483	336.25
360.709	315.25
360.936	349.25
361.163	344.25
361.39	340.25
361.616	327.25
361.843	326.25
362.07	326.25
362.296	316.25
362.523	313.25
362.749	346.25
362.976	341.25
363.203	338.25
363.429	345.25
363.656	341.25
363.882	321.25
364.109	335.25
364.335	328.25
364.562	349.25
364.788	320.25
365.015	331.25
365.241	339.25
365.468	331.25
365.694	342.25
365.92	337.25
366.147	321.25
366.373	315.25
366.599	328.25
366.826	334.25
367.052	336.25
367.278	340.25
367.505	338.25
367.731	336.25
367.957	329.25
368.184	325.25
368.41	339.25
368.636	337.25
368.862	348.25
369.089	348.25
369.315	357.25
369.541	363.25
369.767	363.25
369.993	342.25
370.219	338.25
370.445	350.25
370.672	357.25
370.898	342.25
371.124	370.25
371.35	354.25
371.576	359.25
371.802	338.25
372.028	356.25
372.254	369.25
372.48	362.25
372.706	361.25
372.932	365.25
373.158	359.25
373.384	364.25
373.61	369.25
373.835	371.25
374.061	366.25
374.287	391.25
374.513	371.25
374.739	378.25
374.965	373.25
375.191	384.25
375.416	381.25
375.642	392.25
375.868	366.25
376.094	373.25
376.319	361.25
376.545	375.25
376.771	342.25
376.997	351.25
377.222	350.25
377.448	361.25
377.674	349.25
377.899	356.25
378.125	358.25
378.35	354.25
378.576	373.25
378.802	346.25
379.027	375.25
379.253	350.25
379.478	345.25
379.704	360.25
379.929	355.25
380.155	349.25
380.38	343.25
380.606	355.25
380.831	363.25
381.057	363.25
381.282	386.25
381.507	359.25
381.733	385.25
381.958	371.25
382.184	367.25
382.409	374.25
382.634	383.25
382.86	371.25
383.085	365.25
383.31	378.25
383.535	383.25
383.761	377.25
383.986	369.25
384.211	389.25
384.436	389.25
384.662	396.25
384.887	388.25
385.112	399.25
385.337	404.25
385.562	400.25
385.787	404.25
386.013	416.25
386.238	390.25
386.463	411.25
386.688	405.25
386.913	394.25
387.138	409.25
387.363	398.25
387.588	406.25
387.813	437.25
388.038	420.25
388.263	404.25
388.488	417.25
388.713	416.25
388.938	432.25
389.163	388.25
389.387	412.25
389.612	409.25
389.837	417.25
390.062	424.25
390.287	417.25
390.512	427.25
390.736	423.25
390.961	443.25
391.186	415.25
391.411	427.25
391.636	441.25
391.86	437.25
392.085	419.25
392.31	434.25
392.534	453.25
392.759	435.25
392.984	423.25
393.208	425.25
393.433	424.25
393.658	456.25
393.882	433.25
394.107	426.25
394.331	455.25
394.556	431.25
394.78	435.25
395.005	448.25
395.229	427.25
395.454	457.25
395.678	451.25
395.903	453.25
396.127	462.25
396.352	476.25
396.576	470.25
396.801	451.25
397.025	452.25
397.249	461.25
397.474	490.25
397.698	458.25
397.922	473.25
398.147	467.25
398.371	476.25
398.595	479.25
398.82	513.25
399.044	521.25
399.268	539.25
399.492	559.25
399.717	570.25
399.941	600.25
400.165	572.25
400.389	567.25
400.613	504.25
400.837	529.25
401.062	514.25
401.286	519.25
401.51	517.25
401.734	494.25
401.958	506.25
402.182	490.25
402.406	498.25
402.63	499.25
402.854	503.25
403.078	477.25
403.302	487.25
403.526	487.25
403.75	494.25
403.974	507.25
404.198	531.25
404.422	497.25
404.645	495.25
404.869	525.25
405.093	500.25
405.317	511.25
405.541	527.25
405.765	519.25
405.988	518.25
406.212	515.25
406.436	521.25
406.66	550.25
406.883	546.25
407.107	553.25
407.331	566.25
407.555	583.25
407.778	572.25
408.002	549.25
408.226	569.25
408.449	567.25
408.673	554.25
408.896	559.25
409.12	555.25
409.344	545.25
409.567	549.25
409.791	536.25
410.014	541.25
410.238	517.25
410.461	541.25
410.685	533.25
410.908	533.25
411.132	531.25
411.355	507.25
411.578	515.25
411.802	498.25
412.025	498.25
412.249	490.25
412.472	501.25
412.695	518.25
412.919	528.25
413.142	522.25
413.365	493.25
413.589	495.25
413.812	501.25
414.035	496.25
414.258	502.25
414.482	503.25
414.705	484.25
414.928	479.25
415.151	503.25
415.374	483.25
415.597	487.25
415.821	484.25
416.044	488.25
416.267	476.25
416.49	495.25
416.713	505.25
416.936	479.25
417.159	478.25
417.382	467.25
417.605	477.25
417.828	488.25
418.051	484.25
418.274	482.25
418.497	490.25
418.72	470.25
418.943	493.25
419.166	511.25
419.389	522.25
419.611	496.25
419.834	497.25
420.057	496.25
420.28	488.25
420.503	480.25
420.726	484.25
420.948	478.25
421.171	482.25
421.394	469.25
421.617	470.25
421.839	474.25
422.062	485.25
422.285	474.25
422.507	473.25
422.73	477.25
422.953	473.25
423.175	487.25
423.398	473.25
423.621	471.25
423.843	489.25
424.066	465.25
424.288	471.25
424.511	475.25
424.733	470.25
424.956	473.25
425.178	473.25
425.401	474.25
425.623	490.25
425.846	462.25
426.068	444.25
426.291	460.25
426.513	467.25
426.735	435.25
426.958	452.25
427.18	461.25
427.402	466.25
427.625	449.25
427.847	439.25
428.069	453.25
428.292	450.25
428.514	437.25
428.736	432.25
428.958	443.25
429.181	470.25
429.403	437.25
429.625	462.25
429.847	450.25
430.069	463.25
430.292	454.25
430.514	434.25
430.736	470.25
430.958	458.25
431.18	448.25
431.402	458.25
431.624	459.25
431.846	471.25
432.068	432.25
432.29	441.25
432.512	448.25
432.734	446.25
432.956	422.25
433.178	456.25
433.4	452.25
433.622	466.25
433.844	461.25
434.066	446.25
434.287	447.25
434.509	457.25
434.731	483.25
434.953	473.25
435.175	465.25
435.397	459.25
435.618	458.25
435.84	456.25
436.062	448.25
436.284	447.25
436.505	442.25
436.727	441.25
436.949	454.25
437.17	449.25
437.392	429.25
437.614	451.25
437.835	440.25
438.057	421.25
438.278	429.25
438.5	429.25
438.721	449.25
438.943	441.25
439.165	427.25
439.386	449.25
439.608	435.25
439.829	469.25
440.05	438.25
440.272	433.25
440.493	435.25
440.715	450.25
440.936	458.25
441.158	446.25
441.379	469.25
441.6	475.25
441.822	463.25
442.043	478.25
442.264	446.25
442.486	459.25
442.707	464.25
442.928	465.25
443.149	476.25
443.371	461.25
443.592	470.25
443.813	467.25
444.034	473.25
444.255	472.25
444.476	493.25
444.698	511.25
444.919	500.25
445.14	608.25
445.361	531.25
445.582	473.25
445.803	474.25
446.024	459.25
446.245	462.25
446.466	453.25
446.687	424.25
446.908	463.25
447.129	439.25
447.35	454.25
447.571	427.25
447.792	431.25
448.013	441.25
448.234	444.25
448.455	414.25
448.675	432.25
448.896	408.25
449.117	422.25
449.338	444.25
449.559	401.25
449.779	437.25
450	426.25
450.221	449.25
450.442	405.25
450.662	411.25
450.883	415.25
451.104	435.25
451.324	431.25
451.545	420.25
451.766	407.25
451.986	406.25
452.207	407.25
452.428	400.25
452.648	413.25
452.869	394.25
453.089	409.25
453.31	399.25
453.53	408.25
453.751	399.25
453.971	371.25
454.192	406.25
454.412	401.25
454.633	399.25
454.853	394.25
455.073	394.25
455.294	394.25
455.514	381.25
455.734	389.25
455.955	405.25
456.175	383.25
456.395	395.25
456.616	395.25
456.836	403.25
457.056	408.25
457.276	410.25
457.497	408.25
457.717	396.25
457.937	414.25
458.157	404.25
458.377	417.25
458.598	425.25
458.818	426.25
459.038	442.25
459.258	444.25
459.478	439.25
459.698	453.25
459.918	449.25
460.138	467.25
460.358	478.25
460.578	473.25
460.798	477.25
461.018	485.25
461.238	490.25
461.458	494.25
461.678	519.25
461.898	526.25
462.118	514.25
462.338	535.25
462.558	520.25
462.777	522.25
462.997	552.25
463.217	530.25
463.437	559.25
463.657	541.25
463.876	533.25
464.096	548.25
464.316	534.25
464.536	547.25
464.755	533.25
464.975	501.25
465.195	481.25
465.414	485.25
465.634	466.25
465.854	476.25
466.073	487.25
466.293	459.25
466.512	433.25
466.732	431.25
466.951	446.25
467.171	443.25
467.391	453.25
467.61	437.25
467.829	434.25
468.049	439.25
468.268	435.25
468.488	453.25
468.707	417.25
468.927	424.25
469.146	426.25
469.365	440.25
469.585	429.25
469.804	435.25
470.023	451.25
470.243	449.25
470.462	432.25
470.681	449.25
470.901	448.25
471.12	430.25
471.339	435.25
471.558	451.25
471.777	445.25
471.997	436.25
472.216	429.25
472.435	425.25
472.654	437.25
472.873	419.25
473.092	413.25
473.311	430.25
473.53	429.25
473.749	406.25
473.968	413.25
474.187	437.25
474.406	442.25
474.625	431.25
474.844	429.25
475.063	442.25
475.282	425.25
475.501	431.25
475.72	448.25
475.939	444.25
476.158	447.25
476.377	442.25
476.596	460.25
476.814	473.25
477.033	444.25
477.252	488.25
477.471	470.25
477.69	471.25
477.908	485.25
478.127	499.25
478.346	498.25
478.564	505.25
478.783	510.25
479.002	530.25
479.22	504.25
479.439	505.25
479.658	514.25
479.876	495.25
480.095	498.25
480.313	520.25
480.532	542.25
480.751	493.25
480.969	481.25
481.188	495.25
481.406	511.25
481.624	499.25
481.843	479.25
482.061	466.25
482.28	496.25
482.498	495.25
482.717	511.25
482.935	498.25
483.153	496.25
483.372	503.25
483.59	498.25
483.808	501.25
484.027	495.25
484.245	500.25
484.463	498.25
484.681	510.25
484.9	500.25
485.118	513.25
485.336	493.25
485.554	510.25
485.772	503.25
485.99	518.25
486.209	520.25
486.427	482.25
486.645	502.25
486.863	513.25
487.081	523.25
487.299	519.25
487.517	521.25
487.735	514.25
487.953	513.25
488.171	518.25
488.389	519.25
488.607	512.25
488.825	513.25
489.043	507.25
489.261	517.25
489.479	515.25
489.696	539.25
489.914	513.25
490.132	528.25
490.35	523.25
490.568	512.25
490.786	524.25
491.003	539.25
491.221	534.25
491.439	535.25
491.657	529.25
491.874	507.25
492.092	557.25
492.31	517.25
492.527	533.25
492.745	540.25
492.963	520.25
493.18	520.25
493.398	544.25
493.615	528.25
493.833	539.25
494.05	539.25
494.268	548.25
494.485	507.25
494.703	528.25
494.92	529.25
495.138	555.25
495.355	564.25
495.573	547.25
495.79	551.25
496.008	559.25
496.225	585.25
496.442	558.25
496.66	583.25
496.877	611.25
497.094	600.25
497.312	593.25
497.529	615.25
497.746	615.25
497.963	630.25
498.181	650.25
498.398	692.25
498.615	719.25
498.832	720.25
499.049	763.25
499.267	802.25
499.484	825.25
499.701	851.25
499.918	896.25
500.135	937.25
500.352	995.25
500.569	997.25
500.786	960.25
501.003	930.25
501.22	921.25
501.437	887.25
501.654	835.25
501.871	793.25
