Data from Fe(NO3)3@0.1M.TitratingCurve.Agarose3%dH2O.NegLispCup.LampEnergy10.LIBS07252019_HRD10591_16-41-29-333.txt Node
Date: Thu Jul 25 16:41:29 EDT 2019
User: cochatt
Spectrometer: HR+D1059
Trigger mode: 1
Integration Time (sec): 1.000000E-1
Scans to average: 1
Electric dark correction enabled: true
Nonlinearity correction enabled: false
Boxcar width: 0
XAxis mode: Wavelengths
Number of Pixels in Spectrum: 2048
>>>>>Begin Spectral Data<<<<<
223.165	-27.12
223.4	-27.12
223.635	-27.12
223.869	-28.12
224.104	4.88
224.338	-15.12
224.573	-14.12
224.808	-21.12
225.042	-4.12
225.277	1.88
225.511	-2.12
225.746	8.88
225.98	12.88
226.215	16.88
226.449	-3.12
226.683	17.88
226.918	21.88
227.152	29.88
227.387	45.88
227.621	31.88
227.856	38.88
228.09	42.88
228.324	45.88
228.559	49.88
228.793	57.88
229.027	55.88
229.262	74.88
229.496	69.88
229.73	74.88
229.964	83.88
230.199	75.88
230.433	81.88
230.667	89.88
230.901	98.88
231.136	83.88
231.37	83.88
231.604	90.88
231.838	86.88
232.072	85.88
232.306	87.88
232.541	102.88
232.775	97.88
233.009	102.88
233.243	95.88
233.477	92.88
233.711	96.88
233.945	88.88
234.179	88.88
234.413	108.88
234.647	87.88
234.881	103.88
235.115	87.88
235.349	90.88
235.583	99.88
235.817	96.88
236.051	79.88
236.285	94.88
236.519	88.88
236.753	95.88
236.987	96.88
237.221	101.88
237.455	97.88
237.689	100.88
237.922	110.88
238.156	113.88
238.39	101.88
238.624	96.88
238.858	85.88
239.091	81.88
239.325	103.88
239.559	99.88
239.793	90.88
240.027	97.88
240.26	87.88
240.494	87.88
240.728	87.88
240.961	82.88
241.195	99.88
241.429	86.88
241.662	106.88
241.896	104.88
242.13	106.88
242.363	98.88
242.597	99.88
242.83	94.88
243.064	102.88
243.298	103.88
243.531	97.88
243.765	93.88
243.998	98.88
244.232	122.88
244.465	97.88
244.699	112.88
244.932	110.88
245.166	111.88
245.399	111.88
245.633	104.88
245.866	106.88
246.099	103.88
246.333	96.88
246.566	103.88
246.8	111.88
247.033	119.88
247.266	94.88
247.5	96.88
247.733	106.88
247.966	100.88
248.2	107.88
248.433	111.88
248.666	118.88
248.899	98.88
249.133	107.88
249.366	111.88
249.599	103.88
249.832	104.88
250.066	114.88
250.299	116.88
250.532	119.88
250.765	110.88
250.998	87.88
251.231	113.88
251.465	117.88
251.698	105.88
251.931	109.88
252.164	120.88
252.397	121.88
252.63	122.88
252.863	119.88
253.096	113.88
253.329	113.88
253.562	113.88
253.795	115.88
254.028	119.88
254.261	116.88
254.494	117.88
254.727	115.88
254.96	111.88
255.193	120.88
255.426	120.88
255.659	112.88
255.892	123.88
256.124	120.88
256.357	118.88
256.59	121.88
256.823	105.88
257.056	139.88
257.289	118.88
257.521	124.88
257.754	123.88
257.987	112.88
258.22	130.88
258.452	127.88
258.685	125.88
258.918	104.88
259.151	129.88
259.383	123.88
259.616	116.88
259.849	125.88
260.081	117.88
260.314	129.88
260.547	134.88
260.779	120.88
261.012	121.88
261.244	119.88
261.477	140.88
261.71	131.88
261.942	126.88
262.175	145.88
262.407	113.88
262.64	119.88
262.872	139.88
263.105	115.88
263.337	139.88
263.57	120.88
263.802	138.88
264.035	136.88
264.267	128.88
264.499	125.88
264.732	136.88
264.964	129.88
265.197	129.88
265.429	133.88
265.661	146.88
265.894	133.88
266.126	129.88
266.358	126.88
266.591	126.88
266.823	134.88
267.055	149.88
267.287	134.88
267.52	123.88
267.752	140.88
267.984	141.88
268.216	157.88
268.448	150.88
268.681	145.88
268.913	131.88
269.145	145.88
269.377	141.88
269.609	142.88
269.841	138.88
270.073	151.88
270.306	144.88
270.538	138.88
270.77	139.88
271.002	141.88
271.234	135.88
271.466	146.88
271.698	143.88
271.93	163.88
272.162	135.88
272.394	155.88
272.626	146.88
272.858	152.88
273.09	147.88
273.322	150.88
273.553	150.88
273.785	138.88
274.017	153.88
274.249	145.88
274.481	140.88
274.713	149.88
274.945	135.88
275.176	150.88
275.408	152.88
275.64	141.88
275.872	146.88
276.104	134.88
276.335	171.88
276.567	155.88
276.799	150.88
277.031	147.88
277.262	143.88
277.494	154.88
277.726	145.88
277.957	151.88
278.189	154.88
278.421	169.88
278.652	153.88
278.884	158.88
279.115	148.88
279.347	157.88
279.579	141.88
279.81	147.88
280.042	143.88
280.273	151.88
280.505	169.88
280.736	140.88
280.968	168.88
281.199	166.88
281.431	163.88
281.662	169.88
281.894	171.88
282.125	160.88
282.356	178.88
282.588	152.88
282.819	167.88
283.051	151.88
283.282	166.88
283.513	167.88
283.745	166.88
283.976	163.88
284.207	171.88
284.439	173.88
284.67	152.88
284.901	163.88
285.132	167.88
285.364	179.88
285.595	163.88
285.826	173.88
286.057	189.88
286.288	180.88
286.52	158.88
286.751	165.88
286.982	166.88
287.213	165.88
287.444	165.88
287.675	171.88
287.906	172.88
288.138	161.88
288.369	177.88
288.6	163.88
288.831	166.88
289.062	172.88
289.293	171.88
289.524	173.88
289.755	173.88
289.986	165.88
290.217	178.88
290.448	184.88
290.679	193.88
290.91	175.88
291.141	177.88
291.371	178.88
291.602	181.88
291.833	165.88
292.064	177.88
292.295	186.88
292.526	189.88
292.757	170.88
292.987	177.88
293.218	175.88
293.449	186.88
293.68	177.88
293.91	187.88
294.141	167.88
294.372	174.88
294.603	179.88
294.833	181.88
295.064	179.88
295.295	187.88
295.525	201.88
295.756	199.88
295.987	196.88
296.217	176.88
296.448	190.88
296.679	181.88
296.909	183.88
297.14	176.88
297.37	197.88
297.601	187.88
297.831	190.88
298.062	186.88
298.292	194.88
298.523	194.88
298.753	198.88
298.984	199.88
299.214	204.88
299.445	194.88
299.675	183.88
299.905	183.88
300.136	206.88
300.366	195.88
300.597	197.88
300.827	200.88
301.057	203.88
301.288	202.88
301.518	193.88
301.748	199.88
301.979	184.88
302.209	202.88
302.439	206.88
302.669	195.88
302.9	207.88
303.13	207.88
303.36	203.88
303.59	196.88
303.82	215.88
304.051	189.88
304.281	196.88
304.511	198.88
304.741	196.88
304.971	186.88
305.201	190.88
305.431	189.88
305.661	193.88
305.891	182.88
306.121	202.88
306.352	222.88
306.582	196.88
306.812	199.88
307.042	198.88
307.272	194.88
307.502	199.88
307.731	221.88
307.961	205.88
308.191	203.88
308.421	205.88
308.651	206.88
308.881	208.88
309.111	206.88
309.341	203.88
309.571	207.88
309.8	206.88
310.03	203.88
310.26	184.88
310.49	213.88
310.72	193.88
310.949	193.88
311.179	212.88
311.409	200.88
311.639	194.88
311.868	201.88
312.098	201.88
312.328	216.88
312.557	197.88
312.787	205.88
313.017	212.88
313.246	197.88
313.476	217.88
313.706	217.88
313.935	214.88
314.165	219.88
314.394	221.88
314.624	221.88
314.853	210.88
315.083	222.88
315.312	222.88
315.542	206.88
315.771	208.88
316.001	206.88
316.23	192.88
316.46	222.88
316.689	212.88
316.919	217.88
317.148	221.88
317.377	229.88
317.607	221.88
317.836	206.88
318.065	218.88
318.295	203.88
318.524	206.88
318.753	202.88
318.983	213.88
319.212	215.88
319.441	215.88
319.67	205.88
319.9	196.88
320.129	210.88
320.358	214.88
320.587	197.88
320.816	201.88
321.046	212.88
321.275	221.88
321.504	209.88
321.733	211.88
321.962	212.88
322.191	218.88
322.42	211.88
322.649	209.88
322.878	217.88
323.108	232.88
323.337	209.88
323.566	211.88
323.795	230.88
324.024	216.88
324.253	203.88
324.482	197.88
324.71	221.88
324.939	225.88
325.168	226.88
325.397	219.88
325.626	242.88
325.855	229.88
326.084	232.88
326.313	234.88
326.542	220.88
326.77	219.88
326.999	218.88
327.228	229.88
327.457	232.88
327.686	243.88
327.914	232.88
328.143	222.88
328.372	233.88
328.6	243.88
328.829	231.88
329.058	240.88
329.287	231.88
329.515	244.88
329.744	246.88
329.972	211.88
330.201	228.88
330.43	239.88
330.658	243.88
330.887	232.88
331.115	242.88
331.344	261.88
331.572	257.88
331.801	254.88
332.03	254.88
332.258	251.88
332.486	262.88
332.715	262.88
332.943	276.88
333.172	274.88
333.4	291.88
333.629	299.88
333.857	285.88
334.085	298.88
334.314	283.88
334.542	281.88
334.771	285.88
334.999	266.88
335.227	272.88
335.455	277.88
335.684	267.88
335.912	277.88
336.14	265.88
336.369	249.88
336.597	266.88
336.825	261.88
337.053	282.88
337.281	258.88
337.51	270.88
337.738	265.88
337.966	253.88
338.194	256.88
338.422	260.88
338.65	262.88
338.878	270.88
339.106	254.88
339.334	263.88
339.562	255.88
339.79	241.88
340.018	223.88
340.246	237.88
340.474	237.88
340.702	256.88
340.93	243.88
341.158	233.88
341.386	227.88
341.614	230.88
341.842	224.88
342.07	238.88
342.298	271.88
342.526	246.88
342.754	238.88
342.981	238.88
343.209	258.88
343.437	251.88
343.665	270.88
343.893	275.88
344.12	272.88
344.348	274.88
344.576	278.88
344.804	265.88
345.031	259.88
345.259	246.88
345.487	245.88
345.714	233.88
345.942	245.88
346.17	232.88
346.397	243.88
346.625	253.88
346.853	224.88
347.08	242.88
347.308	244.88
347.535	241.88
347.763	228.88
347.99	239.88
348.218	221.88
348.445	229.88
348.673	229.88
348.9	229.88
349.128	240.88
349.355	233.88
349.583	234.88
349.81	233.88
350.037	232.88
350.265	230.88
350.492	207.88
350.72	231.88
350.947	233.88
351.174	218.88
351.402	234.88
351.629	223.88
351.856	215.88
352.083	231.88
352.311	237.88
352.538	230.88
352.765	232.88
352.992	241.88
353.22	240.88
353.447	238.88
353.674	249.88
353.901	224.88
354.128	234.88
354.355	237.88
354.583	225.88
354.81	237.88
355.037	225.88
355.264	237.88
355.491	226.88
355.718	250.88
355.945	244.88
356.172	230.88
356.399	232.88
356.626	230.88
356.853	255.88
357.08	223.88
357.307	229.88
357.534	226.88
357.761	222.88
357.988	238.88
358.215	234.88
358.441	237.88
358.668	235.88
358.895	240.88
359.122	245.88
359.349	241.88
359.576	223.88
359.802	226.88
360.029	230.88
360.256	253.88
360.483	205.88
360.709	228.88
360.936	228.88
361.163	231.88
361.39	234.88
361.616	239.88
361.843	243.88
362.07	250.88
362.296	264.88
362.523	234.88
362.749	242.88
362.976	211.88
363.203	247.88
363.429	217.88
363.656	252.88
363.882	257.88
364.109	237.88
364.335	235.88
364.562	247.88
364.788	235.88
365.015	227.88
365.241	229.88
365.468	215.88
365.694	234.88
365.92	231.88
366.147	248.88
366.373	243.88
366.599	241.88
366.826	253.88
367.052	218.88
367.278	218.88
367.505	234.88
367.731	253.88
367.957	239.88
368.184	227.88
368.41	249.88
368.636	247.88
368.862	246.88
369.089	236.88
369.315	260.88
369.541	254.88
369.767	243.88
369.993	235.88
370.219	234.88
370.445	233.88
370.672	245.88
370.898	241.88
371.124	261.88
371.35	257.88
371.576	253.88
371.802	255.88
372.028	248.88
372.254	248.88
372.48	249.88
372.706	264.88
372.932	263.88
373.158	262.88
373.384	258.88
373.61	257.88
373.835	266.88
374.061	263.88
374.287	267.88
374.513	278.88
374.739	272.88
374.965	271.88
375.191	277.88
375.416	271.88
375.642	279.88
375.868	279.88
376.094	278.88
376.319	255.88
376.545	243.88
376.771	256.88
376.997	274.88
377.222	254.88
377.448	261.88
377.674	260.88
377.899	241.88
378.125	242.88
378.35	265.88
378.576	244.88
378.802	218.88
379.027	250.88
379.253	270.88
379.478	265.88
379.704	255.88
379.929	273.88
380.155	239.88
380.38	268.88
380.606	261.88
380.831	267.88
381.057	265.88
381.282	250.88
381.507	278.88
381.733	256.88
381.958	263.88
382.184	273.88
382.409	259.88
382.634	277.88
382.86	261.88
383.085	262.88
383.31	280.88
383.535	277.88
383.761	270.88
383.986	294.88
384.211	282.88
384.436	304.88
384.662	294.88
384.887	298.88
385.112	286.88
385.337	287.88
385.562	298.88
385.787	298.88
386.013	305.88
386.238	286.88
386.463	285.88
386.688	294.88
386.913	297.88
387.138	283.88
387.363	305.88
387.588	294.88
387.813	307.88
388.038	294.88
388.263	301.88
388.488	314.88
388.713	293.88
388.938	275.88
389.163	294.88
389.387	288.88
389.612	290.88
389.837	298.88
390.062	291.88
390.287	308.88
390.512	305.88
390.736	278.88
390.961	296.88
391.186	303.88
391.411	313.88
391.636	322.88
391.86	336.88
392.085	329.88
392.31	317.88
392.534	318.88
392.759	308.88
392.984	313.88
393.208	311.88
393.433	303.88
393.658	303.88
393.882	321.88
394.107	295.88
394.331	303.88
394.556	313.88
394.78	318.88
395.005	327.88
395.229	318.88
395.454	318.88
395.678	326.88
395.903	315.88
396.127	334.88
396.352	299.88
396.576	289.88
396.801	318.88
397.025	312.88
397.249	330.88
397.474	331.88
397.698	329.88
397.922	347.88
398.147	349.88
398.371	339.88
398.595	347.88
398.82	344.88
399.044	396.88
399.268	447.88
399.492	480.88
399.717	513.88
399.941	466.88
400.165	442.88
400.389	410.88
400.613	375.88
400.837	374.88
401.062	369.88
401.286	356.88
401.51	357.88
401.734	358.88
401.958	379.88
402.182	369.88
402.406	374.88
402.63	372.88
402.854	358.88
403.078	388.88
403.302	385.88
403.526	396.88
403.75	416.88
403.974	403.88
404.198	393.88
404.422	412.88
404.645	390.88
404.869	409.88
405.093	406.88
405.317	384.88
405.541	402.88
405.765	388.88
405.988	375.88
406.212	391.88
406.436	398.88
406.66	423.88
406.883	395.88
407.107	421.88
407.331	452.88
407.555	444.88
407.778	419.88
408.002	432.88
408.226	417.88
408.449	434.88
408.673	409.88
408.896	385.88
409.12	402.88
409.344	419.88
409.567	386.88
409.791	412.88
410.014	410.88
410.238	381.88
410.461	384.88
410.685	385.88
410.908	395.88
411.132	382.88
411.355	366.88
411.578	353.88
411.802	381.88
412.025	379.88
412.249	383.88
412.472	363.88
412.695	369.88
412.919	369.88
413.142	376.88
413.365	370.88
413.589	352.88
413.812	355.88
414.035	344.88
414.258	359.88
414.482	356.88
414.705	371.88
414.928	358.88
415.151	359.88
415.374	382.88
415.597	387.88
415.821	369.88
416.044	358.88
416.267	367.88
416.49	351.88
416.713	367.88
416.936	373.88
417.159	357.88
417.382	352.88
417.605	359.88
417.828	365.88
418.051	369.88
418.274	369.88
418.497	367.88
418.72	351.88
418.943	360.88
419.166	375.88
419.389	391.88
419.611	395.88
419.834	373.88
420.057	371.88
420.28	358.88
420.503	373.88
420.726	360.88
420.948	345.88
421.171	355.88
421.394	354.88
421.617	358.88
421.839	350.88
422.062	361.88
422.285	350.88
422.507	352.88
422.73	366.88
422.953	359.88
423.175	371.88
423.398	389.88
423.621	373.88
423.843	390.88
424.066	384.88
424.288	386.88
424.511	373.88
424.733	373.88
424.956	360.88
425.178	352.88
425.401	372.88
425.623	361.88
425.846	342.88
426.068	350.88
426.291	336.88
426.513	341.88
426.735	348.88
426.958	349.88
427.18	327.88
427.402	363.88
427.625	348.88
427.847	351.88
428.069	356.88
428.292	326.88
428.514	329.88
428.736	331.88
428.958	339.88
429.181	325.88
429.403	325.88
429.625	335.88
429.847	336.88
430.069	326.88
430.292	335.88
430.514	330.88
430.736	337.88
430.958	331.88
431.18	346.88
431.402	341.88
431.624	330.88
431.846	347.88
432.068	320.88
432.29	341.88
432.512	334.88
432.734	322.88
432.956	320.88
433.178	352.88
433.4	359.88
433.622	336.88
433.844	341.88
434.066	345.88
434.287	335.88
434.509	350.88
434.731	351.88
434.953	365.88
435.175	353.88
435.397	354.88
435.618	370.88
435.84	344.88
436.062	343.88
436.284	350.88
436.505	354.88
436.727	344.88
436.949	344.88
437.17	341.88
437.392	330.88
437.614	323.88
437.835	322.88
438.057	329.88
438.278	329.88
438.5	321.88
438.721	333.88
438.943	339.88
439.165	330.88
439.386	337.88
439.608	344.88
439.829	339.88
440.05	342.88
440.272	355.88
440.493	353.88
440.715	337.88
440.936	352.88
441.158	360.88
441.379	371.88
441.6	377.88
441.822	390.88
442.043	374.88
442.264	385.88
442.486	375.88
442.707	348.88
442.928	387.88
443.149	389.88
443.371	372.88
443.592	389.88
443.813	380.88
444.034	377.88
444.255	393.88
444.476	412.88
444.698	432.88
444.919	444.88
445.14	497.88
445.361	438.88
445.582	397.88
445.803	371.88
446.024	362.88
446.245	365.88
446.466	352.88
446.687	345.88
446.908	360.88
447.129	343.88
447.35	335.88
447.571	351.88
447.792	350.88
448.013	335.88
448.234	336.88
448.455	326.88
448.675	326.88
448.896	317.88
449.117	324.88
449.338	314.88
449.559	326.88
449.779	323.88
450	325.88
450.221	334.88
450.442	336.88
450.662	324.88
450.883	312.88
451.104	318.88
451.324	309.88
451.545	337.88
451.766	326.88
451.986	321.88
452.207	310.88
452.428	303.88
452.648	316.88
452.869	317.88
453.089	301.88
453.31	318.88
453.53	315.88
453.751	290.88
453.971	305.88
454.192	291.88
454.412	302.88
454.633	305.88
454.853	302.88
455.073	289.88
455.294	312.88
455.514	311.88
455.734	305.88
455.955	281.88
456.175	308.88
456.395	291.88
456.616	287.88
456.836	307.88
457.056	286.88
457.276	293.88
457.497	305.88
457.717	297.88
457.937	299.88
458.157	305.88
458.377	302.88
458.598	309.88
458.818	331.88
459.038	331.88
459.258	330.88
459.478	321.88
459.698	331.88
459.918	347.88
460.138	366.88
460.358	375.88
460.578	374.88
460.798	394.88
461.018	380.88
461.238	375.88
461.458	377.88
461.678	376.88
461.898	381.88
462.118	381.88
462.338	400.88
462.558	429.88
462.777	407.88
462.997	441.88
463.217	477.88
463.437	459.88
463.657	442.88
463.876	403.88
464.096	450.88
464.316	429.88
464.536	421.88
464.755	420.88
464.975	400.88
465.195	386.88
465.414	363.88
465.634	341.88
465.854	344.88
466.073	351.88
466.293	331.88
466.512	337.88
466.732	340.88
466.951	337.88
467.171	343.88
467.391	323.88
467.61	349.88
467.829	322.88
468.049	308.88
468.268	336.88
468.488	321.88
468.707	321.88
468.927	326.88
469.146	331.88
469.365	314.88
469.585	310.88
469.804	337.88
470.023	340.88
470.243	336.88
470.462	342.88
470.681	328.88
470.901	336.88
471.12	333.88
471.339	305.88
471.558	321.88
471.777	324.88
471.997	329.88
472.216	322.88
472.435	321.88
472.654	310.88
472.873	305.88
473.092	311.88
473.311	291.88
473.53	311.88
473.749	325.88
473.968	287.88
474.187	312.88
474.406	313.88
474.625	305.88
474.844	314.88
475.063	319.88
475.282	295.88
475.501	312.88
475.72	319.88
475.939	315.88
476.158	336.88
476.377	329.88
476.596	294.88
476.814	307.88
477.033	322.88
477.252	338.88
477.471	335.88
477.69	331.88
477.908	337.88
478.127	367.88
478.346	340.88
478.564	341.88
478.783	364.88
479.002	372.88
479.22	381.88
479.439	363.88
479.658	362.88
479.876	363.88
480.095	351.88
480.313	389.88
480.532	381.88
480.751	371.88
480.969	367.88
481.188	366.88
481.406	350.88
481.624	337.88
481.843	338.88
482.061	335.88
482.28	323.88
482.498	336.88
482.717	321.88
482.935	328.88
483.153	357.88
483.372	350.88
483.59	338.88
483.808	336.88
484.027	344.88
484.245	349.88
484.463	357.88
484.681	351.88
484.9	345.88
485.118	361.88
485.336	347.88
485.554	354.88
485.772	347.88
485.99	346.88
486.209	356.88
486.427	371.88
486.645	353.88
486.863	351.88
487.081	360.88
487.299	362.88
487.517	362.88
487.735	354.88
487.953	367.88
488.171	362.88
488.389	337.88
488.607	327.88
488.825	327.88
489.043	343.88
489.261	350.88
489.479	326.88
489.696	350.88
489.914	367.88
490.132	365.88
490.35	355.88
490.568	341.88
490.786	357.88
491.003	355.88
491.221	373.88
491.439	381.88
491.657	360.88
491.874	365.88
492.092	369.88
492.31	379.88
492.527	373.88
492.745	369.88
492.963	358.88
493.18	369.88
493.398	377.88
493.615	375.88
493.833	355.88
494.05	362.88
494.268	351.88
494.485	380.88
494.703	380.88
494.92	386.88
495.138	383.88
495.355	383.88
495.573	368.88
495.79	361.88
496.008	383.88
496.225	388.88
496.442	392.88
496.66	382.88
496.877	379.88
497.094	404.88
497.312	401.88
497.529	398.88
497.746	403.88
497.963	422.88
498.181	433.88
498.398	461.88
498.615	474.88
498.832	501.88
499.049	509.88
499.267	585.88
499.484	598.88
499.701	651.88
499.918	702.88
500.135	795.88
500.352	913.88
500.569	945.88
500.786	886.88
501.003	812.88
501.22	740.88
501.437	702.88
501.654	608.88
501.871	577.88
502.088	538.88
502.305	491.88
