Data from Fe(NO3)3@0.025M.TitratingCurve.Agarose3%dH2O.NegLispCup.LampEnergy10.LIBS07252019_HRD10591_16-54-21-335.txt Node
Date: Thu Jul 25 16:54:21 EDT 2019
User: cochatt
Spectrometer: HR+D1059
Trigger mode: 1
Integration Time (sec): 1.000000E-1
Scans to average: 1
Electric dark correction enabled: true
Nonlinearity correction enabled: false
Boxcar width: 0
XAxis mode: Wavelengths
Number of Pixels in Spectrum: 2048
>>>>>Begin Spectral Data<<<<<
223.165	-4.88
223.4	-4.88
223.635	-4.88
223.869	-10.88
224.104	-23.88
224.338	-30.88
224.573	-15.88
224.808	-14.88
225.042	-2.88
225.277	-0.88
225.511	9.12
225.746	-4.88
225.98	6.12
226.215	5.12
226.449	5.12
226.683	25.12
226.918	28.12
227.152	31.12
227.387	32.12
227.621	29.12
227.856	31.12
228.09	38.12
228.324	39.12
228.559	57.12
228.793	62.12
229.027	75.12
229.262	79.12
229.496	83.12
229.73	85.12
229.964	94.12
230.199	98.12
230.433	92.12
230.667	88.12
230.901	82.12
231.136	92.12
231.37	93.12
231.604	104.12
231.838	100.12
232.072	93.12
232.306	97.12
232.541	101.12
232.775	100.12
233.009	101.12
233.243	109.12
233.477	109.12
233.711	95.12
233.945	110.12
234.179	85.12
234.413	100.12
234.647	107.12
234.881	104.12
235.115	109.12
235.349	89.12
235.583	106.12
235.817	109.12
236.051	110.12
236.285	98.12
236.519	104.12
236.753	102.12
236.987	117.12
237.221	108.12
237.455	104.12
237.689	102.12
237.922	113.12
238.156	114.12
238.39	102.12
238.624	105.12
238.858	89.12
239.091	105.12
239.325	105.12
239.559	105.12
239.793	113.12
240.027	106.12
240.26	108.12
240.494	115.12
240.728	104.12
240.961	102.12
241.195	107.12
241.429	122.12
241.662	132.12
241.896	125.12
242.13	122.12
242.363	109.12
242.597	111.12
242.83	113.12
243.064	109.12
243.298	121.12
243.531	109.12
243.765	111.12
243.998	120.12
244.232	104.12
244.465	117.12
244.699	115.12
244.932	123.12
245.166	119.12
245.399	128.12
245.633	117.12
245.866	106.12
246.099	129.12
246.333	114.12
246.566	118.12
246.8	118.12
247.033	133.12
247.266	148.12
247.5	129.12
247.733	128.12
247.966	138.12
248.2	121.12
248.433	133.12
248.666	122.12
248.899	117.12
249.133	143.12
249.366	145.12
249.599	132.12
249.832	137.12
250.066	143.12
250.299	144.12
250.532	131.12
250.765	125.12
250.998	131.12
251.231	145.12
251.465	139.12
251.698	157.12
251.931	152.12
252.164	137.12
252.397	143.12
252.63	138.12
252.863	139.12
253.096	142.12
253.329	152.12
253.562	137.12
253.795	139.12
254.028	154.12
254.261	141.12
254.494	137.12
254.727	145.12
254.96	144.12
255.193	150.12
255.426	147.12
255.659	149.12
255.892	137.12
256.124	147.12
256.357	133.12
256.59	157.12
256.823	143.12
257.056	152.12
257.289	150.12
257.521	136.12
257.754	145.12
257.987	160.12
258.22	141.12
258.452	136.12
258.685	147.12
258.918	149.12
259.151	153.12
259.383	155.12
259.616	159.12
259.849	163.12
260.081	179.12
260.314	179.12
260.547	145.12
260.779	158.12
261.012	162.12
261.244	167.12
261.477	174.12
261.71	170.12
261.942	162.12
262.175	155.12
262.407	166.12
262.64	170.12
262.872	154.12
263.105	174.12
263.337	160.12
263.57	157.12
263.802	170.12
264.035	167.12
264.267	168.12
264.499	151.12
264.732	171.12
264.964	171.12
265.197	166.12
265.429	179.12
265.661	170.12
265.894	169.12
266.126	140.12
266.358	178.12
266.591	160.12
266.823	159.12
267.055	153.12
267.287	177.12
267.52	169.12
267.752	164.12
267.984	174.12
268.216	181.12
268.448	169.12
268.681	173.12
268.913	183.12
269.145	192.12
269.377	175.12
269.609	173.12
269.841	195.12
270.073	191.12
270.306	183.12
270.538	174.12
270.77	190.12
271.002	182.12
271.234	177.12
271.466	182.12
271.698	170.12
271.93	184.12
272.162	196.12
272.394	184.12
272.626	184.12
272.858	192.12
273.09	210.12
273.322	192.12
273.553	187.12
273.785	206.12
274.017	199.12
274.249	204.12
274.481	213.12
274.713	209.12
274.945	206.12
275.176	213.12
275.408	213.12
275.64	210.12
275.872	209.12
276.104	205.12
276.335	188.12
276.567	197.12
276.799	208.12
277.031	191.12
277.262	191.12
277.494	209.12
277.726	203.12
277.957	210.12
278.189	197.12
278.421	200.12
278.652	225.12
278.884	197.12
279.115	216.12
279.347	220.12
279.579	221.12
279.81	206.12
280.042	198.12
280.273	213.12
280.505	215.12
280.736	199.12
280.968	217.12
281.199	202.12
281.431	201.12
281.662	184.12
281.894	197.12
282.125	211.12
282.356	212.12
282.588	200.12
282.819	203.12
283.051	219.12
283.282	214.12
283.513	202.12
283.745	213.12
283.976	223.12
284.207	213.12
284.439	221.12
284.67	218.12
284.901	210.12
285.132	226.12
285.364	223.12
285.595	236.12
285.826	208.12
286.057	234.12
286.288	214.12
286.52	242.12
286.751	222.12
286.982	232.12
287.213	214.12
287.444	217.12
287.675	231.12
287.906	239.12
288.138	210.12
288.369	233.12
288.6	223.12
288.831	217.12
289.062	217.12
289.293	224.12
289.524	224.12
289.755	223.12
289.986	216.12
290.217	225.12
290.448	231.12
290.679	243.12
290.91	231.12
291.141	224.12
291.371	219.12
291.602	235.12
291.833	218.12
292.064	226.12
292.295	214.12
292.526	240.12
292.757	231.12
292.987	238.12
293.218	226.12
293.449	241.12
293.68	233.12
293.91	225.12
294.141	229.12
294.372	240.12
294.603	221.12
294.833	235.12
295.064	234.12
295.295	247.12
295.525	229.12
295.756	245.12
295.987	224.12
296.217	223.12
296.448	247.12
296.679	245.12
296.909	235.12
297.14	244.12
297.37	243.12
297.601	244.12
297.831	246.12
298.062	250.12
298.292	256.12
298.523	254.12
298.753	259.12
298.984	256.12
299.214	251.12
299.445	263.12
299.675	244.12
299.905	279.12
300.136	264.12
300.366	255.12
300.597	244.12
300.827	257.12
301.057	271.12
301.288	257.12
301.518	267.12
301.748	261.12
301.979	253.12
302.209	263.12
302.439	248.12
302.669	264.12
302.9	265.12
303.13	250.12
303.36	254.12
303.59	262.12
303.82	247.12
304.051	263.12
304.281	258.12
304.511	254.12
304.741	274.12
304.971	258.12
305.201	274.12
305.431	266.12
305.661	255.12
305.891	266.12
306.121	260.12
306.352	247.12
306.582	247.12
306.812	257.12
307.042	264.12
307.272	256.12
307.502	251.12
307.731	248.12
307.961	263.12
308.191	253.12
308.421	266.12
308.651	257.12
308.881	259.12
309.111	251.12
309.341	247.12
309.571	266.12
309.8	257.12
310.03	264.12
310.26	249.12
310.49	247.12
310.72	260.12
310.949	264.12
311.179	270.12
311.409	250.12
311.639	279.12
311.868	270.12
312.098	268.12
312.328	268.12
312.557	283.12
312.787	269.12
313.017	279.12
313.246	283.12
313.476	277.12
313.706	291.12
313.935	263.12
314.165	285.12
314.394	269.12
314.624	260.12
314.853	294.12
315.083	274.12
315.312	266.12
315.542	290.12
315.771	289.12
316.001	271.12
316.23	284.12
316.46	288.12
316.689	273.12
316.919	286.12
317.148	285.12
317.377	281.12
317.607	283.12
317.836	293.12
318.065	267.12
318.295	287.12
318.524	280.12
318.753	293.12
318.983	277.12
319.212	274.12
319.441	275.12
319.67	299.12
319.9	274.12
320.129	299.12
320.358	284.12
320.587	274.12
320.816	283.12
321.046	274.12
321.275	290.12
321.504	294.12
321.733	291.12
321.962	286.12
322.191	275.12
322.42	272.12
322.649	305.12
322.878	303.12
323.108	297.12
323.337	273.12
323.566	284.12
323.795	293.12
324.024	289.12
324.253	287.12
324.482	277.12
324.71	287.12
324.939	295.12
325.168	311.12
325.397	289.12
325.626	321.12
325.855	286.12
326.084	305.12
326.313	304.12
326.542	279.12
326.77	305.12
326.999	301.12
327.228	302.12
327.457	296.12
327.686	302.12
327.914	291.12
328.143	321.12
328.372	291.12
328.6	305.12
328.829	317.12
329.058	300.12
329.287	315.12
329.515	306.12
329.744	313.12
329.972	303.12
330.201	307.12
330.43	291.12
330.658	295.12
330.887	317.12
331.115	318.12
331.344	313.12
331.572	320.12
331.801	327.12
332.03	310.12
332.258	331.12
332.486	326.12
332.715	334.12
332.943	313.12
333.172	351.12
333.4	333.12
333.629	354.12
333.857	360.12
334.085	363.12
334.314	369.12
334.542	343.12
334.771	377.12
334.999	376.12
335.227	376.12
335.455	356.12
335.684	358.12
335.912	365.12
336.14	349.12
336.369	358.12
336.597	336.12
336.825	354.12
337.053	362.12
337.281	352.12
337.51	343.12
337.738	357.12
337.966	320.12
338.194	337.12
338.422	345.12
338.65	332.12
338.878	347.12
339.106	320.12
339.334	318.12
339.562	313.12
339.79	333.12
340.018	333.12
340.246	302.12
340.474	333.12
340.702	323.12
340.93	319.12
341.158	320.12
341.386	314.12
341.614	306.12
341.842	316.12
342.07	317.12
342.298	325.12
342.526	319.12
342.754	313.12
342.981	330.12
343.209	310.12
343.437	350.12
343.665	337.12
343.893	339.12
344.12	366.12
344.348	353.12
344.576	328.12
344.804	334.12
345.031	329.12
345.259	323.12
345.487	326.12
345.714	313.12
345.942	315.12
346.17	323.12
346.397	302.12
346.625	322.12
346.853	317.12
347.08	315.12
347.308	308.12
347.535	317.12
347.763	338.12
347.99	332.12
348.218	318.12
348.445	306.12
348.673	309.12
348.9	318.12
349.128	304.12
349.355	315.12
349.583	314.12
349.81	312.12
350.037	324.12
350.265	313.12
350.492	297.12
350.72	313.12
350.947	288.12
351.174	313.12
351.402	303.12
351.629	295.12
351.856	305.12
352.083	302.12
352.311	290.12
352.538	296.12
352.765	282.12
352.992	305.12
353.22	295.12
353.447	314.12
353.674	290.12
353.901	301.12
354.128	315.12
354.355	294.12
354.583	304.12
354.81	311.12
355.037	302.12
355.264	316.12
355.491	321.12
355.718	306.12
355.945	294.12
356.172	285.12
356.399	326.12
356.626	288.12
356.853	307.12
357.08	304.12
357.307	305.12
357.534	311.12
357.761	321.12
357.988	317.12
358.215	315.12
358.441	307.12
358.668	295.12
358.895	315.12
359.122	305.12
359.349	292.12
359.576	307.12
359.802	310.12
360.029	297.12
360.256	297.12
360.483	304.12
360.709	298.12
360.936	309.12
361.163	305.12
361.39	314.12
361.616	304.12
361.843	324.12
362.07	306.12
362.296	301.12
362.523	307.12
362.749	314.12
362.976	312.12
363.203	328.12
363.429	321.12
363.656	313.12
363.882	311.12
364.109	307.12
364.335	319.12
364.562	309.12
364.788	315.12
365.015	306.12
365.241	280.12
365.468	319.12
365.694	305.12
365.92	320.12
366.147	315.12
366.373	330.12
366.599	331.12
366.826	313.12
367.052	316.12
367.278	317.12
367.505	304.12
367.731	319.12
367.957	314.12
368.184	319.12
368.41	308.12
368.636	331.12
368.862	319.12
369.089	319.12
369.315	294.12
369.541	325.12
369.767	315.12
369.993	336.12
370.219	314.12
370.445	347.12
370.672	329.12
370.898	319.12
371.124	329.12
371.35	336.12
371.576	341.12
371.802	318.12
372.028	338.12
372.254	339.12
372.48	327.12
372.706	338.12
372.932	343.12
373.158	336.12
373.384	341.12
373.61	367.12
373.835	356.12
374.061	337.12
374.287	335.12
374.513	344.12
374.739	347.12
374.965	350.12
375.191	355.12
375.416	346.12
375.642	343.12
375.868	349.12
376.094	342.12
376.319	321.12
376.545	327.12
376.771	353.12
376.997	340.12
377.222	336.12
377.448	354.12
377.674	341.12
377.899	328.12
378.125	330.12
378.35	329.12
378.576	315.12
378.802	322.12
379.027	321.12
379.253	337.12
379.478	322.12
379.704	330.12
379.929	331.12
380.155	322.12
380.38	333.12
380.606	328.12
380.831	321.12
381.057	343.12
381.282	341.12
381.507	317.12
381.733	347.12
381.958	334.12
382.184	325.12
382.409	353.12
382.634	345.12
382.86	346.12
383.085	361.12
383.31	366.12
383.535	356.12
383.761	362.12
383.986	363.12
384.211	374.12
384.436	370.12
384.662	372.12
384.887	375.12
385.112	381.12
385.337	358.12
385.562	360.12
385.787	370.12
386.013	377.12
386.238	382.12
386.463	380.12
386.688	388.12
386.913	374.12
387.138	377.12
387.363	388.12
387.588	397.12
387.813	389.12
388.038	383.12
388.263	385.12
388.488	381.12
388.713	383.12
388.938	389.12
389.163	381.12
389.387	405.12
389.612	375.12
389.837	380.12
390.062	377.12
390.287	386.12
390.512	376.12
390.736	401.12
390.961	398.12
391.186	386.12
391.411	409.12
391.636	411.12
391.86	422.12
392.085	421.12
392.31	418.12
392.534	411.12
392.759	405.12
392.984	395.12
393.208	404.12
393.433	403.12
393.658	395.12
393.882	389.12
394.107	374.12
394.331	401.12
394.556	401.12
394.78	391.12
395.005	432.12
395.229	407.12
395.454	425.12
395.678	419.12
395.903	455.12
396.127	422.12
396.352	421.12
396.576	403.12
396.801	437.12
397.025	443.12
397.249	426.12
397.474	421.12
397.698	421.12
397.922	431.12
398.147	447.12
398.371	426.12
398.595	451.12
398.82	488.12
399.044	485.12
399.268	510.12
399.492	543.12
399.717	571.12
399.941	584.12
400.165	539.12
400.389	503.12
400.613	507.12
400.837	487.12
401.062	480.12
401.286	473.12
401.51	467.12
401.734	460.12
401.958	475.12
402.182	470.12
402.406	485.12
402.63	473.12
402.854	474.12
403.078	480.12
403.302	473.12
403.526	489.12
403.75	472.12
403.974	495.12
404.198	485.12
404.422	485.12
404.645	499.12
404.869	501.12
405.093	489.12
405.317	479.12
405.541	501.12
405.765	451.12
405.988	498.12
406.212	475.12
406.436	504.12
406.66	504.12
406.883	512.12
407.107	522.12
407.331	548.12
407.555	568.12
407.778	563.12
408.002	542.12
408.226	550.12
408.449	533.12
408.673	523.12
408.896	520.12
409.12	510.12
409.344	526.12
409.567	506.12
409.791	500.12
410.014	510.12
410.238	496.12
410.461	497.12
410.685	486.12
410.908	491.12
411.132	478.12
411.355	477.12
411.578	481.12
411.802	489.12
412.025	462.12
412.249	463.12
412.472	487.12
412.695	450.12
412.919	473.12
413.142	483.12
413.365	461.12
413.589	477.12
413.812	457.12
414.035	462.12
414.258	460.12
414.482	469.12
414.705	479.12
414.928	479.12
415.151	471.12
415.374	450.12
415.597	467.12
415.821	447.12
416.044	449.12
416.267	464.12
416.49	451.12
416.713	442.12
416.936	466.12
417.159	452.12
417.382	447.12
417.605	443.12
417.828	422.12
418.051	439.12
418.274	446.12
418.497	424.12
418.72	453.12
418.943	422.12
419.166	477.12
419.389	470.12
419.611	468.12
419.834	487.12
420.057	453.12
420.28	459.12
420.503	440.12
420.726	456.12
420.948	421.12
421.171	442.12
421.394	450.12
421.617	437.12
421.839	462.12
422.062	451.12
422.285	439.12
422.507	452.12
422.73	429.12
422.953	435.12
423.175	444.12
423.398	459.12
423.621	454.12
423.843	435.12
424.066	463.12
424.288	434.12
424.511	452.12
424.733	442.12
424.956	453.12
425.178	424.12
425.401	447.12
425.623	439.12
425.846	436.12
426.068	421.12
426.291	423.12
426.513	427.12
426.735	430.12
426.958	429.12
427.18	426.12
427.402	412.12
427.625	424.12
427.847	426.12
428.069	414.12
428.292	399.12
428.514	415.12
428.736	419.12
428.958	410.12
429.181	401.12
429.403	422.12
429.625	408.12
429.847	404.12
430.069	401.12
430.292	397.12
430.514	402.12
430.736	415.12
430.958	410.12
431.18	393.12
431.402	404.12
431.624	410.12
431.846	415.12
432.068	404.12
432.29	435.12
432.512	429.12
432.734	406.12
432.956	405.12
433.178	433.12
433.4	409.12
433.622	418.12
433.844	423.12
434.066	409.12
434.287	421.12
434.509	409.12
434.731	423.12
434.953	434.12
435.175	445.12
435.397	439.12
435.618	442.12
435.84	440.12
436.062	424.12
436.284	440.12
436.505	418.12
436.727	405.12
436.949	403.12
437.17	413.12
437.392	409.12
437.614	409.12
437.835	406.12
438.057	404.12
438.278	405.12
438.5	395.12
438.721	396.12
438.943	403.12
439.165	417.12
439.386	406.12
439.608	386.12
439.829	399.12
440.05	383.12
440.272	400.12
440.493	418.12
440.715	414.12
440.936	411.12
441.158	433.12
441.379	433.12
441.6	436.12
441.822	433.12
442.043	437.12
442.264	441.12
442.486	424.12
442.707	406.12
442.928	429.12
443.149	437.12
443.371	433.12
443.592	424.12
443.813	425.12
444.034	445.12
444.255	445.12
444.476	459.12
444.698	466.12
444.919	472.12
445.14	599.12
445.361	504.12
445.582	450.12
445.803	429.12
446.024	438.12
446.245	445.12
446.466	416.12
446.687	399.12
446.908	402.12
447.129	392.12
447.35	372.12
447.571	369.12
447.792	394.12
448.013	399.12
448.234	385.12
448.455	371.12
448.675	390.12
448.896	384.12
449.117	386.12
449.338	382.12
449.559	378.12
449.779	351.12
450	375.12
450.221	380.12
450.442	392.12
450.662	387.12
450.883	395.12
451.104	383.12
451.324	382.12
451.545	371.12
451.766	381.12
451.986	389.12
452.207	373.12
452.428	370.12
452.648	361.12
452.869	355.12
453.089	368.12
453.31	399.12
453.53	352.12
453.751	357.12
453.971	365.12
454.192	357.12
454.412	377.12
454.633	334.12
454.853	370.12
455.073	371.12
455.294	353.12
455.514	359.12
455.734	363.12
455.955	345.12
456.175	352.12
456.395	377.12
456.616	362.12
456.836	371.12
457.056	373.12
457.276	361.12
457.497	386.12
457.717	354.12
457.937	364.12
458.157	367.12
458.377	373.12
458.598	390.12
458.818	400.12
459.038	391.12
459.258	409.12
459.478	401.12
459.698	422.12
459.918	443.12
460.138	428.12
460.358	429.12
460.578	433.12
460.798	446.12
461.018	453.12
461.238	451.12
461.458	456.12
461.678	459.12
461.898	447.12
462.118	447.12
462.338	470.12
462.558	483.12
462.777	470.12
462.997	524.12
463.217	538.12
463.437	537.12
463.657	497.12
463.876	508.12
464.096	512.12
464.316	481.12
464.536	517.12
464.755	494.12
464.975	464.12
465.195	445.12
465.414	453.12
465.634	431.12
465.854	422.12
466.073	405.12
466.293	412.12
466.512	393.12
466.732	400.12
466.951	407.12
467.171	383.12
467.391	401.12
467.61	421.12
467.829	399.12
468.049	384.12
468.268	392.12
468.488	388.12
468.707	360.12
468.927	385.12
469.146	399.12
469.365	409.12
469.585	405.12
469.804	403.12
470.023	405.12
470.243	417.12
470.462	410.12
470.681	395.12
470.901	408.12
471.12	403.12
471.339	394.12
471.558	385.12
471.777	408.12
471.997	403.12
472.216	411.12
472.435	385.12
472.654	397.12
472.873	385.12
473.092	383.12
473.311	401.12
473.53	401.12
473.749	386.12
473.968	394.12
474.187	394.12
474.406	408.12
474.625	383.12
474.844	393.12
475.063	400.12
475.282	402.12
475.501	373.12
475.72	403.12
475.939	422.12
476.158	393.12
476.377	404.12
476.596	413.12
476.814	415.12
477.033	411.12
477.252	413.12
477.471	419.12
477.69	422.12
477.908	445.12
478.127	449.12
478.346	439.12
478.564	436.12
478.783	429.12
479.002	459.12
479.22	460.12
479.439	455.12
479.658	463.12
479.876	454.12
480.095	447.12
480.313	465.12
480.532	475.12
480.751	466.12
480.969	477.12
481.188	462.12
481.406	454.12
481.624	453.12
481.843	450.12
482.061	439.12
482.28	458.12
482.498	462.12
482.717	437.12
482.935	449.12
483.153	432.12
483.372	439.12
483.59	453.12
483.808	429.12
484.027	447.12
484.245	455.12
484.463	451.12
484.681	437.12
484.9	457.12
485.118	470.12
485.336	433.12
485.554	461.12
485.772	462.12
485.99	452.12
486.209	458.12
486.427	458.12
486.645	432.12
486.863	478.12
487.081	451.12
487.299	459.12
487.517	433.12
487.735	458.12
487.953	477.12
488.171	468.12
488.389	457.12
488.607	464.12
488.825	431.12
489.043	459.12
489.261	467.12
489.479	464.12
489.696	458.12
489.914	466.12
490.132	459.12
490.35	462.12
490.568	459.12
490.786	468.12
491.003	455.12
491.221	439.12
491.439	456.12
491.657	473.12
491.874	467.12
492.092	465.12
492.31	458.12
492.527	474.12
492.745	486.12
492.963	483.12
493.18	471.12
493.398	470.12
493.615	465.12
493.833	491.12
494.05	475.12
494.268	488.12
494.485	477.12
494.703	481.12
494.92	481.12
495.138	494.12
495.355	493.12
495.573	500.12
495.79	501.12
496.008	499.12
496.225	496.12
496.442	512.12
496.66	519.12
496.877	531.12
497.094	544.12
497.312	530.12
497.529	520.12
497.746	559.12
497.963	572.12
498.181	555.12
498.398	590.12
498.615	627.12
498.832	651.12
499.049	658.12
499.267	678.12
499.484	738.12
499.701	785.12
499.918	837.12
500.135	893.12
500.352	946.12
500.569	962.12
500.786	972.12
501.003	911.12
501.22	875.12
501.437	838.12
501.654	765.12
501.871	703.12
