Data from Fe(NO3)3@0.025M.TitratingCurve.Agarose3%dH2O.NegLispCup.LampEnergy10.LIBS07252019_HRD10591_16-56-35-339.txt Node
Date: Thu Jul 25 16:56:35 EDT 2019
User: cochatt
Spectrometer: HR+D1059
Trigger mode: 1
Integration Time (sec): 1.000000E-1
Scans to average: 1
Electric dark correction enabled: true
Nonlinearity correction enabled: false
Boxcar width: 0
XAxis mode: Wavelengths
Number of Pixels in Spectrum: 2048
>>>>>Begin Spectral Data<<<<<
223.165	-9.38
223.4	-9.38
223.635	-9.38
223.869	-19.38
224.104	-19.38
224.338	-16.38
224.573	-28.38
224.808	-26.38
225.042	1.62
225.277	6.62
225.511	-3.38
225.746	6.62
225.98	4.62
226.215	9.62
226.449	13.62
226.683	19.62
226.918	36.62
227.152	23.62
227.387	34.62
227.621	26.62
227.856	31.62
228.09	48.62
228.324	44.62
228.559	48.62
228.793	56.62
229.027	78.62
229.262	72.62
229.496	67.62
229.73	66.62
229.964	73.62
230.199	72.62
230.433	74.62
230.667	82.62
230.901	78.62
231.136	81.62
231.37	92.62
231.604	84.62
231.838	88.62
232.072	89.62
232.306	93.62
232.541	80.62
232.775	89.62
233.009	96.62
233.243	101.62
233.477	90.62
233.711	85.62
233.945	98.62
234.179	97.62
234.413	88.62
234.647	90.62
234.881	97.62
235.115	86.62
235.349	100.62
235.583	91.62
235.817	92.62
236.051	95.62
236.285	84.62
236.519	82.62
236.753	81.62
236.987	78.62
237.221	100.62
237.455	96.62
237.689	106.62
237.922	91.62
238.156	87.62
238.39	86.62
238.624	77.62
238.858	81.62
239.091	106.62
239.325	89.62
239.559	95.62
239.793	77.62
240.027	108.62
240.26	91.62
240.494	96.62
240.728	107.62
240.961	98.62
241.195	103.62
241.429	100.62
241.662	108.62
241.896	85.62
242.13	96.62
242.363	95.62
242.597	115.62
242.83	88.62
243.064	83.62
243.298	101.62
243.531	86.62
243.765	96.62
243.998	107.62
244.232	102.62
244.465	113.62
244.699	103.62
244.932	103.62
245.166	100.62
245.399	94.62
245.633	107.62
245.866	86.62
246.099	97.62
246.333	99.62
246.566	102.62
246.8	103.62
247.033	113.62
247.266	102.62
247.5	108.62
247.733	81.62
247.966	99.62
248.2	106.62
248.433	103.62
248.666	100.62
248.899	108.62
249.133	89.62
249.366	126.62
249.599	99.62
249.832	114.62
250.066	107.62
250.299	105.62
250.532	119.62
250.765	95.62
250.998	107.62
251.231	89.62
251.465	117.62
251.698	120.62
251.931	102.62
252.164	107.62
252.397	94.62
252.63	96.62
252.863	116.62
253.096	96.62
253.329	108.62
253.562	105.62
253.795	97.62
254.028	105.62
254.261	103.62
254.494	113.62
254.727	118.62
254.96	105.62
255.193	124.62
255.426	108.62
255.659	98.62
255.892	112.62
256.124	114.62
256.357	116.62
256.59	123.62
256.823	107.62
257.056	102.62
257.289	103.62
257.521	112.62
257.754	112.62
257.987	119.62
258.22	117.62
258.452	133.62
258.685	117.62
258.918	111.62
259.151	108.62
259.383	100.62
259.616	100.62
259.849	119.62
260.081	117.62
260.314	137.62
260.547	115.62
260.779	128.62
261.012	126.62
261.244	122.62
261.477	119.62
261.71	120.62
261.942	117.62
262.175	111.62
262.407	96.62
262.64	112.62
262.872	118.62
263.105	131.62
263.337	116.62
263.57	144.62
263.802	119.62
264.035	134.62
264.267	112.62
264.499	121.62
264.732	125.62
264.964	119.62
265.197	108.62
265.429	130.62
265.661	132.62
265.894	127.62
266.126	125.62
266.358	109.62
266.591	128.62
266.823	139.62
267.055	133.62
267.287	122.62
267.52	116.62
267.752	109.62
267.984	138.62
268.216	108.62
268.448	134.62
268.681	134.62
268.913	136.62
269.145	119.62
269.377	135.62
269.609	115.62
269.841	121.62
270.073	135.62
270.306	137.62
270.538	133.62
270.77	126.62
271.002	125.62
271.234	115.62
271.466	133.62
271.698	133.62
271.93	140.62
272.162	126.62
272.394	118.62
272.626	143.62
272.858	147.62
273.09	142.62
273.322	137.62
273.553	132.62
273.785	139.62
274.017	140.62
274.249	142.62
274.481	132.62
274.713	148.62
274.945	146.62
275.176	133.62
275.408	138.62
275.64	151.62
275.872	136.62
276.104	146.62
276.335	147.62
276.567	144.62
276.799	133.62
277.031	130.62
277.262	152.62
277.494	136.62
277.726	146.62
277.957	154.62
278.189	150.62
278.421	134.62
278.652	142.62
278.884	139.62
279.115	136.62
279.347	140.62
279.579	147.62
279.81	148.62
280.042	132.62
280.273	149.62
280.505	154.62
280.736	158.62
280.968	142.62
281.199	139.62
281.431	152.62
281.662	148.62
281.894	139.62
282.125	155.62
282.356	146.62
282.588	150.62
282.819	157.62
283.051	146.62
283.282	154.62
283.513	142.62
283.745	164.62
283.976	139.62
284.207	148.62
284.439	148.62
284.67	161.62
284.901	156.62
285.132	149.62
285.364	149.62
285.595	151.62
285.826	146.62
286.057	150.62
286.288	167.62
286.52	155.62
286.751	149.62
286.982	156.62
287.213	156.62
287.444	153.62
287.675	161.62
287.906	180.62
288.138	141.62
288.369	145.62
288.6	155.62
288.831	156.62
289.062	156.62
289.293	165.62
289.524	148.62
289.755	153.62
289.986	152.62
290.217	166.62
290.448	148.62
290.679	164.62
290.91	147.62
291.141	160.62
291.371	169.62
291.602	153.62
291.833	146.62
292.064	167.62
292.295	165.62
292.526	156.62
292.757	152.62
292.987	169.62
293.218	154.62
293.449	171.62
293.68	165.62
293.91	166.62
294.141	155.62
294.372	166.62
294.603	173.62
294.833	163.62
295.064	172.62
295.295	163.62
295.525	184.62
295.756	158.62
295.987	168.62
296.217	170.62
296.448	152.62
296.679	171.62
296.909	178.62
297.14	170.62
297.37	172.62
297.601	162.62
297.831	184.62
298.062	157.62
298.292	164.62
298.523	160.62
298.753	180.62
298.984	178.62
299.214	178.62
299.445	187.62
299.675	173.62
299.905	174.62
300.136	172.62
300.366	180.62
300.597	176.62
300.827	182.62
301.057	198.62
301.288	172.62
301.518	160.62
301.748	170.62
301.979	165.62
302.209	184.62
302.439	194.62
302.669	177.62
302.9	179.62
303.13	169.62
303.36	182.62
303.59	183.62
303.82	186.62
304.051	169.62
304.281	165.62
304.511	183.62
304.741	184.62
304.971	183.62
305.201	183.62
305.431	178.62
305.661	187.62
305.891	181.62
306.121	162.62
306.352	175.62
306.582	178.62
306.812	177.62
307.042	179.62
307.272	187.62
307.502	170.62
307.731	166.62
307.961	187.62
308.191	169.62
308.421	176.62
308.651	180.62
308.881	187.62
309.111	197.62
309.341	180.62
309.571	171.62
309.8	172.62
310.03	193.62
310.26	183.62
310.49	174.62
310.72	182.62
310.949	171.62
311.179	189.62
311.409	180.62
311.639	191.62
311.868	168.62
312.098	184.62
312.328	188.62
312.557	190.62
312.787	192.62
313.017	189.62
313.246	200.62
313.476	192.62
313.706	190.62
313.935	191.62
314.165	204.62
314.394	194.62
314.624	180.62
314.853	194.62
315.083	197.62
315.312	184.62
315.542	192.62
315.771	209.62
316.001	186.62
316.23	204.62
316.46	211.62
316.689	206.62
316.919	202.62
317.148	206.62
317.377	192.62
317.607	197.62
317.836	201.62
318.065	191.62
318.295	182.62
318.524	185.62
318.753	185.62
318.983	184.62
319.212	204.62
319.441	197.62
319.67	192.62
319.9	200.62
320.129	186.62
320.358	200.62
320.587	182.62
320.816	196.62
321.046	199.62
321.275	192.62
321.504	196.62
321.733	213.62
321.962	191.62
322.191	218.62
322.42	199.62
322.649	218.62
322.878	192.62
323.108	195.62
323.337	210.62
323.566	189.62
323.795	201.62
324.024	200.62
324.253	204.62
324.482	196.62
324.71	182.62
324.939	208.62
325.168	215.62
325.397	205.62
325.626	196.62
325.855	183.62
326.084	214.62
326.313	217.62
326.542	199.62
326.77	213.62
326.999	217.62
327.228	196.62
327.457	200.62
327.686	204.62
327.914	217.62
328.143	204.62
328.372	212.62
328.6	211.62
328.829	206.62
329.058	199.62
329.287	218.62
329.515	195.62
329.744	209.62
329.972	203.62
330.201	218.62
330.43	228.62
330.658	226.62
330.887	216.62
331.115	221.62
331.344	213.62
331.572	209.62
331.801	227.62
332.03	218.62
332.258	219.62
332.486	221.62
332.715	225.62
332.943	224.62
333.172	217.62
333.4	254.62
333.629	252.62
333.857	252.62
334.085	234.62
334.314	240.62
334.542	239.62
334.771	257.62
334.999	220.62
335.227	234.62
335.455	236.62
335.684	232.62
335.912	229.62
336.14	242.62
336.369	225.62
336.597	245.62
336.825	222.62
337.053	235.62
337.281	232.62
337.51	246.62
337.738	237.62
337.966	242.62
338.194	210.62
338.422	240.62
338.65	218.62
338.878	219.62
339.106	238.62
339.334	226.62
339.562	231.62
339.79	215.62
340.018	216.62
340.246	223.62
340.474	216.62
340.702	208.62
340.93	199.62
341.158	223.62
341.386	216.62
341.614	240.62
341.842	215.62
342.07	216.62
342.298	219.62
342.526	217.62
342.754	211.62
342.981	224.62
343.209	220.62
343.437	247.62
343.665	232.62
343.893	232.62
344.12	251.62
344.348	246.62
344.576	234.62
344.804	248.62
345.031	247.62
345.259	225.62
345.487	233.62
345.714	230.62
345.942	230.62
346.17	213.62
346.397	222.62
346.625	217.62
346.853	219.62
347.08	241.62
347.308	208.62
347.535	229.62
347.763	230.62
347.99	221.62
348.218	224.62
348.445	216.62
348.673	212.62
348.9	230.62
349.128	234.62
349.355	223.62
349.583	202.62
349.81	212.62
350.037	213.62
350.265	213.62
350.492	228.62
350.72	214.62
350.947	216.62
351.174	222.62
351.402	191.62
351.629	231.62
351.856	214.62
352.083	238.62
352.311	226.62
352.538	221.62
352.765	210.62
352.992	205.62
353.22	216.62
353.447	196.62
353.674	202.62
353.901	228.62
354.128	218.62
354.355	210.62
354.583	220.62
354.81	195.62
355.037	208.62
355.264	212.62
355.491	212.62
355.718	202.62
355.945	214.62
356.172	223.62
356.399	211.62
356.626	210.62
356.853	200.62
357.08	205.62
357.307	206.62
357.534	218.62
357.761	221.62
357.988	220.62
358.215	221.62
358.441	201.62
358.668	210.62
358.895	210.62
359.122	215.62
359.349	217.62
359.576	219.62
359.802	219.62
360.029	210.62
360.256	210.62
360.483	217.62
360.709	210.62
360.936	210.62
361.163	206.62
361.39	213.62
361.616	206.62
361.843	216.62
362.07	212.62
362.296	228.62
362.523	219.62
362.749	216.62
362.976	221.62
363.203	218.62
363.429	210.62
363.656	220.62
363.882	219.62
364.109	220.62
364.335	224.62
364.562	222.62
364.788	234.62
365.015	219.62
365.241	216.62
365.468	232.62
365.694	220.62
365.92	225.62
366.147	238.62
366.373	211.62
366.599	222.62
366.826	219.62
367.052	229.62
367.278	225.62
367.505	241.62
367.731	213.62
367.957	220.62
368.184	224.62
368.41	228.62
368.636	235.62
368.862	229.62
369.089	240.62
369.315	230.62
369.541	229.62
369.767	230.62
369.993	212.62
370.219	230.62
370.445	220.62
370.672	224.62
370.898	217.62
371.124	227.62
371.35	215.62
371.576	240.62
371.802	221.62
372.028	242.62
372.254	217.62
372.48	234.62
372.706	229.62
372.932	235.62
373.158	226.62
373.384	232.62
373.61	227.62
373.835	241.62
374.061	229.62
374.287	218.62
374.513	229.62
374.739	235.62
374.965	258.62
375.191	231.62
375.416	237.62
375.642	235.62
375.868	250.62
376.094	232.62
376.319	232.62
376.545	229.62
376.771	221.62
376.997	252.62
377.222	231.62
377.448	216.62
377.674	217.62
377.899	217.62
378.125	213.62
378.35	222.62
378.576	247.62
378.802	224.62
379.027	259.62
379.253	245.62
379.478	230.62
379.704	226.62
379.929	225.62
380.155	226.62
380.38	227.62
380.606	237.62
380.831	225.62
381.057	217.62
381.282	251.62
381.507	237.62
381.733	232.62
381.958	231.62
382.184	235.62
382.409	240.62
382.634	229.62
382.86	240.62
383.085	240.62
383.31	257.62
383.535	244.62
383.761	233.62
383.986	242.62
384.211	248.62
384.436	252.62
384.662	249.62
384.887	261.62
385.112	274.62
385.337	250.62
385.562	242.62
385.787	246.62
386.013	252.62
386.238	282.62
386.463	250.62
386.688	255.62
386.913	260.62
387.138	259.62
387.363	265.62
387.588	261.62
387.813	254.62
388.038	270.62
388.263	263.62
388.488	254.62
388.713	255.62
388.938	260.62
389.163	249.62
389.387	255.62
389.612	229.62
389.837	253.62
390.062	269.62
390.287	242.62
390.512	282.62
390.736	242.62
390.961	288.62
391.186	260.62
391.411	260.62
391.636	280.62
391.86	280.62
392.085	295.62
392.31	281.62
392.534	249.62
392.759	274.62
392.984	268.62
393.208	249.62
393.433	268.62
393.658	288.62
393.882	278.62
394.107	265.62
394.331	270.62
394.556	280.62
394.78	280.62
395.005	281.62
395.229	287.62
395.454	273.62
395.678	284.62
395.903	281.62
396.127	294.62
396.352	284.62
396.576	261.62
396.801	274.62
397.025	281.62
397.249	298.62
397.474	281.62
397.698	289.62
397.922	288.62
398.147	295.62
398.371	296.62
398.595	308.62
398.82	317.62
399.044	317.62
399.268	365.62
399.492	365.62
399.717	359.62
399.941	357.62
400.165	350.62
400.389	355.62
400.613	330.62
400.837	323.62
401.062	308.62
401.286	320.62
401.51	298.62
401.734	318.62
401.958	299.62
402.182	317.62
402.406	295.62
402.63	296.62
402.854	318.62
403.078	317.62
403.302	312.62
403.526	326.62
403.75	316.62
403.974	309.62
404.198	316.62
404.422	328.62
404.645	328.62
404.869	346.62
405.093	321.62
405.317	325.62
405.541	305.62
405.765	316.62
405.988	325.62
406.212	345.62
406.436	326.62
406.66	331.62
406.883	337.62
407.107	345.62
407.331	346.62
407.555	349.62
407.778	351.62
408.002	364.62
408.226	354.62
408.449	343.62
408.673	350.62
408.896	340.62
409.12	313.62
409.344	343.62
409.567	331.62
409.791	326.62
410.014	336.62
410.238	339.62
410.461	323.62
410.685	318.62
410.908	305.62
411.132	326.62
411.355	312.62
411.578	302.62
411.802	320.62
412.025	313.62
412.249	309.62
412.472	318.62
412.695	296.62
412.919	301.62
413.142	314.62
413.365	312.62
413.589	309.62
413.812	324.62
414.035	317.62
414.258	301.62
414.482	307.62
414.705	325.62
414.928	312.62
415.151	307.62
415.374	320.62
415.597	315.62
415.821	310.62
416.044	298.62
416.267	298.62
416.49	291.62
416.713	293.62
416.936	307.62
417.159	306.62
417.382	297.62
417.605	297.62
417.828	290.62
418.051	286.62
418.274	284.62
418.497	299.62
418.72	309.62
418.943	288.62
419.166	316.62
419.389	334.62
419.611	316.62
419.834	300.62
420.057	328.62
420.28	304.62
420.503	309.62
420.726	285.62
420.948	295.62
421.171	290.62
421.394	268.62
421.617	287.62
421.839	294.62
422.062	289.62
422.285	295.62
422.507	316.62
422.73	282.62
422.953	295.62
423.175	300.62
423.398	295.62
423.621	272.62
423.843	288.62
424.066	285.62
424.288	308.62
424.511	296.62
424.733	305.62
424.956	312.62
425.178	280.62
425.401	286.62
425.623	276.62
425.846	275.62
426.068	277.62
426.291	288.62
426.513	274.62
426.735	293.62
426.958	290.62
427.18	279.62
427.402	286.62
427.625	266.62
427.847	283.62
428.069	268.62
428.292	283.62
428.514	287.62
428.736	267.62
428.958	292.62
429.181	277.62
429.403	284.62
429.625	288.62
429.847	266.62
430.069	274.62
430.292	296.62
430.514	298.62
430.736	278.62
430.958	278.62
431.18	273.62
431.402	279.62
431.624	269.62
431.846	267.62
432.068	286.62
432.29	288.62
432.512	292.62
432.734	297.62
432.956	276.62
433.178	287.62
433.4	289.62
433.622	285.62
433.844	294.62
434.066	275.62
434.287	297.62
434.509	290.62
434.731	290.62
434.953	282.62
435.175	298.62
435.397	322.62
435.618	286.62
435.84	295.62
436.062	273.62
436.284	290.62
436.505	277.62
436.727	244.62
436.949	269.62
437.17	276.62
437.392	271.62
437.614	271.62
437.835	268.62
438.057	254.62
438.278	268.62
438.5	271.62
438.721	275.62
438.943	254.62
439.165	251.62
439.386	268.62
439.608	271.62
439.829	271.62
440.05	279.62
440.272	265.62
440.493	276.62
440.715	280.62
440.936	280.62
441.158	285.62
441.379	280.62
441.6	291.62
441.822	291.62
442.043	278.62
442.264	284.62
442.486	281.62
442.707	284.62
442.928	276.62
443.149	277.62
443.371	288.62
443.592	284.62
443.813	297.62
444.034	297.62
444.255	281.62
444.476	321.62
444.698	309.62
444.919	291.62
445.14	373.62
445.361	335.62
445.582	291.62
445.803	293.62
446.024	292.62
446.245	290.62
446.466	274.62
446.687	267.62
446.908	260.62
447.129	269.62
447.35	272.62
447.571	273.62
447.792	271.62
448.013	265.62
448.234	272.62
448.455	259.62
448.675	244.62
448.896	264.62
449.117	253.62
449.338	254.62
449.559	249.62
449.779	248.62
450	248.62
450.221	249.62
450.442	244.62
450.662	244.62
450.883	259.62
451.104	270.62
451.324	261.62
451.545	252.62
451.766	262.62
451.986	246.62
452.207	264.62
452.428	232.62
452.648	248.62
452.869	248.62
453.089	257.62
453.31	266.62
453.53	252.62
453.751	248.62
453.971	231.62
454.192	240.62
454.412	226.62
454.633	232.62
454.853	259.62
455.073	238.62
455.294	258.62
455.514	251.62
455.734	237.62
455.955	244.62
456.175	241.62
456.395	264.62
456.616	250.62
456.836	253.62
457.056	249.62
457.276	260.62
457.497	259.62
457.717	258.62
457.937	263.62
458.157	248.62
458.377	253.62
458.598	267.62
458.818	240.62
459.038	274.62
459.258	262.62
459.478	283.62
459.698	270.62
459.918	287.62
460.138	285.62
460.358	282.62
460.578	295.62
460.798	300.62
461.018	291.62
461.238	300.62
461.458	284.62
461.678	277.62
461.898	305.62
462.118	316.62
462.338	327.62
462.558	308.62
462.777	320.62
462.997	336.62
463.217	355.62
463.437	347.62
463.657	339.62
463.876	322.62
464.096	328.62
464.316	334.62
464.536	330.62
464.755	331.62
464.975	314.62
465.195	315.62
465.414	300.62
465.634	292.62
465.854	273.62
466.073	263.62
466.293	269.62
466.512	270.62
466.732	271.62
466.951	286.62
467.171	256.62
467.391	256.62
467.61	266.62
467.829	260.62
468.049	277.62
468.268	272.62
468.488	250.62
468.707	277.62
468.927	275.62
469.146	256.62
469.365	274.62
469.585	270.62
469.804	267.62
470.023	288.62
470.243	282.62
470.462	258.62
470.681	281.62
470.901	288.62
471.12	283.62
471.339	260.62
471.558	269.62
471.777	255.62
471.997	251.62
472.216	269.62
472.435	268.62
472.654	284.62
472.873	262.62
473.092	262.62
473.311	284.62
473.53	269.62
473.749	256.62
473.968	259.62
474.187	269.62
474.406	273.62
474.625	265.62
474.844	286.62
475.063	268.62
475.282	282.62
475.501	256.62
475.72	262.62
475.939	275.62
476.158	276.62
476.377	274.62
476.596	276.62
476.814	276.62
477.033	266.62
477.252	265.62
477.471	285.62
477.69	300.62
477.908	280.62
478.127	297.62
478.346	287.62
478.564	277.62
478.783	304.62
479.002	326.62
479.22	305.62
479.439	308.62
479.658	308.62
479.876	301.62
480.095	325.62
480.313	304.62
480.532	324.62
480.751	322.62
480.969	297.62
481.188	313.62
481.406	302.62
481.624	308.62
481.843	313.62
482.061	302.62
482.28	292.62
482.498	304.62
482.717	292.62
482.935	313.62
483.153	314.62
483.372	310.62
483.59	304.62
483.808	300.62
484.027	295.62
484.245	283.62
484.463	309.62
484.681	309.62
484.9	313.62
485.118	306.62
485.336	317.62
485.554	316.62
485.772	310.62
485.99	307.62
486.209	317.62
486.427	316.62
486.645	324.62
486.863	312.62
487.081	313.62
487.299	307.62
487.517	312.62
487.735	323.62
487.953	320.62
488.171	314.62
488.389	314.62
488.607	300.62
488.825	297.62
489.043	330.62
489.261	331.62
489.479	320.62
489.696	329.62
489.914	321.62
490.132	317.62
490.35	325.62
490.568	320.62
490.786	293.62
491.003	305.62
491.221	320.62
491.439	324.62
491.657	300.62
491.874	309.62
492.092	313.62
492.31	337.62
492.527	311.62
492.745	322.62
492.963	309.62
493.18	328.62
493.398	313.62
493.615	312.62
493.833	302.62
494.05	308.62
494.268	322.62
494.485	324.62
494.703	325.62
494.92	303.62
495.138	312.62
495.355	317.62
495.573	309.62
495.79	325.62
496.008	331.62
496.225	327.62
496.442	328.62
496.66	334.62
496.877	350.62
497.094	344.62
497.312	366.62
497.529	354.62
497.746	370.62
497.963	362.62
498.181	376.62
498.398	392.62
498.615	410.62
498.832	427.62
499.049	420.62
499.267	469.62
499.484	484.62
499.701	517.62
499.918	564.62
500.135	573.62
500.352	594.62
500.569	608.62
500.786	601.62
501.003	578.62
501.22	534.62
501.437	501.62
501.654	486.62
501.871	469.62
502.088	433.62
502.305	410.62
502.522	408.62
