Data from Fe(NO3)3@0.025M.TitratingCurve.Agarose3%dH2O.NegLispCup.LampEnergy10.LIBS07252019_HRD10591_16-56-00-336.txt Node
Date: Thu Jul 25 16:56:00 EDT 2019
User: cochatt
Spectrometer: HR+D1059
Trigger mode: 1
Integration Time (sec): 1.000000E-1
Scans to average: 1
Electric dark correction enabled: true
Nonlinearity correction enabled: false
Boxcar width: 0
XAxis mode: Wavelengths
Number of Pixels in Spectrum: 2048
>>>>>Begin Spectral Data<<<<<
223.165	0.5
223.4	0.5
223.635	0.5
223.869	-21.5
224.104	-19.5
224.338	-25.5
224.573	-12.5
224.808	-27.5
225.042	-10.5
225.277	-11.5
225.511	-9.5
225.746	8.5
225.98	5.5
226.215	25.5
226.449	19.5
226.683	14.5
226.918	31.5
227.152	32.5
227.387	31.5
227.621	34.5
227.856	36.5
228.09	49.5
228.324	41.5
228.559	53.5
228.793	44.5
229.027	48.5
229.262	72.5
229.496	69.5
229.73	81.5
229.964	93.5
230.199	87.5
230.433	95.5
230.667	102.5
230.901	79.5
231.136	100.5
231.37	93.5
231.604	86.5
231.838	92.5
232.072	102.5
232.306	84.5
232.541	96.5
232.775	84.5
233.009	98.5
233.243	92.5
233.477	90.5
233.711	84.5
233.945	90.5
234.179	85.5
234.413	83.5
234.647	81.5
234.881	96.5
235.115	85.5
235.349	94.5
235.583	82.5
235.817	82.5
236.051	93.5
236.285	88.5
236.519	90.5
236.753	91.5
236.987	103.5
237.221	95.5
237.455	99.5
237.689	89.5
237.922	92.5
238.156	97.5
238.39	91.5
238.624	89.5
238.858	77.5
239.091	96.5
239.325	89.5
239.559	89.5
239.793	94.5
240.027	100.5
240.26	100.5
240.494	90.5
240.728	93.5
240.961	104.5
241.195	94.5
241.429	106.5
241.662	101.5
241.896	83.5
242.13	98.5
242.363	117.5
242.597	103.5
242.83	105.5
243.064	101.5
243.298	105.5
243.531	100.5
243.765	100.5
243.998	103.5
244.232	104.5
244.465	100.5
244.699	101.5
244.932	108.5
245.166	92.5
245.399	106.5
245.633	107.5
245.866	109.5
246.099	106.5
246.333	103.5
246.566	112.5
246.8	106.5
247.033	97.5
247.266	105.5
247.5	76.5
247.733	101.5
247.966	105.5
248.2	102.5
248.433	93.5
248.666	121.5
248.899	94.5
249.133	111.5
249.366	101.5
249.599	112.5
249.832	106.5
250.066	108.5
250.299	104.5
250.532	105.5
250.765	102.5
250.998	111.5
251.231	107.5
251.465	111.5
251.698	96.5
251.931	113.5
252.164	113.5
252.397	107.5
252.63	114.5
252.863	106.5
253.096	115.5
253.329	108.5
253.562	104.5
253.795	120.5
254.028	116.5
254.261	101.5
254.494	108.5
254.727	120.5
254.96	115.5
255.193	104.5
255.426	106.5
255.659	112.5
255.892	119.5
256.124	121.5
256.357	115.5
256.59	123.5
256.823	132.5
257.056	119.5
257.289	101.5
257.521	122.5
257.754	118.5
257.987	116.5
258.22	122.5
258.452	122.5
258.685	119.5
258.918	120.5
259.151	114.5
259.383	125.5
259.616	116.5
259.849	112.5
260.081	123.5
260.314	128.5
260.547	125.5
260.779	121.5
261.012	131.5
261.244	111.5
261.477	123.5
261.71	119.5
261.942	119.5
262.175	119.5
262.407	134.5
262.64	126.5
262.872	112.5
263.105	131.5
263.337	132.5
263.57	113.5
263.802	121.5
264.035	128.5
264.267	121.5
264.499	129.5
264.732	130.5
264.964	116.5
265.197	122.5
265.429	136.5
265.661	127.5
265.894	139.5
266.126	135.5
266.358	117.5
266.591	129.5
266.823	134.5
267.055	123.5
267.287	128.5
267.52	129.5
267.752	142.5
267.984	137.5
268.216	131.5
268.448	127.5
268.681	134.5
268.913	137.5
269.145	127.5
269.377	136.5
269.609	145.5
269.841	125.5
270.073	114.5
270.306	129.5
270.538	137.5
270.77	120.5
271.002	144.5
271.234	135.5
271.466	131.5
271.698	131.5
271.93	129.5
272.162	124.5
272.394	154.5
272.626	140.5
272.858	150.5
273.09	149.5
273.322	147.5
273.553	131.5
273.785	142.5
274.017	138.5
274.249	141.5
274.481	151.5
274.713	127.5
274.945	160.5
275.176	144.5
275.408	153.5
275.64	132.5
275.872	136.5
276.104	153.5
276.335	144.5
276.567	146.5
276.799	137.5
277.031	155.5
277.262	149.5
277.494	144.5
277.726	150.5
277.957	145.5
278.189	147.5
278.421	145.5
278.652	139.5
278.884	149.5
279.115	163.5
279.347	134.5
279.579	167.5
279.81	154.5
280.042	145.5
280.273	151.5
280.505	157.5
280.736	161.5
280.968	163.5
281.199	142.5
281.431	156.5
281.662	151.5
281.894	159.5
282.125	156.5
282.356	170.5
282.588	157.5
282.819	149.5
283.051	156.5
283.282	152.5
283.513	165.5
283.745	152.5
283.976	169.5
284.207	156.5
284.439	155.5
284.67	145.5
284.901	159.5
285.132	159.5
285.364	147.5
285.595	157.5
285.826	165.5
286.057	163.5
286.288	166.5
286.52	165.5
286.751	156.5
286.982	152.5
287.213	172.5
287.444	171.5
287.675	180.5
287.906	163.5
288.138	165.5
288.369	172.5
288.6	167.5
288.831	178.5
289.062	169.5
289.293	183.5
289.524	157.5
289.755	172.5
289.986	159.5
290.217	161.5
290.448	164.5
290.679	181.5
290.91	170.5
291.141	162.5
291.371	168.5
291.602	175.5
291.833	175.5
292.064	169.5
292.295	179.5
292.526	173.5
292.757	166.5
292.987	185.5
293.218	183.5
293.449	170.5
293.68	184.5
293.91	169.5
294.141	185.5
294.372	172.5
294.603	172.5
294.833	176.5
295.064	173.5
295.295	177.5
295.525	192.5
295.756	182.5
295.987	179.5
296.217	180.5
296.448	170.5
296.679	179.5
296.909	181.5
297.14	185.5
297.37	191.5
297.601	183.5
297.831	185.5
298.062	178.5
298.292	190.5
298.523	188.5
298.753	177.5
298.984	184.5
299.214	192.5
299.445	192.5
299.675	189.5
299.905	191.5
300.136	179.5
300.366	177.5
300.597	182.5
300.827	196.5
301.057	181.5
301.288	193.5
301.518	193.5
301.748	191.5
301.979	196.5
302.209	184.5
302.439	203.5
302.669	186.5
302.9	186.5
303.13	194.5
303.36	194.5
303.59	200.5
303.82	195.5
304.051	202.5
304.281	187.5
304.511	181.5
304.741	196.5
304.971	187.5
305.201	196.5
305.431	201.5
305.661	194.5
305.891	200.5
306.121	193.5
306.352	183.5
306.582	204.5
306.812	199.5
307.042	185.5
307.272	170.5
307.502	198.5
307.731	187.5
307.961	196.5
308.191	191.5
308.421	174.5
308.651	213.5
308.881	177.5
309.111	192.5
309.341	191.5
309.571	197.5
309.8	204.5
310.03	202.5
310.26	200.5
310.49	191.5
310.72	201.5
310.949	186.5
311.179	188.5
311.409	201.5
311.639	206.5
311.868	203.5
312.098	215.5
312.328	214.5
312.557	220.5
312.787	200.5
313.017	196.5
313.246	200.5
313.476	201.5
313.706	204.5
313.935	212.5
314.165	220.5
314.394	221.5
314.624	216.5
314.853	206.5
315.083	200.5
315.312	197.5
315.542	223.5
315.771	205.5
316.001	205.5
316.23	199.5
316.46	216.5
316.689	212.5
316.919	197.5
317.148	200.5
317.377	210.5
317.607	205.5
317.836	221.5
318.065	230.5
318.295	212.5
318.524	217.5
318.753	203.5
318.983	209.5
319.212	199.5
319.441	200.5
319.67	228.5
319.9	213.5
320.129	219.5
320.358	225.5
320.587	209.5
320.816	215.5
321.046	212.5
321.275	222.5
321.504	215.5
321.733	209.5
321.962	222.5
322.191	216.5
322.42	205.5
322.649	208.5
322.878	225.5
323.108	217.5
323.337	223.5
323.566	201.5
323.795	233.5
324.024	213.5
324.253	218.5
324.482	228.5
324.71	218.5
324.939	213.5
325.168	209.5
325.397	236.5
325.626	229.5
325.855	227.5
326.084	216.5
326.313	203.5
326.542	247.5
326.77	233.5
326.999	226.5
327.228	220.5
327.457	219.5
327.686	223.5
327.914	229.5
328.143	229.5
328.372	228.5
328.6	225.5
328.829	231.5
329.058	221.5
329.287	226.5
329.515	234.5
329.744	249.5
329.972	245.5
330.201	217.5
330.43	245.5
330.658	241.5
330.887	231.5
331.115	255.5
331.344	255.5
331.572	232.5
331.801	251.5
332.03	263.5
332.258	264.5
332.486	252.5
332.715	241.5
332.943	257.5
333.172	272.5
333.4	269.5
333.629	269.5
333.857	270.5
334.085	275.5
334.314	283.5
334.542	279.5
334.771	277.5
334.999	253.5
335.227	278.5
335.455	266.5
335.684	287.5
335.912	281.5
336.14	285.5
336.369	282.5
336.597	277.5
336.825	264.5
337.053	261.5
337.281	261.5
337.51	252.5
337.738	261.5
337.966	257.5
338.194	263.5
338.422	268.5
338.65	257.5
338.878	261.5
339.106	258.5
339.334	269.5
339.562	248.5
339.79	253.5
340.018	246.5
340.246	261.5
340.474	248.5
340.702	258.5
340.93	235.5
341.158	249.5
341.386	255.5
341.614	252.5
341.842	230.5
342.07	248.5
342.298	277.5
342.526	240.5
342.754	244.5
342.981	256.5
343.209	255.5
343.437	253.5
343.665	266.5
343.893	289.5
344.12	271.5
344.348	274.5
344.576	268.5
344.804	252.5
345.031	236.5
345.259	244.5
345.487	259.5
345.714	235.5
345.942	259.5
346.17	247.5
346.397	241.5
346.625	236.5
346.853	247.5
347.08	247.5
347.308	244.5
347.535	239.5
347.763	259.5
347.99	235.5
348.218	250.5
348.445	220.5
348.673	229.5
348.9	253.5
349.128	267.5
349.355	225.5
349.583	235.5
349.81	235.5
350.037	231.5
350.265	254.5
350.492	236.5
350.72	249.5
350.947	245.5
351.174	260.5
351.402	225.5
351.629	238.5
351.856	239.5
352.083	245.5
352.311	230.5
352.538	241.5
352.765	244.5
352.992	231.5
353.22	239.5
353.447	245.5
353.674	232.5
353.901	243.5
354.128	228.5
354.355	230.5
354.583	247.5
354.81	231.5
355.037	233.5
355.264	231.5
355.491	234.5
355.718	237.5
355.945	244.5
356.172	233.5
356.399	253.5
356.626	248.5
356.853	245.5
357.08	235.5
357.307	241.5
357.534	240.5
357.761	242.5
357.988	244.5
358.215	239.5
358.441	249.5
358.668	253.5
358.895	236.5
359.122	241.5
359.349	225.5
359.576	244.5
359.802	251.5
360.029	253.5
360.256	249.5
360.483	236.5
360.709	236.5
360.936	249.5
361.163	260.5
361.39	227.5
361.616	241.5
361.843	259.5
362.07	257.5
362.296	256.5
362.523	232.5
362.749	251.5
362.976	247.5
363.203	253.5
363.429	261.5
363.656	235.5
363.882	239.5
364.109	252.5
364.335	236.5
364.562	228.5
364.788	232.5
365.015	248.5
365.241	248.5
365.468	239.5
365.694	247.5
365.92	239.5
366.147	232.5
366.373	253.5
366.599	243.5
366.826	257.5
367.052	241.5
367.278	231.5
367.505	226.5
367.731	228.5
367.957	232.5
368.184	243.5
368.41	231.5
368.636	229.5
368.862	246.5
369.089	247.5
369.315	255.5
369.541	267.5
369.767	261.5
369.993	259.5
370.219	247.5
370.445	258.5
370.672	251.5
370.898	268.5
371.124	254.5
371.35	269.5
371.576	280.5
371.802	259.5
372.028	263.5
372.254	264.5
372.48	261.5
372.706	280.5
372.932	252.5
373.158	264.5
373.384	258.5
373.61	253.5
373.835	266.5
374.061	264.5
374.287	265.5
374.513	270.5
374.739	279.5
374.965	281.5
375.191	268.5
375.416	253.5
375.642	270.5
375.868	279.5
376.094	268.5
376.319	284.5
376.545	262.5
376.771	268.5
376.997	278.5
377.222	261.5
377.448	254.5
377.674	258.5
377.899	260.5
378.125	262.5
378.35	280.5
378.576	289.5
378.802	269.5
379.027	260.5
379.253	257.5
379.478	265.5
379.704	258.5
379.929	277.5
380.155	259.5
380.38	260.5
380.606	275.5
380.831	243.5
381.057	267.5
381.282	255.5
381.507	275.5
381.733	269.5
381.958	263.5
382.184	274.5
382.409	263.5
382.634	270.5
382.86	266.5
383.085	271.5
383.31	266.5
383.535	281.5
383.761	276.5
383.986	289.5
384.211	293.5
384.436	282.5
384.662	289.5
384.887	291.5
385.112	314.5
385.337	307.5
385.562	297.5
385.787	313.5
386.013	307.5
386.238	305.5
386.463	316.5
386.688	300.5
386.913	298.5
387.138	320.5
387.363	315.5
387.588	309.5
387.813	301.5
388.038	307.5
388.263	305.5
388.488	299.5
388.713	315.5
388.938	297.5
389.163	304.5
389.387	304.5
389.612	282.5
389.837	292.5
390.062	303.5
390.287	307.5
390.512	305.5
390.736	304.5
390.961	298.5
391.186	310.5
391.411	315.5
391.636	327.5
391.86	315.5
392.085	308.5
392.31	319.5
392.534	322.5
392.759	324.5
392.984	301.5
393.208	324.5
393.433	346.5
393.658	304.5
393.882	314.5
394.107	317.5
394.331	318.5
394.556	320.5
394.78	341.5
395.005	325.5
395.229	310.5
395.454	351.5
395.678	323.5
395.903	324.5
396.127	328.5
396.352	324.5
396.576	322.5
396.801	330.5
397.025	339.5
397.249	327.5
397.474	343.5
397.698	341.5
397.922	348.5
398.147	351.5
398.371	357.5
398.595	360.5
398.82	385.5
399.044	403.5
399.268	429.5
399.492	442.5
399.717	447.5
399.941	451.5
400.165	439.5
400.389	416.5
400.613	403.5
400.837	361.5
401.062	364.5
401.286	375.5
401.51	370.5
401.734	346.5
401.958	348.5
402.182	354.5
402.406	362.5
402.63	373.5
402.854	375.5
403.078	388.5
403.302	380.5
403.526	390.5
403.75	385.5
403.974	378.5
404.198	387.5
404.422	372.5
404.645	388.5
404.869	386.5
405.093	412.5
405.317	383.5
405.541	375.5
405.765	394.5
405.988	376.5
406.212	373.5
406.436	381.5
406.66	377.5
406.883	399.5
407.107	409.5
407.331	452.5
407.555	412.5
407.778	402.5
408.002	402.5
408.226	404.5
408.449	393.5
408.673	397.5
408.896	379.5
409.12	407.5
409.344	393.5
409.567	409.5
409.791	374.5
410.014	375.5
410.238	361.5
410.461	387.5
410.685	383.5
410.908	364.5
411.132	392.5
411.355	387.5
411.578	377.5
411.802	372.5
412.025	387.5
412.249	368.5
412.472	361.5
412.695	385.5
412.919	364.5
413.142	361.5
413.365	354.5
413.589	343.5
413.812	337.5
414.035	377.5
414.258	367.5
414.482	348.5
414.705	361.5
414.928	373.5
415.151	357.5
415.374	351.5
415.597	364.5
415.821	361.5
416.044	348.5
416.267	338.5
416.49	353.5
416.713	345.5
416.936	347.5
417.159	336.5
417.382	337.5
417.605	357.5
417.828	348.5
418.051	351.5
418.274	357.5
418.497	352.5
418.72	357.5
418.943	336.5
419.166	353.5
419.389	367.5
419.611	378.5
419.834	358.5
420.057	351.5
420.28	341.5
420.503	360.5
420.726	356.5
420.948	359.5
421.171	341.5
421.394	356.5
421.617	357.5
421.839	343.5
422.062	348.5
422.285	341.5
422.507	355.5
422.73	364.5
422.953	343.5
423.175	342.5
423.398	328.5
423.621	362.5
423.843	340.5
424.066	354.5
424.288	348.5
424.511	361.5
424.733	373.5
424.956	351.5
425.178	347.5
425.401	341.5
425.623	339.5
425.846	336.5
426.068	338.5
426.291	334.5
426.513	306.5
426.735	323.5
426.958	326.5
427.18	338.5
427.402	321.5
427.625	321.5
427.847	327.5
428.069	328.5
428.292	338.5
428.514	329.5
428.736	343.5
428.958	321.5
429.181	306.5
429.403	321.5
429.625	328.5
429.847	299.5
430.069	309.5
430.292	314.5
430.514	318.5
430.736	324.5
430.958	336.5
431.18	330.5
431.402	319.5
431.624	316.5
431.846	326.5
432.068	327.5
432.29	332.5
432.512	321.5
432.734	329.5
432.956	316.5
433.178	333.5
433.4	329.5
433.622	332.5
433.844	344.5
434.066	331.5
434.287	338.5
434.509	354.5
434.731	351.5
434.953	339.5
435.175	347.5
435.397	339.5
435.618	330.5
435.84	341.5
436.062	324.5
436.284	304.5
436.505	320.5
436.727	330.5
436.949	306.5
437.17	323.5
437.392	303.5
437.614	341.5
437.835	321.5
438.057	317.5
438.278	304.5
438.5	300.5
438.721	329.5
438.943	313.5
439.165	309.5
439.386	314.5
439.608	324.5
439.829	320.5
440.05	333.5
440.272	315.5
440.493	327.5
440.715	331.5
440.936	336.5
441.158	323.5
441.379	333.5
441.6	354.5
441.822	353.5
442.043	357.5
442.264	365.5
442.486	359.5
442.707	351.5
442.928	339.5
443.149	335.5
443.371	347.5
443.592	341.5
443.813	351.5
444.034	360.5
444.255	369.5
444.476	356.5
444.698	381.5
444.919	373.5
445.14	457.5
445.361	407.5
445.582	349.5
445.803	351.5
446.024	357.5
446.245	334.5
446.466	328.5
446.687	330.5
446.908	327.5
447.129	307.5
447.35	324.5
447.571	326.5
447.792	309.5
448.013	297.5
448.234	296.5
448.455	289.5
448.675	311.5
448.896	297.5
449.117	297.5
449.338	282.5
449.559	292.5
449.779	311.5
450	294.5
450.221	303.5
450.442	289.5
450.662	311.5
450.883	288.5
451.104	321.5
451.324	290.5
451.545	294.5
451.766	308.5
451.986	299.5
452.207	303.5
452.428	296.5
452.648	303.5
452.869	292.5
453.089	294.5
453.31	292.5
453.53	283.5
453.751	285.5
453.971	279.5
454.192	289.5
454.412	267.5
454.633	296.5
454.853	293.5
455.073	276.5
455.294	265.5
455.514	287.5
455.734	302.5
455.955	288.5
456.175	287.5
456.395	273.5
456.616	285.5
456.836	283.5
457.056	286.5
457.276	276.5
457.497	285.5
457.717	267.5
457.937	301.5
458.157	310.5
458.377	314.5
458.598	308.5
458.818	309.5
459.038	322.5
459.258	307.5
459.478	323.5
459.698	344.5
459.918	349.5
460.138	357.5
460.358	359.5
460.578	356.5
460.798	371.5
461.018	371.5
461.238	370.5
461.458	380.5
461.678	352.5
461.898	363.5
462.118	358.5
462.338	376.5
462.558	397.5
462.777	403.5
462.997	421.5
463.217	446.5
463.437	428.5
463.657	415.5
463.876	397.5
464.096	380.5
464.316	387.5
464.536	408.5
464.755	390.5
464.975	377.5
465.195	381.5
465.414	367.5
465.634	337.5
465.854	331.5
466.073	324.5
466.293	323.5
466.512	331.5
466.732	309.5
466.951	303.5
467.171	306.5
467.391	319.5
467.61	314.5
467.829	308.5
468.049	308.5
468.268	307.5
468.488	305.5
468.707	319.5
468.927	321.5
469.146	307.5
469.365	315.5
469.585	316.5
469.804	322.5
470.023	298.5
470.243	308.5
470.462	329.5
470.681	304.5
470.901	300.5
471.12	316.5
471.339	316.5
471.558	307.5
471.777	305.5
471.997	321.5
472.216	328.5
472.435	308.5
472.654	308.5
472.873	305.5
473.092	305.5
473.311	298.5
473.53	305.5
473.749	298.5
473.968	311.5
474.187	300.5
474.406	291.5
474.625	296.5
474.844	286.5
475.063	308.5
475.282	311.5
475.501	303.5
475.72	314.5
475.939	311.5
476.158	309.5
476.377	322.5
476.596	338.5
476.814	318.5
477.033	326.5
477.252	314.5
477.471	331.5
477.69	331.5
477.908	352.5
478.127	340.5
478.346	337.5
478.564	342.5
478.783	349.5
479.002	357.5
479.22	373.5
479.439	364.5
479.658	359.5
479.876	342.5
480.095	375.5
480.313	375.5
480.532	379.5
480.751	372.5
480.969	358.5
481.188	379.5
481.406	364.5
481.624	348.5
481.843	340.5
482.061	347.5
482.28	349.5
482.498	341.5
482.717	338.5
482.935	355.5
483.153	325.5
483.372	348.5
483.59	327.5
483.808	357.5
484.027	340.5
484.245	341.5
484.463	338.5
484.681	356.5
484.9	346.5
485.118	356.5
485.336	353.5
485.554	339.5
485.772	372.5
485.99	354.5
486.209	362.5
486.427	356.5
486.645	356.5
486.863	366.5
487.081	345.5
487.299	359.5
487.517	360.5
487.735	377.5
487.953	345.5
488.171	355.5
488.389	336.5
488.607	353.5
488.825	378.5
489.043	375.5
489.261	357.5
489.479	362.5
489.696	353.5
489.914	352.5
490.132	347.5
490.35	357.5
490.568	376.5
490.786	375.5
491.003	348.5
491.221	363.5
491.439	331.5
491.657	389.5
491.874	369.5
492.092	367.5
492.31	346.5
492.527	348.5
492.745	351.5
492.963	362.5
493.18	382.5
493.398	369.5
493.615	372.5
493.833	370.5
494.05	383.5
494.268	373.5
494.485	389.5
494.703	355.5
494.92	391.5
495.138	377.5
495.355	364.5
495.573	361.5
495.79	397.5
496.008	383.5
496.225	404.5
496.442	397.5
496.66	396.5
496.877	395.5
497.094	417.5
497.312	441.5
497.529	423.5
497.746	438.5
497.963	458.5
498.181	428.5
498.398	489.5
498.615	482.5
498.832	517.5
499.049	541.5
499.267	568.5
499.484	614.5
499.701	674.5
499.918	685.5
500.135	734.5
500.352	774.5
500.569	812.5
500.786	791.5
501.003	782.5
501.22	726.5
501.437	680.5
501.654	615.5
501.871	579.5
502.088	535.5
502.305	526.5
502.522	508.5
502.739	490.5
502.956	466.5
503.172	465.5
503.389	439.5
503.606	436.5
503.823	424.5
504.04	415.5
504.256	419.5
504.473	441.5
504.69	441.5
504.907	420.5
505.123	403.5
505.34	387.5
505.557	384.5
505.773	383.5
505.99	369.5
506.207	376.5
506.423	361.5
506.64	355.5
506.856	348.5
507.073	357.5
507.289	368.5
507.506	351.5
507.722	341.5
507.939	355.5
508.155	334.5
508.372	325.5
508.588	338.5
508.805	324.5
509.021	340.5
509.238	340.5
509.454	306.5
509.67	327.5
509.887	315.5
510.103	320.5
510.319	326.5
510.536	307.5
510.752	317.5
510.968	344.5
511.184	315.5
511.401	320.5
511.617	309.5
511.833	308.5
512.049	318.5
512.265	320.5
512.481	308.5
512.698	312.5
512.914	330.5
513.13	321.5
513.346	339.5
513.562	324.5
513.778	319.5
513.994	335.5
514.21	320.5
514.426	319.5
514.642	325.5
514.858	325.5
515.074	306.5
515.29	332.5
515.506	316.5
515.721	346.5
515.937	321.5
516.153	357.5
516.369	347.5
516.585	353.5
516.801	347.5
517.016	389.5
517.232	393.5
517.448	384.5
517.664	380.5
517.879	381.5
518.095	388.5
518.311	385.5
518.527	378.5
518.742	371.5
518.958	367.5
519.173	337.5
519.389	350.5
519.605	313.5
519.82	329.5
520.036	333.5
520.251	317.5
