Data from Fe(NO3)3@0.025M.TitratingCurve.Agarose3%dH2O.NegLispCup.LampEnergy10.LIBS07252019_HRD10591_16-55-32-335.txt Node
Date: Thu Jul 25 16:55:32 EDT 2019
User: cochatt
Spectrometer: HR+D1059
Trigger mode: 1
Integration Time (sec): 1.000000E-1
Scans to average: 1
Electric dark correction enabled: true
Nonlinearity correction enabled: false
Boxcar width: 0
XAxis mode: Wavelengths
Number of Pixels in Spectrum: 2048
>>>>>Begin Spectral Data<<<<<
223.165	-14.88
223.4	-14.88
223.635	-14.88
223.869	-14.88
224.104	-18.88
224.338	-26.88
224.573	-21.88
224.808	-7.88
225.042	0.12
225.277	-13.88
225.511	-15.88
225.746	12.12
225.98	10.12
226.215	13.12
226.449	13.12
226.683	21.12
226.918	23.12
227.152	42.12
227.387	33.12
227.621	26.12
227.856	44.12
228.09	42.12
228.324	61.12
228.559	48.12
228.793	65.12
229.027	69.12
229.262	65.12
229.496	70.12
229.73	72.12
229.964	97.12
230.199	74.12
230.433	87.12
230.667	86.12
230.901	79.12
231.136	88.12
231.37	89.12
231.604	80.12
231.838	81.12
232.072	85.12
232.306	94.12
232.541	104.12
232.775	87.12
233.009	93.12
233.243	83.12
233.477	94.12
233.711	97.12
233.945	84.12
234.179	96.12
234.413	82.12
234.647	71.12
234.881	101.12
235.115	95.12
235.349	97.12
235.583	104.12
235.817	86.12
236.051	102.12
236.285	105.12
236.519	100.12
236.753	90.12
236.987	83.12
237.221	96.12
237.455	89.12
237.689	102.12
237.922	102.12
238.156	92.12
238.39	92.12
238.624	94.12
238.858	101.12
239.091	106.12
239.325	95.12
239.559	97.12
239.793	91.12
240.027	96.12
240.26	97.12
240.494	91.12
240.728	100.12
240.961	83.12
241.195	111.12
241.429	104.12
241.662	92.12
241.896	93.12
242.13	101.12
242.363	99.12
242.597	88.12
242.83	109.12
243.064	94.12
243.298	102.12
243.531	108.12
243.765	106.12
243.998	114.12
244.232	103.12
244.465	107.12
244.699	99.12
244.932	123.12
245.166	104.12
245.399	102.12
245.633	115.12
245.866	97.12
246.099	97.12
246.333	107.12
246.566	105.12
246.8	95.12
247.033	93.12
247.266	109.12
247.5	106.12
247.733	98.12
247.966	97.12
248.2	103.12
248.433	102.12
248.666	110.12
248.899	111.12
249.133	122.12
249.366	117.12
249.599	116.12
249.832	119.12
250.066	104.12
250.299	117.12
250.532	115.12
250.765	108.12
250.998	119.12
251.231	114.12
251.465	119.12
251.698	119.12
251.931	105.12
252.164	114.12
252.397	110.12
252.63	115.12
252.863	107.12
253.096	92.12
253.329	114.12
253.562	122.12
253.795	123.12
254.028	103.12
254.261	120.12
254.494	116.12
254.727	112.12
254.96	116.12
255.193	114.12
255.426	118.12
255.659	113.12
255.892	122.12
256.124	129.12
256.357	113.12
256.59	115.12
256.823	114.12
257.056	117.12
257.289	117.12
257.521	118.12
257.754	127.12
257.987	123.12
258.22	129.12
258.452	127.12
258.685	131.12
258.918	127.12
259.151	122.12
259.383	111.12
259.616	119.12
259.849	116.12
260.081	125.12
260.314	125.12
260.547	124.12
260.779	134.12
261.012	128.12
261.244	139.12
261.477	122.12
261.71	114.12
261.942	134.12
262.175	151.12
262.407	136.12
262.64	133.12
262.872	149.12
263.105	135.12
263.337	136.12
263.57	139.12
263.802	141.12
264.035	135.12
264.267	133.12
264.499	143.12
264.732	125.12
264.964	135.12
265.197	136.12
265.429	134.12
265.661	143.12
265.894	138.12
266.126	136.12
266.358	131.12
266.591	138.12
266.823	149.12
267.055	139.12
267.287	142.12
267.52	131.12
267.752	141.12
267.984	149.12
268.216	142.12
268.448	153.12
268.681	150.12
268.913	142.12
269.145	131.12
269.377	133.12
269.609	138.12
269.841	139.12
270.073	149.12
270.306	151.12
270.538	148.12
270.77	147.12
271.002	154.12
271.234	134.12
271.466	155.12
271.698	145.12
271.93	133.12
272.162	127.12
272.394	152.12
272.626	135.12
272.858	142.12
273.09	144.12
273.322	162.12
273.553	157.12
273.785	161.12
274.017	151.12
274.249	168.12
274.481	170.12
274.713	146.12
274.945	153.12
275.176	153.12
275.408	152.12
275.64	152.12
275.872	153.12
276.104	164.12
276.335	160.12
276.567	156.12
276.799	146.12
277.031	158.12
277.262	144.12
277.494	152.12
277.726	154.12
277.957	152.12
278.189	169.12
278.421	147.12
278.652	162.12
278.884	153.12
279.115	160.12
279.347	166.12
279.579	153.12
279.81	167.12
280.042	169.12
280.273	163.12
280.505	170.12
280.736	168.12
280.968	166.12
281.199	160.12
281.431	162.12
281.662	163.12
281.894	159.12
282.125	161.12
282.356	171.12
282.588	170.12
282.819	190.12
283.051	157.12
283.282	163.12
283.513	171.12
283.745	164.12
283.976	156.12
284.207	167.12
284.439	194.12
284.67	185.12
284.901	183.12
285.132	179.12
285.364	174.12
285.595	184.12
285.826	175.12
286.057	167.12
286.288	159.12
286.52	180.12
286.751	160.12
286.982	166.12
287.213	181.12
287.444	173.12
287.675	177.12
287.906	190.12
288.138	186.12
288.369	177.12
288.6	188.12
288.831	191.12
289.062	190.12
289.293	200.12
289.524	189.12
289.755	176.12
289.986	191.12
290.217	187.12
290.448	173.12
290.679	178.12
290.91	174.12
291.141	190.12
291.371	161.12
291.602	193.12
291.833	191.12
292.064	180.12
292.295	190.12
292.526	178.12
292.757	175.12
292.987	161.12
293.218	175.12
293.449	184.12
293.68	189.12
293.91	200.12
294.141	192.12
294.372	180.12
294.603	199.12
294.833	198.12
295.064	184.12
295.295	191.12
295.525	184.12
295.756	183.12
295.987	181.12
296.217	197.12
296.448	177.12
296.679	185.12
296.909	189.12
297.14	202.12
297.37	194.12
297.601	198.12
297.831	188.12
298.062	203.12
298.292	203.12
298.523	198.12
298.753	203.12
298.984	199.12
299.214	209.12
299.445	193.12
299.675	202.12
299.905	199.12
300.136	210.12
300.366	206.12
300.597	197.12
300.827	187.12
301.057	202.12
301.288	201.12
301.518	197.12
301.748	208.12
301.979	233.12
302.209	199.12
302.439	201.12
302.669	206.12
302.9	201.12
303.13	229.12
303.36	218.12
303.59	193.12
303.82	222.12
304.051	204.12
304.281	221.12
304.511	211.12
304.741	209.12
304.971	215.12
305.201	222.12
305.431	203.12
305.661	209.12
305.891	206.12
306.121	196.12
306.352	201.12
306.582	216.12
306.812	206.12
307.042	210.12
307.272	198.12
307.502	217.12
307.731	218.12
307.961	221.12
308.191	207.12
308.421	192.12
308.651	202.12
308.881	202.12
309.111	201.12
309.341	213.12
309.571	209.12
309.8	206.12
310.03	223.12
310.26	221.12
310.49	199.12
310.72	217.12
310.949	229.12
311.179	222.12
311.409	210.12
311.639	207.12
311.868	227.12
312.098	212.12
312.328	197.12
312.557	207.12
312.787	215.12
313.017	239.12
313.246	225.12
313.476	223.12
313.706	222.12
313.935	254.12
314.165	210.12
314.394	230.12
314.624	234.12
314.853	231.12
315.083	221.12
315.312	214.12
315.542	220.12
315.771	215.12
316.001	223.12
316.23	235.12
316.46	222.12
316.689	219.12
316.919	218.12
317.148	223.12
317.377	209.12
317.607	215.12
317.836	240.12
318.065	226.12
318.295	229.12
318.524	223.12
318.753	215.12
318.983	237.12
319.212	229.12
319.441	220.12
319.67	224.12
319.9	235.12
320.129	238.12
320.358	207.12
320.587	209.12
320.816	219.12
321.046	233.12
321.275	231.12
321.504	224.12
321.733	229.12
321.962	219.12
322.191	225.12
322.42	241.12
322.649	239.12
322.878	234.12
323.108	221.12
323.337	254.12
323.566	228.12
323.795	255.12
324.024	236.12
324.253	230.12
324.482	246.12
324.71	240.12
324.939	222.12
325.168	233.12
325.397	236.12
325.626	237.12
325.855	254.12
326.084	244.12
326.313	239.12
326.542	241.12
326.77	249.12
326.999	246.12
327.228	236.12
327.457	238.12
327.686	227.12
327.914	246.12
328.143	241.12
328.372	243.12
328.6	250.12
328.829	242.12
329.058	240.12
329.287	235.12
329.515	259.12
329.744	240.12
329.972	252.12
330.201	260.12
330.43	254.12
330.658	251.12
330.887	253.12
331.115	261.12
331.344	243.12
331.572	258.12
331.801	270.12
332.03	273.12
332.258	263.12
332.486	272.12
332.715	286.12
332.943	287.12
333.172	276.12
333.4	288.12
333.629	293.12
333.857	306.12
334.085	285.12
334.314	304.12
334.542	309.12
334.771	308.12
334.999	306.12
335.227	303.12
335.455	296.12
335.684	285.12
335.912	279.12
336.14	298.12
336.369	310.12
336.597	289.12
336.825	288.12
337.053	296.12
337.281	282.12
337.51	289.12
337.738	274.12
337.966	280.12
338.194	290.12
338.422	275.12
338.65	257.12
338.878	266.12
339.106	265.12
339.334	287.12
339.562	292.12
339.79	263.12
340.018	245.12
340.246	250.12
340.474	242.12
340.702	278.12
340.93	247.12
341.158	263.12
341.386	253.12
341.614	275.12
341.842	262.12
342.07	274.12
342.298	258.12
342.526	256.12
342.754	260.12
342.981	254.12
343.209	267.12
343.437	290.12
343.665	296.12
343.893	288.12
344.12	280.12
344.348	277.12
344.576	285.12
344.804	286.12
345.031	273.12
345.259	270.12
345.487	267.12
345.714	273.12
345.942	233.12
346.17	268.12
346.397	261.12
346.625	233.12
346.853	257.12
347.08	250.12
347.308	240.12
347.535	263.12
347.763	264.12
347.99	260.12
348.218	267.12
348.445	251.12
348.673	259.12
348.9	273.12
349.128	271.12
349.355	275.12
349.583	255.12
349.81	248.12
350.037	242.12
350.265	251.12
350.492	260.12
350.72	249.12
350.947	268.12
351.174	252.12
351.402	260.12
351.629	234.12
351.856	238.12
352.083	232.12
352.311	238.12
352.538	255.12
352.765	273.12
352.992	250.12
353.22	242.12
353.447	240.12
353.674	257.12
353.901	255.12
354.128	242.12
354.355	250.12
354.583	246.12
354.81	275.12
355.037	266.12
355.264	241.12
355.491	233.12
355.718	283.12
355.945	256.12
356.172	253.12
356.399	259.12
356.626	249.12
356.853	242.12
357.08	268.12
357.307	245.12
357.534	247.12
357.761	253.12
357.988	253.12
358.215	266.12
358.441	246.12
358.668	257.12
358.895	256.12
359.122	252.12
359.349	254.12
359.576	248.12
359.802	265.12
360.029	265.12
360.256	251.12
360.483	254.12
360.709	247.12
360.936	240.12
361.163	262.12
361.39	270.12
361.616	247.12
361.843	278.12
362.07	262.12
362.296	262.12
362.523	241.12
362.749	250.12
362.976	254.12
363.203	253.12
363.429	258.12
363.656	258.12
363.882	273.12
364.109	257.12
364.335	262.12
364.562	253.12
364.788	259.12
365.015	246.12
365.241	261.12
365.468	264.12
365.694	244.12
365.92	255.12
366.147	248.12
366.373	260.12
366.599	258.12
366.826	250.12
367.052	281.12
367.278	262.12
367.505	256.12
367.731	264.12
367.957	253.12
368.184	252.12
368.41	270.12
368.636	271.12
368.862	271.12
369.089	265.12
369.315	278.12
369.541	257.12
369.767	273.12
369.993	277.12
370.219	278.12
370.445	261.12
370.672	264.12
370.898	300.12
371.124	271.12
371.35	290.12
371.576	289.12
371.802	273.12
372.028	283.12
372.254	288.12
372.48	290.12
372.706	291.12
372.932	269.12
373.158	283.12
373.384	285.12
373.61	287.12
373.835	286.12
374.061	267.12
374.287	288.12
374.513	291.12
374.739	277.12
374.965	303.12
375.191	274.12
375.416	285.12
375.642	305.12
375.868	283.12
376.094	280.12
376.319	275.12
376.545	281.12
376.771	280.12
376.997	271.12
377.222	286.12
377.448	270.12
377.674	281.12
377.899	258.12
378.125	267.12
378.35	275.12
378.576	286.12
378.802	272.12
379.027	281.12
379.253	278.12
379.478	265.12
379.704	278.12
379.929	297.12
380.155	283.12
380.38	282.12
380.606	265.12
380.831	289.12
381.057	288.12
381.282	279.12
381.507	289.12
381.733	265.12
381.958	285.12
382.184	282.12
382.409	292.12
382.634	310.12
382.86	307.12
383.085	304.12
383.31	280.12
383.535	308.12
383.761	303.12
383.986	308.12
384.211	314.12
384.436	301.12
384.662	307.12
384.887	307.12
385.112	302.12
385.337	327.12
385.562	317.12
385.787	319.12
386.013	335.12
386.238	335.12
386.463	314.12
386.688	325.12
386.913	315.12
387.138	318.12
387.363	320.12
387.588	335.12
387.813	312.12
388.038	312.12
388.263	326.12
388.488	330.12
388.713	325.12
388.938	313.12
389.163	320.12
389.387	327.12
389.612	321.12
389.837	331.12
390.062	309.12
390.287	316.12
390.512	321.12
390.736	316.12
390.961	335.12
391.186	346.12
391.411	330.12
391.636	353.12
391.86	355.12
392.085	346.12
392.31	366.12
392.534	331.12
392.759	355.12
392.984	345.12
393.208	339.12
393.433	349.12
393.658	337.12
393.882	352.12
394.107	350.12
394.331	324.12
394.556	331.12
394.78	358.12
395.005	360.12
395.229	333.12
395.454	360.12
395.678	349.12
395.903	338.12
396.127	346.12
396.352	356.12
396.576	359.12
396.801	335.12
397.025	357.12
397.249	344.12
397.474	349.12
397.698	346.12
397.922	357.12
398.147	359.12
398.371	362.12
398.595	378.12
398.82	410.12
399.044	411.12
399.268	444.12
399.492	480.12
399.717	487.12
399.941	493.12
400.165	471.12
400.389	456.12
400.613	427.12
400.837	413.12
401.062	395.12
401.286	405.12
401.51	377.12
401.734	402.12
401.958	385.12
402.182	395.12
402.406	411.12
402.63	427.12
402.854	394.12
403.078	396.12
403.302	409.12
403.526	434.12
403.75	410.12
403.974	411.12
404.198	427.12
404.422	402.12
404.645	426.12
404.869	403.12
405.093	417.12
405.317	417.12
405.541	413.12
405.765	409.12
405.988	395.12
406.212	410.12
406.436	415.12
406.66	411.12
406.883	423.12
407.107	450.12
407.331	463.12
407.555	474.12
407.778	460.12
408.002	458.12
408.226	465.12
408.449	439.12
408.673	450.12
408.896	429.12
409.12	450.12
409.344	442.12
409.567	414.12
409.791	427.12
410.014	418.12
410.238	430.12
410.461	401.12
410.685	415.12
410.908	403.12
411.132	412.12
411.355	394.12
411.578	392.12
411.802	395.12
412.025	399.12
412.249	380.12
412.472	431.12
412.695	408.12
412.919	385.12
413.142	386.12
413.365	396.12
413.589	389.12
413.812	389.12
414.035	389.12
414.258	384.12
414.482	381.12
414.705	395.12
414.928	403.12
415.151	395.12
415.374	370.12
415.597	367.12
415.821	384.12
416.044	361.12
416.267	363.12
416.49	385.12
416.713	367.12
416.936	383.12
417.159	392.12
417.382	374.12
417.605	373.12
417.828	390.12
418.051	379.12
418.274	386.12
418.497	377.12
418.72	405.12
418.943	375.12
419.166	389.12
419.389	423.12
419.611	410.12
419.834	397.12
420.057	390.12
420.28	399.12
420.503	374.12
420.726	389.12
420.948	405.12
421.171	403.12
421.394	386.12
421.617	382.12
421.839	414.12
422.062	395.12
422.285	361.12
422.507	387.12
422.73	383.12
422.953	379.12
423.175	383.12
423.398	395.12
423.621	394.12
423.843	392.12
424.066	392.12
424.288	396.12
424.511	397.12
424.733	379.12
424.956	389.12
425.178	376.12
425.401	389.12
425.623	384.12
425.846	362.12
426.068	359.12
426.291	369.12
426.513	356.12
426.735	345.12
426.958	367.12
427.18	367.12
427.402	347.12
427.625	370.12
427.847	359.12
428.069	358.12
428.292	354.12
428.514	356.12
428.736	346.12
428.958	345.12
429.181	339.12
429.403	328.12
429.625	339.12
429.847	366.12
430.069	347.12
430.292	359.12
430.514	337.12
430.736	342.12
430.958	341.12
431.18	356.12
431.402	347.12
431.624	337.12
431.846	359.12
432.068	377.12
432.29	367.12
432.512	361.12
432.734	350.12
432.956	352.12
433.178	355.12
433.4	357.12
433.622	359.12
433.844	359.12
434.066	362.12
434.287	373.12
434.509	373.12
434.731	373.12
434.953	372.12
435.175	381.12
435.397	384.12
435.618	381.12
435.84	355.12
436.062	340.12
436.284	359.12
436.505	354.12
436.727	343.12
436.949	375.12
437.17	352.12
437.392	353.12
437.614	347.12
437.835	349.12
438.057	353.12
438.278	327.12
438.5	331.12
438.721	334.12
438.943	339.12
439.165	323.12
439.386	342.12
439.608	329.12
439.829	334.12
440.05	358.12
440.272	349.12
440.493	340.12
440.715	353.12
440.936	351.12
441.158	366.12
441.379	358.12
441.6	386.12
441.822	374.12
442.043	382.12
442.264	382.12
442.486	371.12
442.707	381.12
442.928	382.12
443.149	353.12
443.371	361.12
443.592	348.12
443.813	383.12
444.034	382.12
444.255	386.12
444.476	411.12
444.698	409.12
444.919	404.12
445.14	496.12
445.361	441.12
445.582	391.12
445.803	377.12
446.024	359.12
446.245	359.12
446.466	367.12
446.687	346.12
446.908	341.12
447.129	342.12
447.35	359.12
447.571	348.12
447.792	347.12
448.013	330.12
448.234	334.12
448.455	331.12
448.675	332.12
448.896	324.12
449.117	322.12
449.338	328.12
449.559	349.12
449.779	332.12
450	308.12
450.221	309.12
450.442	306.12
450.662	335.12
450.883	323.12
451.104	342.12
451.324	335.12
451.545	324.12
451.766	330.12
451.986	335.12
452.207	312.12
452.428	312.12
452.648	323.12
452.869	323.12
453.089	329.12
453.31	326.12
453.53	313.12
453.751	306.12
453.971	314.12
454.192	328.12
454.412	319.12
454.633	318.12
454.853	310.12
455.073	312.12
455.294	318.12
455.514	319.12
455.734	322.12
455.955	313.12
456.175	313.12
456.395	317.12
456.616	318.12
456.836	321.12
457.056	309.12
457.276	307.12
457.497	311.12
457.717	287.12
457.937	328.12
458.157	319.12
458.377	326.12
458.598	321.12
458.818	332.12
459.038	316.12
459.258	331.12
459.478	337.12
459.698	357.12
459.918	388.12
460.138	372.12
460.358	386.12
460.578	381.12
460.798	399.12
461.018	403.12
461.238	394.12
461.458	396.12
461.678	395.12
461.898	424.12
462.118	416.12
462.338	438.12
462.558	403.12
462.777	445.12
462.997	463.12
463.217	478.12
463.437	489.12
463.657	441.12
463.876	441.12
464.096	438.12
464.316	439.12
464.536	443.12
464.755	425.12
464.975	417.12
465.195	400.12
465.414	399.12
465.634	380.12
465.854	374.12
466.073	350.12
466.293	369.12
466.512	347.12
466.732	331.12
466.951	332.12
467.171	341.12
467.391	340.12
467.61	339.12
467.829	326.12
468.049	341.12
468.268	340.12
468.488	330.12
468.707	307.12
468.927	319.12
469.146	325.12
469.365	339.12
469.585	345.12
469.804	335.12
470.023	355.12
470.243	341.12
470.462	337.12
470.681	360.12
470.901	351.12
471.12	360.12
471.339	339.12
471.558	326.12
471.777	350.12
471.997	354.12
472.216	326.12
472.435	339.12
472.654	329.12
472.873	340.12
473.092	324.12
473.311	337.12
473.53	337.12
473.749	324.12
473.968	321.12
474.187	345.12
474.406	326.12
474.625	321.12
474.844	316.12
475.063	320.12
475.282	328.12
475.501	313.12
475.72	330.12
475.939	330.12
476.158	354.12
476.377	323.12
476.596	338.12
476.814	329.12
477.033	344.12
477.252	367.12
477.471	359.12
477.69	362.12
477.908	372.12
478.127	374.12
478.346	388.12
478.564	384.12
478.783	396.12
479.002	408.12
479.22	384.12
479.439	370.12
479.658	376.12
479.876	387.12
480.095	378.12
480.313	419.12
480.532	391.12
480.751	396.12
480.969	407.12
481.188	400.12
481.406	395.12
481.624	366.12
481.843	374.12
482.061	358.12
482.28	362.12
482.498	370.12
482.717	362.12
482.935	369.12
483.153	361.12
483.372	381.12
483.59	370.12
483.808	383.12
484.027	375.12
484.245	372.12
484.463	374.12
484.681	366.12
484.9	379.12
485.118	392.12
485.336	383.12
485.554	384.12
485.772	368.12
485.99	400.12
486.209	397.12
486.427	381.12
486.645	395.12
486.863	410.12
487.081	382.12
487.299	383.12
487.517	384.12
487.735	380.12
487.953	402.12
488.171	392.12
488.389	381.12
488.607	381.12
488.825	381.12
489.043	382.12
489.261	377.12
489.479	367.12
489.696	386.12
489.914	391.12
490.132	360.12
490.35	375.12
490.568	361.12
490.786	401.12
491.003	393.12
491.221	372.12
491.439	401.12
491.657	376.12
491.874	399.12
492.092	395.12
492.31	383.12
492.527	399.12
492.745	395.12
492.963	394.12
493.18	387.12
493.398	391.12
493.615	377.12
493.833	415.12
494.05	383.12
494.268	396.12
494.485	414.12
494.703	416.12
494.92	397.12
495.138	416.12
495.355	395.12
495.573	385.12
495.79	408.12
496.008	407.12
496.225	418.12
496.442	415.12
496.66	417.12
496.877	434.12
497.094	431.12
497.312	430.12
497.529	449.12
497.746	473.12
497.963	465.12
498.181	473.12
498.398	488.12
498.615	525.12
498.832	554.12
499.049	573.12
499.267	625.12
499.484	655.12
499.701	726.12
499.918	766.12
500.135	824.12
500.352	905.12
500.569	920.12
500.786	925.12
501.003	853.12
501.22	795.12
501.437	744.12
501.654	693.12
501.871	642.12
502.088	591.12
502.305	563.12
