Data from Fe(NO3)3@0.0125M.TitratingCurve.Agarose3%dH2O.NegLispCup.LampEnergy10.LIBS07252019_HRD10591_16-59-39-337.txt Node
Date: Thu Jul 25 16:59:39 EDT 2019
User: cochatt
Spectrometer: HR+D1059
Trigger mode: 1
Integration Time (sec): 1.000000E-1
Scans to average: 1
Electric dark correction enabled: true
Nonlinearity correction enabled: false
Boxcar width: 0
XAxis mode: Wavelengths
Number of Pixels in Spectrum: 2048
>>>>>Begin Spectral Data<<<<<
223.165	-13.88
223.4	-13.88
223.635	-13.88
223.869	-14.88
224.104	-15.88
224.338	-17.88
224.573	-13.88
224.808	-22.88
225.042	-25.88
225.277	0.12
225.511	-8.88
225.746	0.12
225.98	16.12
226.215	13.12
226.449	11.12
226.683	26.12
226.918	27.12
227.152	40.12
227.387	35.12
227.621	37.12
227.856	41.12
228.09	57.12
228.324	63.12
228.559	65.12
228.793	57.12
229.027	63.12
229.262	65.12
229.496	75.12
229.73	71.12
229.964	82.12
230.199	81.12
230.433	93.12
230.667	86.12
230.901	86.12
231.136	83.12
231.37	86.12
231.604	103.12
231.838	103.12
232.072	98.12
232.306	98.12
232.541	96.12
232.775	92.12
233.009	98.12
233.243	86.12
233.477	91.12
233.711	92.12
233.945	96.12
234.179	100.12
234.413	91.12
234.647	96.12
234.881	91.12
235.115	104.12
235.349	104.12
235.583	98.12
235.817	102.12
236.051	103.12
236.285	101.12
236.519	88.12
236.753	97.12
236.987	91.12
237.221	89.12
237.455	97.12
237.689	86.12
237.922	75.12
238.156	82.12
238.39	91.12
238.624	106.12
238.858	95.12
239.091	93.12
239.325	95.12
239.559	81.12
239.793	98.12
240.027	96.12
240.26	82.12
240.494	95.12
240.728	101.12
240.961	98.12
241.195	104.12
241.429	103.12
241.662	99.12
241.896	103.12
242.13	99.12
242.363	89.12
242.597	101.12
242.83	91.12
243.064	104.12
243.298	97.12
243.531	92.12
243.765	108.12
243.998	91.12
244.232	96.12
244.465	101.12
244.699	87.12
244.932	109.12
245.166	101.12
245.399	103.12
245.633	98.12
245.866	92.12
246.099	113.12
246.333	120.12
246.566	114.12
246.8	107.12
247.033	106.12
247.266	112.12
247.5	107.12
247.733	113.12
247.966	113.12
248.2	113.12
248.433	116.12
248.666	105.12
248.899	103.12
249.133	105.12
249.366	122.12
249.599	115.12
249.832	113.12
250.066	118.12
250.299	103.12
250.532	110.12
250.765	117.12
250.998	109.12
251.231	111.12
251.465	105.12
251.698	105.12
251.931	112.12
252.164	122.12
252.397	116.12
252.63	117.12
252.863	124.12
253.096	116.12
253.329	107.12
253.562	111.12
253.795	114.12
254.028	122.12
254.261	127.12
254.494	114.12
254.727	110.12
254.96	119.12
255.193	119.12
255.426	127.12
255.659	139.12
255.892	119.12
256.124	100.12
256.357	128.12
256.59	113.12
256.823	123.12
257.056	122.12
257.289	136.12
257.521	117.12
257.754	113.12
257.987	122.12
258.22	114.12
258.452	118.12
258.685	122.12
258.918	139.12
259.151	130.12
259.383	124.12
259.616	123.12
259.849	129.12
260.081	130.12
260.314	136.12
260.547	134.12
260.779	147.12
261.012	136.12
261.244	148.12
261.477	155.12
261.71	124.12
261.942	129.12
262.175	136.12
262.407	124.12
262.64	136.12
262.872	148.12
263.105	150.12
263.337	148.12
263.57	147.12
263.802	141.12
264.035	131.12
264.267	129.12
264.499	126.12
264.732	146.12
264.964	135.12
265.197	144.12
265.429	150.12
265.661	158.12
265.894	146.12
266.126	142.12
266.358	140.12
266.591	152.12
266.823	146.12
267.055	147.12
267.287	155.12
267.52	139.12
267.752	156.12
267.984	150.12
268.216	151.12
268.448	154.12
268.681	151.12
268.913	160.12
269.145	148.12
269.377	161.12
269.609	147.12
269.841	158.12
270.073	162.12
270.306	162.12
270.538	140.12
270.77	140.12
271.002	145.12
271.234	162.12
271.466	144.12
271.698	163.12
271.93	167.12
272.162	158.12
272.394	158.12
272.626	151.12
272.858	167.12
273.09	165.12
273.322	160.12
273.553	169.12
273.785	170.12
274.017	175.12
274.249	174.12
274.481	169.12
274.713	176.12
274.945	175.12
275.176	169.12
275.408	177.12
275.64	183.12
275.872	163.12
276.104	175.12
276.335	175.12
276.567	182.12
276.799	169.12
277.031	181.12
277.262	180.12
277.494	185.12
277.726	172.12
277.957	174.12
278.189	194.12
278.421	191.12
278.652	161.12
278.884	192.12
279.115	185.12
279.347	183.12
279.579	188.12
279.81	190.12
280.042	190.12
280.273	189.12
280.505	207.12
280.736	188.12
280.968	200.12
281.199	186.12
281.431	197.12
281.662	189.12
281.894	202.12
282.125	199.12
282.356	204.12
282.588	212.12
282.819	183.12
283.051	222.12
283.282	181.12
283.513	201.12
283.745	205.12
283.976	199.12
284.207	199.12
284.439	198.12
284.67	214.12
284.901	216.12
285.132	216.12
285.364	220.12
285.595	217.12
285.826	222.12
286.057	214.12
286.288	202.12
286.52	214.12
286.751	212.12
286.982	230.12
287.213	210.12
287.444	212.12
287.675	201.12
287.906	224.12
288.138	226.12
288.369	222.12
288.6	227.12
288.831	225.12
289.062	234.12
289.293	229.12
289.524	227.12
289.755	234.12
289.986	222.12
290.217	227.12
290.448	233.12
290.679	240.12
290.91	248.12
291.141	235.12
291.371	233.12
291.602	237.12
291.833	249.12
292.064	254.12
292.295	244.12
292.526	223.12
292.757	232.12
292.987	254.12
293.218	228.12
293.449	247.12
293.68	250.12
293.91	250.12
294.141	259.12
294.372	245.12
294.603	267.12
294.833	261.12
295.064	234.12
295.295	244.12
295.525	243.12
295.756	256.12
295.987	264.12
296.217	256.12
296.448	273.12
296.679	264.12
296.909	246.12
297.14	238.12
297.37	266.12
297.601	255.12
297.831	267.12
298.062	238.12
298.292	269.12
298.523	280.12
298.753	274.12
298.984	293.12
299.214	264.12
299.445	274.12
299.675	269.12
299.905	274.12
300.136	284.12
300.366	278.12
300.597	288.12
300.827	289.12
301.057	274.12
301.288	284.12
301.518	271.12
301.748	295.12
301.979	300.12
302.209	281.12
302.439	290.12
302.669	294.12
302.9	292.12
303.13	301.12
303.36	293.12
303.59	310.12
303.82	299.12
304.051	295.12
304.281	315.12
304.511	314.12
304.741	307.12
304.971	314.12
305.201	278.12
305.431	311.12
305.661	299.12
305.891	288.12
306.121	320.12
306.352	311.12
306.582	315.12
306.812	292.12
307.042	288.12
307.272	314.12
307.502	306.12
307.731	311.12
307.961	323.12
308.191	313.12
308.421	303.12
308.651	322.12
308.881	318.12
309.111	319.12
309.341	310.12
309.571	318.12
309.8	319.12
310.03	305.12
310.26	304.12
310.49	311.12
310.72	323.12
310.949	313.12
311.179	313.12
311.409	331.12
311.639	322.12
311.868	331.12
312.098	337.12
312.328	337.12
312.557	343.12
312.787	343.12
313.017	316.12
313.246	341.12
313.476	329.12
313.706	348.12
313.935	337.12
314.165	339.12
314.394	349.12
314.624	337.12
314.853	353.12
315.083	354.12
315.312	358.12
315.542	361.12
315.771	343.12
316.001	342.12
316.23	340.12
316.46	345.12
316.689	352.12
316.919	377.12
317.148	347.12
317.377	389.12
317.607	355.12
317.836	339.12
318.065	358.12
318.295	356.12
318.524	382.12
318.753	374.12
318.983	372.12
319.212	358.12
319.441	375.12
319.67	380.12
319.9	372.12
320.129	368.12
320.358	389.12
320.587	384.12
320.816	383.12
321.046	386.12
321.275	355.12
321.504	391.12
321.733	374.12
321.962	380.12
322.191	374.12
322.42	394.12
322.649	381.12
322.878	379.12
323.108	374.12
323.337	367.12
323.566	390.12
323.795	385.12
324.024	378.12
324.253	367.12
324.482	373.12
324.71	369.12
324.939	389.12
325.168	384.12
325.397	370.12
325.626	394.12
325.855	387.12
326.084	386.12
326.313	404.12
326.542	405.12
326.77	398.12
326.999	401.12
327.228	411.12
327.457	395.12
327.686	396.12
327.914	390.12
328.143	396.12
328.372	374.12
328.6	420.12
328.829	415.12
329.058	405.12
329.287	415.12
329.515	408.12
329.744	417.12
329.972	414.12
330.201	402.12
330.43	396.12
330.658	412.12
330.887	414.12
331.115	408.12
331.344	414.12
331.572	410.12
331.801	431.12
332.03	411.12
332.258	423.12
332.486	416.12
332.715	401.12
332.943	404.12
333.172	427.12
333.4	414.12
333.629	433.12
333.857	432.12
334.085	439.12
334.314	419.12
334.542	411.12
334.771	429.12
334.999	430.12
335.227	419.12
335.455	432.12
335.684	423.12
335.912	457.12
336.14	445.12
336.369	440.12
336.597	443.12
336.825	440.12
337.053	440.12
337.281	439.12
337.51	434.12
337.738	423.12
337.966	416.12
338.194	415.12
338.422	455.12
338.65	443.12
338.878	437.12
339.106	428.12
339.334	445.12
339.562	440.12
339.79	414.12
340.018	432.12
340.246	427.12
340.474	459.12
340.702	431.12
340.93	434.12
341.158	427.12
341.386	436.12
341.614	442.12
341.842	419.12
342.07	460.12
342.298	462.12
342.526	439.12
342.754	423.12
342.981	436.12
343.209	432.12
343.437	439.12
343.665	440.12
343.893	428.12
344.12	434.12
344.348	422.12
344.576	455.12
344.804	468.12
345.031	439.12
345.259	427.12
345.487	433.12
345.714	450.12
345.942	437.12
346.17	444.12
346.397	465.12
346.625	433.12
346.853	426.12
347.08	447.12
347.308	430.12
347.535	415.12
347.763	438.12
347.99	435.12
348.218	435.12
348.445	433.12
348.673	416.12
348.9	427.12
349.128	459.12
349.355	419.12
349.583	433.12
349.81	449.12
350.037	442.12
350.265	441.12
350.492	430.12
350.72	423.12
350.947	430.12
351.174	441.12
351.402	453.12
351.629	424.12
351.856	442.12
352.083	455.12
352.311	454.12
352.538	438.12
352.765	443.12
352.992	428.12
353.22	446.12
353.447	475.12
353.674	441.12
353.901	466.12
354.128	446.12
354.355	457.12
354.583	450.12
354.81	438.12
355.037	448.12
355.264	451.12
355.491	423.12
355.718	450.12
355.945	450.12
356.172	434.12
356.399	462.12
356.626	447.12
356.853	459.12
357.08	435.12
357.307	438.12
357.534	439.12
357.761	455.12
357.988	440.12
358.215	460.12
358.441	457.12
358.668	477.12
358.895	459.12
359.122	454.12
359.349	452.12
359.576	450.12
359.802	451.12
360.029	440.12
360.256	451.12
360.483	439.12
360.709	447.12
360.936	465.12
361.163	450.12
361.39	426.12
361.616	436.12
361.843	444.12
362.07	459.12
362.296	445.12
362.523	436.12
362.749	461.12
362.976	453.12
363.203	477.12
363.429	466.12
363.656	468.12
363.882	482.12
364.109	454.12
364.335	459.12
364.562	448.12
364.788	468.12
365.015	458.12
365.241	464.12
365.468	464.12
365.694	484.12
365.92	473.12
366.147	465.12
366.373	471.12
366.599	460.12
366.826	447.12
367.052	457.12
367.278	471.12
367.505	475.12
367.731	478.12
367.957	470.12
368.184	495.12
368.41	499.12
368.636	467.12
368.862	482.12
369.089	482.12
369.315	456.12
369.541	447.12
369.767	491.12
369.993	465.12
370.219	503.12
370.445	469.12
370.672	467.12
370.898	484.12
371.124	480.12
371.35	481.12
371.576	484.12
371.802	487.12
372.028	470.12
372.254	488.12
372.48	466.12
372.706	483.12
372.932	489.12
373.158	489.12
373.384	488.12
373.61	495.12
373.835	494.12
374.061	468.12
374.287	503.12
374.513	506.12
374.739	499.12
374.965	502.12
375.191	510.12
375.416	498.12
375.642	489.12
375.868	490.12
376.094	501.12
376.319	508.12
376.545	469.12
376.771	496.12
376.997	503.12
377.222	486.12
377.448	491.12
377.674	496.12
377.899	488.12
378.125	480.12
378.35	484.12
378.576	502.12
378.802	472.12
379.027	488.12
379.253	484.12
379.478	496.12
379.704	475.12
379.929	491.12
380.155	510.12
380.38	488.12
380.606	506.12
380.831	486.12
381.057	487.12
381.282	497.12
381.507	492.12
381.733	468.12
381.958	478.12
382.184	506.12
382.409	499.12
382.634	499.12
382.86	515.12
383.085	518.12
383.31	517.12
383.535	516.12
383.761	513.12
383.986	515.12
384.211	519.12
384.436	512.12
384.662	519.12
384.887	522.12
385.112	509.12
385.337	505.12
385.562	525.12
385.787	517.12
386.013	520.12
386.238	523.12
386.463	508.12
386.688	516.12
386.913	496.12
387.138	519.12
387.363	516.12
387.588	536.12
387.813	520.12
388.038	524.12
388.263	521.12
388.488	538.12
388.713	529.12
388.938	532.12
389.163	525.12
389.387	522.12
389.612	510.12
389.837	538.12
390.062	528.12
390.287	534.12
390.512	551.12
390.736	531.12
390.961	522.12
391.186	536.12
391.411	502.12
391.636	546.12
391.86	544.12
392.085	536.12
392.31	535.12
392.534	536.12
392.759	553.12
392.984	546.12
393.208	534.12
393.433	556.12
393.658	566.12
393.882	542.12
394.107	524.12
394.331	554.12
394.556	542.12
394.78	531.12
395.005	560.12
395.229	534.12
395.454	538.12
395.678	540.12
395.903	542.12
396.127	544.12
396.352	535.12
396.576	540.12
396.801	555.12
397.025	539.12
397.249	540.12
397.474	552.12
397.698	551.12
397.922	553.12
398.147	550.12
398.371	571.12
398.595	550.12
398.82	538.12
399.044	559.12
399.268	574.12
399.492	549.12
399.717	586.12
399.941	575.12
400.165	602.12
400.389	612.12
400.613	574.12
400.837	582.12
401.062	573.12
401.286	572.12
401.51	562.12
401.734	555.12
401.958	574.12
402.182	594.12
402.406	585.12
402.63	592.12
402.854	577.12
403.078	594.12
403.302	567.12
403.526	576.12
403.75	581.12
403.974	572.12
404.198	559.12
404.422	554.12
404.645	562.12
404.869	572.12
405.093	563.12
405.317	566.12
405.541	572.12
405.765	598.12
405.988	580.12
406.212	584.12
406.436	594.12
406.66	581.12
406.883	575.12
407.107	590.12
407.331	599.12
407.555	614.12
407.778	618.12
408.002	600.12
408.226	603.12
408.449	606.12
408.673	629.12
408.896	616.12
409.12	579.12
409.344	598.12
409.567	596.12
409.791	607.12
410.014	589.12
410.238	610.12
410.461	592.12
410.685	589.12
410.908	582.12
411.132	594.12
411.355	587.12
411.578	590.12
411.802	589.12
412.025	591.12
412.249	570.12
412.472	609.12
412.695	566.12
412.919	577.12
413.142	573.12
413.365	598.12
413.589	585.12
413.812	584.12
414.035	581.12
414.258	567.12
414.482	571.12
414.705	570.12
414.928	570.12
415.151	565.12
415.374	558.12
415.597	560.12
415.821	584.12
416.044	579.12
416.267	589.12
416.49	575.12
416.713	555.12
416.936	546.12
417.159	559.12
417.382	566.12
417.605	566.12
417.828	562.12
418.051	568.12
418.274	550.12
418.497	535.12
418.72	573.12
418.943	556.12
419.166	568.12
419.389	603.12
419.611	583.12
419.834	582.12
420.057	543.12
420.28	565.12
420.503	538.12
420.726	559.12
420.948	540.12
421.171	564.12
421.394	565.12
421.617	554.12
421.839	569.12
422.062	558.12
422.285	545.12
422.507	542.12
422.73	556.12
422.953	535.12
423.175	564.12
423.398	579.12
423.621	542.12
423.843	543.12
424.066	569.12
424.288	563.12
424.511	567.12
424.733	569.12
424.956	559.12
425.178	539.12
425.401	560.12
425.623	563.12
425.846	548.12
426.068	567.12
426.291	563.12
426.513	552.12
426.735	551.12
426.958	558.12
427.18	547.12
427.402	558.12
427.625	549.12
427.847	562.12
428.069	550.12
428.292	560.12
428.514	561.12
428.736	551.12
428.958	570.12
429.181	535.12
429.403	550.12
429.625	571.12
429.847	560.12
430.069	563.12
430.292	528.12
430.514	541.12
430.736	551.12
430.958	542.12
431.18	541.12
431.402	562.12
431.624	560.12
431.846	548.12
432.068	538.12
432.29	568.12
432.512	548.12
432.734	568.12
432.956	553.12
433.178	544.12
433.4	549.12
433.622	565.12
433.844	583.12
434.066	551.12
434.287	523.12
434.509	547.12
434.731	563.12
434.953	555.12
435.175	571.12
435.397	566.12
435.618	564.12
435.84	540.12
436.062	564.12
436.284	539.12
436.505	560.12
436.727	520.12
436.949	544.12
437.17	541.12
437.392	543.12
437.614	543.12
437.835	534.12
438.057	546.12
438.278	548.12
438.5	550.12
438.721	557.12
438.943	546.12
439.165	549.12
439.386	532.12
439.608	531.12
439.829	550.12
440.05	563.12
440.272	562.12
440.493	537.12
440.715	535.12
440.936	558.12
441.158	546.12
441.379	552.12
441.6	559.12
441.822	539.12
442.043	536.12
442.264	566.12
442.486	555.12
442.707	534.12
442.928	553.12
443.149	568.12
443.371	579.12
443.592	568.12
443.813	552.12
444.034	553.12
444.255	567.12
444.476	548.12
444.698	555.12
444.919	548.12
445.14	658.12
445.361	612.12
445.582	572.12
445.803	553.12
446.024	538.12
446.245	549.12
446.466	549.12
446.687	539.12
446.908	545.12
447.129	519.12
447.35	556.12
447.571	551.12
447.792	518.12
448.013	540.12
448.234	552.12
448.455	515.12
448.675	538.12
448.896	523.12
449.117	533.12
449.338	537.12
449.559	521.12
449.779	532.12
450	511.12
450.221	533.12
450.442	539.12
450.662	546.12
450.883	527.12
451.104	536.12
451.324	540.12
451.545	521.12
451.766	523.12
451.986	528.12
452.207	508.12
452.428	492.12
452.648	511.12
452.869	494.12
453.089	499.12
453.31	523.12
453.53	522.12
453.751	523.12
453.971	527.12
454.192	523.12
454.412	514.12
454.633	526.12
454.853	529.12
455.073	508.12
455.294	515.12
455.514	504.12
455.734	501.12
455.955	496.12
456.175	488.12
456.395	492.12
456.616	499.12
456.836	526.12
457.056	516.12
457.276	510.12
457.497	534.12
457.717	532.12
457.937	500.12
458.157	500.12
458.377	503.12
458.598	518.12
458.818	542.12
459.038	520.12
459.258	516.12
459.478	532.12
459.698	535.12
459.918	533.12
460.138	538.12
460.358	567.12
460.578	549.12
460.798	555.12
461.018	555.12
461.238	551.12
461.458	552.12
461.678	571.12
461.898	556.12
462.118	533.12
462.338	560.12
462.558	566.12
462.777	571.12
462.997	571.12
463.217	567.12
463.437	577.12
463.657	568.12
463.876	597.12
464.096	576.12
464.316	565.12
464.536	555.12
464.755	596.12
464.975	567.12
465.195	573.12
465.414	563.12
465.634	577.12
465.854	526.12
466.073	559.12
466.293	560.12
466.512	564.12
466.732	559.12
466.951	555.12
467.171	558.12
467.391	563.12
467.61	560.12
467.829	553.12
468.049	564.12
468.268	568.12
468.488	550.12
468.707	545.12
468.927	555.12
469.146	544.12
469.365	579.12
469.585	568.12
469.804	564.12
470.023	573.12
470.243	546.12
470.462	584.12
470.681	560.12
470.901	578.12
471.12	569.12
471.339	575.12
471.558	548.12
471.777	556.12
471.997	585.12
472.216	574.12
472.435	568.12
472.654	578.12
472.873	567.12
473.092	576.12
473.311	606.12
473.53	593.12
473.749	591.12
473.968	573.12
474.187	586.12
474.406	578.12
474.625	596.12
474.844	598.12
475.063	594.12
475.282	591.12
475.501	589.12
475.72	610.12
475.939	613.12
476.158	588.12
476.377	616.12
476.596	617.12
476.814	648.12
477.033	620.12
477.252	605.12
477.471	609.12
477.69	630.12
477.908	626.12
478.127	664.12
478.346	658.12
478.564	657.12
478.783	649.12
479.002	638.12
479.22	658.12
479.439	672.12
479.658	672.12
479.876	673.12
480.095	668.12
480.313	674.12
480.532	671.12
480.751	676.12
480.969	671.12
481.188	682.12
481.406	663.12
481.624	690.12
481.843	696.12
482.061	694.12
482.28	692.12
482.498	693.12
482.717	698.12
482.935	700.12
483.153	682.12
483.372	684.12
483.59	723.12
483.808	708.12
484.027	715.12
484.245	710.12
484.463	674.12
484.681	694.12
484.9	720.12
485.118	725.12
485.336	702.12
485.554	701.12
485.772	727.12
485.99	721.12
486.209	716.12
486.427	713.12
486.645	753.12
486.863	729.12
487.081	730.12
487.299	703.12
487.517	766.12
487.735	730.12
487.953	714.12
488.171	734.12
488.389	714.12
488.607	712.12
488.825	713.12
489.043	732.12
489.261	738.12
489.479	722.12
489.696	711.12
489.914	708.12
490.132	730.12
490.35	721.12
490.568	740.12
490.786	754.12
491.003	734.12
491.221	731.12
491.439	762.12
491.657	751.12
491.874	742.12
492.092	769.12
492.31	739.12
492.527	744.12
492.745	742.12
492.963	735.12
493.18	724.12
493.398	742.12
493.615	738.12
493.833	738.12
494.05	767.12
494.268	766.12
494.485	745.12
494.703	762.12
494.92	732.12
495.138	750.12
495.355	735.12
495.573	751.12
495.79	746.12
496.008	764.12
496.225	773.12
496.442	771.12
496.66	768.12
496.877	790.12
497.094	780.12
497.312	772.12
497.529	784.12
497.746	801.12
497.963	781.12
498.181	790.12
498.398	810.12
498.615	838.12
498.832	818.12
499.049	836.12
499.267	820.12
499.484	838.12
499.701	868.12
499.918	865.12
500.135	858.12
500.352	875.12
500.569	866.12
500.786	866.12
501.003	870.12
501.22	880.12
501.437	868.12
501.654	843.12
501.871	820.12
502.088	837.12
502.305	810.12
