Data from Fe(NO3)3@0.1M.TitratingCurve.Agarose3%dH2O.NegLispCup.LampEnergy10.LIBS07252019_HRD10591_16-39-18-332.txt Node
Date: Thu Jul 25 16:39:18 EDT 2019
User: cochatt
Spectrometer: HR+D1059
Trigger mode: 1
Integration Time (sec): 1.000000E-1
Scans to average: 1
Electric dark correction enabled: true
Nonlinearity correction enabled: false
Boxcar width: 0
XAxis mode: Wavelengths
Number of Pixels in Spectrum: 2048
>>>>>Begin Spectral Data<<<<<
223.165	-18.94
223.4	-18.94
223.635	-18.94
223.869	-9.94
224.104	-32.94
224.338	-0.94
224.573	-22.94
224.808	-13.94
225.042	-16.94
225.277	-5.94
225.511	-13.94
225.746	20.06
225.98	11.06
226.215	16.06
226.449	18.06
226.683	23.06
226.918	16.06
227.152	32.06
227.387	37.06
227.621	40.06
227.856	48.06
228.09	42.06
228.324	46.06
228.559	55.06
228.793	64.06
229.027	73.06
229.262	90.06
229.496	94.06
229.73	100.06
229.964	102.06
230.199	95.06
230.433	119.06
230.667	104.06
230.901	124.06
231.136	104.06
231.37	116.06
231.604	119.06
231.838	122.06
232.072	127.06
232.306	123.06
232.541	132.06
232.775	131.06
233.009	121.06
233.243	126.06
233.477	116.06
233.711	131.06
233.945	143.06
234.179	110.06
234.413	120.06
234.647	126.06
234.881	121.06
235.115	140.06
235.349	119.06
235.583	118.06
235.817	109.06
236.051	134.06
236.285	125.06
236.519	137.06
236.753	141.06
236.987	128.06
237.221	127.06
237.455	115.06
237.689	127.06
237.922	131.06
238.156	122.06
238.39	146.06
238.624	126.06
238.858	130.06
239.091	134.06
239.325	127.06
239.559	147.06
239.793	130.06
240.027	138.06
240.26	141.06
240.494	118.06
240.728	142.06
240.961	142.06
241.195	145.06
241.429	150.06
241.662	141.06
241.896	138.06
242.13	163.06
242.363	160.06
242.597	150.06
242.83	150.06
243.064	128.06
243.298	152.06
243.531	138.06
243.765	154.06
243.998	169.06
244.232	155.06
244.465	147.06
244.699	159.06
244.932	145.06
245.166	143.06
245.399	149.06
245.633	146.06
245.866	161.06
246.099	155.06
246.333	160.06
246.566	164.06
246.8	161.06
247.033	152.06
247.266	157.06
247.5	164.06
247.733	152.06
247.966	168.06
248.2	186.06
248.433	176.06
248.666	169.06
248.899	168.06
249.133	170.06
249.366	166.06
249.599	182.06
249.832	175.06
250.066	191.06
250.299	167.06
250.532	202.06
250.765	178.06
250.998	176.06
251.231	184.06
251.465	190.06
251.698	186.06
251.931	195.06
252.164	196.06
252.397	201.06
252.63	182.06
252.863	175.06
253.096	190.06
253.329	191.06
253.562	194.06
253.795	189.06
254.028	190.06
254.261	191.06
254.494	193.06
254.727	190.06
254.96	189.06
255.193	218.06
255.426	183.06
255.659	184.06
255.892	203.06
256.124	180.06
256.357	203.06
256.59	210.06
256.823	207.06
257.056	203.06
257.289	227.06
257.521	212.06
257.754	200.06
257.987	198.06
258.22	202.06
258.452	192.06
258.685	213.06
258.918	215.06
259.151	214.06
259.383	229.06
259.616	228.06
259.849	219.06
260.081	223.06
260.314	216.06
260.547	227.06
260.779	239.06
261.012	216.06
261.244	215.06
261.477	207.06
261.71	215.06
261.942	216.06
262.175	220.06
262.407	239.06
262.64	232.06
262.872	231.06
263.105	217.06
263.337	223.06
263.57	238.06
263.802	251.06
264.035	239.06
264.267	226.06
264.499	224.06
264.732	238.06
264.964	234.06
265.197	233.06
265.429	222.06
265.661	234.06
265.894	241.06
266.126	223.06
266.358	235.06
266.591	239.06
266.823	230.06
267.055	239.06
267.287	250.06
267.52	240.06
267.752	247.06
267.984	263.06
268.216	250.06
268.448	251.06
268.681	254.06
268.913	238.06
269.145	261.06
269.377	258.06
269.609	249.06
269.841	242.06
270.073	246.06
270.306	242.06
270.538	252.06
270.77	255.06
271.002	269.06
271.234	239.06
271.466	259.06
271.698	266.06
271.93	253.06
272.162	254.06
272.394	263.06
272.626	269.06
272.858	255.06
273.09	278.06
273.322	269.06
273.553	266.06
273.785	271.06
274.017	268.06
274.249	283.06
274.481	287.06
274.713	296.06
274.945	298.06
275.176	284.06
275.408	289.06
275.64	255.06
275.872	278.06
276.104	293.06
276.335	291.06
276.567	281.06
276.799	293.06
277.031	295.06
277.262	298.06
277.494	291.06
277.726	291.06
277.957	292.06
278.189	291.06
278.421	291.06
278.652	298.06
278.884	300.06
279.115	300.06
279.347	297.06
279.579	287.06
279.81	303.06
280.042	306.06
280.273	310.06
280.505	296.06
280.736	302.06
280.968	312.06
281.199	301.06
281.431	306.06
281.662	312.06
281.894	315.06
282.125	317.06
282.356	318.06
282.588	321.06
282.819	315.06
283.051	300.06
283.282	323.06
283.513	333.06
283.745	301.06
283.976	314.06
284.207	302.06
284.439	336.06
284.67	316.06
284.901	314.06
285.132	326.06
285.364	330.06
285.595	319.06
285.826	325.06
286.057	340.06
286.288	339.06
286.52	324.06
286.751	326.06
286.982	315.06
287.213	331.06
287.444	324.06
287.675	329.06
287.906	328.06
288.138	322.06
288.369	331.06
288.6	338.06
288.831	347.06
289.062	351.06
289.293	339.06
289.524	345.06
289.755	359.06
289.986	354.06
290.217	352.06
290.448	343.06
290.679	341.06
290.91	360.06
291.141	324.06
291.371	348.06
291.602	346.06
291.833	345.06
292.064	336.06
292.295	350.06
292.526	335.06
292.757	338.06
292.987	352.06
293.218	356.06
293.449	340.06
293.68	359.06
293.91	344.06
294.141	347.06
294.372	351.06
294.603	338.06
294.833	341.06
295.064	352.06
295.295	350.06
295.525	345.06
295.756	365.06
295.987	350.06
296.217	358.06
296.448	349.06
296.679	375.06
296.909	358.06
297.14	362.06
297.37	368.06
297.601	355.06
297.831	349.06
298.062	370.06
298.292	384.06
298.523	371.06
298.753	366.06
298.984	376.06
299.214	360.06
299.445	363.06
299.675	374.06
299.905	378.06
300.136	344.06
300.366	366.06
300.597	367.06
300.827	381.06
301.057	370.06
301.288	380.06
301.518	400.06
301.748	383.06
301.979	393.06
302.209	392.06
302.439	401.06
302.669	403.06
302.9	395.06
303.13	383.06
303.36	378.06
303.59	387.06
303.82	391.06
304.051	407.06
304.281	374.06
304.511	400.06
304.741	382.06
304.971	381.06
305.201	379.06
305.431	388.06
305.661	377.06
305.891	383.06
306.121	386.06
306.352	382.06
306.582	366.06
306.812	380.06
307.042	367.06
307.272	378.06
307.502	392.06
307.731	393.06
307.961	395.06
308.191	391.06
308.421	383.06
308.651	385.06
308.881	377.06
309.111	382.06
309.341	378.06
309.571	376.06
309.8	388.06
310.03	402.06
310.26	379.06
310.49	378.06
310.72	396.06
310.949	381.06
311.179	402.06
311.409	390.06
311.639	395.06
311.868	419.06
312.098	403.06
312.328	415.06
312.557	401.06
312.787	404.06
313.017	404.06
313.246	410.06
313.476	400.06
313.706	411.06
313.935	431.06
314.165	423.06
314.394	409.06
314.624	407.06
314.853	410.06
315.083	424.06
315.312	406.06
315.542	399.06
315.771	421.06
316.001	404.06
316.23	399.06
316.46	397.06
316.689	410.06
316.919	429.06
317.148	419.06
317.377	422.06
317.607	407.06
317.836	398.06
318.065	419.06
318.295	416.06
318.524	414.06
318.753	410.06
318.983	396.06
319.212	420.06
319.441	419.06
319.67	416.06
319.9	413.06
320.129	409.06
320.358	417.06
320.587	403.06
320.816	401.06
321.046	426.06
321.275	416.06
321.504	417.06
321.733	419.06
321.962	421.06
322.191	424.06
322.42	412.06
322.649	408.06
322.878	411.06
323.108	424.06
323.337	418.06
323.566	408.06
323.795	429.06
324.024	419.06
324.253	417.06
324.482	426.06
324.71	440.06
324.939	423.06
325.168	441.06
325.397	427.06
325.626	432.06
325.855	456.06
326.084	457.06
326.313	432.06
326.542	428.06
326.77	466.06
326.999	444.06
327.228	422.06
327.457	448.06
327.686	452.06
327.914	455.06
328.143	453.06
328.372	440.06
328.6	462.06
328.829	451.06
329.058	428.06
329.287	445.06
329.515	460.06
329.744	468.06
329.972	476.06
330.201	457.06
330.43	457.06
330.658	463.06
330.887	470.06
331.115	442.06
331.344	486.06
331.572	475.06
331.801	498.06
332.03	474.06
332.258	495.06
332.486	492.06
332.715	510.06
332.943	527.06
333.172	540.06
333.4	592.06
333.629	570.06
333.857	586.06
334.085	567.06
334.314	584.06
334.542	573.06
334.771	571.06
334.999	563.06
335.227	571.06
335.455	550.06
335.684	558.06
335.912	544.06
336.14	547.06
336.369	539.06
336.597	534.06
336.825	542.06
337.053	528.06
337.281	519.06
337.51	517.06
337.738	502.06
337.966	503.06
338.194	500.06
338.422	470.06
338.65	498.06
338.878	496.06
339.106	466.06
339.334	474.06
339.562	496.06
339.79	483.06
340.018	457.06
340.246	467.06
340.474	475.06
340.702	476.06
340.93	483.06
341.158	486.06
341.386	465.06
341.614	478.06
341.842	477.06
342.07	467.06
342.298	477.06
342.526	450.06
342.754	493.06
342.981	486.06
343.209	496.06
343.437	510.06
343.665	543.06
343.893	563.06
344.12	591.06
344.348	534.06
344.576	541.06
344.804	481.06
345.031	483.06
345.259	484.06
345.487	490.06
345.714	473.06
345.942	463.06
346.17	468.06
346.397	458.06
346.625	461.06
346.853	466.06
347.08	452.06
347.308	460.06
347.535	454.06
347.763	461.06
347.99	468.06
348.218	451.06
348.445	472.06
348.673	429.06
348.9	453.06
349.128	455.06
349.355	443.06
349.583	431.06
349.81	447.06
350.037	449.06
350.265	425.06
350.492	443.06
350.72	439.06
350.947	446.06
351.174	440.06
351.402	432.06
351.629	443.06
351.856	461.06
352.083	452.06
352.311	456.06
352.538	429.06
352.765	425.06
352.992	431.06
353.22	434.06
353.447	442.06
353.674	447.06
353.901	411.06
354.128	454.06
354.355	446.06
354.583	437.06
354.81	424.06
355.037	455.06
355.264	457.06
355.491	463.06
355.718	429.06
355.945	439.06
356.172	443.06
356.399	438.06
356.626	454.06
356.853	440.06
357.08	466.06
357.307	466.06
357.534	431.06
357.761	430.06
357.988	443.06
358.215	455.06
358.441	450.06
358.668	431.06
358.895	452.06
359.122	445.06
359.349	425.06
359.576	455.06
359.802	451.06
360.029	462.06
360.256	443.06
360.483	451.06
360.709	455.06
360.936	455.06
361.163	447.06
361.39	446.06
361.616	457.06
361.843	453.06
362.07	455.06
362.296	453.06
362.523	465.06
362.749	437.06
362.976	436.06
363.203	457.06
363.429	460.06
363.656	452.06
363.882	458.06
364.109	446.06
364.335	441.06
364.562	465.06
364.788	461.06
365.015	448.06
365.241	438.06
365.468	443.06
365.694	442.06
365.92	431.06
366.147	462.06
366.373	441.06
366.599	439.06
366.826	461.06
367.052	459.06
367.278	463.06
367.505	451.06
367.731	449.06
367.957	451.06
368.184	458.06
368.41	459.06
368.636	440.06
368.862	459.06
369.089	443.06
369.315	455.06
369.541	460.06
369.767	468.06
369.993	467.06
370.219	476.06
370.445	470.06
370.672	501.06
370.898	485.06
371.124	471.06
371.35	502.06
371.576	506.06
371.802	482.06
372.028	494.06
372.254	488.06
372.48	481.06
372.706	488.06
372.932	506.06
373.158	509.06
373.384	502.06
373.61	512.06
373.835	509.06
374.061	496.06
374.287	508.06
374.513	524.06
374.739	528.06
374.965	520.06
375.191	525.06
375.416	541.06
375.642	532.06
375.868	522.06
376.094	517.06
376.319	493.06
376.545	531.06
376.771	511.06
376.997	480.06
377.222	482.06
377.448	504.06
377.674	498.06
377.899	498.06
378.125	477.06
378.35	504.06
378.576	498.06
378.802	485.06
379.027	508.06
379.253	495.06
379.478	486.06
379.704	487.06
379.929	493.06
380.155	479.06
380.38	492.06
380.606	494.06
380.831	517.06
381.057	498.06
381.282	488.06
381.507	492.06
381.733	501.06
381.958	522.06
382.184	526.06
382.409	531.06
382.634	502.06
382.86	511.06
383.085	519.06
383.31	534.06
383.535	547.06
383.761	541.06
383.986	545.06
384.211	557.06
384.436	559.06
384.662	582.06
384.887	597.06
385.112	556.06
385.337	578.06
385.562	600.06
385.787	597.06
386.013	593.06
386.238	603.06
386.463	586.06
386.688	593.06
386.913	594.06
387.138	587.06
387.363	586.06
387.588	585.06
387.813	592.06
388.038	613.06
388.263	601.06
388.488	592.06
388.713	599.06
388.938	597.06
389.163	584.06
389.387	583.06
389.612	612.06
389.837	602.06
390.062	594.06
390.287	586.06
390.512	602.06
390.736	602.06
390.961	607.06
391.186	616.06
391.411	634.06
391.636	638.06
391.86	664.06
392.085	665.06
392.31	653.06
392.534	645.06
392.759	647.06
392.984	646.06
393.208	635.06
393.433	653.06
393.658	633.06
393.882	644.06
394.107	650.06
394.331	648.06
394.556	657.06
394.78	631.06
395.005	646.06
395.229	638.06
395.454	651.06
395.678	685.06
395.903	663.06
396.127	671.06
396.352	626.06
396.576	625.06
396.801	640.06
397.025	628.06
397.249	644.06
397.474	674.06
397.698	645.06
397.922	656.06
398.147	669.06
398.371	716.06
398.595	700.06
398.82	714.06
399.044	764.06
399.268	859.06
399.492	939.06
399.717	1036.06
399.941	1044.06
400.165	990.06
400.389	864.06
400.613	834.06
400.837	778.06
401.062	734.06
401.286	760.06
401.51	750.06
401.734	747.06
401.958	749.06
402.182	749.06
402.406	785.06
402.63	750.06
402.854	793.06
403.078	794.06
403.302	803.06
403.526	805.06
403.75	821.06
403.974	803.06
404.198	836.06
404.422	833.06
404.645	821.06
404.869	807.06
405.093	809.06
405.317	815.06
405.541	820.06
405.765	815.06
405.988	827.06
406.212	824.06
406.436	820.06
406.66	832.06
406.883	833.06
407.107	886.06
407.331	882.06
407.555	919.06
407.778	930.06
408.002	904.06
408.226	891.06
408.449	884.06
408.673	879.06
408.896	858.06
409.12	836.06
409.344	855.06
409.567	830.06
409.791	839.06
410.014	858.06
410.238	827.06
410.461	832.06
410.685	803.06
410.908	811.06
411.132	756.06
411.355	769.06
411.578	793.06
411.802	788.06
412.025	811.06
412.249	787.06
412.472	784.06
412.695	771.06
412.919	737.06
413.142	774.06
413.365	783.06
413.589	747.06
413.812	748.06
414.035	751.06
414.258	750.06
414.482	750.06
414.705	760.06
414.928	745.06
415.151	770.06
415.374	754.06
415.597	769.06
415.821	733.06
416.044	728.06
416.267	732.06
416.49	735.06
416.713	735.06
416.936	736.06
417.159	726.06
417.382	727.06
417.605	712.06
417.828	726.06
418.051	743.06
418.274	744.06
418.497	727.06
418.72	739.06
418.943	726.06
419.166	784.06
419.389	851.06
419.611	834.06
419.834	782.06
420.057	782.06
420.28	747.06
420.503	732.06
420.726	757.06
420.948	747.06
421.171	724.06
421.394	732.06
421.617	716.06
421.839	744.06
422.062	753.06
422.285	734.06
422.507	743.06
422.73	726.06
422.953	763.06
423.175	757.06
423.398	787.06
423.621	758.06
423.843	772.06
424.066	766.06
424.288	762.06
424.511	773.06
424.733	769.06
424.956	756.06
425.178	755.06
425.401	747.06
425.623	726.06
425.846	716.06
426.068	731.06
426.291	713.06
426.513	700.06
426.735	702.06
426.958	712.06
427.18	677.06
427.402	675.06
427.625	682.06
427.847	679.06
428.069	680.06
428.292	715.06
428.514	676.06
428.736	657.06
428.958	670.06
429.181	639.06
429.403	653.06
429.625	645.06
429.847	683.06
430.069	678.06
430.292	663.06
430.514	657.06
430.736	675.06
430.958	665.06
431.18	664.06
431.402	693.06
431.624	675.06
431.846	668.06
432.068	677.06
432.29	669.06
432.512	662.06
432.734	665.06
432.956	680.06
433.178	675.06
433.4	680.06
433.622	672.06
433.844	691.06
434.066	687.06
434.287	687.06
434.509	710.06
434.731	727.06
434.953	743.06
435.175	749.06
435.397	757.06
435.618	697.06
435.84	696.06
436.062	674.06
436.284	670.06
436.505	691.06
436.727	667.06
436.949	678.06
437.17	698.06
437.392	676.06
437.614	666.06
437.835	643.06
438.057	655.06
438.278	643.06
438.5	639.06
438.721	661.06
438.943	667.06
439.165	658.06
439.386	680.06
439.608	676.06
439.829	696.06
440.05	684.06
440.272	690.06
440.493	694.06
440.715	687.06
440.936	700.06
441.158	724.06
441.379	726.06
441.6	747.06
441.822	765.06
442.043	743.06
442.264	750.06
442.486	722.06
442.707	718.06
442.928	749.06
443.149	764.06
443.371	740.06
443.592	729.06
443.813	726.06
444.034	765.06
444.255	754.06
444.476	820.06
444.698	851.06
444.919	886.06
445.14	934.06
445.361	844.06
445.582	765.06
445.803	725.06
446.024	720.06
446.245	719.06
446.466	709.06
446.687	679.06
446.908	688.06
447.129	665.06
447.35	690.06
447.571	660.06
447.792	655.06
448.013	650.06
448.234	643.06
448.455	672.06
448.675	642.06
448.896	662.06
449.117	653.06
449.338	628.06
449.559	620.06
449.779	632.06
450	650.06
450.221	651.06
450.442	638.06
450.662	618.06
450.883	637.06
451.104	620.06
451.324	648.06
451.545	640.06
451.766	625.06
451.986	628.06
452.207	619.06
452.428	637.06
452.648	636.06
452.869	614.06
453.089	620.06
453.31	615.06
453.53	603.06
453.751	605.06
453.971	607.06
454.192	627.06
454.412	614.06
454.633	600.06
454.853	614.06
455.073	603.06
455.294	620.06
455.514	587.06
455.734	593.06
455.955	583.06
456.175	596.06
456.395	590.06
456.616	575.06
456.836	621.06
457.056	599.06
457.276	570.06
457.497	593.06
457.717	607.06
457.937	608.06
458.157	614.06
458.377	608.06
458.598	642.06
458.818	618.06
459.038	640.06
459.258	676.06
459.478	676.06
459.698	703.06
459.918	707.06
460.138	740.06
460.358	765.06
460.578	765.06
460.798	773.06
461.018	776.06
461.238	770.06
461.458	800.06
461.678	774.06
461.898	799.06
462.118	790.06
462.338	830.06
462.558	815.06
462.777	867.06
462.997	926.06
463.217	975.06
463.437	967.06
463.657	925.06
463.876	905.06
464.096	895.06
464.316	886.06
464.536	906.06
464.755	849.06
464.975	826.06
465.195	807.06
465.414	743.06
465.634	715.06
465.854	700.06
466.073	687.06
466.293	683.06
466.512	676.06
466.732	665.06
466.951	656.06
467.171	671.06
467.391	639.06
467.61	651.06
467.829	663.06
468.049	659.06
468.268	660.06
468.488	616.06
468.707	630.06
468.927	616.06
469.146	629.06
469.365	637.06
469.585	627.06
469.804	607.06
470.023	658.06
470.243	666.06
470.462	684.06
470.681	666.06
470.901	686.06
471.12	675.06
471.339	646.06
471.558	632.06
471.777	611.06
471.997	621.06
472.216	634.06
472.435	626.06
472.654	595.06
472.873	608.06
473.092	607.06
473.311	612.06
473.53	582.06
473.749	590.06
473.968	600.06
474.187	626.06
474.406	605.06
474.625	636.06
474.844	608.06
475.063	605.06
475.282	620.06
475.501	594.06
475.72	617.06
475.939	627.06
476.158	626.06
476.377	626.06
476.596	650.06
476.814	621.06
477.033	636.06
477.252	642.06
477.471	663.06
477.69	687.06
477.908	681.06
478.127	715.06
478.346	711.06
478.564	730.06
478.783	723.06
479.002	717.06
479.22	747.06
479.439	742.06
479.658	757.06
479.876	726.06
480.095	757.06
480.313	775.06
480.532	779.06
480.751	768.06
480.969	767.06
481.188	731.06
481.406	728.06
481.624	702.06
481.843	706.06
482.061	688.06
482.28	670.06
482.498	679.06
482.717	682.06
482.935	694.06
483.153	679.06
483.372	702.06
483.59	690.06
483.808	669.06
484.027	693.06
484.245	691.06
484.463	691.06
484.681	698.06
484.9	673.06
485.118	694.06
485.336	712.06
485.554	718.06
485.772	733.06
485.99	710.06
486.209	725.06
486.427	710.06
486.645	717.06
486.863	716.06
487.081	704.06
487.299	692.06
487.517	693.06
487.735	707.06
487.953	709.06
488.171	722.06
488.389	719.06
488.607	721.06
488.825	700.06
489.043	710.06
489.261	700.06
489.479	696.06
489.696	700.06
489.914	719.06
490.132	717.06
490.35	707.06
490.568	712.06
490.786	730.06
491.003	721.06
491.221	714.06
491.439	723.06
491.657	727.06
491.874	736.06
492.092	721.06
492.31	749.06
492.527	734.06
492.745	758.06
492.963	736.06
493.18	724.06
493.398	726.06
493.615	751.06
493.833	743.06
494.05	748.06
494.268	764.06
494.485	750.06
494.703	735.06
494.92	779.06
495.138	781.06
495.355	748.06
495.573	776.06
495.79	766.06
496.008	781.06
496.225	757.06
496.442	789.06
496.66	775.06
496.877	810.06
497.094	843.06
497.312	836.06
497.529	846.06
497.746	850.06
497.963	862.06
498.181	904.06
498.398	956.06
498.615	981.06
498.832	1058.06
499.049	1153.06
499.267	1246.06
499.484	1314.06
499.701	1436.06
499.918	1541.06
500.135	1665.06
500.352	1908.06
500.569	1970.06
500.786	1934.06
501.003	1799.06
501.22	1673.06
501.437	1502.06
