Data from Fe(NO3)3@0.05M.TitratingCurve.Agarose3%dH2O.NegLispCup.LampEnergy10.LIBS07252019_HRD10591_16-45-54-334.txt Node
Date: Thu Jul 25 16:45:54 EDT 2019
User: cochatt
Spectrometer: HR+D1059
Trigger mode: 1
Integration Time (sec): 1.000000E-1
Scans to average: 1
Electric dark correction enabled: true
Nonlinearity correction enabled: false
Boxcar width: 0
XAxis mode: Wavelengths
Number of Pixels in Spectrum: 2048
>>>>>Begin Spectral Data<<<<<
223.165	-10.81
223.4	-10.81
223.635	-10.81
223.869	-9.81
224.104	-9.81
224.338	-4.81
224.573	-13.81
224.808	-9.81
225.042	-20.81
225.277	-19.81
225.511	-14.81
225.746	2.19
225.98	10.19
226.215	13.19
226.449	8.19
226.683	25.19
226.918	26.19
227.152	29.19
227.387	41.19
227.621	38.19
227.856	31.19
228.09	44.19
228.324	47.19
228.559	50.19
228.793	86.19
229.027	130.19
229.262	141.19
229.496	139.19
229.73	143.19
229.964	143.19
230.199	143.19
230.433	163.19
230.667	171.19
230.901	171.19
231.136	176.19
231.37	182.19
231.604	161.19
231.838	166.19
232.072	191.19
232.306	184.19
232.541	176.19
232.775	178.19
233.009	196.19
233.243	187.19
233.477	177.19
233.711	181.19
233.945	184.19
234.179	194.19
234.413	197.19
234.647	203.19
234.881	229.19
235.115	208.19
235.349	216.19
235.583	210.19
235.817	219.19
236.051	206.19
236.285	220.19
236.519	229.19
236.753	226.19
236.987	223.19
237.221	194.19
237.455	221.19
237.689	228.19
237.922	224.19
238.156	252.19
238.39	262.19
238.624	306.19
238.858	292.19
239.091	254.19
239.325	258.19
239.559	233.19
239.793	278.19
240.027	306.19
240.26	283.19
240.494	267.19
240.728	285.19
240.961	299.19
241.195	306.19
241.429	309.19
241.662	303.19
241.896	287.19
242.13	261.19
242.363	270.19
242.597	274.19
242.83	278.19
243.064	314.19
243.298	282.19
243.531	304.19
243.765	296.19
243.998	297.19
244.232	288.19
244.465	303.19
244.699	314.19
244.932	297.19
245.166	325.19
245.399	302.19
245.633	294.19
245.866	305.19
246.099	304.19
246.333	333.19
246.566	326.19
246.8	355.19
247.033	329.19
247.266	346.19
247.5	319.19
247.733	329.19
247.966	332.19
248.2	348.19
248.433	361.19
248.666	369.19
248.899	368.19
249.133	378.19
249.366	386.19
249.599	407.19
249.832	392.19
250.066	376.19
250.299	373.19
250.532	362.19
250.765	364.19
250.998	375.19
251.231	364.19
251.465	370.19
251.698	367.19
251.931	362.19
252.164	384.19
252.397	414.19
252.63	412.19
252.863	418.19
253.096	410.19
253.329	431.19
253.562	409.19
253.795	415.19
254.028	469.19
254.261	482.19
254.494	465.19
254.727	423.19
254.96	433.19
255.193	439.19
255.426	459.19
255.659	413.19
255.892	394.19
256.124	394.19
256.357	415.19
256.59	486.19
256.823	448.19
257.056	431.19
257.289	429.19
257.521	446.19
257.754	430.19
257.987	452.19
258.22	460.19
258.452	447.19
258.685	452.19
258.918	464.19
259.151	478.19
259.383	470.19
259.616	467.19
259.849	524.19
260.081	585.19
260.314	650.19
260.547	544.19
260.779	514.19
261.012	552.19
261.244	525.19
261.477	562.19
261.71	532.19
261.942	494.19
262.175	508.19
262.407	516.19
262.64	491.19
262.872	530.19
263.105	559.19
263.337	580.19
263.57	574.19
263.802	486.19
264.035	475.19
264.267	504.19
264.499	477.19
264.732	471.19
264.964	499.19
265.197	476.19
265.429	476.19
265.661	475.19
265.894	473.19
266.126	501.19
266.358	480.19
266.591	502.19
266.823	520.19
267.055	515.19
267.287	540.19
267.52	491.19
267.752	506.19
267.984	524.19
268.216	504.19
268.448	534.19
268.681	536.19
268.913	556.19
269.145	529.19
269.377	534.19
269.609	564.19
269.841	546.19
270.073	547.19
270.306	538.19
270.538	534.19
270.77	535.19
271.002	555.19
271.234	552.19
271.466	596.19
271.698	580.19
271.93	601.19
272.162	578.19
272.394	599.19
272.626	598.19
272.858	593.19
273.09	614.19
273.322	602.19
273.553	592.19
273.785	620.19
274.017	711.19
274.249	740.19
274.481	710.19
274.713	751.19
274.945	853.19
275.176	843.19
275.408	798.19
275.64	771.19
275.872	762.19
276.104	700.19
276.335	616.19
276.567	632.19
276.799	646.19
277.031	636.19
277.262	627.19
277.494	635.19
277.726	614.19
277.957	620.19
278.189	656.19
278.421	617.19
278.652	646.19
278.884	612.19
279.115	616.19
279.347	654.19
279.579	616.19
279.81	619.19
280.042	623.19
280.273	632.19
280.505	640.19
280.736	640.19
280.968	635.19
281.199	617.19
281.431	634.19
281.662	656.19
281.894	632.19
282.125	642.19
282.356	644.19
282.588	660.19
282.819	632.19
283.051	660.19
283.282	648.19
283.513	660.19
283.745	667.19
283.976	688.19
284.207	686.19
284.439	679.19
284.67	668.19
284.901	685.19
285.132	694.19
285.364	672.19
285.595	681.19
285.826	695.19
286.057	690.19
286.288	698.19
286.52	670.19
286.751	696.19
286.982	700.19
287.213	726.19
287.444	688.19
287.675	699.19
287.906	710.19
288.138	703.19
288.369	704.19
288.6	674.19
288.831	668.19
289.062	687.19
289.293	687.19
289.524	700.19
289.755	703.19
289.986	684.19
290.217	708.19
290.448	696.19
290.679	731.19
290.91	716.19
291.141	706.19
291.371	695.19
291.602	736.19
291.833	707.19
292.064	694.19
292.295	727.19
292.526	708.19
292.757	734.19
292.987	714.19
293.218	712.19
293.449	738.19
293.68	718.19
293.91	723.19
294.141	731.19
294.372	720.19
294.603	726.19
294.833	756.19
295.064	739.19
295.295	737.19
295.525	730.19
295.756	732.19
295.987	715.19
296.217	748.19
296.448	747.19
296.679	748.19
296.909	738.19
297.14	774.19
297.37	772.19
297.601	769.19
297.831	735.19
298.062	751.19
298.292	792.19
298.523	789.19
298.753	823.19
298.984	793.19
299.214	776.19
299.445	776.19
299.675	772.19
299.905	792.19
300.136	814.19
300.366	785.19
300.597	782.19
300.827	782.19
301.057	808.19
301.288	798.19
301.518	783.19
301.748	788.19
301.979	832.19
302.209	839.19
302.439	854.19
302.669	822.19
302.9	823.19
303.13	779.19
303.36	794.19
303.59	847.19
303.82	813.19
304.051	812.19
304.281	823.19
304.511	813.19
304.741	828.19
304.971	828.19
305.201	808.19
305.431	821.19
305.661	811.19
305.891	827.19
306.121	815.19
306.352	827.19
306.582	822.19
306.812	839.19
307.042	830.19
307.272	839.19
307.502	827.19
307.731	826.19
307.961	837.19
308.191	836.19
308.421	845.19
308.651	821.19
308.881	809.19
309.111	809.19
309.341	820.19
309.571	852.19
309.8	853.19
310.03	839.19
310.26	848.19
310.49	793.19
310.72	840.19
310.949	861.19
311.179	844.19
311.409	848.19
311.639	867.19
311.868	846.19
312.098	849.19
312.328	897.19
312.557	886.19
312.787	887.19
313.017	858.19
313.246	872.19
313.476	852.19
313.706	885.19
313.935	854.19
314.165	875.19
314.394	882.19
314.624	894.19
314.853	874.19
315.083	878.19
315.312	868.19
315.542	894.19
315.771	882.19
316.001	899.19
316.23	887.19
316.46	893.19
316.689	926.19
316.919	874.19
317.148	902.19
317.377	922.19
317.607	910.19
317.836	928.19
318.065	913.19
318.295	898.19
318.524	925.19
318.753	903.19
318.983	901.19
319.212	900.19
319.441	918.19
319.67	922.19
319.9	908.19
320.129	915.19
320.358	921.19
320.587	899.19
320.816	924.19
321.046	925.19
321.275	926.19
321.504	933.19
321.733	925.19
321.962	927.19
322.191	947.19
322.42	936.19
322.649	950.19
322.878	948.19
323.108	932.19
323.337	934.19
323.566	924.19
323.795	948.19
324.024	967.19
324.253	968.19
324.482	934.19
324.71	957.19
324.939	968.19
325.168	954.19
325.397	926.19
325.626	971.19
325.855	946.19
326.084	978.19
326.313	986.19
326.542	974.19
326.77	986.19
326.999	985.19
327.228	966.19
327.457	994.19
327.686	980.19
327.914	971.19
328.143	970.19
328.372	942.19
328.6	987.19
328.829	993.19
329.058	965.19
329.287	991.19
329.515	1037.19
329.744	1004.19
329.972	997.19
330.201	979.19
330.43	1034.19
330.658	979.19
330.887	1014.19
331.115	1017.19
331.344	1001.19
331.572	995.19
331.801	1020.19
332.03	1034.19
332.258	1016.19
332.486	1048.19
332.715	1058.19
332.943	1078.19
333.172	1099.19
333.4	1087.19
333.629	1087.19
333.857	1141.19
334.085	1149.19
334.314	1125.19
334.542	1128.19
334.771	1166.19
334.999	1154.19
335.227	1134.19
335.455	1162.19
335.684	1133.19
335.912	1154.19
336.14	1123.19
336.369	1141.19
336.597	1135.19
336.825	1129.19
337.053	1128.19
337.281	1132.19
337.51	1112.19
337.738	1108.19
337.966	1094.19
338.194	1102.19
338.422	1086.19
338.65	1079.19
338.878	1101.19
339.106	1067.19
339.334	1079.19
339.562	1116.19
339.79	1055.19
340.018	1043.19
340.246	1076.19
340.474	1070.19
340.702	1068.19
340.93	1075.19
341.158	1062.19
341.386	1040.19
341.614	1076.19
341.842	1056.19
342.07	1042.19
342.298	1019.19
342.526	1044.19
342.754	1053.19
342.981	1098.19
343.209	1064.19
343.437	1095.19
343.665	1116.19
343.893	1142.19
344.12	1158.19
344.348	1159.19
344.576	1116.19
344.804	1154.19
345.031	1098.19
345.259	1081.19
345.487	1080.19
345.714	1031.19
345.942	1055.19
346.17	1043.19
346.397	1019.19
346.625	1041.19
346.853	1065.19
347.08	1028.19
347.308	1028.19
347.535	1028.19
347.763	1015.19
347.99	1012.19
348.218	1006.19
348.445	1016.19
348.673	999.19
348.9	1012.19
349.128	1006.19
349.355	1007.19
349.583	1004.19
349.81	1033.19
350.037	992.19
350.265	1002.19
350.492	1039.19
350.72	991.19
350.947	990.19
351.174	959.19
351.402	1010.19
351.629	994.19
351.856	964.19
352.083	996.19
352.311	1020.19
352.538	964.19
352.765	1004.19
352.992	975.19
353.22	990.19
353.447	997.19
353.674	958.19
353.901	970.19
354.128	1021.19
354.355	1024.19
354.583	980.19
354.81	970.19
355.037	995.19
355.264	958.19
355.491	986.19
355.718	1008.19
355.945	1022.19
356.172	1016.19
356.399	1005.19
356.626	1036.19
356.853	1041.19
357.08	1004.19
357.307	1030.19
357.534	1005.19
357.761	1024.19
357.988	1052.19
358.215	1032.19
358.441	1047.19
358.668	1006.19
358.895	1010.19
359.122	1000.19
359.349	989.19
359.576	983.19
359.802	988.19
360.029	997.19
360.256	1018.19
360.483	1004.19
360.709	1034.19
360.936	1018.19
361.163	1068.19
361.39	1043.19
361.616	1012.19
361.843	1033.19
362.07	1051.19
362.296	1034.19
362.523	1025.19
362.749	1017.19
362.976	1028.19
363.203	981.19
363.429	1042.19
363.656	1020.19
363.882	984.19
364.109	996.19
364.335	1044.19
364.562	1016.19
364.788	1041.19
365.015	1052.19
365.241	1047.19
365.468	1032.19
365.694	1015.19
365.92	1026.19
366.147	1032.19
366.373	1070.19
366.599	1021.19
366.826	1041.19
367.052	1035.19
367.278	1036.19
367.505	1046.19
367.731	1039.19
367.957	1053.19
368.184	1084.19
368.41	1060.19
368.636	1073.19
368.862	1072.19
369.089	1070.19
369.315	1059.19
369.541	1072.19
369.767	1075.19
369.993	1030.19
370.219	1099.19
370.445	1122.19
370.672	1107.19
370.898	1074.19
371.124	1095.19
371.35	1096.19
371.576	1083.19
371.802	1096.19
372.028	1138.19
372.254	1162.19
372.48	1148.19
372.706	1135.19
372.932	1156.19
373.158	1158.19
373.384	1156.19
373.61	1200.19
373.835	1188.19
374.061	1171.19
374.287	1132.19
374.513	1159.19
374.739	1213.19
374.965	1200.19
375.191	1236.19
375.416	1172.19
375.642	1163.19
375.868	1236.19
376.094	1181.19
376.319	1126.19
376.545	1144.19
376.771	1142.19
376.997	1127.19
377.222	1124.19
377.448	1101.19
377.674	1099.19
377.899	1101.19
378.125	1096.19
378.35	1104.19
378.576	1109.19
378.802	1110.19
379.027	1117.19
379.253	1078.19
379.478	1086.19
379.704	1135.19
379.929	1107.19
380.155	1116.19
380.38	1133.19
380.606	1112.19
380.831	1134.19
381.057	1122.19
381.282	1131.19
381.507	1121.19
381.733	1186.19
381.958	1179.19
382.184	1207.19
382.409	1245.19
382.634	1208.19
382.86	1203.19
383.085	1175.19
383.31	1165.19
383.535	1196.19
383.761	1177.19
383.986	1184.19
384.211	1242.19
384.436	1241.19
384.662	1228.19
384.887	1252.19
385.112	1220.19
385.337	1239.19
385.562	1278.19
385.787	1268.19
386.013	1314.19
386.238	1305.19
386.463	1309.19
386.688	1307.19
386.913	1279.19
387.138	1322.19
387.363	1295.19
387.588	1318.19
387.813	1308.19
388.038	1331.19
388.263	1316.19
388.488	1327.19
388.713	1321.19
388.938	1317.19
389.163	1293.19
389.387	1298.19
389.612	1303.19
389.837	1332.19
390.062	1308.19
390.287	1357.19
390.512	1311.19
390.736	1306.19
390.961	1363.19
391.186	1330.19
391.411	1340.19
391.636	1380.19
391.86	1355.19
392.085	1404.19
392.31	1402.19
392.534	1407.19
392.759	1375.19
392.984	1382.19
393.208	1371.19
393.433	1407.19
393.658	1383.19
393.882	1370.19
394.107	1353.19
394.331	1386.19
394.556	1375.19
394.78	1374.19
395.005	1395.19
395.229	1391.19
395.454	1396.19
395.678	1402.19
395.903	1409.19
396.127	1413.19
396.352	1438.19
396.576	1401.19
396.801	1406.19
397.025	1441.19
397.249	1464.19
397.474	1481.19
397.698	1435.19
397.922	1471.19
398.147	1462.19
398.371	1506.19
398.595	1518.19
398.82	1568.19
399.044	1568.19
399.268	1628.19
399.492	1767.19
399.717	1822.19
399.941	1802.19
400.165	1797.19
400.389	1755.19
400.613	1703.19
400.837	1650.19
401.062	1636.19
401.286	1617.19
401.51	1605.19
401.734	1565.19
401.958	1599.19
402.182	1601.19
402.406	1560.19
402.63	1538.19
402.854	1583.19
403.078	1567.19
403.302	1586.19
403.526	1612.19
403.75	1591.19
403.974	1606.19
404.198	1583.19
404.422	1628.19
404.645	1605.19
404.869	1631.19
405.093	1655.19
405.317	1601.19
405.541	1640.19
405.765	1620.19
405.988	1622.19
406.212	1696.19
406.436	1708.19
406.66	1696.19
406.883	1731.19
407.107	1772.19
407.331	1783.19
407.555	1816.19
407.778	1807.19
408.002	1798.19
408.226	1814.19
408.449	1794.19
408.673	1718.19
408.896	1760.19
409.12	1716.19
409.344	1710.19
409.567	1695.19
409.791	1674.19
410.014	1694.19
410.238	1667.19
410.461	1693.19
410.685	1694.19
410.908	1660.19
411.132	1636.19
411.355	1658.19
411.578	1614.19
411.802	1647.19
412.025	1654.19
412.249	1642.19
412.472	1654.19
412.695	1645.19
412.919	1643.19
413.142	1620.19
413.365	1597.19
413.589	1644.19
413.812	1599.19
414.035	1582.19
414.258	1616.19
414.482	1594.19
414.705	1613.19
414.928	1563.19
415.151	1565.19
415.374	1546.19
415.597	1550.19
415.821	1553.19
416.044	1565.19
416.267	1559.19
416.49	1563.19
416.713	1530.19
416.936	1576.19
417.159	1542.19
417.382	1490.19
417.605	1526.19
417.828	1513.19
418.051	1556.19
418.274	1505.19
418.497	1505.19
418.72	1522.19
418.943	1546.19
419.166	1598.19
419.389	1698.19
419.611	1676.19
419.834	1631.19
420.057	1584.19
420.28	1542.19
420.503	1515.19
420.726	1458.19
420.948	1477.19
421.171	1478.19
421.394	1490.19
421.617	1530.19
421.839	1512.19
422.062	1541.19
422.285	1502.19
422.507	1506.19
422.73	1524.19
422.953	1541.19
423.175	1541.19
423.398	1535.19
423.621	1477.19
423.843	1529.19
424.066	1527.19
424.288	1517.19
424.511	1503.19
424.733	1476.19
424.956	1510.19
425.178	1524.19
425.401	1555.19
425.623	1517.19
425.846	1471.19
426.068	1488.19
426.291	1499.19
426.513	1487.19
426.735	1479.19
426.958	1494.19
427.18	1476.19
427.402	1499.19
427.625	1469.19
427.847	1438.19
428.069	1443.19
428.292	1471.19
428.514	1441.19
428.736	1418.19
428.958	1453.19
429.181	1446.19
429.403	1434.19
429.625	1463.19
429.847	1453.19
430.069	1447.19
430.292	1453.19
430.514	1477.19
430.736	1502.19
430.958	1484.19
431.18	1450.19
431.402	1459.19
431.624	1432.19
431.846	1466.19
432.068	1419.19
432.29	1495.19
432.512	1450.19
432.734	1489.19
432.956	1491.19
433.178	1440.19
433.4	1460.19
433.622	1447.19
433.844	1478.19
434.066	1490.19
434.287	1460.19
434.509	1494.19
434.731	1492.19
434.953	1503.19
435.175	1515.19
435.397	1535.19
435.618	1494.19
435.84	1508.19
436.062	1479.19
436.284	1463.19
436.505	1483.19
436.727	1445.19
436.949	1466.19
437.17	1432.19
437.392	1391.19
437.614	1431.19
437.835	1410.19
438.057	1400.19
438.278	1414.19
438.5	1443.19
438.721	1443.19
438.943	1442.19
439.165	1387.19
439.386	1414.19
439.608	1420.19
439.829	1448.19
440.05	1447.19
440.272	1442.19
440.493	1415.19
440.715	1479.19
440.936	1451.19
441.158	1463.19
441.379	1417.19
441.6	1529.19
441.822	1484.19
442.043	1498.19
442.264	1479.19
442.486	1483.19
442.707	1490.19
442.928	1518.19
443.149	1457.19
443.371	1467.19
443.592	1533.19
443.813	1484.19
444.034	1499.19
444.255	1517.19
444.476	1558.19
444.698	1588.19
444.919	1610.19
445.14	1678.19
445.361	1598.19
445.582	1535.19
445.803	1503.19
446.024	1451.19
446.245	1490.19
446.466	1459.19
446.687	1400.19
446.908	1432.19
447.129	1432.19
447.35	1426.19
447.571	1418.19
447.792	1401.19
448.013	1386.19
448.234	1401.19
448.455	1348.19
448.675	1375.19
448.896	1360.19
449.117	1294.19
449.338	1352.19
449.559	1339.19
449.779	1308.19
450	1290.19
450.221	1313.19
450.442	1321.19
450.662	1303.19
450.883	1341.19
451.104	1351.19
451.324	1304.19
451.545	1321.19
451.766	1296.19
451.986	1310.19
452.207	1280.19
452.428	1298.19
452.648	1262.19
452.869	1273.19
453.089	1283.19
453.31	1298.19
453.53	1260.19
453.751	1248.19
453.971	1261.19
454.192	1258.19
454.412	1278.19
454.633	1251.19
454.853	1266.19
455.073	1259.19
455.294	1262.19
455.514	1261.19
455.734	1260.19
455.955	1261.19
456.175	1267.19
456.395	1250.19
456.616	1266.19
456.836	1279.19
457.056	1302.19
457.276	1255.19
457.497	1296.19
457.717	1298.19
457.937	1274.19
458.157	1332.19
458.377	1302.19
458.598	1340.19
458.818	1344.19
459.038	1375.19
459.258	1395.19
459.478	1410.19
459.698	1400.19
459.918	1465.19
460.138	1490.19
460.358	1495.19
460.578	1492.19
460.798	1518.19
461.018	1501.19
461.238	1538.19
461.458	1554.19
461.678	1544.19
461.898	1598.19
462.118	1571.19
462.338	1606.19
462.558	1631.19
462.777	1702.19
462.997	1720.19
463.217	1731.19
463.437	1783.19
463.657	1759.19
463.876	1736.19
464.096	1699.19
464.316	1690.19
464.536	1667.19
464.755	1644.19
464.975	1672.19
465.195	1560.19
465.414	1525.19
465.634	1541.19
465.854	1527.19
466.073	1486.19
466.293	1414.19
466.512	1418.19
466.732	1428.19
466.951	1419.19
467.171	1408.19
467.391	1426.19
467.61	1424.19
467.829	1410.19
468.049	1414.19
468.268	1391.19
468.488	1349.19
468.707	1382.19
468.927	1424.19
469.146	1431.19
469.365	1429.19
469.585	1414.19
469.804	1410.19
470.023	1438.19
470.243	1434.19
470.462	1417.19
470.681	1398.19
470.901	1448.19
471.12	1437.19
471.339	1439.19
471.558	1412.19
471.777	1390.19
471.997	1411.19
472.216	1391.19
472.435	1413.19
472.654	1388.19
472.873	1396.19
473.092	1405.19
473.311	1424.19
473.53	1374.19
473.749	1407.19
473.968	1391.19
474.187	1400.19
474.406	1410.19
474.625	1404.19
474.844	1401.19
475.063	1434.19
475.282	1465.19
475.501	1410.19
475.72	1465.19
475.939	1462.19
476.158	1520.19
476.377	1511.19
476.596	1583.19
476.814	1631.19
477.033	1519.19
477.252	1541.19
477.471	1542.19
477.69	1564.19
477.908	1573.19
478.127	1609.19
478.346	1576.19
478.564	1644.19
478.783	1650.19
479.002	1661.19
479.22	1753.19
479.439	1770.19
479.658	1739.19
479.876	1698.19
480.095	1721.19
480.313	1718.19
480.532	1718.19
480.751	1728.19
480.969	1716.19
481.188	1759.19
481.406	1764.19
481.624	1706.19
481.843	1710.19
482.061	1695.19
482.28	1715.19
482.498	1724.19
482.717	1711.19
482.935	1701.19
483.153	1663.19
483.372	1702.19
483.59	1693.19
483.808	1665.19
484.027	1672.19
484.245	1702.19
484.463	1703.19
484.681	1706.19
484.9	1743.19
485.118	1754.19
485.336	1733.19
485.554	1691.19
485.772	1705.19
485.99	1750.19
486.209	1759.19
486.427	1737.19
486.645	1710.19
486.863	1768.19
487.081	1763.19
487.299	1807.19
487.517	1743.19
487.735	1735.19
487.953	1750.19
488.171	1782.19
488.389	1718.19
488.607	1718.19
488.825	1711.19
489.043	1714.19
489.261	1772.19
489.479	1769.19
489.696	1736.19
489.914	1746.19
490.132	1724.19
490.35	1739.19
490.568	1748.19
490.786	1749.19
491.003	1754.19
491.221	1740.19
491.439	1763.19
491.657	1751.19
491.874	1755.19
492.092	1826.19
