Data from Fe(NO3)3@0.05M.TitratingCurve.Agarose3%dH2O.NegLispCup.LampEnergy10.LIBS07252019_HRD10591_16-47-39-334.txt Node
Date: Thu Jul 25 16:47:39 EDT 2019
User: cochatt
Spectrometer: HR+D1059
Trigger mode: 1
Integration Time (sec): 1.000000E-1
Scans to average: 1
Electric dark correction enabled: true
Nonlinearity correction enabled: false
Boxcar width: 0
XAxis mode: Wavelengths
Number of Pixels in Spectrum: 2048
>>>>>Begin Spectral Data<<<<<
223.165	-13.81
223.4	-13.81
223.635	-13.81
223.869	-24.81
224.104	-18.81
224.338	-15.81
224.573	-11.81
224.808	-11.81
225.042	-9.81
225.277	12.19
225.511	6.19
225.746	1.19
225.98	-3.81
226.215	3.19
226.449	4.19
226.683	35.19
226.918	23.19
227.152	25.19
227.387	30.19
227.621	40.19
227.856	50.19
228.09	33.19
228.324	37.19
228.559	54.19
228.793	63.19
229.027	76.19
229.262	85.19
229.496	89.19
229.73	100.19
229.964	83.19
230.199	89.19
230.433	99.19
230.667	89.19
230.901	100.19
231.136	102.19
231.37	92.19
231.604	98.19
231.838	106.19
232.072	117.19
232.306	92.19
232.541	89.19
232.775	106.19
233.009	113.19
233.243	92.19
233.477	118.19
233.711	93.19
233.945	95.19
234.179	93.19
234.413	113.19
234.647	109.19
234.881	107.19
235.115	127.19
235.349	118.19
235.583	106.19
235.817	110.19
236.051	108.19
236.285	98.19
236.519	118.19
236.753	125.19
236.987	117.19
237.221	107.19
237.455	113.19
237.689	116.19
237.922	110.19
238.156	118.19
238.39	103.19
238.624	107.19
238.858	116.19
239.091	118.19
239.325	121.19
239.559	122.19
239.793	121.19
240.027	124.19
240.26	123.19
240.494	119.19
240.728	123.19
240.961	132.19
241.195	115.19
241.429	119.19
241.662	114.19
241.896	129.19
242.13	125.19
242.363	126.19
242.597	138.19
242.83	134.19
243.064	116.19
243.298	136.19
243.531	134.19
243.765	132.19
243.998	127.19
244.232	112.19
244.465	138.19
244.699	132.19
244.932	130.19
245.166	133.19
245.399	131.19
245.633	130.19
245.866	138.19
246.099	132.19
246.333	142.19
246.566	161.19
246.8	143.19
247.033	132.19
247.266	129.19
247.5	130.19
247.733	127.19
247.966	132.19
248.2	142.19
248.433	137.19
248.666	136.19
248.899	140.19
249.133	141.19
249.366	152.19
249.599	161.19
249.832	147.19
250.066	161.19
250.299	154.19
250.532	141.19
250.765	135.19
250.998	159.19
251.231	140.19
251.465	162.19
251.698	140.19
251.931	160.19
252.164	161.19
252.397	148.19
252.63	153.19
252.863	156.19
253.096	162.19
253.329	154.19
253.562	154.19
253.795	154.19
254.028	179.19
254.261	162.19
254.494	167.19
254.727	172.19
254.96	172.19
255.193	161.19
255.426	178.19
255.659	163.19
255.892	155.19
256.124	176.19
256.357	179.19
256.59	171.19
256.823	152.19
257.056	168.19
257.289	166.19
257.521	184.19
257.754	164.19
257.987	186.19
258.22	176.19
258.452	160.19
258.685	167.19
258.918	167.19
259.151	166.19
259.383	190.19
259.616	160.19
259.849	184.19
260.081	206.19
260.314	214.19
260.547	190.19
260.779	177.19
261.012	181.19
261.244	189.19
261.477	193.19
261.71	179.19
261.942	181.19
262.175	173.19
262.407	179.19
262.64	192.19
262.872	204.19
263.105	190.19
263.337	204.19
263.57	205.19
263.802	178.19
264.035	172.19
264.267	182.19
264.499	176.19
264.732	200.19
264.964	185.19
265.197	188.19
265.429	194.19
265.661	194.19
265.894	200.19
266.126	187.19
266.358	181.19
266.591	170.19
266.823	188.19
267.055	187.19
267.287	202.19
267.52	196.19
267.752	192.19
267.984	188.19
268.216	189.19
268.448	206.19
268.681	198.19
268.913	197.19
269.145	214.19
269.377	201.19
269.609	215.19
269.841	202.19
270.073	196.19
270.306	204.19
270.538	197.19
270.77	210.19
271.002	210.19
271.234	219.19
271.466	195.19
271.698	224.19
271.93	209.19
272.162	220.19
272.394	218.19
272.626	213.19
272.858	226.19
273.09	211.19
273.322	225.19
273.553	197.19
273.785	214.19
274.017	215.19
274.249	233.19
274.481	257.19
274.713	234.19
274.945	246.19
275.176	238.19
275.408	237.19
275.64	220.19
275.872	234.19
276.104	221.19
276.335	221.19
276.567	206.19
276.799	234.19
277.031	226.19
277.262	241.19
277.494	230.19
277.726	226.19
277.957	227.19
278.189	232.19
278.421	212.19
278.652	230.19
278.884	230.19
279.115	223.19
279.347	243.19
279.579	220.19
279.81	218.19
280.042	255.19
280.273	239.19
280.505	212.19
280.736	226.19
280.968	237.19
281.199	234.19
281.431	233.19
281.662	244.19
281.894	212.19
282.125	229.19
282.356	252.19
282.588	240.19
282.819	240.19
283.051	230.19
283.282	246.19
283.513	243.19
283.745	228.19
283.976	236.19
284.207	247.19
284.439	245.19
284.67	258.19
284.901	243.19
285.132	249.19
285.364	253.19
285.595	234.19
285.826	258.19
286.057	261.19
286.288	244.19
286.52	242.19
286.751	261.19
286.982	263.19
287.213	261.19
287.444	261.19
287.675	257.19
287.906	250.19
288.138	254.19
288.369	252.19
288.6	249.19
288.831	265.19
289.062	252.19
289.293	268.19
289.524	256.19
289.755	256.19
289.986	261.19
290.217	265.19
290.448	257.19
290.679	252.19
290.91	265.19
291.141	260.19
291.371	259.19
291.602	258.19
291.833	236.19
292.064	254.19
292.295	250.19
292.526	251.19
292.757	240.19
292.987	264.19
293.218	248.19
293.449	269.19
293.68	264.19
293.91	264.19
294.141	275.19
294.372	279.19
294.603	258.19
294.833	279.19
295.064	276.19
295.295	271.19
295.525	265.19
295.756	284.19
295.987	263.19
296.217	272.19
296.448	292.19
296.679	258.19
296.909	258.19
297.14	287.19
297.37	261.19
297.601	268.19
297.831	284.19
298.062	289.19
298.292	283.19
298.523	280.19
298.753	257.19
298.984	291.19
299.214	296.19
299.445	278.19
299.675	260.19
299.905	264.19
300.136	267.19
300.366	273.19
300.597	292.19
300.827	300.19
301.057	282.19
301.288	287.19
301.518	284.19
301.748	300.19
301.979	285.19
302.209	308.19
302.439	291.19
302.669	296.19
302.9	286.19
303.13	278.19
303.36	298.19
303.59	310.19
303.82	308.19
304.051	285.19
304.281	301.19
304.511	285.19
304.741	307.19
304.971	292.19
305.201	310.19
305.431	295.19
305.661	313.19
305.891	284.19
306.121	308.19
306.352	304.19
306.582	320.19
306.812	290.19
307.042	300.19
307.272	277.19
307.502	275.19
307.731	289.19
307.961	278.19
308.191	292.19
308.421	292.19
308.651	289.19
308.881	305.19
309.111	311.19
309.341	284.19
309.571	296.19
309.8	289.19
310.03	285.19
310.26	304.19
310.49	299.19
310.72	304.19
310.949	293.19
311.179	303.19
311.409	318.19
311.639	320.19
311.868	282.19
312.098	296.19
312.328	311.19
312.557	306.19
312.787	322.19
313.017	307.19
313.246	308.19
313.476	305.19
313.706	341.19
313.935	324.19
314.165	313.19
314.394	324.19
314.624	319.19
314.853	298.19
315.083	309.19
315.312	328.19
315.542	332.19
315.771	340.19
316.001	323.19
316.23	320.19
316.46	321.19
316.689	309.19
316.919	312.19
317.148	337.19
317.377	324.19
317.607	323.19
317.836	324.19
318.065	332.19
318.295	321.19
318.524	319.19
318.753	309.19
318.983	322.19
319.212	304.19
319.441	310.19
319.67	323.19
319.9	332.19
320.129	310.19
320.358	325.19
320.587	321.19
320.816	323.19
321.046	313.19
321.275	312.19
321.504	318.19
321.733	334.19
321.962	340.19
322.191	328.19
322.42	338.19
322.649	305.19
322.878	329.19
323.108	307.19
323.337	334.19
323.566	325.19
323.795	324.19
324.024	355.19
324.253	322.19
324.482	331.19
324.71	332.19
324.939	333.19
325.168	314.19
325.397	339.19
325.626	329.19
325.855	335.19
326.084	343.19
326.313	347.19
326.542	347.19
326.77	349.19
326.999	331.19
327.228	334.19
327.457	356.19
327.686	355.19
327.914	333.19
328.143	339.19
328.372	348.19
328.6	339.19
328.829	339.19
329.058	342.19
329.287	369.19
329.515	348.19
329.744	349.19
329.972	345.19
330.201	347.19
330.43	358.19
330.658	349.19
330.887	345.19
331.115	364.19
331.344	351.19
331.572	353.19
331.801	372.19
332.03	378.19
332.258	370.19
332.486	396.19
332.715	403.19
332.943	383.19
333.172	408.19
333.4	408.19
333.629	397.19
333.857	418.19
334.085	438.19
334.314	417.19
334.542	398.19
334.771	421.19
334.999	422.19
335.227	417.19
335.455	402.19
335.684	411.19
335.912	408.19
336.14	391.19
336.369	405.19
336.597	387.19
336.825	395.19
337.053	395.19
337.281	406.19
337.51	409.19
337.738	376.19
337.966	369.19
338.194	376.19
338.422	374.19
338.65	367.19
338.878	395.19
339.106	389.19
339.334	388.19
339.562	365.19
339.79	351.19
340.018	364.19
340.246	366.19
340.474	373.19
340.702	373.19
340.93	346.19
341.158	378.19
341.386	368.19
341.614	353.19
341.842	368.19
342.07	358.19
342.298	362.19
342.526	377.19
342.754	361.19
342.981	364.19
343.209	365.19
343.437	367.19
343.665	397.19
343.893	431.19
344.12	429.19
344.348	414.19
344.576	406.19
344.804	389.19
345.031	362.19
345.259	377.19
345.487	384.19
345.714	370.19
345.942	353.19
346.17	376.19
346.397	376.19
346.625	367.19
346.853	361.19
347.08	343.19
347.308	349.19
347.535	347.19
347.763	349.19
347.99	364.19
348.218	340.19
348.445	358.19
348.673	347.19
348.9	354.19
349.128	374.19
349.355	358.19
349.583	357.19
349.81	353.19
350.037	359.19
350.265	356.19
350.492	357.19
350.72	344.19
350.947	364.19
351.174	360.19
351.402	354.19
351.629	350.19
351.856	346.19
352.083	361.19
352.311	362.19
352.538	361.19
352.765	351.19
352.992	360.19
353.22	354.19
353.447	361.19
353.674	348.19
353.901	349.19
354.128	351.19
354.355	359.19
354.583	360.19
354.81	344.19
355.037	357.19
355.264	348.19
355.491	325.19
355.718	348.19
355.945	358.19
356.172	345.19
356.399	361.19
356.626	356.19
356.853	353.19
357.08	378.19
357.307	370.19
357.534	363.19
357.761	354.19
357.988	356.19
358.215	347.19
358.441	353.19
358.668	375.19
358.895	344.19
359.122	365.19
359.349	371.19
359.576	350.19
359.802	360.19
360.029	341.19
360.256	364.19
360.483	377.19
360.709	362.19
360.936	343.19
361.163	357.19
361.39	345.19
361.616	341.19
361.843	366.19
362.07	358.19
362.296	370.19
362.523	345.19
362.749	357.19
362.976	359.19
363.203	368.19
363.429	364.19
363.656	358.19
363.882	346.19
364.109	358.19
364.335	356.19
364.562	342.19
364.788	377.19
365.015	356.19
365.241	349.19
365.468	348.19
365.694	351.19
365.92	360.19
366.147	375.19
366.373	354.19
366.599	350.19
366.826	373.19
367.052	368.19
367.278	339.19
367.505	362.19
367.731	372.19
367.957	380.19
368.184	370.19
368.41	372.19
368.636	374.19
368.862	389.19
369.089	363.19
369.315	360.19
369.541	372.19
369.767	375.19
369.993	393.19
370.219	378.19
370.445	377.19
370.672	373.19
370.898	392.19
371.124	396.19
371.35	397.19
371.576	375.19
371.802	394.19
372.028	398.19
372.254	402.19
372.48	387.19
372.706	409.19
372.932	410.19
373.158	393.19
373.384	404.19
373.61	412.19
373.835	418.19
374.061	407.19
374.287	407.19
374.513	395.19
374.739	423.19
374.965	407.19
375.191	427.19
375.416	419.19
375.642	412.19
375.868	421.19
376.094	399.19
376.319	390.19
376.545	393.19
376.771	419.19
376.997	396.19
377.222	400.19
377.448	391.19
377.674	393.19
377.899	390.19
378.125	394.19
378.35	395.19
378.576	390.19
378.802	398.19
379.027	402.19
379.253	394.19
379.478	396.19
379.704	402.19
379.929	398.19
380.155	402.19
380.38	408.19
380.606	382.19
380.831	405.19
381.057	404.19
381.282	414.19
381.507	396.19
381.733	414.19
381.958	403.19
382.184	393.19
382.409	410.19
382.634	408.19
382.86	428.19
383.085	406.19
383.31	433.19
383.535	460.19
383.761	429.19
383.986	426.19
384.211	457.19
384.436	440.19
384.662	450.19
384.887	472.19
385.112	446.19
385.337	463.19
385.562	460.19
385.787	442.19
386.013	478.19
386.238	468.19
386.463	468.19
386.688	460.19
386.913	456.19
387.138	481.19
387.363	478.19
387.588	457.19
387.813	466.19
388.038	472.19
388.263	455.19
388.488	474.19
388.713	476.19
388.938	473.19
389.163	458.19
389.387	451.19
389.612	452.19
389.837	461.19
390.062	459.19
390.287	457.19
390.512	451.19
390.736	455.19
390.961	466.19
391.186	467.19
391.411	490.19
391.636	497.19
391.86	520.19
392.085	509.19
392.31	505.19
392.534	516.19
392.759	519.19
392.984	469.19
393.208	491.19
393.433	488.19
393.658	500.19
393.882	495.19
394.107	489.19
394.331	496.19
394.556	491.19
394.78	474.19
395.005	508.19
395.229	508.19
395.454	519.19
395.678	514.19
395.903	534.19
396.127	536.19
396.352	496.19
396.576	516.19
396.801	503.19
397.025	500.19
397.249	516.19
397.474	522.19
397.698	516.19
397.922	530.19
398.147	552.19
398.371	540.19
398.595	570.19
398.82	541.19
399.044	624.19
399.268	664.19
399.492	705.19
399.717	752.19
399.941	746.19
400.165	698.19
400.389	669.19
400.613	615.19
400.837	586.19
401.062	597.19
401.286	587.19
401.51	577.19
401.734	570.19
401.958	585.19
402.182	596.19
402.406	584.19
402.63	580.19
402.854	582.19
403.078	586.19
403.302	609.19
403.526	616.19
403.75	595.19
403.974	618.19
404.198	611.19
404.422	626.19
404.645	619.19
404.869	640.19
405.093	585.19
405.317	597.19
405.541	630.19
405.765	618.19
405.988	631.19
406.212	626.19
406.436	630.19
406.66	649.19
406.883	628.19
407.107	634.19
407.331	680.19
407.555	688.19
407.778	668.19
408.002	669.19
408.226	645.19
408.449	661.19
408.673	654.19
408.896	622.19
409.12	618.19
409.344	615.19
409.567	619.19
409.791	614.19
410.014	628.19
410.238	589.19
410.461	592.19
410.685	624.19
410.908	603.19
411.132	599.19
411.355	578.19
411.578	593.19
411.802	607.19
412.025	590.19
412.249	597.19
412.472	608.19
412.695	582.19
412.919	592.19
413.142	586.19
413.365	598.19
413.589	596.19
413.812	572.19
414.035	570.19
414.258	594.19
414.482	583.19
414.705	600.19
414.928	561.19
415.151	574.19
415.374	568.19
415.597	583.19
415.821	581.19
416.044	565.19
416.267	585.19
416.49	557.19
416.713	551.19
416.936	572.19
417.159	570.19
417.382	556.19
417.605	559.19
417.828	570.19
418.051	585.19
418.274	562.19
418.497	581.19
418.72	579.19
418.943	577.19
419.166	613.19
419.389	616.19
419.611	629.19
419.834	602.19
420.057	598.19
420.28	590.19
420.503	576.19
420.726	576.19
420.948	554.19
421.171	563.19
421.394	579.19
421.617	565.19
421.839	559.19
422.062	566.19
422.285	578.19
422.507	597.19
422.73	569.19
422.953	585.19
423.175	593.19
423.398	591.19
423.621	574.19
423.843	600.19
424.066	579.19
424.288	581.19
424.511	565.19
424.733	576.19
424.956	568.19
425.178	570.19
425.401	561.19
425.623	586.19
425.846	565.19
426.068	580.19
426.291	547.19
426.513	540.19
426.735	554.19
426.958	558.19
427.18	562.19
427.402	544.19
427.625	543.19
427.847	533.19
428.069	560.19
428.292	555.19
428.514	541.19
428.736	522.19
428.958	547.19
429.181	527.19
429.403	519.19
429.625	532.19
429.847	539.19
430.069	549.19
430.292	529.19
430.514	514.19
430.736	544.19
430.958	536.19
431.18	528.19
431.402	538.19
431.624	541.19
431.846	538.19
432.068	546.19
432.29	543.19
432.512	520.19
432.734	536.19
432.956	521.19
433.178	548.19
433.4	552.19
433.622	534.19
433.844	544.19
434.066	544.19
434.287	539.19
434.509	550.19
434.731	562.19
434.953	614.19
435.175	587.19
435.397	594.19
435.618	571.19
435.84	541.19
436.062	546.19
436.284	547.19
436.505	562.19
436.727	546.19
436.949	542.19
437.17	532.19
437.392	524.19
437.614	533.19
437.835	521.19
438.057	536.19
438.278	534.19
438.5	541.19
438.721	522.19
438.943	533.19
439.165	536.19
439.386	539.19
439.608	527.19
439.829	540.19
440.05	553.19
440.272	542.19
440.493	532.19
440.715	549.19
440.936	560.19
441.158	546.19
441.379	562.19
441.6	571.19
441.822	585.19
442.043	579.19
442.264	568.19
442.486	582.19
442.707	590.19
442.928	584.19
443.149	558.19
443.371	570.19
443.592	570.19
443.813	582.19
444.034	599.19
444.255	615.19
444.476	616.19
444.698	645.19
444.919	668.19
445.14	744.19
445.361	644.19
445.582	607.19
445.803	587.19
446.024	565.19
446.245	598.19
446.466	558.19
446.687	564.19
446.908	578.19
447.129	558.19
447.35	562.19
447.571	550.19
447.792	532.19
448.013	521.19
448.234	520.19
448.455	522.19
448.675	506.19
448.896	499.19
449.117	516.19
449.338	522.19
449.559	508.19
449.779	522.19
450	514.19
450.221	507.19
450.442	522.19
450.662	501.19
450.883	526.19
451.104	512.19
451.324	519.19
451.545	522.19
451.766	512.19
451.986	523.19
452.207	516.19
452.428	510.19
452.648	514.19
452.869	456.19
453.089	462.19
453.31	490.19
453.53	492.19
453.751	469.19
453.971	496.19
454.192	498.19
454.412	481.19
454.633	487.19
454.853	480.19
455.073	481.19
455.294	495.19
455.514	488.19
455.734	488.19
455.955	455.19
456.175	486.19
456.395	487.19
456.616	472.19
456.836	503.19
457.056	497.19
457.276	462.19
457.497	516.19
457.717	480.19
457.937	487.19
458.157	498.19
458.377	511.19
458.598	504.19
458.818	485.19
459.038	512.19
459.258	526.19
459.478	515.19
459.698	549.19
459.918	551.19
460.138	588.19
460.358	590.19
460.578	610.19
460.798	608.19
461.018	615.19
461.238	603.19
461.458	603.19
461.678	620.19
461.898	626.19
462.118	630.19
462.338	651.19
462.558	650.19
462.777	678.19
462.997	709.19
463.217	710.19
463.437	731.19
463.657	698.19
463.876	692.19
464.096	681.19
464.316	662.19
464.536	655.19
464.755	652.19
464.975	670.19
465.195	629.19
465.414	596.19
465.634	564.19
465.854	582.19
466.073	547.19
466.293	568.19
466.512	540.19
466.732	539.19
466.951	562.19
467.171	538.19
467.391	532.19
467.61	555.19
467.829	541.19
468.049	516.19
468.268	516.19
468.488	498.19
468.707	505.19
468.927	542.19
469.146	535.19
469.365	522.19
469.585	525.19
469.804	545.19
470.023	512.19
470.243	538.19
470.462	553.19
470.681	553.19
470.901	549.19
471.12	551.19
471.339	533.19
471.558	541.19
471.777	537.19
471.997	547.19
472.216	529.19
472.435	509.19
472.654	488.19
472.873	517.19
473.092	512.19
473.311	504.19
473.53	515.19
473.749	524.19
473.968	543.19
474.187	509.19
474.406	499.19
474.625	493.19
474.844	516.19
475.063	544.19
475.282	537.19
475.501	516.19
475.72	535.19
475.939	532.19
476.158	542.19
476.377	540.19
476.596	534.19
476.814	556.19
477.033	563.19
477.252	561.19
477.471	562.19
477.69	584.19
477.908	579.19
478.127	580.19
478.346	598.19
478.564	581.19
478.783	590.19
479.002	611.19
479.22	608.19
479.439	632.19
479.658	626.19
479.876	633.19
480.095	603.19
480.313	645.19
480.532	641.19
480.751	648.19
480.969	618.19
481.188	621.19
481.406	633.19
481.624	592.19
481.843	587.19
482.061	585.19
482.28	598.19
482.498	606.19
482.717	588.19
482.935	578.19
483.153	592.19
483.372	602.19
483.59	580.19
483.808	594.19
484.027	600.19
484.245	586.19
484.463	602.19
484.681	608.19
484.9	602.19
485.118	611.19
485.336	597.19
485.554	621.19
485.772	611.19
485.99	601.19
486.209	590.19
486.427	610.19
486.645	599.19
486.863	601.19
487.081	617.19
487.299	621.19
487.517	613.19
487.735	598.19
487.953	635.19
488.171	644.19
488.389	613.19
488.607	593.19
488.825	593.19
489.043	624.19
489.261	626.19
489.479	622.19
489.696	604.19
489.914	614.19
490.132	614.19
490.35	600.19
490.568	610.19
490.786	633.19
491.003	628.19
491.221	627.19
491.439	625.19
491.657	616.19
491.874	654.19
492.092	645.19
492.31	670.19
492.527	660.19
492.745	660.19
492.963	636.19
493.18	630.19
493.398	636.19
493.615	648.19
493.833	626.19
494.05	648.19
494.268	638.19
494.485	643.19
494.703	679.19
494.92	663.19
495.138	674.19
495.355	647.19
495.573	664.19
495.79	672.19
496.008	674.19
496.225	663.19
496.442	686.19
496.66	690.19
496.877	696.19
497.094	704.19
497.312	731.19
497.529	717.19
497.746	722.19
497.963	765.19
498.181	781.19
498.398	805.19
498.615	832.19
498.832	857.19
499.049	876.19
499.267	954.19
499.484	1013.19
499.701	1088.19
499.918	1129.19
500.135	1232.19
500.352	1385.19
500.569	1365.19
500.786	1365.19
501.003	1287.19
501.22	1193.19
501.437	1136.19
501.654	1024.19
