Data from Fe(NO3)3@0.0125M.TitratingCurve.Agarose3%dH2O.NegLispCup.LampEnergy10.LIBS07252019_HRD10591_17-01-18-337.txt Node
Date: Thu Jul 25 17:01:18 EDT 2019
User: cochatt
Spectrometer: HR+D1059
Trigger mode: 1
Integration Time (sec): 1.000000E-1
Scans to average: 1
Electric dark correction enabled: true
Nonlinearity correction enabled: false
Boxcar width: 0
XAxis mode: Wavelengths
Number of Pixels in Spectrum: 2048
>>>>>Begin Spectral Data<<<<<
223.165	-25.44
223.4	-25.44
223.635	-25.44
223.869	-12.44
224.104	-15.44
224.338	-21.44
224.573	-12.44
224.808	-9.44
225.042	-2.44
225.277	-18.44
225.511	0.56
225.746	18.56
225.98	-6.44
226.215	4.56
226.449	15.56
226.683	18.56
226.918	26.56
227.152	39.56
227.387	34.56
227.621	27.56
227.856	41.56
228.09	53.56
228.324	50.56
228.559	61.56
228.793	63.56
229.027	78.56
229.262	82.56
229.496	77.56
229.73	89.56
229.964	82.56
230.199	94.56
230.433	97.56
230.667	109.56
230.901	78.56
231.136	91.56
231.37	99.56
231.604	91.56
231.838	93.56
232.072	89.56
232.306	104.56
232.541	105.56
232.775	84.56
233.009	113.56
233.243	94.56
233.477	97.56
233.711	115.56
233.945	101.56
234.179	100.56
234.413	101.56
234.647	116.56
234.881	112.56
235.115	112.56
235.349	106.56
235.583	100.56
235.817	109.56
236.051	95.56
236.285	107.56
236.519	117.56
236.753	105.56
236.987	100.56
237.221	117.56
237.455	104.56
237.689	112.56
237.922	100.56
238.156	98.56
238.39	100.56
238.624	113.56
238.858	115.56
239.091	106.56
239.325	105.56
239.559	108.56
239.793	112.56
240.027	98.56
240.26	118.56
240.494	115.56
240.728	107.56
240.961	112.56
241.195	120.56
241.429	124.56
241.662	113.56
241.896	104.56
242.13	125.56
242.363	109.56
242.597	132.56
242.83	118.56
243.064	112.56
243.298	115.56
243.531	122.56
243.765	102.56
243.998	124.56
244.232	129.56
244.465	128.56
244.699	120.56
244.932	122.56
245.166	118.56
245.399	121.56
245.633	116.56
245.866	120.56
246.099	119.56
246.333	118.56
246.566	119.56
246.8	130.56
247.033	130.56
247.266	134.56
247.5	109.56
247.733	126.56
247.966	125.56
248.2	135.56
248.433	129.56
248.666	125.56
248.899	142.56
249.133	125.56
249.366	140.56
249.599	127.56
249.832	155.56
250.066	145.56
250.299	122.56
250.532	142.56
250.765	122.56
250.998	136.56
251.231	139.56
251.465	131.56
251.698	140.56
251.931	140.56
252.164	138.56
252.397	126.56
252.63	134.56
252.863	148.56
253.096	146.56
253.329	165.56
253.562	146.56
253.795	152.56
254.028	157.56
254.261	149.56
254.494	142.56
254.727	152.56
254.96	150.56
255.193	153.56
255.426	172.56
255.659	150.56
255.892	148.56
256.124	154.56
256.357	139.56
256.59	138.56
256.823	154.56
257.056	137.56
257.289	142.56
257.521	178.56
257.754	160.56
257.987	150.56
258.22	166.56
258.452	134.56
258.685	140.56
258.918	156.56
259.151	155.56
259.383	172.56
259.616	152.56
259.849	161.56
260.081	162.56
260.314	164.56
260.547	158.56
260.779	162.56
261.012	168.56
261.244	169.56
261.477	172.56
261.71	168.56
261.942	176.56
262.175	162.56
262.407	172.56
262.64	163.56
262.872	169.56
263.105	188.56
263.337	172.56
263.57	178.56
263.802	169.56
264.035	188.56
264.267	178.56
264.499	170.56
264.732	163.56
264.964	177.56
265.197	157.56
265.429	168.56
265.661	161.56
265.894	182.56
266.126	168.56
266.358	162.56
266.591	178.56
266.823	180.56
267.055	195.56
267.287	165.56
267.52	178.56
267.752	168.56
267.984	205.56
268.216	187.56
268.448	182.56
268.681	175.56
268.913	178.56
269.145	180.56
269.377	171.56
269.609	195.56
269.841	184.56
270.073	181.56
270.306	179.56
270.538	180.56
270.77	163.56
271.002	182.56
271.234	184.56
271.466	196.56
271.698	191.56
271.93	180.56
272.162	180.56
272.394	178.56
272.626	182.56
272.858	187.56
273.09	192.56
273.322	198.56
273.553	199.56
273.785	188.56
274.017	201.56
274.249	180.56
274.481	184.56
274.713	206.56
274.945	216.56
275.176	209.56
275.408	198.56
275.64	206.56
275.872	210.56
276.104	210.56
276.335	212.56
276.567	212.56
276.799	207.56
277.031	193.56
277.262	217.56
277.494	201.56
277.726	226.56
277.957	194.56
278.189	203.56
278.421	222.56
278.652	203.56
278.884	219.56
279.115	223.56
279.347	215.56
279.579	215.56
279.81	212.56
280.042	204.56
280.273	203.56
280.505	209.56
280.736	206.56
280.968	198.56
281.199	210.56
281.431	225.56
281.662	218.56
281.894	227.56
282.125	223.56
282.356	240.56
282.588	198.56
282.819	203.56
283.051	218.56
283.282	210.56
283.513	230.56
283.745	217.56
283.976	230.56
284.207	225.56
284.439	225.56
284.67	227.56
284.901	226.56
285.132	227.56
285.364	224.56
285.595	244.56
285.826	223.56
286.057	235.56
286.288	228.56
286.52	230.56
286.751	218.56
286.982	221.56
287.213	216.56
287.444	216.56
287.675	228.56
287.906	242.56
288.138	247.56
288.369	255.56
288.6	244.56
288.831	229.56
289.062	244.56
289.293	224.56
289.524	240.56
289.755	243.56
289.986	228.56
290.217	241.56
290.448	245.56
290.679	245.56
290.91	231.56
291.141	221.56
291.371	243.56
291.602	231.56
291.833	252.56
292.064	236.56
292.295	228.56
292.526	240.56
292.757	224.56
292.987	252.56
293.218	237.56
293.449	244.56
293.68	229.56
293.91	235.56
294.141	244.56
294.372	226.56
294.603	254.56
294.833	260.56
295.064	234.56
295.295	230.56
295.525	256.56
295.756	249.56
295.987	245.56
296.217	242.56
296.448	265.56
296.679	253.56
296.909	250.56
297.14	247.56
297.37	256.56
297.601	242.56
297.831	251.56
298.062	249.56
298.292	260.56
298.523	251.56
298.753	258.56
298.984	257.56
299.214	248.56
299.445	259.56
299.675	257.56
299.905	268.56
300.136	245.56
300.366	265.56
300.597	265.56
300.827	269.56
301.057	259.56
301.288	262.56
301.518	249.56
301.748	284.56
301.979	277.56
302.209	276.56
302.439	272.56
302.669	291.56
302.9	266.56
303.13	279.56
303.36	282.56
303.59	275.56
303.82	276.56
304.051	279.56
304.281	283.56
304.511	292.56
304.741	265.56
304.971	266.56
305.201	277.56
305.431	275.56
305.661	261.56
305.891	301.56
306.121	276.56
306.352	275.56
306.582	265.56
306.812	279.56
307.042	274.56
307.272	279.56
307.502	265.56
307.731	264.56
307.961	276.56
308.191	269.56
308.421	266.56
308.651	299.56
308.881	282.56
309.111	277.56
309.341	282.56
309.571	272.56
309.8	276.56
310.03	268.56
310.26	265.56
310.49	277.56
310.72	276.56
310.949	297.56
311.179	276.56
311.409	276.56
311.639	282.56
311.868	299.56
312.098	294.56
312.328	285.56
312.557	298.56
312.787	306.56
313.017	295.56
313.246	290.56
313.476	265.56
313.706	298.56
313.935	289.56
314.165	305.56
314.394	289.56
314.624	292.56
314.853	297.56
315.083	276.56
315.312	322.56
315.542	296.56
315.771	292.56
316.001	296.56
316.23	286.56
316.46	305.56
316.689	289.56
316.919	274.56
317.148	298.56
317.377	305.56
317.607	296.56
317.836	302.56
318.065	298.56
318.295	313.56
318.524	302.56
318.753	299.56
318.983	293.56
319.212	296.56
319.441	299.56
319.67	285.56
319.9	315.56
320.129	300.56
320.358	298.56
320.587	307.56
320.816	317.56
321.046	307.56
321.275	312.56
321.504	310.56
321.733	291.56
321.962	306.56
322.191	288.56
322.42	301.56
322.649	308.56
322.878	310.56
323.108	306.56
323.337	313.56
323.566	298.56
323.795	304.56
324.024	336.56
324.253	319.56
324.482	315.56
324.71	315.56
324.939	307.56
325.168	304.56
325.397	308.56
325.626	331.56
325.855	334.56
326.084	322.56
326.313	320.56
326.542	326.56
326.77	349.56
326.999	319.56
327.228	316.56
327.457	311.56
327.686	324.56
327.914	315.56
328.143	310.56
328.372	335.56
328.6	307.56
328.829	320.56
329.058	320.56
329.287	348.56
329.515	325.56
329.744	318.56
329.972	324.56
330.201	331.56
330.43	330.56
330.658	328.56
330.887	357.56
331.115	331.56
331.344	346.56
331.572	336.56
331.801	344.56
332.03	349.56
332.258	343.56
332.486	339.56
332.715	368.56
332.943	379.56
333.172	372.56
333.4	363.56
333.629	353.56
333.857	383.56
334.085	376.56
334.314	382.56
334.542	384.56
334.771	373.56
334.999	368.56
335.227	388.56
335.455	395.56
335.684	374.56
335.912	387.56
336.14	371.56
336.369	364.56
336.597	378.56
336.825	373.56
337.053	368.56
337.281	371.56
337.51	371.56
337.738	374.56
337.966	363.56
338.194	361.56
338.422	344.56
338.65	362.56
338.878	359.56
339.106	349.56
339.334	376.56
339.562	339.56
339.79	340.56
340.018	356.56
340.246	339.56
340.474	345.56
340.702	364.56
340.93	351.56
341.158	359.56
341.386	334.56
341.614	337.56
341.842	346.56
342.07	372.56
342.298	378.56
342.526	338.56
342.754	342.56
342.981	350.56
343.209	354.56
343.437	369.56
343.665	358.56
343.893	377.56
344.12	378.56
344.348	382.56
344.576	380.56
344.804	356.56
345.031	362.56
345.259	374.56
345.487	354.56
345.714	341.56
345.942	355.56
346.17	345.56
346.397	345.56
346.625	351.56
346.853	334.56
347.08	353.56
347.308	355.56
347.535	354.56
347.763	357.56
347.99	347.56
348.218	345.56
348.445	343.56
348.673	337.56
348.9	342.56
349.128	355.56
349.355	324.56
349.583	330.56
349.81	343.56
350.037	349.56
350.265	345.56
350.492	337.56
350.72	336.56
350.947	334.56
351.174	340.56
351.402	342.56
351.629	333.56
351.856	338.56
352.083	314.56
352.311	326.56
352.538	331.56
352.765	332.56
352.992	331.56
353.22	338.56
353.447	327.56
353.674	332.56
353.901	336.56
354.128	336.56
354.355	331.56
354.583	293.56
354.81	344.56
355.037	326.56
355.264	356.56
355.491	333.56
355.718	334.56
355.945	322.56
356.172	322.56
356.399	338.56
356.626	344.56
356.853	352.56
357.08	333.56
357.307	353.56
357.534	338.56
357.761	332.56
357.988	345.56
358.215	349.56
358.441	354.56
358.668	346.56
358.895	329.56
359.122	315.56
359.349	347.56
359.576	329.56
359.802	333.56
360.029	341.56
360.256	342.56
360.483	330.56
360.709	328.56
360.936	352.56
361.163	363.56
361.39	337.56
361.616	338.56
361.843	337.56
362.07	334.56
362.296	353.56
362.523	352.56
362.749	330.56
362.976	342.56
363.203	344.56
363.429	345.56
363.656	333.56
363.882	347.56
364.109	339.56
364.335	345.56
364.562	324.56
364.788	343.56
365.015	354.56
365.241	347.56
365.468	338.56
365.694	346.56
365.92	355.56
366.147	328.56
366.373	349.56
366.599	333.56
366.826	342.56
367.052	352.56
367.278	337.56
367.505	338.56
367.731	354.56
367.957	350.56
368.184	349.56
368.41	346.56
368.636	330.56
368.862	347.56
369.089	341.56
369.315	352.56
369.541	349.56
369.767	346.56
369.993	378.56
370.219	350.56
370.445	351.56
370.672	354.56
370.898	377.56
371.124	356.56
371.35	370.56
371.576	362.56
371.802	352.56
372.028	361.56
372.254	386.56
372.48	391.56
372.706	384.56
372.932	382.56
373.158	384.56
373.384	368.56
373.61	392.56
373.835	385.56
374.061	388.56
374.287	382.56
374.513	370.56
374.739	375.56
374.965	394.56
375.191	399.56
375.416	372.56
375.642	375.56
375.868	404.56
376.094	381.56
376.319	359.56
376.545	380.56
376.771	364.56
376.997	386.56
377.222	368.56
377.448	374.56
377.674	368.56
377.899	366.56
378.125	365.56
378.35	365.56
378.576	388.56
378.802	384.56
379.027	377.56
379.253	381.56
379.478	356.56
379.704	354.56
379.929	360.56
380.155	373.56
380.38	372.56
380.606	381.56
380.831	365.56
381.057	371.56
381.282	365.56
381.507	355.56
381.733	358.56
381.958	385.56
382.184	381.56
382.409	379.56
382.634	392.56
382.86	417.56
383.085	372.56
383.31	375.56
383.535	389.56
383.761	381.56
383.986	372.56
384.211	382.56
384.436	405.56
384.662	404.56
384.887	422.56
385.112	397.56
385.337	406.56
385.562	404.56
385.787	399.56
386.013	421.56
386.238	429.56
386.463	417.56
386.688	410.56
386.913	417.56
387.138	417.56
387.363	422.56
387.588	421.56
387.813	420.56
388.038	420.56
388.263	425.56
388.488	435.56
388.713	428.56
388.938	435.56
389.163	422.56
389.387	390.56
389.612	420.56
389.837	414.56
390.062	432.56
390.287	436.56
390.512	419.56
390.736	418.56
390.961	433.56
391.186	434.56
391.411	444.56
391.636	437.56
391.86	463.56
392.085	454.56
392.31	446.56
392.534	431.56
392.759	432.56
392.984	450.56
393.208	446.56
393.433	447.56
393.658	453.56
393.882	455.56
394.107	441.56
394.331	445.56
394.556	440.56
394.78	445.56
395.005	469.56
395.229	445.56
395.454	465.56
395.678	474.56
395.903	448.56
396.127	463.56
396.352	479.56
396.576	463.56
396.801	469.56
397.025	466.56
397.249	473.56
397.474	454.56
397.698	496.56
397.922	466.56
398.147	508.56
398.371	478.56
398.595	493.56
398.82	507.56
399.044	515.56
399.268	548.56
399.492	569.56
399.717	567.56
399.941	579.56
400.165	576.56
400.389	580.56
400.613	561.56
400.837	515.56
401.062	524.56
401.286	474.56
401.51	493.56
401.734	493.56
401.958	493.56
402.182	492.56
402.406	507.56
402.63	512.56
402.854	496.56
403.078	480.56
403.302	526.56
403.526	524.56
403.75	502.56
403.974	533.56
404.198	512.56
404.422	520.56
404.645	520.56
404.869	505.56
405.093	498.56
405.317	515.56
405.541	519.56
405.765	509.56
405.988	521.56
406.212	516.56
406.436	542.56
406.66	533.56
406.883	520.56
407.107	541.56
407.331	551.56
407.555	573.56
407.778	564.56
408.002	554.56
408.226	572.56
408.449	546.56
408.673	540.56
408.896	530.56
409.12	534.56
409.344	536.56
409.567	517.56
409.791	532.56
410.014	526.56
410.238	544.56
410.461	543.56
410.685	534.56
410.908	540.56
411.132	522.56
411.355	518.56
411.578	509.56
411.802	520.56
412.025	504.56
412.249	503.56
412.472	495.56
412.695	508.56
412.919	512.56
413.142	498.56
413.365	509.56
413.589	498.56
413.812	491.56
414.035	484.56
414.258	489.56
414.482	477.56
414.705	509.56
414.928	489.56
415.151	502.56
415.374	492.56
415.597	492.56
415.821	464.56
416.044	491.56
416.267	484.56
416.49	474.56
416.713	473.56
416.936	478.56
417.159	482.56
417.382	480.56
417.605	482.56
417.828	481.56
418.051	461.56
418.274	482.56
418.497	492.56
418.72	470.56
418.943	489.56
419.166	498.56
419.389	518.56
419.611	517.56
419.834	491.56
420.057	512.56
420.28	475.56
420.503	477.56
420.726	474.56
420.948	471.56
421.171	466.56
421.394	465.56
421.617	469.56
421.839	464.56
422.062	472.56
422.285	469.56
422.507	489.56
422.73	474.56
422.953	487.56
423.175	452.56
423.398	470.56
423.621	479.56
423.843	472.56
424.066	483.56
424.288	482.56
424.511	482.56
424.733	456.56
424.956	484.56
425.178	464.56
425.401	457.56
425.623	480.56
425.846	461.56
426.068	468.56
426.291	483.56
426.513	464.56
426.735	474.56
426.958	463.56
427.18	454.56
427.402	446.56
427.625	462.56
427.847	451.56
428.069	469.56
428.292	465.56
428.514	438.56
428.736	459.56
428.958	444.56
429.181	433.56
429.403	447.56
429.625	451.56
429.847	451.56
430.069	470.56
430.292	439.56
430.514	457.56
430.736	455.56
430.958	442.56
431.18	465.56
431.402	437.56
431.624	460.56
431.846	453.56
432.068	444.56
432.29	456.56
432.512	442.56
432.734	441.56
432.956	454.56
433.178	450.56
433.4	464.56
433.622	449.56
433.844	448.56
434.066	466.56
434.287	437.56
434.509	445.56
434.731	458.56
434.953	465.56
435.175	468.56
435.397	463.56
435.618	467.56
435.84	480.56
436.062	463.56
436.284	446.56
436.505	446.56
436.727	453.56
436.949	453.56
437.17	452.56
437.392	434.56
437.614	432.56
437.835	432.56
438.057	432.56
438.278	446.56
438.5	434.56
438.721	419.56
438.943	437.56
439.165	450.56
439.386	430.56
439.608	450.56
439.829	451.56
440.05	456.56
440.272	456.56
440.493	456.56
440.715	467.56
440.936	461.56
441.158	460.56
441.379	444.56
441.6	456.56
441.822	477.56
442.043	462.56
442.264	454.56
442.486	458.56
442.707	472.56
442.928	453.56
443.149	476.56
443.371	461.56
443.592	477.56
443.813	469.56
444.034	466.56
444.255	461.56
444.476	476.56
444.698	500.56
444.919	486.56
445.14	591.56
445.361	501.56
445.582	487.56
445.803	453.56
446.024	467.56
446.245	435.56
446.466	454.56
446.687	449.56
446.908	451.56
447.129	443.56
447.35	424.56
447.571	424.56
447.792	451.56
448.013	427.56
448.234	438.56
448.455	434.56
448.675	404.56
448.896	405.56
449.117	396.56
449.338	400.56
449.559	427.56
449.779	411.56
450	423.56
450.221	394.56
450.442	429.56
450.662	418.56
450.883	410.56
451.104	412.56
451.324	400.56
451.545	409.56
451.766	403.56
451.986	416.56
452.207	390.56
452.428	405.56
452.648	398.56
452.869	396.56
453.089	408.56
453.31	413.56
453.53	394.56
453.751	408.56
453.971	411.56
454.192	399.56
454.412	403.56
454.633	397.56
454.853	401.56
455.073	409.56
455.294	411.56
455.514	403.56
455.734	388.56
455.955	391.56
456.175	385.56
456.395	392.56
456.616	395.56
456.836	406.56
457.056	404.56
457.276	399.56
457.497	402.56
457.717	409.56
457.937	419.56
458.157	398.56
458.377	422.56
458.598	426.56
458.818	429.56
459.038	424.56
459.258	433.56
459.478	450.56
459.698	456.56
459.918	458.56
460.138	455.56
460.358	457.56
460.578	457.56
460.798	470.56
461.018	466.56
461.238	497.56
461.458	504.56
461.678	479.56
461.898	492.56
462.118	512.56
462.338	513.56
462.558	500.56
462.777	514.56
462.997	520.56
463.217	548.56
463.437	546.56
463.657	514.56
463.876	523.56
464.096	523.56
464.316	516.56
464.536	523.56
464.755	505.56
464.975	507.56
465.195	504.56
465.414	496.56
465.634	460.56
465.854	458.56
466.073	445.56
466.293	444.56
466.512	441.56
466.732	441.56
466.951	460.56
467.171	450.56
467.391	441.56
467.61	433.56
467.829	435.56
468.049	419.56
468.268	452.56
468.488	449.56
468.707	442.56
468.927	435.56
469.146	438.56
469.365	440.56
469.585	425.56
469.804	438.56
470.023	434.56
470.243	438.56
470.462	458.56
470.681	452.56
470.901	429.56
471.12	444.56
471.339	450.56
471.558	426.56
471.777	428.56
471.997	428.56
472.216	410.56
472.435	451.56
472.654	437.56
472.873	423.56
473.092	424.56
473.311	433.56
473.53	435.56
473.749	436.56
473.968	445.56
474.187	416.56
474.406	420.56
474.625	431.56
474.844	445.56
475.063	418.56
475.282	438.56
475.501	436.56
475.72	436.56
475.939	438.56
476.158	456.56
476.377	454.56
476.596	469.56
476.814	466.56
477.033	444.56
477.252	457.56
477.471	454.56
477.69	465.56
477.908	484.56
478.127	492.56
478.346	485.56
478.564	511.56
478.783	512.56
479.002	519.56
479.22	495.56
479.439	516.56
479.658	503.56
479.876	501.56
480.095	510.56
480.313	508.56
480.532	524.56
480.751	532.56
480.969	520.56
481.188	497.56
481.406	505.56
481.624	517.56
481.843	506.56
482.061	522.56
482.28	512.56
482.498	514.56
482.717	508.56
482.935	529.56
483.153	506.56
483.372	504.56
483.59	488.56
483.808	533.56
484.027	500.56
484.245	520.56
484.463	529.56
484.681	517.56
484.9	507.56
485.118	524.56
485.336	516.56
485.554	530.56
485.772	512.56
485.99	513.56
486.209	512.56
486.427	513.56
486.645	516.56
486.863	520.56
487.081	522.56
487.299	526.56
487.517	524.56
487.735	548.56
487.953	536.56
488.171	532.56
488.389	521.56
488.607	509.56
488.825	500.56
489.043	523.56
489.261	532.56
489.479	535.56
489.696	505.56
489.914	507.56
490.132	514.56
490.35	527.56
490.568	524.56
490.786	522.56
491.003	533.56
491.221	534.56
491.439	525.56
491.657	525.56
491.874	514.56
492.092	562.56
492.31	538.56
492.527	536.56
492.745	535.56
492.963	518.56
493.18	531.56
493.398	529.56
493.615	549.56
493.833	537.56
494.05	529.56
494.268	518.56
494.485	535.56
494.703	549.56
494.92	550.56
495.138	536.56
495.355	556.56
495.573	566.56
495.79	555.56
496.008	570.56
496.225	569.56
496.442	547.56
496.66	557.56
496.877	579.56
497.094	578.56
497.312	592.56
497.529	597.56
497.746	621.56
497.963	648.56
498.181	638.56
498.398	653.56
498.615	677.56
498.832	719.56
499.049	703.56
499.267	753.56
499.484	773.56
499.701	864.56
499.918	874.56
500.135	893.56
500.352	948.56
500.569	961.56
500.786	942.56
501.003	921.56
501.22	885.56
501.437	850.56
501.654	847.56
501.871	801.56
