Data from Fe(NO3)3@0.05M.TitratingCurve.Agarose3%dH2O.NegLispCup.LampEnergy10.LIBS07252019_HRD10591_16-48-13-334.txt Node
Date: Thu Jul 25 16:48:13 EDT 2019
User: cochatt
Spectrometer: HR+D1059
Trigger mode: 1
Integration Time (sec): 1.000000E-1
Scans to average: 1
Electric dark correction enabled: true
Nonlinearity correction enabled: false
Boxcar width: 0
XAxis mode: Wavelengths
Number of Pixels in Spectrum: 2048
>>>>>Begin Spectral Data<<<<<
223.165	-21.56
223.4	-21.56
223.635	-21.56
223.869	-6.56
224.104	-16.56
224.338	-19.56
224.573	-9.56
224.808	2.44
225.042	-8.56
225.277	-2.56
225.511	-11.56
225.746	-11.56
225.98	3.44
226.215	-2.56
226.449	14.44
226.683	22.44
226.918	19.44
227.152	48.44
227.387	42.44
227.621	42.44
227.856	38.44
228.09	43.44
228.324	36.44
228.559	51.44
228.793	64.44
229.027	62.44
229.262	61.44
229.496	81.44
229.73	68.44
229.964	80.44
230.199	90.44
230.433	89.44
230.667	72.44
230.901	94.44
231.136	95.44
231.37	92.44
231.604	94.44
231.838	85.44
232.072	89.44
232.306	99.44
232.541	112.44
232.775	97.44
233.009	95.44
233.243	100.44
233.477	97.44
233.711	99.44
233.945	107.44
234.179	89.44
234.413	107.44
234.647	98.44
234.881	83.44
235.115	97.44
235.349	98.44
235.583	94.44
235.817	94.44
236.051	106.44
236.285	96.44
236.519	123.44
236.753	99.44
236.987	93.44
237.221	89.44
237.455	116.44
237.689	100.44
237.922	109.44
238.156	113.44
238.39	97.44
238.624	120.44
238.858	119.44
239.091	95.44
239.325	98.44
239.559	111.44
239.793	117.44
240.027	117.44
240.26	107.44
240.494	108.44
240.728	115.44
240.961	109.44
241.195	104.44
241.429	102.44
241.662	113.44
241.896	117.44
242.13	105.44
242.363	120.44
242.597	111.44
242.83	119.44
243.064	103.44
243.298	114.44
243.531	105.44
243.765	125.44
243.998	123.44
244.232	119.44
244.465	120.44
244.699	111.44
244.932	113.44
245.166	111.44
245.399	104.44
245.633	120.44
245.866	123.44
246.099	112.44
246.333	117.44
246.566	126.44
246.8	122.44
247.033	118.44
247.266	118.44
247.5	126.44
247.733	115.44
247.966	114.44
248.2	119.44
248.433	122.44
248.666	125.44
248.899	110.44
249.133	125.44
249.366	134.44
249.599	138.44
249.832	127.44
250.066	120.44
250.299	132.44
250.532	122.44
250.765	129.44
250.998	134.44
251.231	121.44
251.465	127.44
251.698	119.44
251.931	123.44
252.164	127.44
252.397	135.44
252.63	129.44
252.863	129.44
253.096	145.44
253.329	141.44
253.562	140.44
253.795	142.44
254.028	126.44
254.261	142.44
254.494	143.44
254.727	141.44
254.96	138.44
255.193	157.44
255.426	148.44
255.659	133.44
255.892	122.44
256.124	146.44
256.357	147.44
256.59	133.44
256.823	131.44
257.056	147.44
257.289	153.44
257.521	132.44
257.754	143.44
257.987	143.44
258.22	159.44
258.452	144.44
258.685	158.44
258.918	144.44
259.151	145.44
259.383	165.44
259.616	146.44
259.849	164.44
260.081	150.44
260.314	175.44
260.547	165.44
260.779	161.44
261.012	162.44
261.244	154.44
261.477	149.44
261.71	151.44
261.942	155.44
262.175	159.44
262.407	148.44
262.64	152.44
262.872	157.44
263.105	141.44
263.337	167.44
263.57	168.44
263.802	151.44
264.035	163.44
264.267	153.44
264.499	152.44
264.732	155.44
264.964	157.44
265.197	139.44
265.429	159.44
265.661	164.44
265.894	127.44
266.126	163.44
266.358	145.44
266.591	160.44
266.823	158.44
267.055	163.44
267.287	177.44
267.52	147.44
267.752	165.44
267.984	149.44
268.216	167.44
268.448	173.44
268.681	168.44
268.913	153.44
269.145	159.44
269.377	154.44
269.609	164.44
269.841	141.44
270.073	151.44
270.306	153.44
270.538	174.44
270.77	160.44
271.002	172.44
271.234	166.44
271.466	177.44
271.698	157.44
271.93	151.44
272.162	169.44
272.394	187.44
272.626	175.44
272.858	165.44
273.09	174.44
273.322	173.44
273.553	177.44
273.785	174.44
274.017	178.44
274.249	193.44
274.481	192.44
274.713	183.44
274.945	193.44
275.176	209.44
275.408	207.44
275.64	195.44
275.872	194.44
276.104	190.44
276.335	177.44
276.567	179.44
276.799	174.44
277.031	168.44
277.262	186.44
277.494	191.44
277.726	195.44
277.957	182.44
278.189	196.44
278.421	161.44
278.652	177.44
278.884	182.44
279.115	195.44
279.347	201.44
279.579	185.44
279.81	181.44
280.042	174.44
280.273	201.44
280.505	186.44
280.736	186.44
280.968	186.44
281.199	189.44
281.431	201.44
281.662	212.44
281.894	202.44
282.125	202.44
282.356	197.44
282.588	187.44
282.819	185.44
283.051	199.44
283.282	198.44
283.513	198.44
283.745	190.44
283.976	195.44
284.207	192.44
284.439	181.44
284.67	194.44
284.901	194.44
285.132	197.44
285.364	186.44
285.595	214.44
285.826	186.44
286.057	215.44
286.288	214.44
286.52	211.44
286.751	201.44
286.982	221.44
287.213	213.44
287.444	194.44
287.675	193.44
287.906	210.44
288.138	189.44
288.369	201.44
288.6	198.44
288.831	204.44
289.062	209.44
289.293	202.44
289.524	204.44
289.755	200.44
289.986	223.44
290.217	207.44
290.448	212.44
290.679	201.44
290.91	213.44
291.141	218.44
291.371	212.44
291.602	213.44
291.833	198.44
292.064	204.44
292.295	208.44
292.526	190.44
292.757	206.44
292.987	199.44
293.218	218.44
293.449	235.44
293.68	210.44
293.91	194.44
294.141	203.44
294.372	222.44
294.603	200.44
294.833	203.44
295.064	221.44
295.295	203.44
295.525	220.44
295.756	217.44
295.987	204.44
296.217	207.44
296.448	214.44
296.679	222.44
296.909	211.44
297.14	221.44
297.37	220.44
297.601	235.44
297.831	231.44
298.062	226.44
298.292	235.44
298.523	254.44
298.753	227.44
298.984	214.44
299.214	232.44
299.445	224.44
299.675	228.44
299.905	223.44
300.136	228.44
300.366	231.44
300.597	224.44
300.827	223.44
301.057	243.44
301.288	233.44
301.518	224.44
301.748	241.44
301.979	221.44
302.209	237.44
302.439	231.44
302.669	245.44
302.9	263.44
303.13	247.44
303.36	221.44
303.59	212.44
303.82	227.44
304.051	229.44
304.281	228.44
304.511	237.44
304.741	238.44
304.971	240.44
305.201	240.44
305.431	231.44
305.661	229.44
305.891	230.44
306.121	243.44
306.352	237.44
306.582	235.44
306.812	253.44
307.042	241.44
307.272	245.44
307.502	237.44
307.731	233.44
307.961	220.44
308.191	231.44
308.421	222.44
308.651	231.44
308.881	234.44
309.111	225.44
309.341	239.44
309.571	233.44
309.8	227.44
310.03	215.44
310.26	246.44
310.49	246.44
310.72	242.44
310.949	240.44
311.179	241.44
311.409	233.44
311.639	236.44
311.868	220.44
312.098	231.44
312.328	238.44
312.557	250.44
312.787	255.44
313.017	235.44
313.246	238.44
313.476	241.44
313.706	243.44
313.935	243.44
314.165	227.44
314.394	237.44
314.624	253.44
314.853	256.44
315.083	226.44
315.312	232.44
315.542	237.44
315.771	247.44
316.001	253.44
316.23	220.44
316.46	248.44
316.689	252.44
316.919	251.44
317.148	249.44
317.377	251.44
317.607	249.44
317.836	228.44
318.065	257.44
318.295	241.44
318.524	254.44
318.753	245.44
318.983	246.44
319.212	256.44
319.441	231.44
319.67	263.44
319.9	243.44
320.129	260.44
320.358	237.44
320.587	255.44
320.816	252.44
321.046	243.44
321.275	240.44
321.504	249.44
321.733	258.44
321.962	253.44
322.191	266.44
322.42	266.44
322.649	254.44
322.878	240.44
323.108	265.44
323.337	267.44
323.566	239.44
323.795	250.44
324.024	256.44
324.253	255.44
324.482	245.44
324.71	257.44
324.939	251.44
325.168	250.44
325.397	267.44
325.626	255.44
325.855	255.44
326.084	264.44
326.313	253.44
326.542	265.44
326.77	273.44
326.999	287.44
327.228	266.44
327.457	269.44
327.686	261.44
327.914	251.44
328.143	272.44
328.372	267.44
328.6	251.44
328.829	276.44
329.058	257.44
329.287	242.44
329.515	257.44
329.744	259.44
329.972	279.44
330.201	281.44
330.43	269.44
330.658	268.44
330.887	266.44
331.115	271.44
331.344	268.44
331.572	294.44
331.801	285.44
332.03	284.44
332.258	281.44
332.486	303.44
332.715	311.44
332.943	303.44
333.172	314.44
333.4	338.44
333.629	340.44
333.857	349.44
334.085	352.44
334.314	343.44
334.542	343.44
334.771	321.44
334.999	302.44
335.227	321.44
335.455	311.44
335.684	329.44
335.912	319.44
336.14	290.44
336.369	305.44
336.597	301.44
336.825	313.44
337.053	315.44
337.281	292.44
337.51	327.44
337.738	288.44
337.966	296.44
338.194	288.44
338.422	303.44
338.65	296.44
338.878	287.44
339.106	286.44
339.334	288.44
339.562	281.44
339.79	288.44
340.018	288.44
340.246	283.44
340.474	274.44
340.702	277.44
340.93	307.44
341.158	279.44
341.386	279.44
341.614	287.44
341.842	273.44
342.07	275.44
342.298	287.44
342.526	277.44
342.754	281.44
342.981	293.44
343.209	286.44
343.437	299.44
343.665	306.44
343.893	322.44
344.12	324.44
344.348	330.44
344.576	327.44
344.804	310.44
345.031	277.44
345.259	296.44
345.487	267.44
345.714	264.44
345.942	289.44
346.17	273.44
346.397	285.44
346.625	270.44
346.853	281.44
347.08	278.44
347.308	267.44
347.535	269.44
347.763	271.44
347.99	271.44
348.218	273.44
348.445	265.44
348.673	267.44
348.9	275.44
349.128	287.44
349.355	248.44
349.583	281.44
349.81	285.44
350.037	266.44
350.265	278.44
350.492	277.44
350.72	282.44
350.947	271.44
351.174	266.44
351.402	258.44
351.629	275.44
351.856	259.44
352.083	263.44
352.311	251.44
352.538	244.44
352.765	278.44
352.992	307.44
353.22	265.44
353.447	251.44
353.674	281.44
353.901	247.44
354.128	268.44
354.355	271.44
354.583	262.44
354.81	262.44
355.037	277.44
355.264	273.44
355.491	268.44
355.718	248.44
355.945	263.44
356.172	277.44
356.399	277.44
356.626	270.44
356.853	280.44
357.08	264.44
357.307	287.44
357.534	264.44
357.761	278.44
357.988	289.44
358.215	272.44
358.441	272.44
358.668	289.44
358.895	265.44
359.122	274.44
359.349	277.44
359.576	275.44
359.802	246.44
360.029	284.44
360.256	289.44
360.483	297.44
360.709	290.44
360.936	267.44
361.163	283.44
361.39	266.44
361.616	270.44
361.843	267.44
362.07	297.44
362.296	263.44
362.523	272.44
362.749	275.44
362.976	269.44
363.203	273.44
363.429	253.44
363.656	267.44
363.882	269.44
364.109	273.44
364.335	268.44
364.562	271.44
364.788	266.44
365.015	255.44
365.241	256.44
365.468	271.44
365.694	259.44
365.92	271.44
366.147	265.44
366.373	265.44
366.599	287.44
366.826	270.44
367.052	272.44
367.278	289.44
367.505	270.44
367.731	275.44
367.957	274.44
368.184	274.44
368.41	276.44
368.636	293.44
368.862	296.44
369.089	285.44
369.315	274.44
369.541	273.44
369.767	281.44
369.993	283.44
370.219	289.44
370.445	305.44
370.672	276.44
370.898	309.44
371.124	271.44
371.35	278.44
371.576	306.44
371.802	307.44
372.028	288.44
372.254	305.44
372.48	296.44
372.706	295.44
372.932	296.44
373.158	324.44
373.384	309.44
373.61	327.44
373.835	310.44
374.061	293.44
374.287	285.44
374.513	281.44
374.739	327.44
374.965	335.44
375.191	326.44
375.416	310.44
375.642	322.44
375.868	307.44
376.094	314.44
376.319	289.44
376.545	288.44
376.771	295.44
376.997	318.44
377.222	297.44
377.448	286.44
377.674	293.44
377.899	299.44
378.125	308.44
378.35	287.44
378.576	284.44
378.802	302.44
379.027	312.44
379.253	291.44
379.478	295.44
379.704	290.44
379.929	297.44
380.155	310.44
380.38	307.44
380.606	302.44
380.831	309.44
381.057	313.44
381.282	286.44
381.507	309.44
381.733	310.44
381.958	315.44
382.184	326.44
382.409	314.44
382.634	307.44
382.86	345.44
383.085	340.44
383.31	335.44
383.535	323.44
383.761	339.44
383.986	337.44
384.211	337.44
384.436	347.44
384.662	346.44
384.887	344.44
385.112	350.44
385.337	337.44
385.562	363.44
385.787	353.44
386.013	370.44
386.238	343.44
386.463	352.44
386.688	340.44
386.913	346.44
387.138	354.44
387.363	341.44
387.588	340.44
387.813	352.44
388.038	346.44
388.263	360.44
388.488	345.44
388.713	371.44
388.938	375.44
389.163	370.44
389.387	355.44
389.612	352.44
389.837	347.44
390.062	357.44
390.287	371.44
390.512	351.44
390.736	353.44
390.961	354.44
391.186	367.44
391.411	359.44
391.636	356.44
391.86	391.44
392.085	399.44
392.31	411.44
392.534	372.44
392.759	359.44
392.984	395.44
393.208	387.44
393.433	379.44
393.658	371.44
393.882	357.44
394.107	382.44
394.331	377.44
394.556	353.44
394.78	361.44
395.005	390.44
395.229	402.44
395.454	371.44
395.678	360.44
395.903	395.44
396.127	394.44
396.352	384.44
396.576	375.44
396.801	371.44
397.025	390.44
397.249	379.44
397.474	386.44
397.698	395.44
397.922	401.44
398.147	409.44
398.371	406.44
398.595	417.44
398.82	403.44
399.044	465.44
399.268	493.44
399.492	537.44
399.717	579.44
399.941	573.44
400.165	543.44
400.389	479.44
400.613	485.44
400.837	458.44
401.062	441.44
401.286	445.44
401.51	441.44
401.734	422.44
401.958	437.44
402.182	447.44
402.406	437.44
402.63	464.44
402.854	443.44
403.078	464.44
403.302	470.44
403.526	461.44
403.75	461.44
403.974	479.44
404.198	477.44
404.422	474.44
404.645	487.44
404.869	482.44
405.093	463.44
405.317	475.44
405.541	473.44
405.765	469.44
405.988	480.44
406.212	480.44
406.436	479.44
406.66	479.44
406.883	496.44
407.107	502.44
407.331	531.44
407.555	559.44
407.778	541.44
408.002	527.44
408.226	509.44
408.449	490.44
408.673	484.44
408.896	487.44
409.12	483.44
409.344	471.44
409.567	495.44
409.791	503.44
410.014	497.44
410.238	475.44
410.461	470.44
410.685	472.44
410.908	460.44
411.132	456.44
411.355	447.44
411.578	454.44
411.802	447.44
412.025	454.44
412.249	475.44
412.472	475.44
412.695	458.44
412.919	454.44
413.142	463.44
413.365	445.44
413.589	435.44
413.812	460.44
414.035	445.44
414.258	465.44
414.482	450.44
414.705	457.44
414.928	459.44
415.151	450.44
415.374	435.44
415.597	449.44
415.821	460.44
416.044	426.44
416.267	454.44
416.49	453.44
416.713	445.44
416.936	449.44
417.159	449.44
417.382	430.44
417.605	439.44
417.828	454.44
418.051	450.44
418.274	442.44
418.497	467.44
418.72	437.44
418.943	452.44
419.166	479.44
419.389	511.44
419.611	461.44
419.834	454.44
420.057	452.44
420.28	444.44
420.503	435.44
420.726	454.44
420.948	446.44
421.171	446.44
421.394	427.44
421.617	435.44
421.839	429.44
422.062	452.44
422.285	444.44
422.507	439.44
422.73	445.44
422.953	440.44
423.175	443.44
423.398	462.44
423.621	456.44
423.843	455.44
424.066	465.44
424.288	461.44
424.511	468.44
424.733	480.44
424.956	462.44
425.178	436.44
425.401	448.44
425.623	444.44
425.846	435.44
426.068	441.44
426.291	440.44
426.513	438.44
426.735	423.44
426.958	433.44
427.18	415.44
427.402	416.44
427.625	425.44
427.847	425.44
428.069	425.44
428.292	415.44
428.514	401.44
428.736	384.44
428.958	419.44
429.181	393.44
429.403	399.44
429.625	423.44
429.847	400.44
430.069	417.44
430.292	413.44
430.514	416.44
430.736	399.44
430.958	405.44
431.18	398.44
431.402	390.44
431.624	396.44
431.846	384.44
432.068	377.44
432.29	405.44
432.512	409.44
432.734	420.44
432.956	418.44
433.178	433.44
433.4	415.44
433.622	416.44
433.844	406.44
434.066	411.44
434.287	409.44
434.509	430.44
434.731	440.44
434.953	449.44
435.175	439.44
435.397	457.44
435.618	425.44
435.84	431.44
436.062	425.44
436.284	430.44
436.505	425.44
436.727	407.44
436.949	422.44
437.17	405.44
437.392	385.44
437.614	401.44
437.835	379.44
438.057	386.44
438.278	386.44
438.5	402.44
438.721	409.44
438.943	395.44
439.165	404.44
439.386	395.44
439.608	409.44
439.829	435.44
440.05	412.44
440.272	409.44
440.493	416.44
440.715	433.44
440.936	433.44
441.158	439.44
441.379	445.44
441.6	479.44
441.822	467.44
442.043	461.44
442.264	435.44
442.486	434.44
442.707	446.44
442.928	431.44
443.149	445.44
443.371	443.44
443.592	459.44
443.813	446.44
444.034	452.44
444.255	480.44
444.476	475.44
444.698	501.44
444.919	513.44
445.14	632.44
445.361	531.44
445.582	452.44
445.803	445.44
446.024	441.44
446.245	435.44
446.466	454.44
446.687	415.44
446.908	438.44
447.129	403.44
447.35	403.44
447.571	426.44
447.792	396.44
448.013	394.44
448.234	406.44
448.455	386.44
448.675	377.44
448.896	390.44
449.117	397.44
449.338	373.44
449.559	382.44
449.779	387.44
450	390.44
450.221	384.44
450.442	375.44
450.662	404.44
450.883	389.44
451.104	417.44
451.324	397.44
451.545	401.44
451.766	393.44
451.986	394.44
452.207	393.44
452.428	381.44
452.648	390.44
452.869	387.44
453.089	372.44
453.31	378.44
453.53	389.44
453.751	378.44
453.971	368.44
454.192	381.44
454.412	362.44
454.633	377.44
454.853	363.44
455.073	365.44
455.294	365.44
455.514	365.44
455.734	346.44
455.955	349.44
456.175	349.44
456.395	379.44
456.616	354.44
456.836	369.44
457.056	371.44
457.276	348.44
457.497	349.44
457.717	384.44
457.937	367.44
458.157	355.44
458.377	378.44
458.598	370.44
458.818	373.44
459.038	389.44
459.258	400.44
459.478	423.44
459.698	410.44
459.918	442.44
460.138	441.44
460.358	475.44
460.578	473.44
460.798	473.44
461.018	481.44
461.238	479.44
461.458	481.44
461.678	456.44
461.898	474.44
462.118	485.44
462.338	502.44
462.558	491.44
462.777	518.44
462.997	540.44
463.217	594.44
463.437	612.44
463.657	573.44
463.876	543.44
464.096	528.44
464.316	502.44
464.536	532.44
464.755	526.44
464.975	488.44
465.195	469.44
465.414	465.44
465.634	434.44
465.854	441.44
466.073	424.44
466.293	415.44
466.512	411.44
466.732	414.44
466.951	422.44
467.171	391.44
467.391	435.44
467.61	409.44
467.829	411.44
468.049	424.44
468.268	402.44
468.488	392.44
468.707	410.44
468.927	384.44
469.146	387.44
469.365	409.44
469.585	407.44
469.804	412.44
470.023	418.44
470.243	418.44
470.462	397.44
470.681	409.44
470.901	401.44
471.12	435.44
471.339	400.44
471.558	413.44
471.777	411.44
471.997	400.44
472.216	394.44
472.435	384.44
472.654	378.44
472.873	384.44
473.092	380.44
473.311	374.44
473.53	385.44
473.749	394.44
473.968	377.44
474.187	384.44
474.406	371.44
474.625	386.44
474.844	375.44
475.063	387.44
475.282	394.44
475.501	380.44
475.72	401.44
475.939	403.44
476.158	394.44
476.377	405.44
476.596	385.44
476.814	416.44
477.033	423.44
477.252	439.44
477.471	405.44
477.69	420.44
477.908	455.44
478.127	462.44
478.346	430.44
478.564	446.44
478.783	445.44
479.002	457.44
479.22	482.44
479.439	476.44
479.658	465.44
479.876	465.44
480.095	471.44
480.313	515.44
480.532	478.44
480.751	480.44
480.969	458.44
481.188	456.44
481.406	430.44
481.624	421.44
481.843	436.44
482.061	426.44
482.28	422.44
482.498	441.44
482.717	441.44
482.935	420.44
483.153	431.44
483.372	436.44
483.59	447.44
483.808	455.44
484.027	429.44
484.245	465.44
484.463	443.44
484.681	452.44
484.9	470.44
485.118	450.44
485.336	435.44
485.554	447.44
485.772	446.44
485.99	470.44
486.209	456.44
486.427	449.44
486.645	448.44
486.863	442.44
487.081	445.44
487.299	437.44
487.517	445.44
487.735	454.44
487.953	467.44
488.171	467.44
488.389	446.44
488.607	465.44
488.825	441.44
489.043	433.44
489.261	446.44
489.479	445.44
489.696	456.44
489.914	455.44
490.132	436.44
490.35	464.44
490.568	463.44
490.786	451.44
491.003	447.44
491.221	469.44
491.439	472.44
491.657	460.44
491.874	471.44
492.092	458.44
492.31	475.44
492.527	479.44
492.745	490.44
492.963	485.44
493.18	475.44
493.398	490.44
493.615	474.44
493.833	484.44
494.05	482.44
494.268	486.44
494.485	492.44
494.703	478.44
494.92	496.44
495.138	494.44
495.355	482.44
495.573	469.44
495.79	474.44
496.008	505.44
496.225	466.44
496.442	490.44
496.66	493.44
496.877	487.44
497.094	521.44
497.312	505.44
497.529	529.44
497.746	532.44
497.963	525.44
498.181	540.44
498.398	587.44
498.615	606.44
498.832	633.44
499.049	677.44
499.267	718.44
499.484	767.44
499.701	818.44
499.918	903.44
500.135	986.44
500.352	1078.44
500.569	1139.44
500.786	1083.44
501.003	1022.44
501.22	931.44
501.437	875.44
501.654	769.44
501.871	725.44
