Data from Fe(NO3)3@0.025M.TitratingCurve.Agarose3%dH2O.NegLispCup.LampEnergy10.LIBS07252019_HRD10591_16-55-29-335.txt Node
Date: Thu Jul 25 16:55:29 EDT 2019
User: cochatt
Spectrometer: HR+D1059
Trigger mode: 1
Integration Time (sec): 1.000000E-1
Scans to average: 1
Electric dark correction enabled: true
Nonlinearity correction enabled: false
Boxcar width: 0
XAxis mode: Wavelengths
Number of Pixels in Spectrum: 2048
>>>>>Begin Spectral Data<<<<<
223.165	-17.94
223.4	-17.94
223.635	-17.94
223.869	-2.94
224.104	-23.94
224.338	-8.94
224.573	-25.94
224.808	-12.94
225.042	-28.94
225.277	-6.94
225.511	-8.94
225.746	8.06
225.98	14.06
226.215	15.06
226.449	22.06
226.683	29.06
226.918	22.06
227.152	27.06
227.387	34.06
227.621	29.06
227.856	45.06
228.09	52.06
228.324	49.06
228.559	55.06
228.793	52.06
229.027	74.06
229.262	84.06
229.496	62.06
229.73	77.06
229.964	73.06
230.199	79.06
230.433	92.06
230.667	73.06
230.901	85.06
231.136	93.06
231.37	90.06
231.604	104.06
231.838	87.06
232.072	81.06
232.306	93.06
232.541	98.06
232.775	94.06
233.009	95.06
233.243	83.06
233.477	79.06
233.711	89.06
233.945	103.06
234.179	94.06
234.413	99.06
234.647	93.06
234.881	88.06
235.115	100.06
235.349	82.06
235.583	88.06
235.817	92.06
236.051	90.06
236.285	84.06
236.519	83.06
236.753	95.06
236.987	93.06
237.221	87.06
237.455	84.06
237.689	93.06
237.922	88.06
238.156	93.06
238.39	88.06
238.624	94.06
238.858	92.06
239.091	91.06
239.325	84.06
239.559	92.06
239.793	89.06
240.027	96.06
240.26	103.06
240.494	90.06
240.728	91.06
240.961	95.06
241.195	87.06
241.429	105.06
241.662	97.06
241.896	95.06
242.13	90.06
242.363	106.06
242.597	104.06
242.83	94.06
243.064	94.06
243.298	112.06
243.531	106.06
243.765	78.06
243.998	110.06
244.232	99.06
244.465	106.06
244.699	80.06
244.932	86.06
245.166	94.06
245.399	100.06
245.633	85.06
245.866	91.06
246.099	93.06
246.333	98.06
246.566	99.06
246.8	107.06
247.033	101.06
247.266	97.06
247.5	109.06
247.733	108.06
247.966	95.06
248.2	97.06
248.433	103.06
248.666	92.06
248.899	102.06
249.133	96.06
249.366	106.06
249.599	100.06
249.832	100.06
250.066	116.06
250.299	110.06
250.532	107.06
250.765	109.06
250.998	106.06
251.231	106.06
251.465	123.06
251.698	116.06
251.931	104.06
252.164	115.06
252.397	113.06
252.63	102.06
252.863	119.06
253.096	108.06
253.329	133.06
253.562	113.06
253.795	110.06
254.028	111.06
254.261	125.06
254.494	114.06
254.727	109.06
254.96	113.06
255.193	108.06
255.426	109.06
255.659	110.06
255.892	113.06
256.124	120.06
256.357	107.06
256.59	115.06
256.823	110.06
257.056	141.06
257.289	119.06
257.521	107.06
257.754	97.06
257.987	115.06
258.22	109.06
258.452	122.06
258.685	105.06
258.918	106.06
259.151	99.06
259.383	134.06
259.616	116.06
259.849	118.06
260.081	122.06
260.314	109.06
260.547	115.06
260.779	121.06
261.012	129.06
261.244	123.06
261.477	133.06
261.71	109.06
261.942	118.06
262.175	120.06
262.407	133.06
262.64	125.06
262.872	125.06
263.105	128.06
263.337	128.06
263.57	121.06
263.802	114.06
264.035	120.06
264.267	134.06
264.499	135.06
264.732	134.06
264.964	133.06
265.197	117.06
265.429	110.06
265.661	113.06
265.894	135.06
266.126	130.06
266.358	125.06
266.591	119.06
266.823	129.06
267.055	134.06
267.287	149.06
267.52	137.06
267.752	118.06
267.984	133.06
268.216	122.06
268.448	124.06
268.681	128.06
268.913	131.06
269.145	129.06
269.377	134.06
269.609	133.06
269.841	129.06
270.073	124.06
270.306	148.06
270.538	143.06
270.77	124.06
271.002	129.06
271.234	134.06
271.466	146.06
271.698	146.06
271.93	146.06
272.162	145.06
272.394	130.06
272.626	117.06
272.858	129.06
273.09	155.06
273.322	137.06
273.553	133.06
273.785	152.06
274.017	143.06
274.249	141.06
274.481	138.06
274.713	140.06
274.945	132.06
275.176	142.06
275.408	134.06
275.64	129.06
275.872	144.06
276.104	134.06
276.335	133.06
276.567	136.06
276.799	143.06
277.031	159.06
277.262	123.06
277.494	143.06
277.726	143.06
277.957	147.06
278.189	145.06
278.421	131.06
278.652	142.06
278.884	132.06
279.115	144.06
279.347	128.06
279.579	152.06
279.81	155.06
280.042	152.06
280.273	146.06
280.505	138.06
280.736	135.06
280.968	144.06
281.199	135.06
281.431	145.06
281.662	145.06
281.894	137.06
282.125	154.06
282.356	139.06
282.588	163.06
282.819	164.06
283.051	150.06
283.282	156.06
283.513	150.06
283.745	149.06
283.976	156.06
284.207	146.06
284.439	149.06
284.67	133.06
284.901	131.06
285.132	150.06
285.364	166.06
285.595	156.06
285.826	156.06
286.057	158.06
286.288	143.06
286.52	153.06
286.751	172.06
286.982	157.06
287.213	157.06
287.444	156.06
287.675	148.06
287.906	155.06
288.138	153.06
288.369	164.06
288.6	165.06
288.831	159.06
289.062	152.06
289.293	153.06
289.524	161.06
289.755	169.06
289.986	159.06
290.217	172.06
290.448	172.06
290.679	161.06
290.91	167.06
291.141	171.06
291.371	170.06
291.602	155.06
291.833	168.06
292.064	161.06
292.295	160.06
292.526	152.06
292.757	171.06
292.987	144.06
293.218	167.06
293.449	167.06
293.68	165.06
293.91	169.06
294.141	158.06
294.372	172.06
294.603	169.06
294.833	157.06
295.064	153.06
295.295	174.06
295.525	146.06
295.756	156.06
295.987	173.06
296.217	159.06
296.448	172.06
296.679	170.06
296.909	177.06
297.14	166.06
297.37	179.06
297.601	152.06
297.831	166.06
298.062	182.06
298.292	162.06
298.523	188.06
298.753	181.06
298.984	154.06
299.214	183.06
299.445	170.06
299.675	179.06
299.905	175.06
300.136	163.06
300.366	174.06
300.597	169.06
300.827	169.06
301.057	170.06
301.288	187.06
301.518	177.06
301.748	174.06
301.979	169.06
302.209	168.06
302.439	178.06
302.669	181.06
302.9	160.06
303.13	177.06
303.36	193.06
303.59	166.06
303.82	176.06
304.051	163.06
304.281	208.06
304.511	199.06
304.741	176.06
304.971	183.06
305.201	181.06
305.431	189.06
305.661	182.06
305.891	167.06
306.121	189.06
306.352	188.06
306.582	185.06
306.812	183.06
307.042	189.06
307.272	196.06
307.502	155.06
307.731	188.06
307.961	187.06
308.191	185.06
308.421	200.06
308.651	185.06
308.881	194.06
309.111	182.06
309.341	207.06
309.571	198.06
309.8	174.06
310.03	194.06
310.26	170.06
310.49	161.06
310.72	189.06
310.949	181.06
311.179	179.06
311.409	193.06
311.639	195.06
311.868	205.06
312.098	185.06
312.328	187.06
312.557	191.06
312.787	195.06
313.017	179.06
313.246	200.06
313.476	188.06
313.706	186.06
313.935	203.06
314.165	188.06
314.394	197.06
314.624	187.06
314.853	209.06
315.083	193.06
315.312	193.06
315.542	199.06
315.771	193.06
316.001	192.06
316.23	200.06
316.46	186.06
316.689	195.06
316.919	185.06
317.148	193.06
317.377	200.06
317.607	187.06
317.836	193.06
318.065	186.06
318.295	191.06
318.524	189.06
318.753	197.06
318.983	205.06
319.212	191.06
319.441	191.06
319.67	206.06
319.9	189.06
320.129	210.06
320.358	191.06
320.587	197.06
320.816	187.06
321.046	185.06
321.275	217.06
321.504	195.06
321.733	186.06
321.962	205.06
322.191	205.06
322.42	206.06
322.649	199.06
322.878	191.06
323.108	201.06
323.337	199.06
323.566	206.06
323.795	203.06
324.024	194.06
324.253	200.06
324.482	193.06
324.71	204.06
324.939	218.06
325.168	204.06
325.397	201.06
325.626	197.06
325.855	202.06
326.084	214.06
326.313	211.06
326.542	223.06
326.77	227.06
326.999	223.06
327.228	212.06
327.457	203.06
327.686	203.06
327.914	213.06
328.143	192.06
328.372	223.06
328.6	191.06
328.829	216.06
329.058	205.06
329.287	218.06
329.515	203.06
329.744	223.06
329.972	211.06
330.201	215.06
330.43	225.06
330.658	217.06
330.887	208.06
331.115	226.06
331.344	212.06
331.572	216.06
331.801	228.06
332.03	206.06
332.258	213.06
332.486	244.06
332.715	221.06
332.943	241.06
333.172	247.06
333.4	250.06
333.629	265.06
333.857	231.06
334.085	265.06
334.314	253.06
334.542	230.06
334.771	253.06
334.999	259.06
335.227	255.06
335.455	263.06
335.684	249.06
335.912	231.06
336.14	239.06
336.369	246.06
336.597	246.06
336.825	246.06
337.053	243.06
337.281	238.06
337.51	249.06
337.738	235.06
337.966	213.06
338.194	228.06
338.422	230.06
338.65	229.06
338.878	227.06
339.106	213.06
339.334	220.06
339.562	220.06
339.79	221.06
340.018	214.06
340.246	207.06
340.474	225.06
340.702	221.06
340.93	238.06
341.158	222.06
341.386	222.06
341.614	229.06
341.842	213.06
342.07	226.06
342.298	234.06
342.526	200.06
342.754	207.06
342.981	213.06
343.209	224.06
343.437	250.06
343.665	241.06
343.893	254.06
344.12	256.06
344.348	242.06
344.576	243.06
344.804	237.06
345.031	226.06
345.259	227.06
345.487	226.06
345.714	235.06
345.942	222.06
346.17	200.06
346.397	229.06
346.625	210.06
346.853	198.06
347.08	207.06
347.308	225.06
347.535	211.06
347.763	210.06
347.99	220.06
348.218	206.06
348.445	194.06
348.673	210.06
348.9	218.06
349.128	220.06
349.355	218.06
349.583	219.06
349.81	206.06
350.037	214.06
350.265	204.06
350.492	196.06
350.72	202.06
350.947	219.06
351.174	216.06
351.402	216.06
351.629	217.06
351.856	214.06
352.083	211.06
352.311	222.06
352.538	205.06
352.765	221.06
352.992	198.06
353.22	209.06
353.447	228.06
353.674	207.06
353.901	218.06
354.128	210.06
354.355	211.06
354.583	206.06
354.81	231.06
355.037	213.06
355.264	211.06
355.491	208.06
355.718	215.06
355.945	195.06
356.172	227.06
356.399	214.06
356.626	211.06
356.853	222.06
357.08	211.06
357.307	216.06
357.534	223.06
357.761	206.06
357.988	215.06
358.215	210.06
358.441	206.06
358.668	219.06
358.895	220.06
359.122	214.06
359.349	212.06
359.576	221.06
359.802	214.06
360.029	216.06
360.256	201.06
360.483	220.06
360.709	208.06
360.936	215.06
361.163	195.06
361.39	212.06
361.616	217.06
361.843	202.06
362.07	217.06
362.296	236.06
362.523	209.06
362.749	211.06
362.976	212.06
363.203	227.06
363.429	223.06
363.656	214.06
363.882	219.06
364.109	219.06
364.335	231.06
364.562	213.06
364.788	210.06
365.015	241.06
365.241	197.06
365.468	220.06
365.694	203.06
365.92	214.06
366.147	229.06
366.373	199.06
366.599	207.06
366.826	216.06
367.052	223.06
367.278	221.06
367.505	219.06
367.731	214.06
367.957	212.06
368.184	202.06
368.41	223.06
368.636	225.06
368.862	230.06
369.089	222.06
369.315	219.06
369.541	225.06
369.767	228.06
369.993	227.06
370.219	213.06
370.445	213.06
370.672	241.06
370.898	225.06
371.124	232.06
371.35	232.06
371.576	233.06
371.802	239.06
372.028	241.06
372.254	248.06
372.48	238.06
372.706	228.06
372.932	230.06
373.158	232.06
373.384	244.06
373.61	236.06
373.835	239.06
374.061	251.06
374.287	252.06
374.513	232.06
374.739	236.06
374.965	237.06
375.191	253.06
375.416	242.06
375.642	229.06
375.868	261.06
376.094	225.06
376.319	259.06
376.545	227.06
376.771	255.06
376.997	249.06
377.222	261.06
377.448	226.06
377.674	223.06
377.899	233.06
378.125	232.06
378.35	242.06
378.576	222.06
378.802	226.06
379.027	241.06
379.253	238.06
379.478	219.06
379.704	225.06
379.929	236.06
380.155	257.06
380.38	234.06
380.606	246.06
380.831	231.06
381.057	258.06
381.282	235.06
381.507	245.06
381.733	229.06
381.958	235.06
382.184	244.06
382.409	242.06
382.634	257.06
382.86	258.06
383.085	250.06
383.31	234.06
383.535	270.06
383.761	242.06
383.986	257.06
384.211	249.06
384.436	244.06
384.662	248.06
384.887	270.06
385.112	272.06
385.337	279.06
385.562	264.06
385.787	261.06
386.013	274.06
386.238	253.06
386.463	260.06
386.688	291.06
386.913	258.06
387.138	270.06
387.363	279.06
387.588	275.06
387.813	266.06
388.038	280.06
388.263	265.06
388.488	274.06
388.713	291.06
388.938	273.06
389.163	277.06
389.387	264.06
389.612	270.06
389.837	272.06
390.062	265.06
390.287	282.06
390.512	272.06
390.736	279.06
390.961	257.06
391.186	266.06
391.411	280.06
391.636	292.06
391.86	301.06
392.085	286.06
392.31	294.06
392.534	274.06
392.759	290.06
392.984	294.06
393.208	297.06
393.433	290.06
393.658	296.06
393.882	277.06
394.107	300.06
394.331	274.06
394.556	302.06
394.78	287.06
395.005	287.06
395.229	286.06
395.454	298.06
395.678	306.06
395.903	299.06
396.127	305.06
396.352	305.06
396.576	287.06
396.801	276.06
397.025	307.06
397.249	316.06
397.474	296.06
397.698	293.06
397.922	297.06
398.147	333.06
398.371	323.06
398.595	323.06
398.82	322.06
399.044	361.06
399.268	379.06
399.492	404.06
399.717	449.06
399.941	413.06
400.165	414.06
400.389	369.06
400.613	358.06
400.837	326.06
401.062	348.06
401.286	350.06
401.51	315.06
401.734	328.06
401.958	329.06
402.182	324.06
402.406	349.06
402.63	340.06
402.854	355.06
403.078	367.06
403.302	348.06
403.526	336.06
403.75	333.06
403.974	355.06
404.198	346.06
404.422	348.06
404.645	348.06
404.869	357.06
405.093	354.06
405.317	350.06
405.541	355.06
405.765	350.06
405.988	362.06
406.212	339.06
406.436	361.06
406.66	355.06
406.883	371.06
407.107	385.06
407.331	383.06
407.555	379.06
407.778	399.06
408.002	406.06
408.226	381.06
408.449	365.06
408.673	361.06
408.896	348.06
409.12	374.06
409.344	363.06
409.567	366.06
409.791	350.06
410.014	366.06
410.238	360.06
410.461	363.06
410.685	365.06
410.908	349.06
411.132	334.06
411.355	329.06
411.578	331.06
411.802	356.06
412.025	348.06
412.249	336.06
412.472	328.06
412.695	339.06
412.919	320.06
413.142	337.06
413.365	318.06
413.589	329.06
413.812	321.06
414.035	323.06
414.258	315.06
414.482	326.06
414.705	325.06
414.928	330.06
415.151	299.06
415.374	331.06
415.597	311.06
415.821	310.06
416.044	311.06
416.267	323.06
416.49	311.06
416.713	297.06
416.936	312.06
417.159	317.06
417.382	332.06
417.605	329.06
417.828	317.06
418.051	313.06
418.274	327.06
418.497	332.06
418.72	323.06
418.943	326.06
419.166	340.06
419.389	358.06
419.611	343.06
419.834	333.06
420.057	333.06
420.28	324.06
420.503	294.06
420.726	323.06
420.948	321.06
421.171	312.06
421.394	322.06
421.617	334.06
421.839	320.06
422.062	338.06
422.285	316.06
422.507	318.06
422.73	334.06
422.953	318.06
423.175	309.06
423.398	338.06
423.621	335.06
423.843	322.06
424.066	324.06
424.288	327.06
424.511	328.06
424.733	327.06
424.956	318.06
425.178	308.06
425.401	311.06
425.623	304.06
425.846	302.06
426.068	316.06
426.291	313.06
426.513	311.06
426.735	297.06
426.958	305.06
427.18	283.06
427.402	292.06
427.625	293.06
427.847	299.06
428.069	294.06
428.292	307.06
428.514	287.06
428.736	302.06
428.958	302.06
429.181	288.06
429.403	295.06
429.625	290.06
429.847	283.06
430.069	307.06
430.292	287.06
430.514	286.06
430.736	294.06
430.958	298.06
431.18	280.06
431.402	279.06
431.624	295.06
431.846	290.06
432.068	296.06
432.29	293.06
432.512	298.06
432.734	292.06
432.956	305.06
433.178	277.06
433.4	276.06
433.622	294.06
433.844	287.06
434.066	291.06
434.287	283.06
434.509	278.06
434.731	314.06
434.953	316.06
435.175	302.06
435.397	321.06
435.618	304.06
435.84	308.06
436.062	298.06
436.284	312.06
436.505	281.06
436.727	299.06
436.949	291.06
437.17	278.06
437.392	291.06
437.614	293.06
437.835	276.06
438.057	297.06
438.278	278.06
438.5	282.06
438.721	277.06
438.943	308.06
439.165	286.06
439.386	291.06
439.608	291.06
439.829	292.06
440.05	284.06
440.272	277.06
440.493	299.06
440.715	282.06
440.936	311.06
441.158	299.06
441.379	318.06
441.6	325.06
441.822	334.06
442.043	310.06
442.264	303.06
442.486	305.06
442.707	305.06
442.928	314.06
443.149	298.06
443.371	307.06
443.592	316.06
443.813	310.06
444.034	331.06
444.255	336.06
444.476	335.06
444.698	357.06
444.919	361.06
445.14	414.06
445.361	370.06
445.582	327.06
445.803	324.06
446.024	305.06
446.245	296.06
446.466	299.06
446.687	306.06
446.908	289.06
447.129	286.06
447.35	285.06
447.571	291.06
447.792	293.06
448.013	272.06
448.234	278.06
448.455	276.06
448.675	261.06
448.896	280.06
449.117	274.06
449.338	272.06
449.559	275.06
449.779	288.06
450	264.06
450.221	263.06
450.442	263.06
450.662	262.06
450.883	261.06
451.104	270.06
451.324	281.06
451.545	281.06
451.766	278.06
451.986	276.06
452.207	271.06
452.428	280.06
452.648	283.06
452.869	289.06
453.089	273.06
453.31	287.06
453.53	271.06
453.751	273.06
453.971	271.06
454.192	273.06
454.412	246.06
454.633	262.06
454.853	262.06
455.073	254.06
455.294	274.06
455.514	261.06
455.734	270.06
455.955	248.06
456.175	262.06
456.395	243.06
456.616	274.06
456.836	264.06
457.056	259.06
457.276	253.06
457.497	277.06
457.717	261.06
457.937	267.06
458.157	275.06
458.377	281.06
458.598	256.06
458.818	285.06
459.038	295.06
459.258	289.06
459.478	298.06
459.698	310.06
459.918	294.06
460.138	301.06
460.358	327.06
460.578	330.06
460.798	333.06
461.018	335.06
461.238	344.06
461.458	331.06
461.678	325.06
461.898	331.06
462.118	357.06
462.338	355.06
462.558	344.06
462.777	371.06
462.997	387.06
463.217	404.06
463.437	393.06
463.657	382.06
463.876	364.06
464.096	357.06
464.316	371.06
464.536	381.06
464.755	356.06
464.975	356.06
465.195	335.06
465.414	318.06
465.634	312.06
465.854	301.06
466.073	287.06
466.293	302.06
466.512	306.06
466.732	310.06
466.951	289.06
467.171	291.06
467.391	274.06
467.61	275.06
467.829	295.06
468.049	269.06
468.268	294.06
468.488	280.06
468.707	286.06
468.927	301.06
469.146	276.06
469.365	279.06
469.585	286.06
469.804	292.06
470.023	279.06
470.243	310.06
470.462	287.06
470.681	286.06
470.901	288.06
471.12	295.06
471.339	295.06
471.558	297.06
471.777	268.06
471.997	262.06
472.216	263.06
472.435	277.06
472.654	267.06
472.873	272.06
473.092	287.06
473.311	274.06
473.53	279.06
473.749	281.06
473.968	285.06
474.187	282.06
474.406	269.06
474.625	279.06
474.844	281.06
475.063	282.06
475.282	267.06
475.501	275.06
475.72	296.06
475.939	275.06
476.158	279.06
476.377	281.06
476.596	269.06
476.814	278.06
477.033	286.06
477.252	313.06
477.471	307.06
477.69	295.06
477.908	334.06
478.127	327.06
478.346	322.06
478.564	333.06
478.783	344.06
479.002	339.06
479.22	339.06
479.439	341.06
479.658	327.06
479.876	312.06
480.095	332.06
480.313	321.06
480.532	345.06
480.751	342.06
480.969	335.06
481.188	316.06
481.406	312.06
481.624	319.06
481.843	309.06
482.061	315.06
482.28	317.06
482.498	321.06
482.717	296.06
482.935	321.06
483.153	322.06
483.372	299.06
483.59	301.06
483.808	334.06
484.027	327.06
484.245	335.06
484.463	296.06
484.681	321.06
484.9	319.06
485.118	318.06
485.336	316.06
485.554	314.06
485.772	321.06
485.99	311.06
486.209	305.06
486.427	324.06
486.645	320.06
486.863	325.06
487.081	322.06
487.299	325.06
487.517	323.06
487.735	321.06
487.953	323.06
488.171	347.06
488.389	325.06
488.607	315.06
488.825	323.06
489.043	307.06
489.261	315.06
489.479	327.06
489.696	311.06
489.914	332.06
490.132	335.06
490.35	335.06
490.568	322.06
490.786	322.06
491.003	335.06
491.221	341.06
491.439	322.06
491.657	316.06
491.874	331.06
492.092	340.06
492.31	329.06
492.527	333.06
492.745	346.06
492.963	326.06
493.18	334.06
493.398	336.06
493.615	333.06
493.833	337.06
494.05	339.06
494.268	352.06
494.485	348.06
494.703	363.06
494.92	338.06
495.138	335.06
495.355	333.06
495.573	342.06
495.79	333.06
496.008	331.06
496.225	357.06
496.442	353.06
496.66	356.06
496.877	362.06
497.094	367.06
497.312	355.06
497.529	377.06
497.746	393.06
497.963	427.06
498.181	400.06
498.398	411.06
498.615	443.06
498.832	453.06
499.049	505.06
499.267	520.06
499.484	555.06
499.701	582.06
499.918	631.06
500.135	709.06
500.352	748.06
500.569	776.06
500.786	746.06
501.003	735.06
501.22	663.06
501.437	622.06
501.654	579.06
501.871	530.06
502.088	511.06
502.305	479.06
502.522	467.06
