Data from Fe(NO3)3@0.0125M.TitratingCurve.Agarose3%dH2O.NegLispCup.LampEnergy10.LIBS07252019_HRD10591_17-01-47-337.txt Node
Date: Thu Jul 25 17:01:47 EDT 2019
User: cochatt
Spectrometer: HR+D1059
Trigger mode: 1
Integration Time (sec): 1.000000E-1
Scans to average: 1
Electric dark correction enabled: true
Nonlinearity correction enabled: false
Boxcar width: 0
XAxis mode: Wavelengths
Number of Pixels in Spectrum: 2048
>>>>>Begin Spectral Data<<<<<
223.165	-19.75
223.4	-19.75
223.635	-19.75
223.869	-16.75
224.104	-11.75
224.338	-20.75
224.573	-3.75
224.808	-6.75
225.042	-7.75
225.277	4.25
225.511	8.25
225.746	8.25
225.98	-5.75
226.215	9.25
226.449	8.25
226.683	13.25
226.918	14.25
227.152	27.25
227.387	31.25
227.621	53.25
227.856	45.25
228.09	50.25
228.324	52.25
228.559	53.25
228.793	62.25
229.027	75.25
229.262	71.25
229.496	83.25
229.73	77.25
229.964	91.25
230.199	90.25
230.433	73.25
230.667	98.25
230.901	103.25
231.136	93.25
231.37	89.25
231.604	107.25
231.838	108.25
232.072	100.25
232.306	77.25
232.541	100.25
232.775	103.25
233.009	99.25
233.243	105.25
233.477	87.25
233.711	103.25
233.945	97.25
234.179	99.25
234.413	104.25
234.647	110.25
234.881	101.25
235.115	97.25
235.349	100.25
235.583	95.25
235.817	83.25
236.051	94.25
236.285	94.25
236.519	99.25
236.753	97.25
236.987	110.25
237.221	99.25
237.455	95.25
237.689	100.25
237.922	100.25
238.156	125.25
238.39	114.25
238.624	104.25
238.858	105.25
239.091	104.25
239.325	102.25
239.559	119.25
239.793	120.25
240.027	118.25
240.26	104.25
240.494	112.25
240.728	102.25
240.961	121.25
241.195	104.25
241.429	116.25
241.662	119.25
241.896	104.25
242.13	110.25
242.363	100.25
242.597	109.25
242.83	98.25
243.064	105.25
243.298	95.25
243.531	112.25
243.765	129.25
243.998	102.25
244.232	118.25
244.465	122.25
244.699	109.25
244.932	117.25
245.166	124.25
245.399	130.25
245.633	120.25
245.866	117.25
246.099	123.25
246.333	111.25
246.566	119.25
246.8	127.25
247.033	135.25
247.266	118.25
247.5	128.25
247.733	131.25
247.966	140.25
248.2	126.25
248.433	119.25
248.666	125.25
248.899	130.25
249.133	132.25
249.366	129.25
249.599	130.25
249.832	130.25
250.066	133.25
250.299	116.25
250.532	144.25
250.765	142.25
250.998	130.25
251.231	135.25
251.465	136.25
251.698	138.25
251.931	134.25
252.164	136.25
252.397	140.25
252.63	122.25
252.863	134.25
253.096	128.25
253.329	126.25
253.562	129.25
253.795	143.25
254.028	142.25
254.261	131.25
254.494	135.25
254.727	140.25
254.96	150.25
255.193	128.25
255.426	132.25
255.659	132.25
255.892	134.25
256.124	124.25
256.357	149.25
256.59	134.25
256.823	130.25
257.056	140.25
257.289	144.25
257.521	147.25
257.754	126.25
257.987	137.25
258.22	145.25
258.452	147.25
258.685	144.25
258.918	138.25
259.151	149.25
259.383	142.25
259.616	143.25
259.849	158.25
260.081	157.25
260.314	163.25
260.547	164.25
260.779	143.25
261.012	162.25
261.244	154.25
261.477	168.25
261.71	156.25
261.942	159.25
262.175	167.25
262.407	162.25
262.64	148.25
262.872	154.25
263.105	150.25
263.337	171.25
263.57	153.25
263.802	165.25
264.035	144.25
264.267	144.25
264.499	144.25
264.732	153.25
264.964	144.25
265.197	155.25
265.429	157.25
265.661	157.25
265.894	141.25
266.126	155.25
266.358	170.25
266.591	162.25
266.823	160.25
267.055	164.25
267.287	179.25
267.52	154.25
267.752	173.25
267.984	164.25
268.216	154.25
268.448	178.25
268.681	180.25
268.913	158.25
269.145	162.25
269.377	155.25
269.609	182.25
269.841	162.25
270.073	165.25
270.306	173.25
270.538	172.25
270.77	171.25
271.002	194.25
271.234	175.25
271.466	170.25
271.698	173.25
271.93	175.25
272.162	178.25
272.394	182.25
272.626	179.25
272.858	192.25
273.09	180.25
273.322	175.25
273.553	176.25
273.785	189.25
274.017	184.25
274.249	181.25
274.481	193.25
274.713	185.25
274.945	165.25
275.176	205.25
275.408	187.25
275.64	202.25
275.872	210.25
276.104	183.25
276.335	194.25
276.567	188.25
276.799	194.25
277.031	213.25
277.262	171.25
277.494	188.25
277.726	186.25
277.957	182.25
278.189	187.25
278.421	188.25
278.652	195.25
278.884	192.25
279.115	189.25
279.347	190.25
279.579	183.25
279.81	183.25
280.042	198.25
280.273	200.25
280.505	189.25
280.736	195.25
280.968	188.25
281.199	200.25
281.431	190.25
281.662	204.25
281.894	198.25
282.125	208.25
282.356	231.25
282.588	199.25
282.819	200.25
283.051	200.25
283.282	228.25
283.513	207.25
283.745	200.25
283.976	211.25
284.207	212.25
284.439	207.25
284.67	203.25
284.901	206.25
285.132	211.25
285.364	219.25
285.595	211.25
285.826	207.25
286.057	212.25
286.288	227.25
286.52	223.25
286.751	213.25
286.982	204.25
287.213	204.25
287.444	227.25
287.675	202.25
287.906	221.25
288.138	236.25
288.369	232.25
288.6	230.25
288.831	217.25
289.062	223.25
289.293	205.25
289.524	215.25
289.755	226.25
289.986	230.25
290.217	216.25
290.448	223.25
290.679	243.25
290.91	221.25
291.141	234.25
291.371	215.25
291.602	238.25
291.833	208.25
292.064	215.25
292.295	215.25
292.526	231.25
292.757	226.25
292.987	231.25
293.218	230.25
293.449	235.25
293.68	238.25
293.91	251.25
294.141	262.25
294.372	237.25
294.603	225.25
294.833	214.25
295.064	244.25
295.295	233.25
295.525	229.25
295.756	248.25
295.987	229.25
296.217	234.25
296.448	233.25
296.679	237.25
296.909	223.25
297.14	251.25
297.37	252.25
297.601	240.25
297.831	230.25
298.062	251.25
298.292	245.25
298.523	244.25
298.753	254.25
298.984	232.25
299.214	262.25
299.445	242.25
299.675	251.25
299.905	252.25
300.136	245.25
300.366	262.25
300.597	265.25
300.827	260.25
301.057	231.25
301.288	251.25
301.518	262.25
301.748	252.25
301.979	260.25
302.209	269.25
302.439	260.25
302.669	280.25
302.9	244.25
303.13	271.25
303.36	267.25
303.59	263.25
303.82	258.25
304.051	270.25
304.281	269.25
304.511	279.25
304.741	247.25
304.971	265.25
305.201	259.25
305.431	278.25
305.661	262.25
305.891	272.25
306.121	261.25
306.352	274.25
306.582	281.25
306.812	269.25
307.042	289.25
307.272	278.25
307.502	249.25
307.731	271.25
307.961	275.25
308.191	280.25
308.421	279.25
308.651	287.25
308.881	258.25
309.111	255.25
309.341	276.25
309.571	264.25
309.8	285.25
310.03	284.25
310.26	279.25
310.49	280.25
310.72	295.25
310.949	282.25
311.179	281.25
311.409	281.25
311.639	284.25
311.868	292.25
312.098	291.25
312.328	284.25
312.557	288.25
312.787	277.25
313.017	294.25
313.246	301.25
313.476	301.25
313.706	277.25
313.935	298.25
314.165	294.25
314.394	286.25
314.624	295.25
314.853	280.25
315.083	286.25
315.312	308.25
315.542	298.25
315.771	304.25
316.001	292.25
316.23	291.25
316.46	302.25
316.689	296.25
316.919	303.25
317.148	328.25
317.377	296.25
317.607	298.25
317.836	307.25
318.065	322.25
318.295	300.25
318.524	292.25
318.753	292.25
318.983	275.25
319.212	290.25
319.441	303.25
319.67	306.25
319.9	300.25
320.129	312.25
320.358	288.25
320.587	296.25
320.816	306.25
321.046	308.25
321.275	315.25
321.504	306.25
321.733	304.25
321.962	304.25
322.191	304.25
322.42	308.25
322.649	310.25
322.878	324.25
323.108	326.25
323.337	312.25
323.566	326.25
323.795	313.25
324.024	326.25
324.253	322.25
324.482	329.25
324.71	310.25
324.939	330.25
325.168	327.25
325.397	333.25
325.626	333.25
325.855	314.25
326.084	326.25
326.313	328.25
326.542	334.25
326.77	331.25
326.999	326.25
327.228	327.25
327.457	329.25
327.686	323.25
327.914	327.25
328.143	338.25
328.372	340.25
328.6	311.25
328.829	314.25
329.058	328.25
329.287	319.25
329.515	332.25
329.744	340.25
329.972	334.25
330.201	332.25
330.43	332.25
330.658	339.25
330.887	367.25
331.115	350.25
331.344	342.25
331.572	343.25
331.801	359.25
332.03	359.25
332.258	341.25
332.486	371.25
332.715	366.25
332.943	336.25
333.172	355.25
333.4	367.25
333.629	384.25
333.857	373.25
334.085	367.25
334.314	359.25
334.542	381.25
334.771	380.25
334.999	386.25
335.227	367.25
335.455	392.25
335.684	371.25
335.912	376.25
336.14	366.25
336.369	376.25
336.597	373.25
336.825	367.25
337.053	380.25
337.281	366.25
337.51	373.25
337.738	366.25
337.966	375.25
338.194	350.25
338.422	366.25
338.65	341.25
338.878	367.25
339.106	349.25
339.334	374.25
339.562	346.25
339.79	352.25
340.018	367.25
340.246	356.25
340.474	361.25
340.702	367.25
340.93	354.25
341.158	355.25
341.386	358.25
341.614	346.25
341.842	355.25
342.07	362.25
342.298	365.25
342.526	352.25
342.754	360.25
342.981	361.25
343.209	375.25
343.437	382.25
343.665	379.25
343.893	392.25
344.12	389.25
344.348	383.25
344.576	365.25
344.804	383.25
345.031	370.25
345.259	363.25
345.487	354.25
345.714	346.25
345.942	355.25
346.17	362.25
346.397	358.25
346.625	350.25
346.853	351.25
347.08	364.25
347.308	365.25
347.535	364.25
347.763	375.25
347.99	365.25
348.218	344.25
348.445	343.25
348.673	355.25
348.9	365.25
349.128	354.25
349.355	344.25
349.583	352.25
349.81	351.25
350.037	351.25
350.265	331.25
350.492	337.25
350.72	335.25
350.947	347.25
351.174	356.25
351.402	355.25
351.629	376.25
351.856	365.25
352.083	360.25
352.311	350.25
352.538	348.25
352.765	363.25
352.992	352.25
353.22	355.25
353.447	344.25
353.674	343.25
353.901	353.25
354.128	348.25
354.355	352.25
354.583	348.25
354.81	339.25
355.037	337.25
355.264	347.25
355.491	342.25
355.718	365.25
355.945	347.25
356.172	362.25
356.399	367.25
356.626	350.25
356.853	353.25
357.08	365.25
357.307	350.25
357.534	354.25
357.761	350.25
357.988	349.25
358.215	379.25
358.441	326.25
358.668	360.25
358.895	375.25
359.122	360.25
359.349	358.25
359.576	347.25
359.802	349.25
360.029	353.25
360.256	363.25
360.483	359.25
360.709	350.25
360.936	373.25
361.163	356.25
361.39	354.25
361.616	364.25
361.843	367.25
362.07	355.25
362.296	349.25
362.523	365.25
362.749	362.25
362.976	379.25
363.203	360.25
363.429	362.25
363.656	360.25
363.882	351.25
364.109	353.25
364.335	381.25
364.562	361.25
364.788	362.25
365.015	371.25
365.241	361.25
365.468	363.25
365.694	363.25
365.92	351.25
366.147	346.25
366.373	362.25
366.599	354.25
366.826	364.25
367.052	354.25
367.278	372.25
367.505	368.25
367.731	370.25
367.957	375.25
368.184	356.25
368.41	372.25
368.636	383.25
368.862	375.25
369.089	378.25
369.315	365.25
369.541	370.25
369.767	365.25
369.993	366.25
370.219	376.25
370.445	384.25
370.672	383.25
370.898	380.25
371.124	407.25
371.35	372.25
371.576	380.25
371.802	375.25
372.028	399.25
372.254	393.25
372.48	395.25
372.706	386.25
372.932	377.25
373.158	412.25
373.384	384.25
373.61	415.25
373.835	404.25
374.061	394.25
374.287	383.25
374.513	388.25
374.739	407.25
374.965	399.25
375.191	404.25
375.416	395.25
375.642	387.25
375.868	389.25
376.094	379.25
376.319	396.25
376.545	375.25
376.771	390.25
376.997	376.25
377.222	379.25
377.448	389.25
377.674	401.25
377.899	388.25
378.125	381.25
378.35	380.25
378.576	375.25
378.802	388.25
379.027	383.25
379.253	421.25
379.478	392.25
379.704	371.25
379.929	398.25
380.155	383.25
380.38	397.25
380.606	400.25
380.831	414.25
381.057	417.25
381.282	380.25
381.507	396.25
381.733	402.25
381.958	408.25
382.184	408.25
382.409	398.25
382.634	408.25
382.86	402.25
383.085	402.25
383.31	416.25
383.535	430.25
383.761	412.25
383.986	407.25
384.211	398.25
384.436	421.25
384.662	421.25
384.887	427.25
385.112	427.25
385.337	425.25
385.562	435.25
385.787	436.25
386.013	453.25
386.238	459.25
386.463	432.25
386.688	450.25
386.913	437.25
387.138	442.25
387.363	450.25
387.588	442.25
387.813	469.25
388.038	438.25
388.263	453.25
388.488	437.25
388.713	442.25
388.938	454.25
389.163	450.25
389.387	464.25
389.612	458.25
389.837	443.25
390.062	451.25
390.287	447.25
390.512	421.25
390.736	441.25
390.961	440.25
391.186	470.25
391.411	461.25
391.636	470.25
391.86	458.25
392.085	482.25
392.31	451.25
392.534	461.25
392.759	467.25
392.984	462.25
393.208	452.25
393.433	480.25
393.658	474.25
393.882	479.25
394.107	455.25
394.331	460.25
394.556	461.25
394.78	459.25
395.005	463.25
395.229	480.25
395.454	493.25
395.678	470.25
395.903	458.25
396.127	474.25
396.352	484.25
396.576	480.25
396.801	500.25
397.025	470.25
397.249	499.25
397.474	498.25
397.698	492.25
397.922	475.25
398.147	509.25
398.371	507.25
398.595	534.25
398.82	537.25
399.044	562.25
399.268	575.25
399.492	578.25
399.717	600.25
399.941	600.25
400.165	570.25
400.389	564.25
400.613	527.25
400.837	557.25
401.062	539.25
401.286	531.25
401.51	538.25
401.734	487.25
401.958	520.25
402.182	534.25
402.406	503.25
402.63	494.25
402.854	525.25
403.078	532.25
403.302	532.25
403.526	537.25
403.75	524.25
403.974	515.25
404.198	526.25
404.422	514.25
404.645	533.25
404.869	531.25
405.093	552.25
405.317	518.25
405.541	541.25
405.765	549.25
405.988	544.25
406.212	551.25
406.436	551.25
406.66	576.25
406.883	550.25
407.107	561.25
407.331	596.25
407.555	584.25
407.778	587.25
408.002	578.25
408.226	583.25
408.449	571.25
408.673	559.25
408.896	576.25
409.12	564.25
409.344	563.25
409.567	551.25
409.791	550.25
410.014	546.25
410.238	548.25
410.461	555.25
410.685	542.25
410.908	535.25
411.132	538.25
411.355	526.25
411.578	544.25
411.802	540.25
412.025	542.25
412.249	526.25
412.472	528.25
412.695	534.25
412.919	529.25
413.142	526.25
413.365	514.25
413.589	506.25
413.812	540.25
414.035	529.25
414.258	542.25
414.482	549.25
414.705	534.25
414.928	534.25
415.151	510.25
415.374	492.25
415.597	512.25
415.821	531.25
416.044	493.25
416.267	510.25
416.49	475.25
416.713	496.25
416.936	518.25
417.159	516.25
417.382	496.25
417.605	494.25
417.828	501.25
418.051	503.25
418.274	516.25
418.497	496.25
418.72	514.25
418.943	506.25
419.166	536.25
419.389	575.25
419.611	548.25
419.834	517.25
420.057	518.25
420.28	494.25
420.503	496.25
420.726	504.25
420.948	487.25
421.171	510.25
421.394	506.25
421.617	498.25
421.839	498.25
422.062	505.25
422.285	472.25
422.507	500.25
422.73	508.25
422.953	530.25
423.175	499.25
423.398	508.25
423.621	503.25
423.843	509.25
424.066	508.25
424.288	487.25
424.511	497.25
424.733	503.25
424.956	494.25
425.178	498.25
425.401	509.25
425.623	493.25
425.846	490.25
426.068	503.25
426.291	491.25
426.513	478.25
426.735	477.25
426.958	495.25
427.18	477.25
427.402	473.25
427.625	500.25
427.847	476.25
428.069	448.25
428.292	474.25
428.514	468.25
428.736	480.25
428.958	483.25
429.181	472.25
429.403	472.25
429.625	483.25
429.847	482.25
430.069	486.25
430.292	467.25
430.514	479.25
430.736	490.25
430.958	466.25
431.18	467.25
431.402	486.25
431.624	478.25
431.846	479.25
432.068	479.25
432.29	480.25
432.512	491.25
432.734	479.25
432.956	484.25
433.178	476.25
433.4	479.25
433.622	482.25
433.844	480.25
434.066	484.25
434.287	475.25
434.509	479.25
434.731	511.25
434.953	508.25
435.175	492.25
435.397	484.25
435.618	507.25
435.84	508.25
436.062	464.25
436.284	471.25
436.505	474.25
436.727	480.25
436.949	483.25
437.17	462.25
437.392	457.25
437.614	461.25
437.835	472.25
438.057	473.25
438.278	454.25
438.5	456.25
438.721	460.25
438.943	464.25
439.165	463.25
439.386	454.25
439.608	468.25
439.829	480.25
440.05	475.25
440.272	461.25
440.493	457.25
440.715	468.25
440.936	485.25
441.158	481.25
441.379	478.25
441.6	491.25
441.822	507.25
442.043	483.25
442.264	475.25
442.486	477.25
442.707	498.25
442.928	490.25
443.149	483.25
443.371	504.25
443.592	479.25
443.813	503.25
444.034	489.25
444.255	490.25
444.476	508.25
444.698	510.25
444.919	523.25
445.14	618.25
445.361	529.25
445.582	472.25
445.803	514.25
446.024	478.25
446.245	480.25
446.466	468.25
446.687	472.25
446.908	478.25
447.129	462.25
447.35	466.25
447.571	463.25
447.792	466.25
448.013	444.25
448.234	468.25
448.455	444.25
448.675	432.25
448.896	419.25
449.117	447.25
449.338	436.25
449.559	461.25
449.779	434.25
450	439.25
450.221	424.25
450.442	451.25
450.662	432.25
450.883	433.25
451.104	439.25
451.324	427.25
451.545	451.25
451.766	436.25
451.986	443.25
452.207	427.25
452.428	434.25
452.648	438.25
452.869	425.25
453.089	440.25
453.31	427.25
453.53	436.25
453.751	440.25
453.971	410.25
454.192	444.25
454.412	416.25
454.633	414.25
454.853	438.25
455.073	441.25
455.294	412.25
455.514	423.25
455.734	429.25
455.955	451.25
456.175	430.25
456.395	437.25
456.616	414.25
456.836	420.25
457.056	436.25
457.276	427.25
457.497	436.25
457.717	420.25
457.937	440.25
458.157	422.25
458.377	439.25
458.598	446.25
458.818	452.25
459.038	431.25
459.258	438.25
459.478	459.25
459.698	470.25
459.918	479.25
460.138	475.25
460.358	504.25
460.578	475.25
460.798	501.25
461.018	501.25
461.238	509.25
461.458	515.25
461.678	522.25
461.898	514.25
462.118	528.25
462.338	531.25
462.558	533.25
462.777	540.25
462.997	558.25
463.217	568.25
463.437	559.25
463.657	568.25
463.876	582.25
464.096	559.25
464.316	566.25
464.536	540.25
464.755	547.25
464.975	539.25
465.195	547.25
465.414	508.25
465.634	514.25
465.854	481.25
466.073	484.25
466.293	484.25
466.512	487.25
466.732	467.25
466.951	475.25
467.171	467.25
467.391	467.25
467.61	479.25
467.829	470.25
468.049	460.25
468.268	461.25
468.488	471.25
468.707	456.25
468.927	465.25
469.146	445.25
469.365	466.25
469.585	469.25
469.804	479.25
470.023	495.25
470.243	467.25
470.462	504.25
470.681	486.25
470.901	461.25
471.12	482.25
471.339	462.25
471.558	470.25
471.777	478.25
471.997	479.25
472.216	472.25
472.435	466.25
472.654	486.25
472.873	467.25
473.092	490.25
473.311	474.25
473.53	455.25
473.749	481.25
473.968	456.25
474.187	462.25
474.406	486.25
474.625	482.25
474.844	463.25
475.063	466.25
475.282	469.25
475.501	464.25
475.72	480.25
475.939	479.25
476.158	476.25
476.377	490.25
476.596	503.25
476.814	513.25
477.033	502.25
477.252	485.25
477.471	515.25
477.69	512.25
477.908	516.25
478.127	517.25
478.346	547.25
478.564	537.25
478.783	510.25
479.002	522.25
479.22	535.25
479.439	553.25
479.658	544.25
479.876	547.25
480.095	547.25
480.313	571.25
480.532	555.25
480.751	564.25
480.969	548.25
481.188	563.25
481.406	549.25
481.624	554.25
481.843	545.25
482.061	557.25
482.28	546.25
482.498	536.25
482.717	535.25
482.935	576.25
483.153	554.25
483.372	576.25
483.59	556.25
483.808	548.25
484.027	531.25
484.245	550.25
484.463	546.25
484.681	578.25
484.9	556.25
485.118	567.25
485.336	562.25
485.554	550.25
485.772	578.25
485.99	570.25
486.209	576.25
486.427	571.25
486.645	564.25
486.863	549.25
487.081	560.25
487.299	576.25
487.517	581.25
487.735	560.25
487.953	569.25
488.171	580.25
488.389	568.25
488.607	554.25
488.825	548.25
489.043	573.25
489.261	578.25
489.479	568.25
489.696	574.25
489.914	604.25
490.132	591.25
490.35	568.25
490.568	571.25
490.786	593.25
491.003	572.25
491.221	582.25
491.439	582.25
491.657	590.25
491.874	583.25
492.092	578.25
492.31	582.25
492.527	590.25
492.745	607.25
492.963	614.25
493.18	584.25
493.398	610.25
493.615	609.25
493.833	604.25
494.05	608.25
494.268	575.25
494.485	606.25
494.703	596.25
494.92	612.25
495.138	633.25
495.355	605.25
495.573	629.25
495.79	632.25
496.008	630.25
496.225	628.25
496.442	647.25
496.66	640.25
496.877	647.25
497.094	671.25
497.312	659.25
497.529	697.25
497.746	679.25
497.963	676.25
498.181	713.25
498.398	724.25
498.615	731.25
498.832	750.25
499.049	800.25
499.267	802.25
499.484	832.25
499.701	878.25
499.918	890.25
500.135	929.25
500.352	939.25
500.569	951.25
500.786	936.25
501.003	977.25
501.22	932.25
501.437	892.25
501.654	861.25
501.871	816.25
