Data from Fe(NO3)3@0.025M.TitratingCurve.Agarose3%dH2O.NegLispCup.LampEnergy10.LIBS07252019_HRD10591_16-54-00-335.txt Node
Date: Thu Jul 25 16:54:00 EDT 2019
User: cochatt
Spectrometer: HR+D1059
Trigger mode: 1
Integration Time (sec): 1.000000E-1
Scans to average: 1
Electric dark correction enabled: true
Nonlinearity correction enabled: false
Boxcar width: 0
XAxis mode: Wavelengths
Number of Pixels in Spectrum: 2048
>>>>>Begin Spectral Data<<<<<
223.165	-3.75
223.4	-3.75
223.635	-3.75
223.869	-11.75
224.104	-31.75
224.338	-15.75
224.573	-14.75
224.808	-11.75
225.042	-16.75
225.277	-9.75
225.511	6.25
225.746	13.25
225.98	7.25
226.215	-6.75
226.449	16.25
226.683	14.25
226.918	35.25
227.152	30.25
227.387	19.25
227.621	43.25
227.856	42.25
228.09	62.25
228.324	60.25
228.559	52.25
228.793	58.25
229.027	70.25
229.262	78.25
229.496	97.25
229.73	87.25
229.964	99.25
230.199	81.25
230.433	104.25
230.667	94.25
230.901	99.25
231.136	100.25
231.37	94.25
231.604	89.25
231.838	100.25
232.072	109.25
232.306	111.25
232.541	88.25
232.775	106.25
233.009	120.25
233.243	106.25
233.477	104.25
233.711	113.25
233.945	108.25
234.179	103.25
234.413	92.25
234.647	100.25
234.881	89.25
235.115	113.25
235.349	125.25
235.583	132.25
235.817	117.25
236.051	90.25
236.285	101.25
236.519	100.25
236.753	115.25
236.987	112.25
237.221	109.25
237.455	109.25
237.689	104.25
237.922	115.25
238.156	109.25
238.39	113.25
238.624	115.25
238.858	101.25
239.091	108.25
239.325	94.25
239.559	106.25
239.793	105.25
240.027	118.25
240.26	113.25
240.494	115.25
240.728	115.25
240.961	122.25
241.195	129.25
241.429	111.25
241.662	111.25
241.896	111.25
242.13	116.25
242.363	123.25
242.597	112.25
242.83	111.25
243.064	113.25
243.298	123.25
243.531	103.25
243.765	95.25
243.998	119.25
244.232	109.25
244.465	118.25
244.699	123.25
244.932	124.25
245.166	107.25
245.399	125.25
245.633	125.25
245.866	138.25
246.099	117.25
246.333	131.25
246.566	120.25
246.8	125.25
247.033	131.25
247.266	126.25
247.5	118.25
247.733	119.25
247.966	114.25
248.2	128.25
248.433	131.25
248.666	126.25
248.899	151.25
249.133	130.25
249.366	120.25
249.599	133.25
249.832	143.25
250.066	140.25
250.299	127.25
250.532	130.25
250.765	134.25
250.998	132.25
251.231	134.25
251.465	138.25
251.698	141.25
251.931	147.25
252.164	128.25
252.397	143.25
252.63	143.25
252.863	155.25
253.096	146.25
253.329	136.25
253.562	154.25
253.795	142.25
254.028	155.25
254.261	137.25
254.494	155.25
254.727	151.25
254.96	151.25
255.193	142.25
255.426	163.25
255.659	146.25
255.892	141.25
256.124	144.25
256.357	147.25
256.59	151.25
256.823	141.25
257.056	150.25
257.289	141.25
257.521	162.25
257.754	156.25
257.987	145.25
258.22	152.25
258.452	137.25
258.685	153.25
258.918	138.25
259.151	146.25
259.383	141.25
259.616	170.25
259.849	170.25
260.081	174.25
260.314	180.25
260.547	167.25
260.779	166.25
261.012	170.25
261.244	163.25
261.477	170.25
261.71	166.25
261.942	170.25
262.175	178.25
262.407	163.25
262.64	170.25
262.872	189.25
263.105	171.25
263.337	188.25
263.57	188.25
263.802	173.25
264.035	174.25
264.267	150.25
264.499	163.25
264.732	154.25
264.964	168.25
265.197	166.25
265.429	171.25
265.661	167.25
265.894	163.25
266.126	157.25
266.358	143.25
266.591	171.25
266.823	187.25
267.055	156.25
267.287	165.25
267.52	161.25
267.752	174.25
267.984	170.25
268.216	182.25
268.448	173.25
268.681	184.25
268.913	183.25
269.145	165.25
269.377	172.25
269.609	178.25
269.841	175.25
270.073	181.25
270.306	177.25
270.538	170.25
270.77	189.25
271.002	198.25
271.234	194.25
271.466	173.25
271.698	182.25
271.93	193.25
272.162	192.25
272.394	183.25
272.626	185.25
272.858	175.25
273.09	186.25
273.322	194.25
273.553	198.25
273.785	187.25
274.017	200.25
274.249	209.25
274.481	209.25
274.713	217.25
274.945	223.25
275.176	223.25
275.408	237.25
275.64	209.25
275.872	220.25
276.104	216.25
276.335	188.25
276.567	194.25
276.799	223.25
277.031	212.25
277.262	203.25
277.494	210.25
277.726	194.25
277.957	205.25
278.189	194.25
278.421	194.25
278.652	205.25
278.884	204.25
279.115	210.25
279.347	213.25
279.579	202.25
279.81	221.25
280.042	206.25
280.273	201.25
280.505	213.25
280.736	224.25
280.968	217.25
281.199	217.25
281.431	206.25
281.662	221.25
281.894	224.25
282.125	232.25
282.356	212.25
282.588	225.25
282.819	228.25
283.051	216.25
283.282	215.25
283.513	225.25
283.745	222.25
283.976	226.25
284.207	236.25
284.439	228.25
284.67	219.25
284.901	252.25
285.132	228.25
285.364	222.25
285.595	238.25
285.826	231.25
286.057	231.25
286.288	223.25
286.52	244.25
286.751	236.25
286.982	233.25
287.213	236.25
287.444	233.25
287.675	239.25
287.906	235.25
288.138	255.25
288.369	245.25
288.6	247.25
288.831	243.25
289.062	261.25
289.293	233.25
289.524	229.25
289.755	234.25
289.986	247.25
290.217	244.25
290.448	257.25
290.679	245.25
290.91	249.25
291.141	242.25
291.371	242.25
291.602	235.25
291.833	256.25
292.064	246.25
292.295	262.25
292.526	246.25
292.757	236.25
292.987	234.25
293.218	242.25
293.449	263.25
293.68	255.25
293.91	252.25
294.141	253.25
294.372	232.25
294.603	259.25
294.833	240.25
295.064	262.25
295.295	266.25
295.525	264.25
295.756	265.25
295.987	247.25
296.217	263.25
296.448	255.25
296.679	260.25
296.909	259.25
297.14	243.25
297.37	252.25
297.601	263.25
297.831	254.25
298.062	253.25
298.292	277.25
298.523	266.25
298.753	263.25
298.984	260.25
299.214	268.25
299.445	263.25
299.675	272.25
299.905	277.25
300.136	272.25
300.366	267.25
300.597	275.25
300.827	261.25
301.057	285.25
301.288	285.25
301.518	266.25
301.748	279.25
301.979	284.25
302.209	283.25
302.439	284.25
302.669	279.25
302.9	270.25
303.13	275.25
303.36	280.25
303.59	285.25
303.82	283.25
304.051	291.25
304.281	285.25
304.511	301.25
304.741	287.25
304.971	286.25
305.201	288.25
305.431	303.25
305.661	300.25
305.891	287.25
306.121	295.25
306.352	286.25
306.582	287.25
306.812	285.25
307.042	289.25
307.272	284.25
307.502	286.25
307.731	299.25
307.961	268.25
308.191	296.25
308.421	293.25
308.651	291.25
308.881	307.25
309.111	294.25
309.341	278.25
309.571	293.25
309.8	290.25
310.03	284.25
310.26	294.25
310.49	295.25
310.72	284.25
310.949	302.25
311.179	312.25
311.409	295.25
311.639	312.25
311.868	305.25
312.098	284.25
312.328	311.25
312.557	315.25
312.787	306.25
313.017	309.25
313.246	293.25
313.476	309.25
313.706	325.25
313.935	294.25
314.165	316.25
314.394	319.25
314.624	326.25
314.853	309.25
315.083	331.25
315.312	323.25
315.542	315.25
315.771	320.25
316.001	318.25
316.23	321.25
316.46	318.25
316.689	306.25
316.919	323.25
317.148	329.25
317.377	317.25
317.607	310.25
317.836	331.25
318.065	298.25
318.295	338.25
318.524	325.25
318.753	316.25
318.983	320.25
319.212	322.25
319.441	317.25
319.67	350.25
319.9	323.25
320.129	327.25
320.358	338.25
320.587	331.25
320.816	333.25
321.046	340.25
321.275	325.25
321.504	331.25
321.733	330.25
321.962	340.25
322.191	330.25
322.42	339.25
322.649	319.25
322.878	340.25
323.108	355.25
323.337	347.25
323.566	332.25
323.795	341.25
324.024	350.25
324.253	346.25
324.482	332.25
324.71	352.25
324.939	329.25
325.168	356.25
325.397	350.25
325.626	335.25
325.855	330.25
326.084	351.25
326.313	347.25
326.542	335.25
326.77	366.25
326.999	348.25
327.228	329.25
327.457	332.25
327.686	358.25
327.914	344.25
328.143	345.25
328.372	362.25
328.6	345.25
328.829	350.25
329.058	344.25
329.287	338.25
329.515	372.25
329.744	355.25
329.972	339.25
330.201	356.25
330.43	349.25
330.658	355.25
330.887	358.25
331.115	345.25
331.344	357.25
331.572	348.25
331.801	354.25
332.03	376.25
332.258	385.25
332.486	361.25
332.715	385.25
332.943	373.25
333.172	391.25
333.4	386.25
333.629	361.25
333.857	385.25
334.085	385.25
334.314	371.25
334.542	384.25
334.771	394.25
334.999	374.25
335.227	380.25
335.455	408.25
335.684	394.25
335.912	406.25
336.14	405.25
336.369	381.25
336.597	403.25
336.825	398.25
337.053	394.25
337.281	400.25
337.51	397.25
337.738	401.25
337.966	381.25
338.194	378.25
338.422	375.25
338.65	363.25
338.878	367.25
339.106	371.25
339.334	375.25
339.562	384.25
339.79	401.25
340.018	378.25
340.246	394.25
340.474	389.25
340.702	399.25
340.93	387.25
341.158	385.25
341.386	375.25
341.614	362.25
341.842	393.25
342.07	383.25
342.298	383.25
342.526	380.25
342.754	382.25
342.981	389.25
343.209	396.25
343.437	398.25
343.665	402.25
343.893	398.25
344.12	409.25
344.348	395.25
344.576	411.25
344.804	390.25
345.031	398.25
345.259	405.25
345.487	401.25
345.714	389.25
345.942	363.25
346.17	377.25
346.397	385.25
346.625	376.25
346.853	379.25
347.08	359.25
347.308	379.25
347.535	395.25
347.763	378.25
347.99	381.25
348.218	364.25
348.445	396.25
348.673	377.25
348.9	369.25
349.128	379.25
349.355	385.25
349.583	409.25
349.81	383.25
350.037	390.25
350.265	386.25
350.492	371.25
350.72	369.25
350.947	392.25
351.174	372.25
351.402	375.25
351.629	377.25
351.856	362.25
352.083	368.25
352.311	379.25
352.538	369.25
352.765	366.25
352.992	357.25
353.22	366.25
353.447	371.25
353.674	366.25
353.901	368.25
354.128	381.25
354.355	371.25
354.583	374.25
354.81	361.25
355.037	381.25
355.264	364.25
355.491	374.25
355.718	348.25
355.945	365.25
356.172	363.25
356.399	375.25
356.626	376.25
356.853	373.25
357.08	389.25
357.307	403.25
357.534	393.25
357.761	376.25
357.988	379.25
358.215	392.25
358.441	381.25
358.668	378.25
358.895	368.25
359.122	370.25
359.349	388.25
359.576	385.25
359.802	384.25
360.029	373.25
360.256	358.25
360.483	379.25
360.709	375.25
360.936	385.25
361.163	382.25
361.39	387.25
361.616	386.25
361.843	373.25
362.07	399.25
362.296	370.25
362.523	385.25
362.749	388.25
362.976	386.25
363.203	380.25
363.429	375.25
363.656	369.25
363.882	392.25
364.109	396.25
364.335	381.25
364.562	396.25
364.788	391.25
365.015	396.25
365.241	386.25
365.468	373.25
365.694	388.25
365.92	410.25
366.147	380.25
366.373	361.25
366.599	381.25
366.826	386.25
367.052	396.25
367.278	390.25
367.505	408.25
367.731	380.25
367.957	405.25
368.184	408.25
368.41	421.25
368.636	397.25
368.862	396.25
369.089	386.25
369.315	397.25
369.541	402.25
369.767	390.25
369.993	395.25
370.219	397.25
370.445	417.25
370.672	407.25
370.898	403.25
371.124	415.25
371.35	399.25
371.576	388.25
371.802	403.25
372.028	417.25
372.254	413.25
372.48	420.25
372.706	415.25
372.932	429.25
373.158	429.25
373.384	415.25
373.61	438.25
373.835	413.25
374.061	410.25
374.287	413.25
374.513	421.25
374.739	421.25
374.965	440.25
375.191	430.25
375.416	423.25
375.642	412.25
375.868	417.25
376.094	436.25
376.319	415.25
376.545	419.25
376.771	401.25
376.997	398.25
377.222	423.25
377.448	423.25
377.674	421.25
377.899	412.25
378.125	399.25
378.35	414.25
378.576	414.25
378.802	405.25
379.027	422.25
379.253	429.25
379.478	424.25
379.704	418.25
379.929	410.25
380.155	445.25
380.38	406.25
380.606	387.25
380.831	430.25
381.057	423.25
381.282	411.25
381.507	426.25
381.733	412.25
381.958	411.25
382.184	433.25
382.409	423.25
382.634	421.25
382.86	418.25
383.085	431.25
383.31	431.25
383.535	449.25
383.761	433.25
383.986	450.25
384.211	439.25
384.436	440.25
384.662	445.25
384.887	434.25
385.112	447.25
385.337	466.25
385.562	451.25
385.787	443.25
386.013	455.25
386.238	464.25
386.463	473.25
386.688	458.25
386.913	462.25
387.138	445.25
387.363	459.25
387.588	459.25
387.813	456.25
388.038	483.25
388.263	473.25
388.488	472.25
388.713	453.25
388.938	457.25
389.163	481.25
389.387	478.25
389.612	463.25
389.837	465.25
390.062	485.25
390.287	487.25
390.512	485.25
390.736	481.25
390.961	471.25
391.186	479.25
391.411	489.25
391.636	473.25
391.86	478.25
392.085	492.25
392.31	477.25
392.534	485.25
392.759	514.25
392.984	504.25
393.208	492.25
393.433	485.25
393.658	487.25
393.882	486.25
394.107	498.25
394.331	497.25
394.556	503.25
394.78	506.25
395.005	501.25
395.229	478.25
395.454	499.25
395.678	499.25
395.903	541.25
396.127	508.25
396.352	488.25
396.576	513.25
396.801	515.25
397.025	507.25
397.249	526.25
397.474	523.25
397.698	530.25
397.922	525.25
398.147	538.25
398.371	547.25
398.595	528.25
398.82	542.25
399.044	564.25
399.268	535.25
399.492	580.25
399.717	590.25
399.941	570.25
400.165	603.25
400.389	615.25
400.613	574.25
400.837	561.25
401.062	582.25
401.286	562.25
401.51	549.25
401.734	533.25
401.958	557.25
402.182	545.25
402.406	554.25
402.63	570.25
402.854	540.25
403.078	532.25
403.302	557.25
403.526	526.25
403.75	549.25
403.974	548.25
404.198	558.25
404.422	560.25
404.645	545.25
404.869	563.25
405.093	579.25
405.317	541.25
405.541	571.25
405.765	564.25
405.988	551.25
406.212	566.25
406.436	546.25
406.66	563.25
406.883	550.25
407.107	577.25
407.331	590.25
407.555	592.25
407.778	597.25
408.002	593.25
408.226	602.25
408.449	595.25
408.673	589.25
408.896	598.25
409.12	585.25
409.344	583.25
409.567	556.25
409.791	585.25
410.014	572.25
410.238	580.25
410.461	590.25
410.685	589.25
410.908	573.25
411.132	557.25
411.355	562.25
411.578	559.25
411.802	537.25
412.025	552.25
412.249	551.25
412.472	561.25
412.695	551.25
412.919	542.25
413.142	570.25
413.365	554.25
413.589	545.25
413.812	541.25
414.035	538.25
414.258	530.25
414.482	559.25
414.705	533.25
414.928	533.25
415.151	519.25
415.374	526.25
415.597	573.25
415.821	529.25
416.044	520.25
416.267	526.25
416.49	520.25
416.713	528.25
416.936	552.25
417.159	517.25
417.382	515.25
417.605	502.25
417.828	532.25
418.051	522.25
418.274	527.25
418.497	519.25
418.72	522.25
418.943	509.25
419.166	549.25
419.389	563.25
419.611	558.25
419.834	525.25
420.057	539.25
420.28	531.25
420.503	507.25
420.726	511.25
420.948	491.25
421.171	502.25
421.394	520.25
421.617	494.25
421.839	480.25
422.062	505.25
422.285	502.25
422.507	490.25
422.73	515.25
422.953	513.25
423.175	515.25
423.398	506.25
423.621	513.25
423.843	523.25
424.066	520.25
424.288	518.25
424.511	515.25
424.733	510.25
424.956	486.25
425.178	476.25
425.401	520.25
425.623	532.25
425.846	511.25
426.068	533.25
426.291	513.25
426.513	519.25
426.735	519.25
426.958	503.25
427.18	521.25
427.402	513.25
427.625	484.25
427.847	483.25
428.069	517.25
428.292	491.25
428.514	470.25
428.736	500.25
428.958	500.25
429.181	479.25
429.403	479.25
429.625	494.25
429.847	491.25
430.069	493.25
430.292	500.25
430.514	506.25
430.736	502.25
430.958	505.25
431.18	511.25
431.402	496.25
431.624	502.25
431.846	491.25
432.068	531.25
432.29	499.25
432.512	510.25
432.734	525.25
432.956	498.25
433.178	503.25
433.4	514.25
433.622	516.25
433.844	518.25
434.066	518.25
434.287	494.25
434.509	503.25
434.731	516.25
434.953	502.25
435.175	541.25
435.397	490.25
435.618	493.25
435.84	499.25
436.062	493.25
436.284	486.25
436.505	499.25
436.727	504.25
436.949	478.25
437.17	490.25
437.392	469.25
437.614	499.25
437.835	502.25
438.057	479.25
438.278	465.25
438.5	494.25
438.721	497.25
438.943	469.25
439.165	461.25
439.386	488.25
439.608	490.25
439.829	500.25
440.05	479.25
440.272	504.25
440.493	501.25
440.715	471.25
440.936	492.25
441.158	489.25
441.379	497.25
441.6	531.25
441.822	513.25
442.043	506.25
442.264	503.25
442.486	513.25
442.707	504.25
442.928	500.25
443.149	507.25
443.371	497.25
443.592	507.25
443.813	494.25
444.034	528.25
444.255	508.25
444.476	494.25
444.698	517.25
444.919	513.25
445.14	614.25
445.361	569.25
445.582	502.25
445.803	516.25
446.024	490.25
446.245	501.25
446.466	499.25
446.687	477.25
446.908	481.25
447.129	503.25
447.35	488.25
447.571	484.25
447.792	487.25
448.013	489.25
448.234	485.25
448.455	475.25
448.675	474.25
448.896	467.25
449.117	445.25
449.338	466.25
449.559	468.25
449.779	482.25
450	466.25
450.221	487.25
450.442	481.25
450.662	471.25
450.883	457.25
451.104	451.25
451.324	467.25
451.545	437.25
451.766	454.25
451.986	453.25
452.207	445.25
452.428	473.25
452.648	471.25
452.869	434.25
453.089	442.25
453.31	471.25
453.53	444.25
453.751	457.25
453.971	447.25
454.192	440.25
454.412	453.25
454.633	445.25
454.853	462.25
455.073	454.25
455.294	436.25
455.514	450.25
455.734	433.25
455.955	442.25
456.175	449.25
456.395	456.25
456.616	427.25
456.836	440.25
457.056	446.25
457.276	443.25
457.497	457.25
457.717	468.25
457.937	469.25
458.157	473.25
458.377	491.25
458.598	457.25
458.818	492.25
459.038	470.25
459.258	478.25
459.478	463.25
459.698	475.25
459.918	515.25
460.138	511.25
460.358	506.25
460.578	494.25
460.798	534.25
461.018	527.25
461.238	553.25
461.458	539.25
461.678	536.25
461.898	539.25
462.118	555.25
462.338	545.25
462.558	552.25
462.777	530.25
462.997	556.25
463.217	556.25
463.437	579.25
463.657	558.25
463.876	581.25
464.096	567.25
464.316	535.25
464.536	557.25
464.755	562.25
464.975	547.25
465.195	570.25
465.414	535.25
465.634	515.25
465.854	515.25
466.073	520.25
466.293	507.25
466.512	490.25
466.732	494.25
466.951	502.25
467.171	506.25
467.391	503.25
467.61	511.25
467.829	506.25
468.049	503.25
468.268	473.25
468.488	487.25
468.707	487.25
468.927	487.25
469.146	502.25
469.365	494.25
469.585	481.25
469.804	493.25
470.023	489.25
470.243	497.25
470.462	522.25
470.681	486.25
470.901	498.25
471.12	485.25
471.339	498.25
471.558	477.25
471.777	478.25
471.997	488.25
472.216	508.25
472.435	482.25
472.654	494.25
472.873	498.25
473.092	509.25
473.311	521.25
473.53	512.25
473.749	513.25
473.968	505.25
474.187	506.25
474.406	482.25
474.625	509.25
474.844	529.25
475.063	502.25
475.282	506.25
475.501	509.25
475.72	533.25
475.939	527.25
476.158	523.25
476.377	544.25
476.596	550.25
476.814	549.25
477.033	532.25
477.252	549.25
477.471	535.25
477.69	541.25
477.908	541.25
478.127	541.25
478.346	551.25
478.564	566.25
478.783	540.25
479.002	576.25
479.22	569.25
479.439	592.25
479.658	586.25
479.876	603.25
480.095	592.25
480.313	573.25
480.532	577.25
480.751	581.25
480.969	574.25
481.188	602.25
481.406	608.25
481.624	595.25
481.843	585.25
482.061	569.25
482.28	590.25
482.498	599.25
482.717	601.25
482.935	577.25
483.153	566.25
483.372	587.25
483.59	577.25
483.808	595.25
484.027	601.25
484.245	603.25
484.463	610.25
484.681	627.25
484.9	596.25
485.118	615.25
485.336	587.25
485.554	598.25
485.772	589.25
485.99	579.25
486.209	595.25
486.427	605.25
486.645	597.25
486.863	610.25
487.081	622.25
487.299	601.25
487.517	628.25
487.735	604.25
487.953	593.25
488.171	635.25
488.389	599.25
488.607	595.25
488.825	620.25
489.043	612.25
489.261	590.25
489.479	610.25
489.696	598.25
489.914	587.25
490.132	619.25
490.35	604.25
490.568	611.25
490.786	626.25
491.003	609.25
491.221	639.25
491.439	616.25
491.657	598.25
491.874	603.25
492.092	630.25
492.31	617.25
492.527	627.25
492.745	614.25
492.963	664.25
493.18	641.25
493.398	637.25
493.615	639.25
493.833	631.25
494.05	630.25
494.268	669.25
494.485	659.25
494.703	671.25
494.92	641.25
495.138	635.25
495.355	653.25
495.573	655.25
495.79	663.25
496.008	677.25
496.225	665.25
496.442	668.25
496.66	685.25
496.877	673.25
497.094	694.25
497.312	696.25
497.529	707.25
497.746	734.25
497.963	753.25
498.181	758.25
498.398	751.25
498.615	769.25
498.832	801.25
499.049	799.25
499.267	812.25
499.484	814.25
499.701	840.25
499.918	855.25
500.135	886.25
500.352	884.25
500.569	908.25
500.786	905.25
501.003	898.25
501.22	874.25
501.437	869.25
501.654	847.25
501.871	831.25
