Data from Fe(NO3)3@0.025M.TitratingCurve.Agarose3%dH2O.NegLispCup.LampEnergy10.LIBS07252019_HRD10591_16-56-11-335.txt Node
Date: Thu Jul 25 16:56:11 EDT 2019
User: cochatt
Spectrometer: HR+D1059
Trigger mode: 1
Integration Time (sec): 1.000000E-1
Scans to average: 1
Electric dark correction enabled: true
Nonlinearity correction enabled: false
Boxcar width: 0
XAxis mode: Wavelengths
Number of Pixels in Spectrum: 2048
>>>>>Begin Spectral Data<<<<<
223.165	-18.94
223.4	-18.94
223.635	-18.94
223.869	-30.94
224.104	-18.94
224.338	-12.94
224.573	-2.94
224.808	-9.94
225.042	-22.94
225.277	1.06
225.511	-1.94
225.746	8.06
225.98	16.06
226.215	6.06
226.449	7.06
226.683	26.06
226.918	19.06
227.152	36.06
227.387	42.06
227.621	43.06
227.856	30.06
228.09	45.06
228.324	37.06
228.559	58.06
228.793	75.06
229.027	87.06
229.262	73.06
229.496	86.06
229.73	74.06
229.964	82.06
230.199	70.06
230.433	96.06
230.667	101.06
230.901	91.06
231.136	82.06
231.37	96.06
231.604	101.06
231.838	102.06
232.072	104.06
232.306	104.06
232.541	106.06
232.775	99.06
233.009	91.06
233.243	126.06
233.477	106.06
233.711	98.06
233.945	107.06
234.179	95.06
234.413	95.06
234.647	104.06
234.881	103.06
235.115	95.06
235.349	98.06
235.583	108.06
235.817	103.06
236.051	98.06
236.285	96.06
236.519	101.06
236.753	93.06
236.987	101.06
237.221	101.06
237.455	100.06
237.689	90.06
237.922	95.06
238.156	85.06
238.39	101.06
238.624	83.06
238.858	96.06
239.091	106.06
239.325	90.06
239.559	103.06
239.793	110.06
240.027	108.06
240.26	105.06
240.494	111.06
240.728	110.06
240.961	110.06
241.195	121.06
241.429	99.06
241.662	101.06
241.896	106.06
242.13	110.06
242.363	79.06
242.597	112.06
242.83	100.06
243.064	103.06
243.298	118.06
243.531	101.06
243.765	95.06
243.998	115.06
244.232	120.06
244.465	123.06
244.699	120.06
244.932	111.06
245.166	116.06
245.399	118.06
245.633	110.06
245.866	117.06
246.099	110.06
246.333	120.06
246.566	104.06
246.8	122.06
247.033	120.06
247.266	112.06
247.5	127.06
247.733	114.06
247.966	118.06
248.2	124.06
248.433	116.06
248.666	106.06
248.899	138.06
249.133	112.06
249.366	102.06
249.599	122.06
249.832	121.06
250.066	135.06
250.299	130.06
250.532	121.06
250.765	125.06
250.998	111.06
251.231	136.06
251.465	129.06
251.698	118.06
251.931	123.06
252.164	129.06
252.397	131.06
252.63	126.06
252.863	131.06
253.096	132.06
253.329	144.06
253.562	130.06
253.795	119.06
254.028	134.06
254.261	133.06
254.494	129.06
254.727	128.06
254.96	134.06
255.193	127.06
255.426	132.06
255.659	122.06
255.892	137.06
256.124	141.06
256.357	145.06
256.59	119.06
256.823	121.06
257.056	140.06
257.289	140.06
257.521	132.06
257.754	141.06
257.987	130.06
258.22	136.06
258.452	128.06
258.685	132.06
258.918	135.06
259.151	118.06
259.383	125.06
259.616	155.06
259.849	147.06
260.081	157.06
260.314	138.06
260.547	145.06
260.779	136.06
261.012	136.06
261.244	129.06
261.477	144.06
261.71	150.06
261.942	142.06
262.175	145.06
262.407	140.06
262.64	137.06
262.872	144.06
263.105	158.06
263.337	143.06
263.57	152.06
263.802	128.06
264.035	141.06
264.267	155.06
264.499	156.06
264.732	147.06
264.964	152.06
265.197	147.06
265.429	140.06
265.661	148.06
265.894	148.06
266.126	154.06
266.358	151.06
266.591	141.06
266.823	157.06
267.055	152.06
267.287	142.06
267.52	155.06
267.752	150.06
267.984	165.06
268.216	147.06
268.448	161.06
268.681	174.06
268.913	157.06
269.145	159.06
269.377	147.06
269.609	158.06
269.841	147.06
270.073	166.06
270.306	155.06
270.538	143.06
270.77	156.06
271.002	154.06
271.234	150.06
271.466	167.06
271.698	170.06
271.93	155.06
272.162	154.06
272.394	169.06
272.626	170.06
272.858	156.06
273.09	162.06
273.322	163.06
273.553	158.06
273.785	162.06
274.017	171.06
274.249	160.06
274.481	172.06
274.713	177.06
274.945	168.06
275.176	166.06
275.408	184.06
275.64	157.06
275.872	180.06
276.104	174.06
276.335	173.06
276.567	165.06
276.799	166.06
277.031	165.06
277.262	173.06
277.494	175.06
277.726	180.06
277.957	171.06
278.189	175.06
278.421	178.06
278.652	173.06
278.884	167.06
279.115	168.06
279.347	178.06
279.579	178.06
279.81	164.06
280.042	169.06
280.273	189.06
280.505	176.06
280.736	174.06
280.968	183.06
281.199	182.06
281.431	195.06
281.662	178.06
281.894	190.06
282.125	188.06
282.356	187.06
282.588	206.06
282.819	184.06
283.051	186.06
283.282	194.06
283.513	182.06
283.745	191.06
283.976	181.06
284.207	192.06
284.439	193.06
284.67	191.06
284.901	187.06
285.132	188.06
285.364	192.06
285.595	188.06
285.826	190.06
286.057	200.06
286.288	190.06
286.52	193.06
286.751	197.06
286.982	198.06
287.213	197.06
287.444	191.06
287.675	212.06
287.906	170.06
288.138	199.06
288.369	198.06
288.6	188.06
288.831	192.06
289.062	200.06
289.293	192.06
289.524	192.06
289.755	195.06
289.986	206.06
290.217	200.06
290.448	207.06
290.679	197.06
290.91	207.06
291.141	212.06
291.371	208.06
291.602	195.06
291.833	195.06
292.064	191.06
292.295	195.06
292.526	205.06
292.757	197.06
292.987	207.06
293.218	209.06
293.449	227.06
293.68	208.06
293.91	203.06
294.141	214.06
294.372	205.06
294.603	200.06
294.833	219.06
295.064	204.06
295.295	213.06
295.525	204.06
295.756	213.06
295.987	229.06
296.217	215.06
296.448	194.06
296.679	215.06
296.909	226.06
297.14	221.06
297.37	209.06
297.601	221.06
297.831	215.06
298.062	235.06
298.292	212.06
298.523	230.06
298.753	210.06
298.984	226.06
299.214	217.06
299.445	218.06
299.675	219.06
299.905	226.06
300.136	213.06
300.366	208.06
300.597	216.06
300.827	222.06
301.057	214.06
301.288	229.06
301.518	232.06
301.748	236.06
301.979	234.06
302.209	227.06
302.439	234.06
302.669	266.06
302.9	234.06
303.13	218.06
303.36	231.06
303.59	221.06
303.82	217.06
304.051	226.06
304.281	233.06
304.511	238.06
304.741	235.06
304.971	230.06
305.201	213.06
305.431	229.06
305.661	259.06
305.891	232.06
306.121	230.06
306.352	226.06
306.582	239.06
306.812	229.06
307.042	232.06
307.272	239.06
307.502	234.06
307.731	228.06
307.961	248.06
308.191	216.06
308.421	239.06
308.651	224.06
308.881	222.06
309.111	238.06
309.341	231.06
309.571	222.06
309.8	214.06
310.03	230.06
310.26	231.06
310.49	244.06
310.72	242.06
310.949	223.06
311.179	226.06
311.409	238.06
311.639	235.06
311.868	239.06
312.098	237.06
312.328	230.06
312.557	243.06
312.787	260.06
313.017	264.06
313.246	250.06
313.476	248.06
313.706	246.06
313.935	231.06
314.165	246.06
314.394	246.06
314.624	258.06
314.853	233.06
315.083	239.06
315.312	228.06
315.542	246.06
315.771	248.06
316.001	249.06
316.23	251.06
316.46	238.06
316.689	238.06
316.919	255.06
317.148	261.06
317.377	259.06
317.607	260.06
317.836	246.06
318.065	250.06
318.295	263.06
318.524	232.06
318.753	254.06
318.983	233.06
319.212	251.06
319.441	246.06
319.67	237.06
319.9	260.06
320.129	241.06
320.358	234.06
320.587	256.06
320.816	267.06
321.046	278.06
321.275	250.06
321.504	248.06
321.733	252.06
321.962	257.06
322.191	238.06
322.42	250.06
322.649	252.06
322.878	257.06
323.108	252.06
323.337	251.06
323.566	250.06
323.795	263.06
324.024	243.06
324.253	262.06
324.482	268.06
324.71	253.06
324.939	273.06
325.168	273.06
325.397	258.06
325.626	257.06
325.855	256.06
326.084	282.06
326.313	260.06
326.542	242.06
326.77	285.06
326.999	262.06
327.228	263.06
327.457	259.06
327.686	269.06
327.914	272.06
328.143	270.06
328.372	275.06
328.6	271.06
328.829	285.06
329.058	287.06
329.287	284.06
329.515	279.06
329.744	300.06
329.972	294.06
330.201	282.06
330.43	280.06
330.658	286.06
330.887	279.06
331.115	276.06
331.344	277.06
331.572	264.06
331.801	298.06
332.03	289.06
332.258	288.06
332.486	293.06
332.715	290.06
332.943	322.06
333.172	334.06
333.4	341.06
333.629	333.06
333.857	333.06
334.085	326.06
334.314	326.06
334.542	326.06
334.771	304.06
334.999	327.06
335.227	327.06
335.455	327.06
335.684	306.06
335.912	308.06
336.14	310.06
336.369	319.06
336.597	312.06
336.825	308.06
337.053	306.06
337.281	299.06
337.51	305.06
337.738	314.06
337.966	282.06
338.194	311.06
338.422	311.06
338.65	316.06
338.878	294.06
339.106	285.06
339.334	302.06
339.562	287.06
339.79	286.06
340.018	302.06
340.246	283.06
340.474	295.06
340.702	287.06
340.93	298.06
341.158	286.06
341.386	300.06
341.614	281.06
341.842	290.06
342.07	299.06
342.298	271.06
342.526	267.06
342.754	287.06
342.981	273.06
343.209	287.06
343.437	311.06
343.665	331.06
343.893	325.06
344.12	351.06
344.348	298.06
344.576	308.06
344.804	316.06
345.031	299.06
345.259	289.06
345.487	290.06
345.714	287.06
345.942	291.06
346.17	299.06
346.397	287.06
346.625	275.06
346.853	300.06
347.08	300.06
347.308	299.06
347.535	272.06
347.763	282.06
347.99	269.06
348.218	293.06
348.445	296.06
348.673	292.06
348.9	293.06
349.128	271.06
349.355	271.06
349.583	285.06
349.81	284.06
350.037	287.06
350.265	280.06
350.492	263.06
350.72	276.06
350.947	278.06
351.174	263.06
351.402	267.06
351.629	283.06
351.856	298.06
352.083	271.06
352.311	282.06
352.538	274.06
352.765	280.06
352.992	280.06
353.22	264.06
353.447	280.06
353.674	306.06
353.901	269.06
354.128	262.06
354.355	274.06
354.583	289.06
354.81	278.06
355.037	281.06
355.264	273.06
355.491	279.06
355.718	288.06
355.945	283.06
356.172	272.06
356.399	283.06
356.626	283.06
356.853	284.06
357.08	276.06
357.307	283.06
357.534	283.06
357.761	283.06
357.988	266.06
358.215	274.06
358.441	288.06
358.668	275.06
358.895	282.06
359.122	281.06
359.349	272.06
359.576	266.06
359.802	288.06
360.029	286.06
360.256	292.06
360.483	281.06
360.709	290.06
360.936	299.06
361.163	278.06
361.39	274.06
361.616	285.06
361.843	284.06
362.07	255.06
362.296	279.06
362.523	288.06
362.749	278.06
362.976	286.06
363.203	278.06
363.429	266.06
363.656	296.06
363.882	282.06
364.109	295.06
364.335	267.06
364.562	289.06
364.788	285.06
365.015	303.06
365.241	303.06
365.468	283.06
365.694	272.06
365.92	277.06
366.147	283.06
366.373	274.06
366.599	273.06
366.826	285.06
367.052	284.06
367.278	308.06
367.505	298.06
367.731	287.06
367.957	276.06
368.184	309.06
368.41	280.06
368.636	284.06
368.862	274.06
369.089	291.06
369.315	300.06
369.541	298.06
369.767	303.06
369.993	303.06
370.219	306.06
370.445	279.06
370.672	300.06
370.898	299.06
371.124	297.06
371.35	303.06
371.576	290.06
371.802	293.06
372.028	285.06
372.254	296.06
372.48	301.06
372.706	306.06
372.932	294.06
373.158	314.06
373.384	314.06
373.61	293.06
373.835	315.06
374.061	301.06
374.287	306.06
374.513	301.06
374.739	344.06
374.965	331.06
375.191	325.06
375.416	323.06
375.642	325.06
375.868	310.06
376.094	322.06
376.319	299.06
376.545	314.06
376.771	325.06
376.997	311.06
377.222	306.06
377.448	318.06
377.674	314.06
377.899	298.06
378.125	304.06
378.35	314.06
378.576	301.06
378.802	303.06
379.027	307.06
379.253	301.06
379.478	294.06
379.704	306.06
379.929	299.06
380.155	293.06
380.38	300.06
380.606	288.06
380.831	315.06
381.057	316.06
381.282	301.06
381.507	314.06
381.733	300.06
381.958	308.06
382.184	302.06
382.409	312.06
382.634	316.06
382.86	332.06
383.085	343.06
383.31	307.06
383.535	318.06
383.761	328.06
383.986	345.06
384.211	330.06
384.436	351.06
384.662	346.06
384.887	352.06
385.112	347.06
385.337	354.06
385.562	341.06
385.787	342.06
386.013	347.06
386.238	351.06
386.463	357.06
386.688	354.06
386.913	342.06
387.138	343.06
387.363	355.06
387.588	364.06
387.813	356.06
388.038	345.06
388.263	356.06
388.488	341.06
388.713	367.06
388.938	347.06
389.163	338.06
389.387	360.06
389.612	350.06
389.837	328.06
390.062	366.06
390.287	367.06
390.512	371.06
390.736	347.06
390.961	352.06
391.186	360.06
391.411	399.06
391.636	376.06
391.86	393.06
392.085	390.06
392.31	378.06
392.534	394.06
392.759	381.06
392.984	389.06
393.208	358.06
393.433	361.06
393.658	348.06
393.882	362.06
394.107	382.06
394.331	382.06
394.556	373.06
394.78	365.06
395.005	374.06
395.229	390.06
395.454	391.06
395.678	380.06
395.903	370.06
396.127	384.06
396.352	371.06
396.576	386.06
396.801	382.06
397.025	386.06
397.249	390.06
397.474	389.06
397.698	410.06
397.922	392.06
398.147	394.06
398.371	401.06
398.595	418.06
398.82	413.06
399.044	450.06
399.268	478.06
399.492	541.06
399.717	562.06
399.941	546.06
400.165	518.06
400.389	465.06
400.613	475.06
400.837	445.06
401.062	448.06
401.286	439.06
401.51	446.06
401.734	431.06
401.958	422.06
402.182	435.06
402.406	433.06
402.63	450.06
402.854	453.06
403.078	451.06
403.302	441.06
403.526	453.06
403.75	463.06
403.974	450.06
404.198	452.06
404.422	470.06
404.645	456.06
404.869	436.06
405.093	447.06
405.317	452.06
405.541	454.06
405.765	450.06
405.988	422.06
406.212	453.06
406.436	431.06
406.66	459.06
406.883	476.06
407.107	491.06
407.331	499.06
407.555	519.06
407.778	509.06
408.002	496.06
408.226	491.06
408.449	486.06
408.673	470.06
408.896	491.06
409.12	456.06
409.344	463.06
409.567	460.06
409.791	459.06
410.014	452.06
410.238	459.06
410.461	446.06
410.685	465.06
410.908	447.06
411.132	444.06
411.355	438.06
411.578	447.06
411.802	436.06
412.025	442.06
412.249	439.06
412.472	454.06
412.695	436.06
412.919	420.06
413.142	437.06
413.365	427.06
413.589	406.06
413.812	393.06
414.035	422.06
414.258	416.06
414.482	419.06
414.705	428.06
414.928	414.06
415.151	428.06
415.374	426.06
415.597	423.06
415.821	435.06
416.044	424.06
416.267	430.06
416.49	410.06
416.713	412.06
416.936	404.06
417.159	414.06
417.382	391.06
417.605	406.06
417.828	413.06
418.051	438.06
418.274	418.06
418.497	396.06
418.72	441.06
418.943	415.06
419.166	416.06
419.389	450.06
419.611	446.06
419.834	424.06
420.057	454.06
420.28	408.06
420.503	410.06
420.726	406.06
420.948	394.06
421.171	405.06
421.394	401.06
421.617	396.06
421.839	416.06
422.062	403.06
422.285	401.06
422.507	408.06
422.73	412.06
422.953	421.06
423.175	412.06
423.398	424.06
423.621	399.06
423.843	438.06
424.066	426.06
424.288	414.06
424.511	422.06
424.733	427.06
424.956	432.06
425.178	410.06
425.401	410.06
425.623	412.06
425.846	393.06
426.068	402.06
426.291	426.06
426.513	411.06
426.735	390.06
426.958	413.06
427.18	368.06
427.402	378.06
427.625	374.06
427.847	391.06
428.069	382.06
428.292	384.06
428.514	369.06
428.736	356.06
428.958	388.06
429.181	382.06
429.403	369.06
429.625	370.06
429.847	391.06
430.069	374.06
430.292	357.06
430.514	380.06
430.736	367.06
430.958	406.06
431.18	373.06
431.402	355.06
431.624	384.06
431.846	390.06
432.068	387.06
432.29	384.06
432.512	380.06
432.734	390.06
432.956	378.06
433.178	382.06
433.4	372.06
433.622	370.06
433.844	389.06
434.066	380.06
434.287	399.06
434.509	397.06
434.731	420.06
434.953	413.06
435.175	401.06
435.397	422.06
435.618	396.06
435.84	378.06
436.062	394.06
436.284	383.06
436.505	374.06
436.727	363.06
436.949	362.06
437.17	364.06
437.392	367.06
437.614	342.06
437.835	373.06
438.057	374.06
438.278	340.06
438.5	378.06
438.721	370.06
438.943	367.06
439.165	374.06
439.386	375.06
439.608	382.06
439.829	375.06
440.05	384.06
440.272	375.06
440.493	360.06
440.715	364.06
440.936	394.06
441.158	397.06
441.379	417.06
441.6	423.06
441.822	379.06
442.043	424.06
442.264	404.06
442.486	415.06
442.707	409.06
442.928	412.06
443.149	398.06
443.371	393.06
443.592	406.06
443.813	396.06
444.034	411.06
444.255	420.06
444.476	404.06
444.698	421.06
444.919	429.06
445.14	522.06
445.361	462.06
445.582	398.06
445.803	395.06
446.024	400.06
446.245	392.06
446.466	387.06
446.687	379.06
446.908	405.06
447.129	386.06
447.35	370.06
447.571	371.06
447.792	351.06
448.013	351.06
448.234	358.06
448.455	351.06
448.675	371.06
448.896	348.06
449.117	355.06
449.338	347.06
449.559	343.06
449.779	357.06
450	347.06
450.221	338.06
450.442	364.06
450.662	339.06
450.883	349.06
451.104	354.06
451.324	337.06
451.545	330.06
451.766	348.06
451.986	348.06
452.207	341.06
452.428	342.06
452.648	336.06
452.869	363.06
453.089	324.06
453.31	350.06
453.53	357.06
453.751	336.06
453.971	327.06
454.192	329.06
454.412	335.06
454.633	337.06
454.853	348.06
455.073	343.06
455.294	332.06
455.514	331.06
455.734	333.06
455.955	312.06
456.175	327.06
456.395	357.06
456.616	348.06
456.836	319.06
457.056	314.06
457.276	318.06
457.497	350.06
457.717	329.06
457.937	355.06
458.157	334.06
458.377	343.06
458.598	372.06
458.818	361.06
459.038	377.06
459.258	370.06
459.478	379.06
459.698	392.06
459.918	403.06
460.138	406.06
460.358	414.06
460.578	434.06
460.798	430.06
461.018	427.06
461.238	432.06
461.458	441.06
461.678	423.06
461.898	430.06
462.118	444.06
462.338	453.06
462.558	464.06
462.777	471.06
462.997	481.06
463.217	517.06
463.437	504.06
463.657	470.06
463.876	491.06
464.096	482.06
464.316	455.06
464.536	476.06
464.755	476.06
464.975	451.06
465.195	426.06
465.414	404.06
465.634	395.06
465.854	388.06
466.073	404.06
466.293	381.06
466.512	388.06
466.732	378.06
466.951	385.06
467.171	379.06
467.391	372.06
467.61	359.06
467.829	359.06
468.049	374.06
468.268	348.06
468.488	338.06
468.707	363.06
468.927	355.06
469.146	363.06
469.365	368.06
469.585	384.06
469.804	388.06
470.023	377.06
470.243	366.06
470.462	380.06
470.681	379.06
470.901	367.06
471.12	398.06
471.339	374.06
471.558	363.06
471.777	353.06
471.997	352.06
472.216	352.06
472.435	352.06
472.654	362.06
472.873	373.06
473.092	357.06
473.311	370.06
473.53	343.06
473.749	360.06
473.968	351.06
474.187	348.06
474.406	355.06
474.625	358.06
474.844	340.06
475.063	348.06
475.282	341.06
475.501	346.06
475.72	375.06
475.939	352.06
476.158	359.06
476.377	362.06
476.596	363.06
476.814	368.06
477.033	371.06
477.252	384.06
477.471	388.06
477.69	396.06
477.908	405.06
478.127	427.06
478.346	402.06
478.564	405.06
478.783	411.06
479.002	419.06
479.22	414.06
479.439	397.06
479.658	422.06
479.876	410.06
480.095	407.06
480.313	434.06
480.532	434.06
480.751	428.06
480.969	431.06
481.188	421.06
481.406	414.06
481.624	419.06
481.843	386.06
482.061	396.06
482.28	403.06
482.498	384.06
482.717	396.06
482.935	390.06
483.153	395.06
483.372	398.06
483.59	378.06
483.808	390.06
484.027	429.06
484.245	393.06
484.463	389.06
484.681	404.06
484.9	402.06
485.118	429.06
485.336	422.06
485.554	406.06
485.772	411.06
485.99	401.06
486.209	415.06
486.427	414.06
486.645	393.06
486.863	401.06
487.081	418.06
487.299	415.06
487.517	420.06
487.735	401.06
487.953	403.06
488.171	412.06
488.389	406.06
488.607	403.06
488.825	398.06
489.043	424.06
489.261	411.06
489.479	412.06
489.696	408.06
489.914	405.06
490.132	415.06
490.35	423.06
490.568	420.06
490.786	431.06
491.003	422.06
491.221	412.06
491.439	445.06
491.657	407.06
491.874	426.06
492.092	425.06
492.31	407.06
492.527	432.06
492.745	422.06
492.963	413.06
493.18	417.06
493.398	418.06
493.615	412.06
493.833	428.06
494.05	405.06
494.268	448.06
494.485	451.06
494.703	437.06
494.92	454.06
495.138	439.06
495.355	462.06
495.573	420.06
495.79	444.06
496.008	454.06
496.225	467.06
496.442	463.06
496.66	475.06
496.877	456.06
497.094	484.06
497.312	482.06
497.529	503.06
497.746	512.06
497.963	503.06
498.181	533.06
498.398	546.06
498.615	583.06
498.832	588.06
499.049	630.06
499.267	672.06
499.484	724.06
499.701	764.06
499.918	825.06
500.135	867.06
500.352	965.06
500.569	971.06
500.786	935.06
501.003	917.06
501.22	867.06
501.437	772.06
501.654	725.06
501.871	696.06
502.088	646.06
