Data from Fe(NO3)3@0.0125M.TitratingCurve.Agarose3%dH2O.NegLispCup.LampEnergy10.LIBS07252019_HRD10591_17-00-50-340.txt Node
Date: Thu Jul 25 17:00:50 EDT 2019
User: cochatt
Spectrometer: HR+D1059
Trigger mode: 1
Integration Time (sec): 1.000000E-1
Scans to average: 1
Electric dark correction enabled: true
Nonlinearity correction enabled: false
Boxcar width: 0
XAxis mode: Wavelengths
Number of Pixels in Spectrum: 2048
>>>>>Begin Spectral Data<<<<<
223.165	-7.56
223.4	-7.56
223.635	-7.56
223.869	-22.56
224.104	-19.56
224.338	-7.56
224.573	-23.56
224.808	-14.56
225.042	11.44
225.277	0.44
225.511	-11.56
225.746	6.44
225.98	12.44
226.215	6.44
226.449	1.44
226.683	19.44
226.918	13.44
227.152	35.44
227.387	38.44
227.621	40.44
227.856	53.44
228.09	50.44
228.324	56.44
228.559	42.44
228.793	56.44
229.027	72.44
229.262	74.44
229.496	88.44
229.73	96.44
229.964	92.44
230.199	96.44
230.433	91.44
230.667	101.44
230.901	104.44
231.136	85.44
231.37	106.44
231.604	104.44
231.838	104.44
232.072	124.44
232.306	101.44
232.541	110.44
232.775	111.44
233.009	100.44
233.243	109.44
233.477	113.44
233.711	123.44
233.945	103.44
234.179	122.44
234.413	119.44
234.647	93.44
234.881	118.44
235.115	118.44
235.349	111.44
235.583	114.44
235.817	99.44
236.051	112.44
236.285	121.44
236.519	131.44
236.753	101.44
236.987	103.44
237.221	105.44
237.455	104.44
237.689	112.44
237.922	102.44
238.156	117.44
238.39	123.44
238.624	125.44
238.858	119.44
239.091	125.44
239.325	123.44
239.559	125.44
239.793	123.44
240.027	140.44
240.26	127.44
240.494	124.44
240.728	130.44
240.961	135.44
241.195	121.44
241.429	120.44
241.662	127.44
241.896	122.44
242.13	143.44
242.363	123.44
242.597	120.44
242.83	139.44
243.064	135.44
243.298	139.44
243.531	131.44
243.765	127.44
243.998	127.44
244.232	135.44
244.465	150.44
244.699	145.44
244.932	153.44
245.166	135.44
245.399	130.44
245.633	141.44
245.866	141.44
246.099	148.44
246.333	128.44
246.566	140.44
246.8	155.44
247.033	149.44
247.266	132.44
247.5	144.44
247.733	152.44
247.966	139.44
248.2	133.44
248.433	152.44
248.666	162.44
248.899	142.44
249.133	167.44
249.366	159.44
249.599	153.44
249.832	148.44
250.066	150.44
250.299	145.44
250.532	161.44
250.765	150.44
250.998	162.44
251.231	152.44
251.465	168.44
251.698	146.44
251.931	163.44
252.164	173.44
252.397	153.44
252.63	172.44
252.863	167.44
253.096	158.44
253.329	161.44
253.562	151.44
253.795	140.44
254.028	175.44
254.261	167.44
254.494	169.44
254.727	170.44
254.96	168.44
255.193	157.44
255.426	168.44
255.659	155.44
255.892	173.44
256.124	163.44
256.357	173.44
256.59	188.44
256.823	168.44
257.056	177.44
257.289	160.44
257.521	175.44
257.754	172.44
257.987	175.44
258.22	183.44
258.452	180.44
258.685	192.44
258.918	180.44
259.151	183.44
259.383	185.44
259.616	180.44
259.849	187.44
260.081	223.44
260.314	223.44
260.547	183.44
260.779	184.44
261.012	201.44
261.244	208.44
261.477	194.44
261.71	191.44
261.942	180.44
262.175	180.44
262.407	199.44
262.64	186.44
262.872	202.44
263.105	215.44
263.337	202.44
263.57	204.44
263.802	187.44
264.035	182.44
264.267	193.44
264.499	182.44
264.732	204.44
264.964	191.44
265.197	199.44
265.429	192.44
265.661	188.44
265.894	195.44
266.126	179.44
266.358	195.44
266.591	195.44
266.823	210.44
267.055	197.44
267.287	197.44
267.52	203.44
267.752	190.44
267.984	214.44
268.216	202.44
268.448	217.44
268.681	218.44
268.913	204.44
269.145	196.44
269.377	205.44
269.609	211.44
269.841	224.44
270.073	218.44
270.306	225.44
270.538	213.44
270.77	217.44
271.002	204.44
271.234	219.44
271.466	227.44
271.698	202.44
271.93	198.44
272.162	213.44
272.394	219.44
272.626	232.44
272.858	233.44
273.09	239.44
273.322	222.44
273.553	229.44
273.785	244.44
274.017	252.44
274.249	240.44
274.481	253.44
274.713	269.44
274.945	273.44
275.176	275.44
275.408	243.44
275.64	255.44
275.872	262.44
276.104	225.44
276.335	244.44
276.567	243.44
276.799	257.44
277.031	226.44
277.262	234.44
277.494	231.44
277.726	237.44
277.957	216.44
278.189	236.44
278.421	231.44
278.652	259.44
278.884	229.44
279.115	240.44
279.347	235.44
279.579	250.44
279.81	233.44
280.042	234.44
280.273	251.44
280.505	269.44
280.736	246.44
280.968	275.44
281.199	260.44
281.431	231.44
281.662	250.44
281.894	245.44
282.125	261.44
282.356	245.44
282.588	250.44
282.819	238.44
283.051	256.44
283.282	265.44
283.513	262.44
283.745	281.44
283.976	254.44
284.207	263.44
284.439	276.44
284.67	263.44
284.901	271.44
285.132	265.44
285.364	263.44
285.595	275.44
285.826	268.44
286.057	262.44
286.288	265.44
286.52	263.44
286.751	280.44
286.982	276.44
287.213	272.44
287.444	259.44
287.675	277.44
287.906	285.44
288.138	270.44
288.369	263.44
288.6	274.44
288.831	272.44
289.062	287.44
289.293	284.44
289.524	280.44
289.755	274.44
289.986	287.44
290.217	273.44
290.448	282.44
290.679	296.44
290.91	287.44
291.141	292.44
291.371	276.44
291.602	280.44
291.833	281.44
292.064	296.44
292.295	283.44
292.526	287.44
292.757	297.44
292.987	277.44
293.218	285.44
293.449	290.44
293.68	303.44
293.91	287.44
294.141	290.44
294.372	279.44
294.603	287.44
294.833	286.44
295.064	311.44
295.295	279.44
295.525	282.44
295.756	294.44
295.987	303.44
296.217	309.44
296.448	298.44
296.679	298.44
296.909	291.44
297.14	301.44
297.37	317.44
297.601	307.44
297.831	304.44
298.062	300.44
298.292	289.44
298.523	293.44
298.753	319.44
298.984	300.44
299.214	328.44
299.445	300.44
299.675	320.44
299.905	328.44
300.136	314.44
300.366	310.44
300.597	308.44
300.827	301.44
301.057	311.44
301.288	299.44
301.518	319.44
301.748	315.44
301.979	328.44
302.209	316.44
302.439	320.44
302.669	331.44
302.9	331.44
303.13	320.44
303.36	347.44
303.59	326.44
303.82	327.44
304.051	335.44
304.281	324.44
304.511	333.44
304.741	327.44
304.971	332.44
305.201	329.44
305.431	342.44
305.661	323.44
305.891	332.44
306.121	329.44
306.352	335.44
306.582	335.44
306.812	332.44
307.042	345.44
307.272	340.44
307.502	326.44
307.731	332.44
307.961	327.44
308.191	350.44
308.421	327.44
308.651	332.44
308.881	336.44
309.111	331.44
309.341	351.44
309.571	348.44
309.8	331.44
310.03	319.44
310.26	341.44
310.49	348.44
310.72	332.44
310.949	345.44
311.179	342.44
311.409	320.44
311.639	342.44
311.868	348.44
312.098	330.44
312.328	352.44
312.557	348.44
312.787	336.44
313.017	344.44
313.246	367.44
313.476	340.44
313.706	341.44
313.935	360.44
314.165	361.44
314.394	350.44
314.624	364.44
314.853	360.44
315.083	353.44
315.312	356.44
315.542	370.44
315.771	359.44
316.001	359.44
316.23	381.44
316.46	374.44
316.689	369.44
316.919	377.44
317.148	366.44
317.377	363.44
317.607	377.44
317.836	356.44
318.065	355.44
318.295	376.44
318.524	375.44
318.753	356.44
318.983	376.44
319.212	380.44
319.441	362.44
319.67	376.44
319.9	375.44
320.129	368.44
320.358	374.44
320.587	377.44
320.816	394.44
321.046	381.44
321.275	391.44
321.504	380.44
321.733	383.44
321.962	388.44
322.191	366.44
322.42	367.44
322.649	397.44
322.878	385.44
323.108	383.44
323.337	393.44
323.566	404.44
323.795	390.44
324.024	373.44
324.253	401.44
324.482	411.44
324.71	387.44
324.939	389.44
325.168	411.44
325.397	411.44
325.626	397.44
325.855	408.44
326.084	398.44
326.313	387.44
326.542	383.44
326.77	411.44
326.999	406.44
327.228	394.44
327.457	418.44
327.686	407.44
327.914	393.44
328.143	390.44
328.372	407.44
328.6	400.44
328.829	398.44
329.058	406.44
329.287	375.44
329.515	403.44
329.744	414.44
329.972	424.44
330.201	411.44
330.43	397.44
330.658	405.44
330.887	431.44
331.115	415.44
331.344	411.44
331.572	428.44
331.801	387.44
332.03	406.44
332.258	437.44
332.486	417.44
332.715	424.44
332.943	424.44
333.172	451.44
333.4	429.44
333.629	440.44
333.857	447.44
334.085	458.44
334.314	461.44
334.542	443.44
334.771	462.44
334.999	442.44
335.227	443.44
335.455	447.44
335.684	453.44
335.912	465.44
336.14	436.44
336.369	435.44
336.597	471.44
336.825	450.44
337.053	453.44
337.281	454.44
337.51	448.44
337.738	460.44
337.966	455.44
338.194	465.44
338.422	436.44
338.65	436.44
338.878	423.44
339.106	437.44
339.334	448.44
339.562	417.44
339.79	426.44
340.018	441.44
340.246	443.44
340.474	448.44
340.702	449.44
340.93	422.44
341.158	440.44
341.386	427.44
341.614	403.44
341.842	455.44
342.07	427.44
342.298	433.44
342.526	427.44
342.754	428.44
342.981	433.44
343.209	444.44
343.437	448.44
343.665	449.44
343.893	456.44
344.12	476.44
344.348	460.44
344.576	466.44
344.804	450.44
345.031	448.44
345.259	438.44
345.487	434.44
345.714	431.44
345.942	440.44
346.17	437.44
346.397	434.44
346.625	426.44
346.853	429.44
347.08	428.44
347.308	432.44
347.535	441.44
347.763	444.44
347.99	445.44
348.218	415.44
348.445	413.44
348.673	435.44
348.9	448.44
349.128	421.44
349.355	423.44
349.583	427.44
349.81	416.44
350.037	408.44
350.265	447.44
350.492	423.44
350.72	412.44
350.947	415.44
351.174	409.44
351.402	412.44
351.629	430.44
351.856	425.44
352.083	433.44
352.311	416.44
352.538	437.44
352.765	425.44
352.992	419.44
353.22	411.44
353.447	431.44
353.674	415.44
353.901	409.44
354.128	411.44
354.355	412.44
354.583	427.44
354.81	428.44
355.037	427.44
355.264	410.44
355.491	404.44
355.718	424.44
355.945	419.44
356.172	427.44
356.399	430.44
356.626	421.44
356.853	424.44
357.08	442.44
357.307	414.44
357.534	412.44
357.761	421.44
357.988	423.44
358.215	443.44
358.441	455.44
358.668	414.44
358.895	425.44
359.122	414.44
359.349	414.44
359.576	423.44
359.802	419.44
360.029	433.44
360.256	433.44
360.483	433.44
360.709	427.44
360.936	443.44
361.163	414.44
361.39	439.44
361.616	421.44
361.843	453.44
362.07	437.44
362.296	442.44
362.523	411.44
362.749	432.44
362.976	415.44
363.203	430.44
363.429	439.44
363.656	460.44
363.882	426.44
364.109	439.44
364.335	421.44
364.562	451.44
364.788	441.44
365.015	423.44
365.241	427.44
365.468	431.44
365.694	424.44
365.92	431.44
366.147	461.44
366.373	443.44
366.599	426.44
366.826	423.44
367.052	422.44
367.278	407.44
367.505	452.44
367.731	436.44
367.957	439.44
368.184	471.44
368.41	449.44
368.636	453.44
368.862	456.44
369.089	442.44
369.315	449.44
369.541	445.44
369.767	466.44
369.993	439.44
370.219	453.44
370.445	449.44
370.672	451.44
370.898	447.44
371.124	452.44
371.35	466.44
371.576	439.44
371.802	463.44
372.028	472.44
372.254	463.44
372.48	479.44
372.706	472.44
372.932	466.44
373.158	473.44
373.384	477.44
373.61	463.44
373.835	469.44
374.061	456.44
374.287	468.44
374.513	489.44
374.739	485.44
374.965	489.44
375.191	489.44
375.416	478.44
375.642	469.44
375.868	476.44
376.094	488.44
376.319	463.44
376.545	467.44
376.771	453.44
376.997	457.44
377.222	456.44
377.448	455.44
377.674	434.44
377.899	452.44
378.125	466.44
378.35	462.44
378.576	460.44
378.802	473.44
379.027	480.44
379.253	464.44
379.478	439.44
379.704	441.44
379.929	444.44
380.155	450.44
380.38	450.44
380.606	471.44
380.831	466.44
381.057	470.44
381.282	452.44
381.507	485.44
381.733	470.44
381.958	491.44
382.184	455.44
382.409	479.44
382.634	479.44
382.86	483.44
383.085	475.44
383.31	486.44
383.535	497.44
383.761	466.44
383.986	499.44
384.211	498.44
384.436	495.44
384.662	490.44
384.887	487.44
385.112	505.44
385.337	498.44
385.562	486.44
385.787	507.44
386.013	507.44
386.238	521.44
386.463	518.44
386.688	521.44
386.913	517.44
387.138	535.44
387.363	514.44
387.588	523.44
387.813	525.44
388.038	523.44
388.263	512.44
388.488	499.44
388.713	551.44
388.938	540.44
389.163	501.44
389.387	523.44
389.612	508.44
389.837	523.44
390.062	518.44
390.287	538.44
390.512	548.44
390.736	539.44
390.961	512.44
391.186	513.44
391.411	539.44
391.636	523.44
391.86	559.44
392.085	536.44
392.31	557.44
392.534	521.44
392.759	555.44
392.984	535.44
393.208	537.44
393.433	567.44
393.658	540.44
393.882	529.44
394.107	541.44
394.331	525.44
394.556	521.44
394.78	551.44
395.005	538.44
395.229	546.44
395.454	554.44
395.678	536.44
395.903	555.44
396.127	552.44
396.352	555.44
396.576	555.44
396.801	571.44
397.025	556.44
397.249	569.44
397.474	571.44
397.698	561.44
397.922	566.44
398.147	584.44
398.371	578.44
398.595	576.44
398.82	589.44
399.044	604.44
399.268	613.44
399.492	636.44
399.717	674.44
399.941	659.44
400.165	673.44
400.389	635.44
400.613	626.44
400.837	611.44
401.062	592.44
401.286	599.44
401.51	604.44
401.734	592.44
401.958	605.44
402.182	595.44
402.406	597.44
402.63	597.44
402.854	604.44
403.078	596.44
403.302	577.44
403.526	603.44
403.75	585.44
403.974	591.44
404.198	601.44
404.422	612.44
404.645	612.44
404.869	606.44
405.093	624.44
405.317	609.44
405.541	603.44
405.765	633.44
405.988	634.44
406.212	630.44
406.436	618.44
406.66	645.44
406.883	639.44
407.107	641.44
407.331	643.44
407.555	680.44
407.778	657.44
408.002	655.44
408.226	645.44
408.449	660.44
408.673	640.44
408.896	637.44
409.12	646.44
409.344	641.44
409.567	594.44
409.791	620.44
410.014	637.44
410.238	641.44
410.461	625.44
410.685	620.44
410.908	632.44
411.132	631.44
411.355	609.44
411.578	610.44
411.802	629.44
412.025	624.44
412.249	626.44
412.472	621.44
412.695	589.44
412.919	597.44
413.142	614.44
413.365	617.44
413.589	606.44
413.812	589.44
414.035	598.44
414.258	601.44
414.482	601.44
414.705	585.44
414.928	579.44
415.151	591.44
415.374	589.44
415.597	572.44
415.821	571.44
416.044	581.44
416.267	580.44
416.49	592.44
416.713	593.44
416.936	572.44
417.159	579.44
417.382	590.44
417.605	589.44
417.828	579.44
418.051	586.44
418.274	561.44
418.497	561.44
418.72	569.44
418.943	582.44
419.166	591.44
419.389	617.44
419.611	619.44
419.834	599.44
420.057	580.44
420.28	577.44
420.503	556.44
420.726	542.44
420.948	591.44
421.171	552.44
421.394	559.44
421.617	552.44
421.839	575.44
422.062	575.44
422.285	576.44
422.507	562.44
422.73	561.44
422.953	582.44
423.175	561.44
423.398	583.44
423.621	565.44
423.843	564.44
424.066	574.44
424.288	572.44
424.511	579.44
424.733	523.44
424.956	560.44
425.178	535.44
425.401	558.44
425.623	579.44
425.846	560.44
426.068	551.44
426.291	563.44
426.513	569.44
426.735	555.44
426.958	577.44
427.18	540.44
427.402	552.44
427.625	560.44
427.847	539.44
428.069	537.44
428.292	545.44
428.514	531.44
428.736	547.44
428.958	554.44
429.181	545.44
429.403	547.44
429.625	539.44
429.847	544.44
430.069	542.44
430.292	569.44
430.514	556.44
430.736	558.44
430.958	545.44
431.18	546.44
431.402	546.44
431.624	534.44
431.846	559.44
432.068	558.44
432.29	547.44
432.512	564.44
432.734	550.44
432.956	539.44
433.178	569.44
433.4	574.44
433.622	557.44
433.844	579.44
434.066	588.44
434.287	586.44
434.509	568.44
434.731	559.44
434.953	566.44
435.175	554.44
435.397	553.44
435.618	561.44
435.84	560.44
436.062	553.44
436.284	564.44
436.505	540.44
436.727	549.44
436.949	541.44
437.17	555.44
437.392	529.44
437.614	552.44
437.835	512.44
438.057	534.44
438.278	535.44
438.5	532.44
438.721	539.44
438.943	516.44
439.165	514.44
439.386	530.44
439.608	535.44
439.829	523.44
440.05	541.44
440.272	531.44
440.493	533.44
440.715	544.44
440.936	531.44
441.158	532.44
441.379	550.44
441.6	560.44
441.822	559.44
442.043	543.44
442.264	565.44
442.486	553.44
442.707	548.44
442.928	552.44
443.149	554.44
443.371	569.44
443.592	546.44
443.813	535.44
444.034	566.44
444.255	568.44
444.476	571.44
444.698	578.44
444.919	578.44
445.14	650.44
445.361	606.44
445.582	555.44
445.803	547.44
446.024	546.44
446.245	544.44
446.466	530.44
446.687	533.44
446.908	507.44
447.129	524.44
447.35	505.44
447.571	523.44
447.792	529.44
448.013	502.44
448.234	509.44
448.455	500.44
448.675	507.44
448.896	515.44
449.117	515.44
449.338	491.44
449.559	505.44
449.779	489.44
450	485.44
450.221	484.44
450.442	489.44
450.662	489.44
450.883	507.44
451.104	497.44
451.324	500.44
451.545	470.44
451.766	499.44
451.986	485.44
452.207	487.44
452.428	507.44
452.648	478.44
452.869	487.44
453.089	477.44
453.31	500.44
453.53	488.44
453.751	478.44
453.971	481.44
454.192	468.44
454.412	482.44
454.633	488.44
454.853	475.44
455.073	483.44
455.294	478.44
455.514	456.44
455.734	455.44
455.955	491.44
456.175	462.44
456.395	465.44
456.616	472.44
456.836	476.44
457.056	453.44
457.276	467.44
457.497	450.44
457.717	490.44
457.937	482.44
458.157	491.44
458.377	522.44
458.598	502.44
458.818	513.44
459.038	517.44
459.258	513.44
459.478	526.44
459.698	518.44
459.918	530.44
460.138	544.44
460.358	566.44
460.578	543.44
460.798	544.44
461.018	574.44
461.238	576.44
461.458	584.44
461.678	568.44
461.898	559.44
462.118	582.44
462.338	592.44
462.558	579.44
462.777	607.44
462.997	579.44
463.217	599.44
463.437	627.44
463.657	609.44
463.876	611.44
464.096	618.44
464.316	580.44
464.536	599.44
464.755	597.44
464.975	598.44
465.195	581.44
465.414	589.44
465.634	541.44
465.854	542.44
466.073	557.44
466.293	534.44
466.512	556.44
466.732	529.44
466.951	519.44
467.171	528.44
467.391	516.44
467.61	561.44
467.829	537.44
468.049	524.44
468.268	512.44
468.488	530.44
468.707	543.44
468.927	535.44
469.146	545.44
469.365	537.44
469.585	529.44
469.804	532.44
470.023	539.44
470.243	545.44
470.462	540.44
470.681	525.44
470.901	546.44
471.12	548.44
471.339	525.44
471.558	522.44
471.777	518.44
471.997	520.44
472.216	541.44
472.435	530.44
472.654	523.44
472.873	515.44
473.092	524.44
473.311	528.44
473.53	519.44
473.749	541.44
473.968	556.44
474.187	532.44
474.406	528.44
474.625	541.44
474.844	533.44
475.063	546.44
475.282	549.44
475.501	516.44
475.72	561.44
475.939	547.44
476.158	570.44
476.377	582.44
476.596	594.44
476.814	600.44
477.033	570.44
477.252	599.44
477.471	582.44
477.69	564.44
477.908	584.44
478.127	602.44
478.346	581.44
478.564	623.44
478.783	627.44
479.002	634.44
479.22	636.44
479.439	638.44
479.658	629.44
479.876	630.44
480.095	635.44
480.313	663.44
480.532	665.44
480.751	653.44
480.969	633.44
481.188	651.44
481.406	659.44
481.624	655.44
481.843	646.44
482.061	665.44
482.28	628.44
482.498	663.44
482.717	645.44
482.935	650.44
483.153	652.44
483.372	663.44
483.59	672.44
483.808	651.44
484.027	671.44
484.245	693.44
484.463	687.44
484.681	681.44
484.9	674.44
485.118	683.44
485.336	691.44
485.554	678.44
485.772	684.44
485.99	681.44
486.209	670.44
486.427	688.44
486.645	677.44
486.863	678.44
487.081	693.44
487.299	698.44
487.517	666.44
487.735	685.44
487.953	696.44
488.171	675.44
488.389	688.44
488.607	656.44
488.825	666.44
489.043	683.44
489.261	687.44
489.479	682.44
489.696	669.44
489.914	693.44
490.132	673.44
490.35	656.44
490.568	673.44
490.786	665.44
491.003	663.44
491.221	666.44
491.439	677.44
491.657	691.44
491.874	698.44
492.092	713.44
492.31	674.44
492.527	663.44
492.745	685.44
492.963	663.44
493.18	681.44
493.398	705.44
493.615	686.44
493.833	691.44
494.05	699.44
494.268	721.44
494.485	679.44
494.703	695.44
494.92	702.44
495.138	681.44
495.355	704.44
495.573	689.44
495.79	706.44
496.008	703.44
496.225	698.44
496.442	706.44
496.66	719.44
496.877	732.44
497.094	721.44
497.312	762.44
497.529	746.44
497.746	745.44
497.963	765.44
498.181	789.44
498.398	773.44
498.615	835.44
498.832	853.44
499.049	850.44
499.267	862.44
499.484	890.44
499.701	926.44
499.918	951.44
500.135	996.44
500.352	1036.44
500.569	1036.44
500.786	1031.44
501.003	1019.44
501.22	1004.44
501.437	934.44
501.654	919.44
