Data from Fe(NO3)3@0.025M.TitratingCurve.Agarose3%dH2O.NegLispCup.LampEnergy10.LIBS07252019_HRD10591_16-54-39-335.txt Node
Date: Thu Jul 25 16:54:39 EDT 2019
User: cochatt
Spectrometer: HR+D1059
Trigger mode: 1
Integration Time (sec): 1.000000E-1
Scans to average: 1
Electric dark correction enabled: true
Nonlinearity correction enabled: false
Boxcar width: 0
XAxis mode: Wavelengths
Number of Pixels in Spectrum: 2048
>>>>>Begin Spectral Data<<<<<
223.165	-18.56
223.4	-18.56
223.635	-18.56
223.869	-3.56
224.104	-14.56
224.338	-6.56
224.573	-27.56
224.808	-14.56
225.042	-10.56
225.277	1.44
225.511	-1.56
225.746	-11.56
225.98	1.44
226.215	7.44
226.449	9.44
226.683	15.44
226.918	35.44
227.152	38.44
227.387	33.44
227.621	42.44
227.856	58.44
228.09	50.44
228.324	49.44
228.559	52.44
228.793	69.44
229.027	80.44
229.262	96.44
229.496	91.44
229.73	98.44
229.964	98.44
230.199	109.44
230.433	99.44
230.667	106.44
230.901	112.44
231.136	92.44
231.37	102.44
231.604	116.44
231.838	99.44
232.072	115.44
232.306	103.44
232.541	111.44
232.775	113.44
233.009	114.44
233.243	113.44
233.477	111.44
233.711	89.44
233.945	108.44
234.179	118.44
234.413	118.44
234.647	114.44
234.881	104.44
235.115	107.44
235.349	107.44
235.583	118.44
235.817	117.44
236.051	115.44
236.285	107.44
236.519	99.44
236.753	97.44
236.987	106.44
237.221	108.44
237.455	101.44
237.689	121.44
237.922	132.44
238.156	125.44
238.39	125.44
238.624	127.44
238.858	127.44
239.091	121.44
239.325	121.44
239.559	121.44
239.793	138.44
240.027	117.44
240.26	134.44
240.494	160.44
240.728	123.44
240.961	134.44
241.195	134.44
241.429	138.44
241.662	135.44
241.896	119.44
242.13	134.44
242.363	135.44
242.597	128.44
242.83	129.44
243.064	133.44
243.298	144.44
243.531	149.44
243.765	147.44
243.998	138.44
244.232	148.44
244.465	154.44
244.699	131.44
244.932	129.44
245.166	135.44
245.399	141.44
245.633	138.44
245.866	125.44
246.099	132.44
246.333	141.44
246.566	137.44
246.8	140.44
247.033	147.44
247.266	145.44
247.5	152.44
247.733	148.44
247.966	143.44
248.2	151.44
248.433	155.44
248.666	152.44
248.899	147.44
249.133	155.44
249.366	164.44
249.599	170.44
249.832	158.44
250.066	163.44
250.299	166.44
250.532	154.44
250.765	163.44
250.998	153.44
251.231	152.44
251.465	157.44
251.698	164.44
251.931	173.44
252.164	160.44
252.397	176.44
252.63	163.44
252.863	173.44
253.096	183.44
253.329	177.44
253.562	166.44
253.795	187.44
254.028	176.44
254.261	175.44
254.494	181.44
254.727	181.44
254.96	176.44
255.193	167.44
255.426	170.44
255.659	162.44
255.892	171.44
256.124	180.44
256.357	176.44
256.59	177.44
256.823	194.44
257.056	193.44
257.289	185.44
257.521	191.44
257.754	202.44
257.987	193.44
258.22	192.44
258.452	182.44
258.685	185.44
258.918	209.44
259.151	191.44
259.383	184.44
259.616	182.44
259.849	197.44
260.081	229.44
260.314	224.44
260.547	192.44
260.779	196.44
261.012	211.44
261.244	195.44
261.477	211.44
261.71	191.44
261.942	210.44
262.175	201.44
262.407	203.44
262.64	196.44
262.872	231.44
263.105	211.44
263.337	213.44
263.57	196.44
263.802	212.44
264.035	209.44
264.267	195.44
264.499	204.44
264.732	219.44
264.964	191.44
265.197	206.44
265.429	212.44
265.661	202.44
265.894	215.44
266.126	208.44
266.358	215.44
266.591	216.44
266.823	212.44
267.055	222.44
267.287	210.44
267.52	202.44
267.752	206.44
267.984	203.44
268.216	203.44
268.448	215.44
268.681	230.44
268.913	225.44
269.145	227.44
269.377	221.44
269.609	236.44
269.841	220.44
270.073	213.44
270.306	209.44
270.538	227.44
270.77	239.44
271.002	220.44
271.234	219.44
271.466	225.44
271.698	241.44
271.93	226.44
272.162	232.44
272.394	235.44
272.626	224.44
272.858	245.44
273.09	245.44
273.322	226.44
273.553	230.44
273.785	251.44
274.017	243.44
274.249	266.44
274.481	268.44
274.713	264.44
274.945	256.44
275.176	280.44
275.408	274.44
275.64	281.44
275.872	285.44
276.104	260.44
276.335	236.44
276.567	248.44
276.799	264.44
277.031	264.44
277.262	255.44
277.494	272.44
277.726	259.44
277.957	267.44
278.189	248.44
278.421	253.44
278.652	263.44
278.884	259.44
279.115	265.44
279.347	274.44
279.579	271.44
279.81	268.44
280.042	265.44
280.273	263.44
280.505	251.44
280.736	265.44
280.968	265.44
281.199	273.44
281.431	288.44
281.662	281.44
281.894	268.44
282.125	272.44
282.356	267.44
282.588	257.44
282.819	267.44
283.051	278.44
283.282	283.44
283.513	280.44
283.745	293.44
283.976	274.44
284.207	277.44
284.439	289.44
284.67	303.44
284.901	298.44
285.132	298.44
285.364	281.44
285.595	284.44
285.826	298.44
286.057	285.44
286.288	282.44
286.52	297.44
286.751	308.44
286.982	298.44
287.213	269.44
287.444	291.44
287.675	309.44
287.906	297.44
288.138	293.44
288.369	300.44
288.6	300.44
288.831	294.44
289.062	299.44
289.293	297.44
289.524	299.44
289.755	304.44
289.986	299.44
290.217	275.44
290.448	307.44
290.679	312.44
290.91	299.44
291.141	307.44
291.371	303.44
291.602	305.44
291.833	291.44
292.064	296.44
292.295	313.44
292.526	308.44
292.757	311.44
292.987	298.44
293.218	330.44
293.449	307.44
293.68	328.44
293.91	301.44
294.141	303.44
294.372	306.44
294.603	284.44
294.833	299.44
295.064	315.44
295.295	328.44
295.525	326.44
295.756	329.44
295.987	330.44
296.217	310.44
296.448	330.44
296.679	318.44
296.909	306.44
297.14	305.44
297.37	347.44
297.601	320.44
297.831	352.44
298.062	329.44
298.292	344.44
298.523	345.44
298.753	345.44
298.984	338.44
299.214	368.44
299.445	343.44
299.675	342.44
299.905	328.44
300.136	336.44
300.366	341.44
300.597	345.44
300.827	377.44
301.057	338.44
301.288	349.44
301.518	349.44
301.748	331.44
301.979	337.44
302.209	361.44
302.439	355.44
302.669	355.44
302.9	345.44
303.13	352.44
303.36	362.44
303.59	379.44
303.82	358.44
304.051	371.44
304.281	361.44
304.511	361.44
304.741	360.44
304.971	344.44
305.201	360.44
305.431	360.44
305.661	357.44
305.891	363.44
306.121	373.44
306.352	346.44
306.582	364.44
306.812	348.44
307.042	369.44
307.272	348.44
307.502	354.44
307.731	363.44
307.961	346.44
308.191	376.44
308.421	343.44
308.651	381.44
308.881	371.44
309.111	349.44
309.341	360.44
309.571	385.44
309.8	371.44
310.03	355.44
310.26	376.44
310.49	361.44
310.72	357.44
310.949	384.44
311.179	365.44
311.409	385.44
311.639	374.44
311.868	370.44
312.098	390.44
312.328	378.44
312.557	392.44
312.787	381.44
313.017	395.44
313.246	398.44
313.476	387.44
313.706	386.44
313.935	383.44
314.165	393.44
314.394	380.44
314.624	401.44
314.853	412.44
315.083	383.44
315.312	403.44
315.542	396.44
315.771	412.44
316.001	390.44
316.23	378.44
316.46	388.44
316.689	400.44
316.919	395.44
317.148	391.44
317.377	401.44
317.607	413.44
317.836	394.44
318.065	381.44
318.295	393.44
318.524	403.44
318.753	397.44
318.983	407.44
319.212	393.44
319.441	392.44
319.67	397.44
319.9	398.44
320.129	393.44
320.358	394.44
320.587	405.44
320.816	388.44
321.046	398.44
321.275	420.44
321.504	409.44
321.733	392.44
321.962	408.44
322.191	409.44
322.42	408.44
322.649	405.44
322.878	409.44
323.108	420.44
323.337	408.44
323.566	394.44
323.795	431.44
324.024	404.44
324.253	431.44
324.482	423.44
324.71	423.44
324.939	400.44
325.168	416.44
325.397	427.44
325.626	415.44
325.855	432.44
326.084	465.44
326.313	439.44
326.542	436.44
326.77	427.44
326.999	421.44
327.228	419.44
327.457	440.44
327.686	438.44
327.914	456.44
328.143	426.44
328.372	429.44
328.6	435.44
328.829	451.44
329.058	427.44
329.287	452.44
329.515	424.44
329.744	439.44
329.972	451.44
330.201	435.44
330.43	460.44
330.658	440.44
330.887	435.44
331.115	435.44
331.344	488.44
331.572	449.44
331.801	466.44
332.03	459.44
332.258	460.44
332.486	461.44
332.715	464.44
332.943	475.44
333.172	483.44
333.4	488.44
333.629	519.44
333.857	531.44
334.085	521.44
334.314	534.44
334.542	523.44
334.771	509.44
334.999	523.44
335.227	519.44
335.455	516.44
335.684	502.44
335.912	487.44
336.14	506.44
336.369	492.44
336.597	509.44
336.825	506.44
337.053	516.44
337.281	497.44
337.51	498.44
337.738	488.44
337.966	504.44
338.194	461.44
338.422	467.44
338.65	483.44
338.878	478.44
339.106	480.44
339.334	501.44
339.562	495.44
339.79	469.44
340.018	454.44
340.246	463.44
340.474	457.44
340.702	472.44
340.93	481.44
341.158	463.44
341.386	469.44
341.614	479.44
341.842	449.44
342.07	485.44
342.298	475.44
342.526	471.44
342.754	472.44
342.981	454.44
343.209	460.44
343.437	469.44
343.665	504.44
343.893	506.44
344.12	526.44
344.348	521.44
344.576	505.44
344.804	486.44
345.031	495.44
345.259	454.44
345.487	461.44
345.714	485.44
345.942	474.44
346.17	443.44
346.397	470.44
346.625	468.44
346.853	450.44
347.08	441.44
347.308	459.44
347.535	474.44
347.763	466.44
347.99	451.44
348.218	459.44
348.445	473.44
348.673	436.44
348.9	447.44
349.128	464.44
349.355	453.44
349.583	465.44
349.81	447.44
350.037	435.44
350.265	455.44
350.492	455.44
350.72	435.44
350.947	451.44
351.174	424.44
351.402	445.44
351.629	446.44
351.856	452.44
352.083	448.44
352.311	452.44
352.538	448.44
352.765	444.44
352.992	447.44
353.22	437.44
353.447	447.44
353.674	429.44
353.901	453.44
354.128	431.44
354.355	451.44
354.583	455.44
354.81	442.44
355.037	441.44
355.264	437.44
355.491	452.44
355.718	460.44
355.945	466.44
356.172	454.44
356.399	451.44
356.626	448.44
356.853	449.44
357.08	456.44
357.307	441.44
357.534	465.44
357.761	412.44
357.988	460.44
358.215	455.44
358.441	443.44
358.668	460.44
358.895	452.44
359.122	435.44
359.349	465.44
359.576	442.44
359.802	450.44
360.029	456.44
360.256	436.44
360.483	465.44
360.709	450.44
360.936	433.44
361.163	474.44
361.39	455.44
361.616	458.44
361.843	466.44
362.07	457.44
362.296	462.44
362.523	449.44
362.749	450.44
362.976	453.44
363.203	467.44
363.429	448.44
363.656	459.44
363.882	473.44
364.109	460.44
364.335	453.44
364.562	459.44
364.788	461.44
365.015	473.44
365.241	457.44
365.468	439.44
365.694	455.44
365.92	439.44
366.147	455.44
366.373	447.44
366.599	447.44
366.826	470.44
367.052	443.44
367.278	472.44
367.505	449.44
367.731	469.44
367.957	466.44
368.184	474.44
368.41	451.44
368.636	474.44
368.862	472.44
369.089	471.44
369.315	474.44
369.541	469.44
369.767	467.44
369.993	464.44
370.219	470.44
370.445	475.44
370.672	458.44
370.898	469.44
371.124	479.44
371.35	489.44
371.576	483.44
371.802	515.44
372.028	506.44
372.254	495.44
372.48	491.44
372.706	505.44
372.932	517.44
373.158	487.44
373.384	500.44
373.61	520.44
373.835	497.44
374.061	514.44
374.287	493.44
374.513	497.44
374.739	523.44
374.965	511.44
375.191	537.44
375.416	530.44
375.642	523.44
375.868	515.44
376.094	497.44
376.319	500.44
376.545	493.44
376.771	483.44
376.997	488.44
377.222	495.44
377.448	489.44
377.674	490.44
377.899	492.44
378.125	501.44
378.35	495.44
378.576	511.44
378.802	481.44
379.027	470.44
379.253	482.44
379.478	475.44
379.704	496.44
379.929	497.44
380.155	493.44
380.38	491.44
380.606	499.44
380.831	482.44
381.057	493.44
381.282	478.44
381.507	515.44
381.733	522.44
381.958	508.44
382.184	503.44
382.409	528.44
382.634	514.44
382.86	526.44
383.085	521.44
383.31	519.44
383.535	513.44
383.761	529.44
383.986	532.44
384.211	539.44
384.436	541.44
384.662	545.44
384.887	533.44
385.112	539.44
385.337	541.44
385.562	545.44
385.787	546.44
386.013	586.44
386.238	556.44
386.463	584.44
386.688	547.44
386.913	565.44
387.138	565.44
387.363	578.44
387.588	572.44
387.813	583.44
388.038	563.44
388.263	583.44
388.488	579.44
388.713	583.44
388.938	581.44
389.163	559.44
389.387	595.44
389.612	572.44
389.837	579.44
390.062	551.44
390.287	595.44
390.512	585.44
390.736	575.44
390.961	587.44
391.186	581.44
391.411	615.44
391.636	618.44
391.86	638.44
392.085	627.44
392.31	626.44
392.534	608.44
392.759	602.44
392.984	612.44
393.208	634.44
393.433	594.44
393.658	586.44
393.882	598.44
394.107	611.44
394.331	612.44
394.556	609.44
394.78	600.44
395.005	608.44
395.229	595.44
395.454	609.44
395.678	623.44
395.903	631.44
396.127	637.44
396.352	607.44
396.576	608.44
396.801	634.44
397.025	630.44
397.249	640.44
397.474	667.44
397.698	641.44
397.922	651.44
398.147	672.44
398.371	671.44
398.595	681.44
398.82	695.44
399.044	721.44
399.268	761.44
399.492	792.44
399.717	855.44
399.941	858.44
400.165	812.44
400.389	776.44
400.613	732.44
400.837	721.44
401.062	710.44
401.286	722.44
401.51	721.44
401.734	705.44
401.958	691.44
402.182	698.44
402.406	670.44
402.63	697.44
402.854	710.44
403.078	698.44
403.302	703.44
403.526	728.44
403.75	714.44
403.974	719.44
404.198	696.44
404.422	723.44
404.645	701.44
404.869	730.44
405.093	726.44
405.317	699.44
405.541	707.44
405.765	720.44
405.988	721.44
406.212	709.44
406.436	709.44
406.66	761.44
406.883	737.44
407.107	773.44
407.331	771.44
407.555	784.44
407.778	797.44
408.002	794.44
408.226	779.44
408.449	785.44
408.673	780.44
408.896	745.44
409.12	744.44
409.344	745.44
409.567	717.44
409.791	754.44
410.014	744.44
410.238	710.44
410.461	732.44
410.685	711.44
410.908	733.44
411.132	713.44
411.355	693.44
411.578	699.44
411.802	712.44
412.025	707.44
412.249	706.44
412.472	711.44
412.695	714.44
412.919	681.44
413.142	697.44
413.365	705.44
413.589	683.44
413.812	704.44
414.035	684.44
414.258	703.44
414.482	709.44
414.705	693.44
414.928	706.44
415.151	682.44
415.374	664.44
415.597	656.44
415.821	662.44
416.044	688.44
416.267	652.44
416.49	635.44
416.713	656.44
416.936	670.44
417.159	649.44
417.382	635.44
417.605	639.44
417.828	669.44
418.051	660.44
418.274	647.44
418.497	651.44
418.72	668.44
418.943	657.44
419.166	697.44
419.389	721.44
419.611	688.44
419.834	689.44
420.057	694.44
420.28	687.44
420.503	678.44
420.726	646.44
420.948	639.44
421.171	638.44
421.394	665.44
421.617	664.44
421.839	656.44
422.062	664.44
422.285	628.44
422.507	637.44
422.73	644.44
422.953	687.44
423.175	655.44
423.398	653.44
423.621	649.44
423.843	644.44
424.066	643.44
424.288	658.44
424.511	659.44
424.733	676.44
424.956	637.44
425.178	641.44
425.401	653.44
425.623	647.44
425.846	629.44
426.068	609.44
426.291	605.44
426.513	641.44
426.735	612.44
426.958	620.44
427.18	612.44
427.402	636.44
427.625	613.44
427.847	595.44
428.069	622.44
428.292	610.44
428.514	613.44
428.736	599.44
428.958	619.44
429.181	602.44
429.403	602.44
429.625	616.44
429.847	604.44
430.069	580.44
430.292	592.44
430.514	580.44
430.736	603.44
430.958	599.44
431.18	600.44
431.402	599.44
431.624	608.44
431.846	615.44
432.068	614.44
432.29	616.44
432.512	586.44
432.734	612.44
432.956	602.44
433.178	578.44
433.4	591.44
433.622	620.44
433.844	601.44
434.066	616.44
434.287	607.44
434.509	635.44
434.731	622.44
434.953	666.44
435.175	654.44
435.397	649.44
435.618	624.44
435.84	629.44
436.062	604.44
436.284	637.44
436.505	597.44
436.727	595.44
436.949	623.44
437.17	599.44
437.392	628.44
437.614	585.44
437.835	566.44
438.057	579.44
438.278	571.44
438.5	579.44
438.721	578.44
438.943	620.44
439.165	581.44
439.386	584.44
439.608	569.44
439.829	602.44
440.05	593.44
440.272	591.44
440.493	606.44
440.715	597.44
440.936	624.44
441.158	625.44
441.379	625.44
441.6	606.44
441.822	639.44
442.043	642.44
442.264	603.44
442.486	614.44
442.707	635.44
442.928	606.44
443.149	635.44
443.371	618.44
443.592	622.44
443.813	623.44
444.034	635.44
444.255	647.44
444.476	660.44
444.698	672.44
444.919	679.44
445.14	795.44
445.361	695.44
445.582	653.44
445.803	620.44
446.024	624.44
446.245	637.44
446.466	604.44
446.687	600.44
446.908	594.44
447.129	587.44
447.35	566.44
447.571	583.44
447.792	567.44
448.013	579.44
448.234	561.44
448.455	544.44
448.675	549.44
448.896	562.44
449.117	553.44
449.338	545.44
449.559	515.44
449.779	539.44
450	540.44
450.221	556.44
450.442	551.44
450.662	552.44
450.883	560.44
451.104	552.44
451.324	547.44
451.545	534.44
451.766	534.44
451.986	540.44
452.207	521.44
452.428	529.44
452.648	539.44
452.869	537.44
453.089	523.44
453.31	516.44
453.53	522.44
453.751	537.44
453.971	527.44
454.192	533.44
454.412	521.44
454.633	518.44
454.853	544.44
455.073	527.44
455.294	525.44
455.514	525.44
455.734	486.44
455.955	511.44
456.175	525.44
456.395	513.44
456.616	525.44
456.836	528.44
457.056	521.44
457.276	543.44
457.497	517.44
457.717	535.44
457.937	525.44
458.157	547.44
458.377	532.44
458.598	583.44
458.818	555.44
459.038	560.44
459.258	583.44
459.478	607.44
459.698	612.44
459.918	626.44
460.138	655.44
460.358	644.44
460.578	653.44
460.798	656.44
461.018	659.44
461.238	647.44
461.458	672.44
461.678	656.44
461.898	667.44
462.118	684.44
462.338	703.44
462.558	717.44
462.777	721.44
462.997	731.44
463.217	773.44
463.437	775.44
463.657	737.44
463.876	740.44
464.096	729.44
464.316	712.44
464.536	708.44
464.755	706.44
464.975	704.44
465.195	678.44
465.414	662.44
465.634	643.44
465.854	601.44
466.073	616.44
466.293	596.44
466.512	587.44
466.732	591.44
466.951	587.44
467.171	569.44
467.391	607.44
467.61	588.44
467.829	578.44
468.049	588.44
468.268	594.44
468.488	578.44
468.707	559.44
468.927	580.44
469.146	585.44
469.365	589.44
469.585	558.44
469.804	567.44
470.023	602.44
470.243	574.44
470.462	587.44
470.681	591.44
470.901	586.44
471.12	606.44
471.339	596.44
471.558	580.44
471.777	579.44
471.997	573.44
472.216	598.44
472.435	597.44
472.654	565.44
472.873	581.44
473.092	568.44
473.311	579.44
473.53	554.44
473.749	578.44
473.968	591.44
474.187	555.44
474.406	572.44
474.625	568.44
474.844	580.44
475.063	588.44
475.282	585.44
475.501	611.44
475.72	589.44
475.939	594.44
476.158	609.44
476.377	602.44
476.596	625.44
476.814	612.44
477.033	602.44
477.252	630.44
477.471	615.44
477.69	633.44
477.908	640.44
478.127	671.44
478.346	658.44
478.564	680.44
478.783	675.44
479.002	668.44
479.22	681.44
479.439	698.44
479.658	701.44
479.876	704.44
480.095	709.44
480.313	693.44
480.532	708.44
480.751	701.44
480.969	697.44
481.188	705.44
481.406	675.44
481.624	661.44
481.843	672.44
482.061	676.44
482.28	673.44
482.498	671.44
482.717	674.44
482.935	680.44
483.153	673.44
483.372	670.44
483.59	677.44
483.808	679.44
484.027	680.44
484.245	669.44
484.463	698.44
484.681	707.44
484.9	669.44
485.118	682.44
485.336	677.44
485.554	713.44
485.772	721.44
485.99	691.44
486.209	686.44
486.427	691.44
486.645	695.44
486.863	682.44
487.081	706.44
487.299	695.44
487.517	682.44
487.735	709.44
487.953	699.44
488.171	688.44
488.389	706.44
488.607	675.44
488.825	687.44
489.043	679.44
489.261	717.44
489.479	702.44
489.696	687.44
489.914	711.44
490.132	669.44
490.35	726.44
490.568	713.44
490.786	711.44
491.003	697.44
491.221	704.44
491.439	696.44
491.657	684.44
491.874	701.44
492.092	709.44
492.31	716.44
492.527	720.44
492.745	721.44
492.963	709.44
493.18	756.44
493.398	732.44
493.615	733.44
493.833	709.44
494.05	736.44
494.268	727.44
494.485	735.44
494.703	723.44
494.92	724.44
495.138	730.44
495.355	738.44
495.573	749.44
495.79	737.44
496.008	735.44
496.225	744.44
496.442	764.44
496.66	782.44
496.877	760.44
497.094	791.44
497.312	821.44
497.529	810.44
497.746	825.44
497.963	867.44
498.181	884.44
498.398	911.44
498.615	912.44
498.832	979.44
499.049	1025.44
499.267	1053.44
499.484	1123.44
499.701	1171.44
499.918	1236.44
500.135	1295.44
500.352	1391.44
500.569	1392.44
500.786	1380.44
501.003	1329.44
501.22	1269.44
501.437	1208.44
501.654	1157.44
