Data from Fe(NO3)3@0.1M.TitratingCurve.Agarose3%dH2O.NegLispCup.LampEnergy10.LIBS07252019_HRD10591_16-41-31-333.txt Node
Date: Thu Jul 25 16:41:31 EDT 2019
User: cochatt
Spectrometer: HR+D1059
Trigger mode: 1
Integration Time (sec): 1.000000E-1
Scans to average: 1
Electric dark correction enabled: true
Nonlinearity correction enabled: false
Boxcar width: 0
XAxis mode: Wavelengths
Number of Pixels in Spectrum: 2048
>>>>>Begin Spectral Data<<<<<
223.165	-12.75
223.4	-12.75
223.635	-12.75
223.869	-12.75
224.104	-19.75
224.338	-14.75
224.573	-19.75
224.808	-18.75
225.042	-5.75
225.277	1.25
225.511	-6.75
225.746	8.25
225.98	10.25
226.215	20.25
226.449	15.25
226.683	9.25
226.918	20.25
227.152	26.25
227.387	43.25
227.621	37.25
227.856	52.25
228.09	28.25
228.324	49.25
228.559	57.25
228.793	68.25
229.027	68.25
229.262	68.25
229.496	66.25
229.73	68.25
229.964	76.25
230.199	83.25
230.433	91.25
230.667	83.25
230.901	94.25
231.136	88.25
231.37	89.25
231.604	94.25
231.838	96.25
232.072	69.25
232.306	81.25
232.541	72.25
232.775	71.25
233.009	91.25
233.243	97.25
233.477	94.25
233.711	108.25
233.945	76.25
234.179	77.25
234.413	90.25
234.647	85.25
234.881	76.25
235.115	89.25
235.349	92.25
235.583	86.25
235.817	89.25
236.051	101.25
236.285	69.25
236.519	90.25
236.753	97.25
236.987	80.25
237.221	85.25
237.455	86.25
237.689	90.25
237.922	90.25
238.156	87.25
238.39	87.25
238.624	78.25
238.858	86.25
239.091	90.25
239.325	87.25
239.559	90.25
239.793	104.25
240.027	83.25
240.26	73.25
240.494	88.25
240.728	87.25
240.961	112.25
241.195	100.25
241.429	96.25
241.662	97.25
241.896	99.25
242.13	102.25
242.363	92.25
242.597	84.25
242.83	99.25
243.064	82.25
243.298	90.25
243.531	88.25
243.765	102.25
243.998	94.25
244.232	96.25
244.465	109.25
244.699	96.25
244.932	106.25
245.166	117.25
245.399	97.25
245.633	113.25
245.866	108.25
246.099	94.25
246.333	96.25
246.566	91.25
246.8	95.25
247.033	111.25
247.266	98.25
247.5	95.25
247.733	99.25
247.966	90.25
248.2	109.25
248.433	106.25
248.666	109.25
248.899	102.25
249.133	109.25
249.366	117.25
249.599	100.25
249.832	125.25
250.066	101.25
250.299	104.25
250.532	115.25
250.765	85.25
250.998	112.25
251.231	111.25
251.465	103.25
251.698	117.25
251.931	104.25
252.164	107.25
252.397	114.25
252.63	111.25
252.863	101.25
253.096	114.25
253.329	105.25
253.562	116.25
253.795	117.25
254.028	115.25
254.261	126.25
254.494	111.25
254.727	119.25
254.96	104.25
255.193	102.25
255.426	100.25
255.659	109.25
255.892	113.25
256.124	105.25
256.357	123.25
256.59	121.25
256.823	124.25
257.056	127.25
257.289	107.25
257.521	120.25
257.754	110.25
257.987	103.25
258.22	127.25
258.452	113.25
258.685	105.25
258.918	117.25
259.151	114.25
259.383	117.25
259.616	126.25
259.849	132.25
260.081	127.25
260.314	125.25
260.547	115.25
260.779	130.25
261.012	119.25
261.244	116.25
261.477	109.25
261.71	111.25
261.942	123.25
262.175	123.25
262.407	126.25
262.64	115.25
262.872	111.25
263.105	111.25
263.337	123.25
263.57	109.25
263.802	131.25
264.035	109.25
264.267	127.25
264.499	116.25
264.732	131.25
264.964	130.25
265.197	120.25
265.429	128.25
265.661	119.25
265.894	119.25
266.126	120.25
266.358	123.25
266.591	138.25
266.823	128.25
267.055	119.25
267.287	128.25
267.52	125.25
267.752	141.25
267.984	125.25
268.216	136.25
268.448	144.25
268.681	135.25
268.913	119.25
269.145	132.25
269.377	130.25
269.609	130.25
269.841	129.25
270.073	133.25
270.306	147.25
270.538	130.25
270.77	137.25
271.002	138.25
271.234	131.25
271.466	132.25
271.698	137.25
271.93	124.25
272.162	150.25
272.394	139.25
272.626	131.25
272.858	135.25
273.09	142.25
273.322	146.25
273.553	131.25
273.785	119.25
274.017	152.25
274.249	155.25
274.481	143.25
274.713	131.25
274.945	137.25
275.176	129.25
275.408	136.25
275.64	139.25
275.872	144.25
276.104	125.25
276.335	135.25
276.567	143.25
276.799	148.25
277.031	131.25
277.262	145.25
277.494	140.25
277.726	128.25
277.957	124.25
278.189	144.25
278.421	131.25
278.652	133.25
278.884	149.25
279.115	140.25
279.347	151.25
279.579	144.25
279.81	154.25
280.042	164.25
280.273	135.25
280.505	149.25
280.736	149.25
280.968	135.25
281.199	141.25
281.431	141.25
281.662	152.25
281.894	166.25
282.125	161.25
282.356	144.25
282.588	152.25
282.819	166.25
283.051	148.25
283.282	149.25
283.513	159.25
283.745	159.25
283.976	131.25
284.207	150.25
284.439	147.25
284.67	148.25
284.901	148.25
285.132	151.25
285.364	157.25
285.595	171.25
285.826	162.25
286.057	145.25
286.288	163.25
286.52	169.25
286.751	165.25
286.982	155.25
287.213	177.25
287.444	162.25
287.675	159.25
287.906	170.25
288.138	143.25
288.369	171.25
288.6	156.25
288.831	157.25
289.062	156.25
289.293	175.25
289.524	171.25
289.755	163.25
289.986	168.25
290.217	175.25
290.448	167.25
290.679	158.25
290.91	168.25
291.141	179.25
291.371	175.25
291.602	167.25
291.833	185.25
292.064	159.25
292.295	183.25
292.526	155.25
292.757	160.25
292.987	167.25
293.218	188.25
293.449	183.25
293.68	175.25
293.91	167.25
294.141	161.25
294.372	160.25
294.603	175.25
294.833	160.25
295.064	154.25
295.295	168.25
295.525	155.25
295.756	180.25
295.987	166.25
296.217	183.25
296.448	171.25
296.679	169.25
296.909	166.25
297.14	179.25
297.37	171.25
297.601	178.25
297.831	163.25
298.062	189.25
298.292	174.25
298.523	184.25
298.753	201.25
298.984	173.25
299.214	167.25
299.445	166.25
299.675	184.25
299.905	185.25
300.136	174.25
300.366	151.25
300.597	164.25
300.827	183.25
301.057	180.25
301.288	194.25
301.518	179.25
301.748	182.25
301.979	186.25
302.209	166.25
302.439	183.25
302.669	189.25
302.9	182.25
303.13	192.25
303.36	197.25
303.59	205.25
303.82	177.25
304.051	184.25
304.281	180.25
304.511	187.25
304.741	189.25
304.971	181.25
305.201	190.25
305.431	185.25
305.661	201.25
305.891	192.25
306.121	185.25
306.352	169.25
306.582	169.25
306.812	189.25
307.042	182.25
307.272	198.25
307.502	177.25
307.731	178.25
307.961	167.25
308.191	188.25
308.421	189.25
308.651	186.25
308.881	192.25
309.111	186.25
309.341	191.25
309.571	191.25
309.8	188.25
310.03	164.25
310.26	188.25
310.49	188.25
310.72	173.25
310.949	180.25
311.179	189.25
311.409	182.25
311.639	187.25
311.868	190.25
312.098	183.25
312.328	192.25
312.557	201.25
312.787	194.25
313.017	193.25
313.246	205.25
313.476	185.25
313.706	187.25
313.935	198.25
314.165	195.25
314.394	193.25
314.624	193.25
314.853	196.25
315.083	192.25
315.312	207.25
315.542	184.25
315.771	212.25
316.001	196.25
316.23	183.25
316.46	210.25
316.689	194.25
316.919	181.25
317.148	197.25
317.377	215.25
317.607	193.25
317.836	189.25
318.065	193.25
318.295	193.25
318.524	194.25
318.753	177.25
318.983	183.25
319.212	200.25
319.441	182.25
319.67	200.25
319.9	215.25
320.129	186.25
320.358	187.25
320.587	185.25
320.816	197.25
321.046	182.25
321.275	198.25
321.504	204.25
321.733	201.25
321.962	187.25
322.191	195.25
322.42	205.25
322.649	208.25
322.878	216.25
323.108	195.25
323.337	196.25
323.566	206.25
323.795	209.25
324.024	209.25
324.253	193.25
324.482	205.25
324.71	211.25
324.939	220.25
325.168	190.25
325.397	199.25
325.626	227.25
325.855	195.25
326.084	211.25
326.313	191.25
326.542	191.25
326.77	198.25
326.999	199.25
327.228	220.25
327.457	229.25
327.686	212.25
327.914	205.25
328.143	205.25
328.372	205.25
328.6	192.25
328.829	222.25
329.058	202.25
329.287	215.25
329.515	215.25
329.744	210.25
329.972	214.25
330.201	224.25
330.43	207.25
330.658	210.25
330.887	219.25
331.115	226.25
331.344	232.25
331.572	223.25
331.801	223.25
332.03	227.25
332.258	232.25
332.486	237.25
332.715	253.25
332.943	247.25
333.172	257.25
333.4	263.25
333.629	271.25
333.857	244.25
334.085	273.25
334.314	271.25
334.542	249.25
334.771	256.25
334.999	259.25
335.227	260.25
335.455	257.25
335.684	261.25
335.912	262.25
336.14	249.25
336.369	248.25
336.597	263.25
336.825	226.25
337.053	265.25
337.281	235.25
337.51	251.25
337.738	247.25
337.966	221.25
338.194	230.25
338.422	237.25
338.65	224.25
338.878	219.25
339.106	222.25
339.334	229.25
339.562	237.25
339.79	230.25
340.018	234.25
340.246	225.25
340.474	222.25
340.702	228.25
340.93	238.25
341.158	230.25
341.386	220.25
341.614	233.25
341.842	220.25
342.07	213.25
342.298	224.25
342.526	214.25
342.754	231.25
342.981	220.25
343.209	235.25
343.437	269.25
343.665	252.25
343.893	248.25
344.12	252.25
344.348	247.25
344.576	267.25
344.804	236.25
345.031	230.25
345.259	223.25
345.487	217.25
345.714	225.25
345.942	218.25
346.17	238.25
346.397	224.25
346.625	204.25
346.853	219.25
347.08	224.25
347.308	222.25
347.535	224.25
347.763	227.25
347.99	206.25
348.218	209.25
348.445	244.25
348.673	219.25
348.9	233.25
349.128	213.25
349.355	214.25
349.583	224.25
349.81	213.25
350.037	211.25
350.265	225.25
350.492	211.25
350.72	222.25
350.947	209.25
351.174	218.25
351.402	211.25
351.629	208.25
351.856	204.25
352.083	222.25
352.311	212.25
352.538	211.25
352.765	222.25
352.992	219.25
353.22	203.25
353.447	209.25
353.674	228.25
353.901	217.25
354.128	222.25
354.355	213.25
354.583	203.25
354.81	202.25
355.037	216.25
355.264	231.25
355.491	207.25
355.718	220.25
355.945	216.25
356.172	219.25
356.399	204.25
356.626	236.25
356.853	215.25
357.08	221.25
357.307	219.25
357.534	212.25
357.761	224.25
357.988	236.25
358.215	241.25
358.441	215.25
358.668	223.25
358.895	223.25
359.122	217.25
359.349	217.25
359.576	215.25
359.802	223.25
360.029	217.25
360.256	206.25
360.483	221.25
360.709	240.25
360.936	212.25
361.163	212.25
361.39	221.25
361.616	220.25
361.843	206.25
362.07	198.25
362.296	217.25
362.523	217.25
362.749	225.25
362.976	220.25
363.203	227.25
363.429	216.25
363.656	212.25
363.882	224.25
364.109	230.25
364.335	217.25
364.562	236.25
364.788	227.25
365.015	216.25
365.241	211.25
365.468	223.25
365.694	215.25
365.92	214.25
366.147	217.25
366.373	222.25
366.599	222.25
366.826	220.25
367.052	224.25
367.278	238.25
367.505	238.25
367.731	225.25
367.957	207.25
368.184	239.25
368.41	214.25
368.636	221.25
368.862	221.25
369.089	219.25
369.315	231.25
369.541	230.25
369.767	220.25
369.993	235.25
370.219	235.25
370.445	228.25
370.672	239.25
370.898	226.25
371.124	223.25
371.35	232.25
371.576	213.25
371.802	264.25
372.028	241.25
372.254	238.25
372.48	257.25
372.706	223.25
372.932	230.25
373.158	220.25
373.384	231.25
373.61	243.25
373.835	232.25
374.061	218.25
374.287	242.25
374.513	245.25
374.739	268.25
374.965	253.25
375.191	225.25
375.416	245.25
375.642	239.25
375.868	251.25
376.094	240.25
376.319	233.25
376.545	243.25
376.771	244.25
376.997	256.25
377.222	219.25
377.448	233.25
377.674	237.25
377.899	245.25
378.125	241.25
378.35	226.25
378.576	233.25
378.802	229.25
379.027	262.25
379.253	227.25
379.478	224.25
379.704	247.25
379.929	254.25
380.155	239.25
380.38	230.25
380.606	234.25
380.831	236.25
381.057	239.25
381.282	240.25
381.507	222.25
381.733	238.25
381.958	251.25
382.184	245.25
382.409	250.25
382.634	241.25
382.86	246.25
383.085	245.25
383.31	240.25
383.535	257.25
383.761	264.25
383.986	259.25
384.211	252.25
384.436	268.25
384.662	257.25
384.887	268.25
385.112	275.25
385.337	280.25
385.562	258.25
385.787	280.25
386.013	279.25
386.238	269.25
386.463	273.25
386.688	273.25
386.913	274.25
387.138	286.25
387.363	268.25
387.588	277.25
387.813	278.25
388.038	282.25
388.263	285.25
388.488	279.25
388.713	269.25
388.938	266.25
389.163	248.25
389.387	275.25
389.612	273.25
389.837	268.25
390.062	271.25
390.287	265.25
390.512	265.25
390.736	265.25
390.961	280.25
391.186	285.25
391.411	284.25
391.636	296.25
391.86	307.25
392.085	302.25
392.31	301.25
392.534	299.25
392.759	303.25
392.984	286.25
393.208	277.25
393.433	303.25
393.658	287.25
393.882	286.25
394.107	274.25
394.331	291.25
394.556	277.25
394.78	292.25
395.005	306.25
395.229	290.25
395.454	304.25
395.678	299.25
395.903	289.25
396.127	317.25
396.352	287.25
396.576	297.25
396.801	278.25
397.025	300.25
397.249	307.25
397.474	296.25
397.698	293.25
397.922	324.25
398.147	302.25
398.371	329.25
398.595	343.25
398.82	339.25
399.044	335.25
399.268	367.25
399.492	429.25
399.717	451.25
399.941	437.25
400.165	403.25
400.389	381.25
400.613	367.25
400.837	366.25
401.062	336.25
401.286	334.25
401.51	346.25
401.734	329.25
401.958	337.25
402.182	353.25
402.406	338.25
402.63	335.25
402.854	328.25
403.078	360.25
403.302	365.25
403.526	373.25
403.75	355.25
403.974	361.25
404.198	351.25
404.422	367.25
404.645	359.25
404.869	367.25
405.093	342.25
405.317	342.25
405.541	376.25
405.765	363.25
405.988	343.25
406.212	365.25
406.436	370.25
406.66	345.25
406.883	367.25
407.107	395.25
407.331	412.25
407.555	399.25
407.778	398.25
408.002	393.25
408.226	368.25
408.449	400.25
408.673	379.25
408.896	389.25
409.12	387.25
409.344	366.25
409.567	358.25
409.791	367.25
410.014	361.25
410.238	379.25
410.461	367.25
410.685	351.25
410.908	345.25
411.132	358.25
411.355	342.25
411.578	360.25
411.802	345.25
412.025	350.25
412.249	330.25
412.472	347.25
412.695	348.25
412.919	356.25
413.142	345.25
413.365	326.25
413.589	318.25
413.812	325.25
414.035	324.25
414.258	344.25
414.482	348.25
414.705	337.25
414.928	346.25
415.151	343.25
415.374	343.25
415.597	336.25
415.821	339.25
416.044	335.25
416.267	336.25
416.49	342.25
416.713	343.25
416.936	322.25
417.159	325.25
417.382	324.25
417.605	326.25
417.828	341.25
418.051	340.25
418.274	343.25
418.497	343.25
418.72	347.25
418.943	328.25
419.166	352.25
419.389	400.25
419.611	352.25
419.834	354.25
420.057	344.25
420.28	359.25
420.503	341.25
420.726	329.25
420.948	340.25
421.171	345.25
421.394	332.25
421.617	343.25
421.839	347.25
422.062	358.25
422.285	348.25
422.507	332.25
422.73	352.25
422.953	327.25
423.175	346.25
423.398	359.25
423.621	334.25
423.843	348.25
424.066	358.25
424.288	348.25
424.511	352.25
424.733	354.25
424.956	349.25
425.178	340.25
425.401	332.25
425.623	345.25
425.846	326.25
426.068	326.25
426.291	347.25
426.513	328.25
426.735	333.25
426.958	335.25
427.18	320.25
427.402	327.25
427.625	327.25
427.847	318.25
428.069	323.25
428.292	324.25
428.514	305.25
428.736	308.25
428.958	335.25
429.181	308.25
429.403	314.25
429.625	297.25
429.847	299.25
430.069	328.25
430.292	322.25
430.514	311.25
430.736	301.25
430.958	311.25
431.18	314.25
431.402	297.25
431.624	315.25
431.846	303.25
432.068	313.25
432.29	298.25
432.512	322.25
432.734	318.25
432.956	318.25
433.178	311.25
433.4	313.25
433.622	308.25
433.844	305.25
434.066	309.25
434.287	310.25
434.509	312.25
434.731	325.25
434.953	346.25
435.175	346.25
435.397	323.25
435.618	324.25
435.84	332.25
436.062	332.25
436.284	324.25
436.505	313.25
436.727	319.25
436.949	307.25
437.17	310.25
437.392	304.25
437.614	311.25
437.835	304.25
438.057	313.25
438.278	318.25
438.5	311.25
438.721	314.25
438.943	319.25
439.165	319.25
439.386	324.25
439.608	339.25
439.829	331.25
440.05	323.25
440.272	327.25
440.493	328.25
440.715	311.25
440.936	336.25
441.158	345.25
441.379	345.25
441.6	366.25
441.822	367.25
442.043	344.25
442.264	333.25
442.486	336.25
442.707	337.25
442.928	345.25
443.149	344.25
443.371	369.25
443.592	359.25
443.813	362.25
444.034	329.25
444.255	360.25
444.476	379.25
444.698	396.25
444.919	389.25
445.14	476.25
445.361	412.25
445.582	376.25
445.803	350.25
446.024	347.25
446.245	329.25
446.466	341.25
446.687	325.25
446.908	330.25
447.129	336.25
447.35	340.25
447.571	329.25
447.792	311.25
448.013	311.25
448.234	339.25
448.455	312.25
448.675	312.25
448.896	326.25
449.117	307.25
449.338	309.25
449.559	318.25
449.779	291.25
450	301.25
450.221	308.25
450.442	319.25
450.662	286.25
450.883	305.25
451.104	319.25
451.324	314.25
451.545	303.25
451.766	302.25
451.986	291.25
452.207	305.25
452.428	313.25
452.648	292.25
452.869	307.25
453.089	276.25
453.31	293.25
453.53	270.25
453.751	273.25
453.971	297.25
454.192	277.25
454.412	290.25
454.633	286.25
454.853	285.25
455.073	299.25
455.294	294.25
455.514	305.25
455.734	288.25
455.955	280.25
456.175	281.25
456.395	279.25
456.616	280.25
456.836	270.25
457.056	290.25
457.276	273.25
457.497	276.25
457.717	265.25
457.937	298.25
458.157	280.25
458.377	295.25
458.598	280.25
458.818	301.25
459.038	312.25
459.258	320.25
459.478	308.25
459.698	324.25
459.918	309.25
460.138	356.25
460.358	349.25
460.578	392.25
460.798	363.25
461.018	373.25
461.238	349.25
461.458	373.25
461.678	357.25
461.898	367.25
462.118	357.25
462.338	373.25
462.558	399.25
462.777	390.25
462.997	427.25
463.217	423.25
463.437	427.25
463.657	411.25
463.876	420.25
464.096	384.25
464.316	389.25
464.536	387.25
464.755	391.25
464.975	379.25
465.195	350.25
465.414	342.25
465.634	339.25
465.854	317.25
466.073	329.25
466.293	331.25
466.512	317.25
466.732	323.25
466.951	305.25
467.171	303.25
467.391	325.25
467.61	309.25
467.829	316.25
468.049	312.25
468.268	309.25
468.488	296.25
468.707	292.25
468.927	300.25
469.146	291.25
469.365	338.25
469.585	303.25
469.804	321.25
470.023	325.25
470.243	311.25
470.462	321.25
470.681	311.25
470.901	322.25
471.12	296.25
471.339	309.25
471.558	315.25
471.777	300.25
471.997	295.25
472.216	283.25
472.435	295.25
472.654	310.25
472.873	292.25
473.092	283.25
473.311	296.25
473.53	313.25
473.749	306.25
473.968	285.25
474.187	301.25
474.406	287.25
474.625	286.25
474.844	303.25
475.063	283.25
475.282	299.25
475.501	292.25
475.72	297.25
475.939	309.25
476.158	302.25
476.377	286.25
476.596	292.25
476.814	310.25
477.033	287.25
477.252	305.25
477.471	310.25
477.69	309.25
477.908	322.25
478.127	348.25
478.346	348.25
478.564	344.25
478.783	325.25
479.002	356.25
479.22	329.25
479.439	323.25
479.658	330.25
479.876	342.25
480.095	337.25
480.313	363.25
480.532	358.25
480.751	365.25
480.969	317.25
481.188	340.25
481.406	326.25
481.624	319.25
481.843	321.25
482.061	325.25
482.28	309.25
482.498	313.25
482.717	320.25
482.935	312.25
483.153	315.25
483.372	319.25
483.59	349.25
483.808	332.25
484.027	341.25
484.245	319.25
484.463	308.25
484.681	333.25
484.9	340.25
485.118	336.25
485.336	340.25
485.554	324.25
485.772	323.25
485.99	335.25
486.209	319.25
486.427	338.25
486.645	336.25
486.863	318.25
487.081	343.25
487.299	335.25
487.517	336.25
487.735	327.25
487.953	341.25
488.171	344.25
488.389	333.25
488.607	335.25
488.825	340.25
489.043	345.25
489.261	336.25
489.479	336.25
489.696	340.25
489.914	335.25
490.132	355.25
490.35	325.25
490.568	340.25
490.786	367.25
491.003	340.25
491.221	327.25
491.439	348.25
491.657	343.25
491.874	359.25
492.092	355.25
492.31	351.25
492.527	350.25
492.745	353.25
492.963	334.25
493.18	330.25
493.398	369.25
493.615	347.25
493.833	366.25
494.05	351.25
494.268	348.25
494.485	335.25
494.703	361.25
494.92	355.25
495.138	347.25
495.355	360.25
495.573	369.25
495.79	371.25
496.008	341.25
496.225	367.25
496.442	366.25
496.66	367.25
496.877	375.25
497.094	385.25
497.312	382.25
497.529	369.25
497.746	401.25
497.963	399.25
498.181	419.25
498.398	422.25
498.615	425.25
498.832	468.25
499.049	495.25
499.267	527.25
499.484	566.25
499.701	624.25
499.918	664.25
500.135	723.25
500.352	795.25
500.569	831.25
500.786	816.25
501.003	782.25
501.22	688.25
501.437	647.25
501.654	573.25
501.871	525.25
502.088	499.25
502.305	474.25
502.522	447.25
