Data from Fe(NO3)3@0.025M.TitratingCurve.Agarose3%dH2O.NegLispCup.LampEnergy10.LIBS07252019_HRD10591_16-54-51-335.txt Node
Date: Thu Jul 25 16:54:51 EDT 2019
User: cochatt
Spectrometer: HR+D1059
Trigger mode: 1
Integration Time (sec): 1.000000E-1
Scans to average: 1
Electric dark correction enabled: true
Nonlinearity correction enabled: false
Boxcar width: 0
XAxis mode: Wavelengths
Number of Pixels in Spectrum: 2048
>>>>>Begin Spectral Data<<<<<
223.165	-12.25
223.4	-12.25
223.635	-12.25
223.869	-24.25
224.104	-24.25
224.338	-8.25
224.573	-6.25
224.808	2.75
225.042	-8.25
225.277	-9.25
225.511	-6.25
225.746	8.75
225.98	17.75
226.215	10.75
226.449	25.75
226.683	3.75
226.918	7.75
227.152	21.75
227.387	30.75
227.621	44.75
227.856	35.75
228.09	27.75
228.324	35.75
228.559	60.75
228.793	49.75
229.027	72.75
229.262	71.75
229.496	84.75
229.73	72.75
229.964	84.75
230.199	84.75
230.433	80.75
230.667	77.75
230.901	102.75
231.136	89.75
231.37	88.75
231.604	103.75
231.838	94.75
232.072	82.75
232.306	96.75
232.541	89.75
232.775	98.75
233.009	97.75
233.243	86.75
233.477	87.75
233.711	95.75
233.945	105.75
234.179	84.75
234.413	105.75
234.647	93.75
234.881	99.75
235.115	94.75
235.349	100.75
235.583	87.75
235.817	91.75
236.051	100.75
236.285	97.75
236.519	87.75
236.753	99.75
236.987	82.75
237.221	74.75
237.455	100.75
237.689	94.75
237.922	98.75
238.156	98.75
238.39	111.75
238.624	93.75
238.858	94.75
239.091	108.75
239.325	103.75
239.559	120.75
239.793	100.75
240.027	96.75
240.26	102.75
240.494	103.75
240.728	94.75
240.961	95.75
241.195	105.75
241.429	100.75
241.662	113.75
241.896	103.75
242.13	102.75
242.363	105.75
242.597	108.75
242.83	110.75
243.064	127.75
243.298	109.75
243.531	104.75
243.765	101.75
243.998	95.75
244.232	119.75
244.465	108.75
244.699	107.75
244.932	114.75
245.166	113.75
245.399	103.75
245.633	101.75
245.866	98.75
246.099	120.75
246.333	123.75
246.566	114.75
246.8	115.75
247.033	112.75
247.266	119.75
247.5	111.75
247.733	118.75
247.966	108.75
248.2	109.75
248.433	126.75
248.666	120.75
248.899	113.75
249.133	123.75
249.366	126.75
249.599	107.75
249.832	126.75
250.066	136.75
250.299	123.75
250.532	112.75
250.765	107.75
250.998	113.75
251.231	125.75
251.465	115.75
251.698	134.75
251.931	136.75
252.164	124.75
252.397	130.75
252.63	135.75
252.863	133.75
253.096	127.75
253.329	130.75
253.562	113.75
253.795	123.75
254.028	125.75
254.261	142.75
254.494	131.75
254.727	146.75
254.96	140.75
255.193	136.75
255.426	125.75
255.659	126.75
255.892	135.75
256.124	127.75
256.357	142.75
256.59	134.75
256.823	151.75
257.056	128.75
257.289	129.75
257.521	129.75
257.754	148.75
257.987	145.75
258.22	141.75
258.452	152.75
258.685	143.75
258.918	143.75
259.151	133.75
259.383	141.75
259.616	134.75
259.849	129.75
260.081	131.75
260.314	147.75
260.547	127.75
260.779	126.75
261.012	142.75
261.244	154.75
261.477	146.75
261.71	138.75
261.942	135.75
262.175	144.75
262.407	141.75
262.64	148.75
262.872	136.75
263.105	148.75
263.337	149.75
263.57	131.75
263.802	133.75
264.035	149.75
264.267	145.75
264.499	158.75
264.732	147.75
264.964	161.75
265.197	136.75
265.429	151.75
265.661	145.75
265.894	155.75
266.126	159.75
266.358	159.75
266.591	164.75
266.823	154.75
267.055	163.75
267.287	155.75
267.52	151.75
267.752	137.75
267.984	148.75
268.216	151.75
268.448	147.75
268.681	151.75
268.913	157.75
269.145	169.75
269.377	172.75
269.609	158.75
269.841	160.75
270.073	168.75
270.306	155.75
270.538	169.75
270.77	177.75
271.002	171.75
271.234	181.75
271.466	163.75
271.698	165.75
271.93	166.75
272.162	165.75
272.394	171.75
272.626	156.75
272.858	187.75
273.09	167.75
273.322	155.75
273.553	163.75
273.785	175.75
274.017	174.75
274.249	174.75
274.481	174.75
274.713	169.75
274.945	181.75
275.176	179.75
275.408	172.75
275.64	181.75
275.872	167.75
276.104	180.75
276.335	184.75
276.567	163.75
276.799	171.75
277.031	163.75
277.262	185.75
277.494	174.75
277.726	182.75
277.957	175.75
278.189	179.75
278.421	178.75
278.652	180.75
278.884	172.75
279.115	175.75
279.347	190.75
279.579	183.75
279.81	186.75
280.042	183.75
280.273	193.75
280.505	180.75
280.736	180.75
280.968	192.75
281.199	175.75
281.431	176.75
281.662	199.75
281.894	198.75
282.125	195.75
282.356	195.75
282.588	195.75
282.819	191.75
283.051	182.75
283.282	182.75
283.513	201.75
283.745	194.75
283.976	190.75
284.207	192.75
284.439	194.75
284.67	182.75
284.901	191.75
285.132	189.75
285.364	193.75
285.595	196.75
285.826	211.75
286.057	196.75
286.288	191.75
286.52	193.75
286.751	213.75
286.982	204.75
287.213	189.75
287.444	184.75
287.675	210.75
287.906	204.75
288.138	183.75
288.369	209.75
288.6	214.75
288.831	205.75
289.062	204.75
289.293	210.75
289.524	212.75
289.755	208.75
289.986	197.75
290.217	206.75
290.448	193.75
290.679	198.75
290.91	216.75
291.141	191.75
291.371	218.75
291.602	225.75
291.833	197.75
292.064	210.75
292.295	218.75
292.526	223.75
292.757	202.75
292.987	223.75
293.218	212.75
293.449	212.75
293.68	215.75
293.91	195.75
294.141	204.75
294.372	188.75
294.603	203.75
294.833	199.75
295.064	207.75
295.295	212.75
295.525	190.75
295.756	217.75
295.987	211.75
296.217	231.75
296.448	227.75
296.679	219.75
296.909	221.75
297.14	211.75
297.37	227.75
297.601	215.75
297.831	220.75
298.062	236.75
298.292	231.75
298.523	221.75
298.753	244.75
298.984	239.75
299.214	241.75
299.445	229.75
299.675	213.75
299.905	235.75
300.136	228.75
300.366	236.75
300.597	231.75
300.827	239.75
301.057	224.75
301.288	265.75
301.518	235.75
301.748	233.75
301.979	246.75
302.209	240.75
302.439	239.75
302.669	250.75
302.9	256.75
303.13	243.75
303.36	251.75
303.59	248.75
303.82	246.75
304.051	229.75
304.281	251.75
304.511	240.75
304.741	236.75
304.971	237.75
305.201	239.75
305.431	230.75
305.661	240.75
305.891	253.75
306.121	241.75
306.352	240.75
306.582	224.75
306.812	244.75
307.042	238.75
307.272	237.75
307.502	229.75
307.731	241.75
307.961	235.75
308.191	241.75
308.421	240.75
308.651	229.75
308.881	222.75
309.111	229.75
309.341	238.75
309.571	234.75
309.8	241.75
310.03	222.75
310.26	238.75
310.49	240.75
310.72	240.75
310.949	235.75
311.179	238.75
311.409	229.75
311.639	241.75
311.868	248.75
312.098	230.75
312.328	231.75
312.557	244.75
312.787	247.75
313.017	261.75
313.246	247.75
313.476	256.75
313.706	248.75
313.935	265.75
314.165	263.75
314.394	248.75
314.624	254.75
314.853	263.75
315.083	245.75
315.312	238.75
315.542	265.75
315.771	264.75
316.001	253.75
316.23	254.75
316.46	256.75
316.689	228.75
316.919	242.75
317.148	267.75
317.377	269.75
317.607	260.75
317.836	241.75
318.065	255.75
318.295	256.75
318.524	265.75
318.753	248.75
318.983	249.75
319.212	268.75
319.441	246.75
319.67	243.75
319.9	251.75
320.129	271.75
320.358	268.75
320.587	263.75
320.816	257.75
321.046	268.75
321.275	270.75
321.504	261.75
321.733	240.75
321.962	259.75
322.191	272.75
322.42	259.75
322.649	259.75
322.878	272.75
323.108	254.75
323.337	270.75
323.566	261.75
323.795	263.75
324.024	274.75
324.253	272.75
324.482	255.75
324.71	271.75
324.939	280.75
325.168	281.75
325.397	279.75
325.626	272.75
325.855	267.75
326.084	302.75
326.313	283.75
326.542	278.75
326.77	293.75
326.999	283.75
327.228	287.75
327.457	276.75
327.686	274.75
327.914	271.75
328.143	276.75
328.372	281.75
328.6	287.75
328.829	274.75
329.058	283.75
329.287	270.75
329.515	288.75
329.744	289.75
329.972	288.75
330.201	288.75
330.43	287.75
330.658	292.75
330.887	274.75
331.115	281.75
331.344	282.75
331.572	280.75
331.801	314.75
332.03	307.75
332.258	301.75
332.486	301.75
332.715	329.75
332.943	348.75
333.172	347.75
333.4	337.75
333.629	337.75
333.857	349.75
334.085	360.75
334.314	343.75
334.542	362.75
334.771	335.75
334.999	341.75
335.227	339.75
335.455	349.75
335.684	337.75
335.912	326.75
336.14	349.75
336.369	337.75
336.597	319.75
336.825	339.75
337.053	325.75
337.281	313.75
337.51	310.75
337.738	322.75
337.966	310.75
338.194	312.75
338.422	327.75
338.65	303.75
338.878	310.75
339.106	296.75
339.334	302.75
339.562	301.75
339.79	313.75
340.018	317.75
340.246	300.75
340.474	313.75
340.702	327.75
340.93	305.75
341.158	300.75
341.386	295.75
341.614	291.75
341.842	292.75
342.07	274.75
342.298	296.75
342.526	293.75
342.754	309.75
342.981	289.75
343.209	299.75
343.437	319.75
343.665	328.75
343.893	344.75
344.12	359.75
344.348	349.75
344.576	329.75
344.804	324.75
345.031	321.75
345.259	316.75
345.487	312.75
345.714	282.75
345.942	270.75
346.17	290.75
346.397	292.75
346.625	284.75
346.853	277.75
347.08	287.75
347.308	320.75
347.535	296.75
347.763	300.75
347.99	299.75
348.218	292.75
348.445	282.75
348.673	289.75
348.9	279.75
349.128	282.75
349.355	301.75
349.583	290.75
349.81	286.75
350.037	291.75
350.265	285.75
350.492	290.75
350.72	269.75
350.947	265.75
351.174	293.75
351.402	280.75
351.629	281.75
351.856	266.75
352.083	279.75
352.311	272.75
352.538	280.75
352.765	271.75
352.992	272.75
353.22	276.75
353.447	284.75
353.674	294.75
353.901	281.75
354.128	277.75
354.355	283.75
354.583	286.75
354.81	260.75
355.037	277.75
355.264	291.75
355.491	284.75
355.718	290.75
355.945	260.75
356.172	285.75
356.399	280.75
356.626	270.75
356.853	241.75
357.08	287.75
357.307	311.75
357.534	293.75
357.761	297.75
357.988	288.75
358.215	301.75
358.441	303.75
358.668	286.75
358.895	277.75
359.122	288.75
359.349	283.75
359.576	286.75
359.802	272.75
360.029	302.75
360.256	279.75
360.483	271.75
360.709	281.75
360.936	285.75
361.163	278.75
361.39	277.75
361.616	264.75
361.843	296.75
362.07	300.75
362.296	279.75
362.523	288.75
362.749	273.75
362.976	285.75
363.203	290.75
363.429	283.75
363.656	295.75
363.882	287.75
364.109	278.75
364.335	294.75
364.562	289.75
364.788	297.75
365.015	301.75
365.241	299.75
365.468	294.75
365.694	275.75
365.92	280.75
366.147	289.75
366.373	273.75
366.599	280.75
366.826	287.75
367.052	288.75
367.278	294.75
367.505	302.75
367.731	286.75
367.957	288.75
368.184	285.75
368.41	296.75
368.636	299.75
368.862	299.75
369.089	290.75
369.315	287.75
369.541	294.75
369.767	292.75
369.993	321.75
370.219	295.75
370.445	305.75
370.672	300.75
370.898	297.75
371.124	299.75
371.35	301.75
371.576	316.75
371.802	302.75
372.028	303.75
372.254	313.75
372.48	311.75
372.706	303.75
372.932	309.75
373.158	312.75
373.384	305.75
373.61	327.75
373.835	308.75
374.061	307.75
374.287	328.75
374.513	317.75
374.739	315.75
374.965	351.75
375.191	345.75
375.416	331.75
375.642	311.75
375.868	331.75
376.094	294.75
376.319	344.75
376.545	322.75
376.771	301.75
376.997	302.75
377.222	310.75
377.448	302.75
377.674	323.75
377.899	333.75
378.125	299.75
378.35	309.75
378.576	315.75
378.802	323.75
379.027	316.75
379.253	309.75
379.478	321.75
379.704	292.75
379.929	316.75
380.155	303.75
380.38	309.75
380.606	308.75
380.831	303.75
381.057	316.75
381.282	319.75
381.507	303.75
381.733	339.75
381.958	329.75
382.184	315.75
382.409	320.75
382.634	307.75
382.86	327.75
383.085	324.75
383.31	340.75
383.535	340.75
383.761	329.75
383.986	339.75
384.211	352.75
384.436	355.75
384.662	356.75
384.887	368.75
385.112	375.75
385.337	366.75
385.562	348.75
385.787	353.75
386.013	364.75
386.238	354.75
386.463	379.75
386.688	360.75
386.913	373.75
387.138	352.75
387.363	361.75
387.588	342.75
387.813	355.75
388.038	357.75
388.263	342.75
388.488	374.75
388.713	355.75
388.938	373.75
389.163	360.75
389.387	355.75
389.612	363.75
389.837	351.75
390.062	352.75
390.287	376.75
390.512	379.75
390.736	356.75
390.961	370.75
391.186	365.75
391.411	381.75
391.636	394.75
391.86	399.75
392.085	388.75
392.31	392.75
392.534	390.75
392.759	380.75
392.984	378.75
393.208	389.75
393.433	398.75
393.658	365.75
393.882	401.75
394.107	391.75
394.331	387.75
394.556	380.75
394.78	401.75
395.005	397.75
395.229	391.75
395.454	389.75
395.678	427.75
395.903	393.75
396.127	406.75
396.352	383.75
396.576	393.75
396.801	393.75
397.025	413.75
397.249	412.75
397.474	392.75
397.698	388.75
397.922	402.75
398.147	420.75
398.371	409.75
398.595	420.75
398.82	465.75
399.044	456.75
399.268	507.75
399.492	580.75
399.717	617.75
399.941	587.75
400.165	548.75
400.389	526.75
400.613	485.75
400.837	473.75
401.062	473.75
401.286	454.75
401.51	453.75
401.734	459.75
401.958	448.75
402.182	461.75
402.406	446.75
402.63	464.75
402.854	448.75
403.078	483.75
403.302	472.75
403.526	480.75
403.75	489.75
403.974	494.75
404.198	473.75
404.422	482.75
404.645	462.75
404.869	491.75
405.093	481.75
405.317	449.75
405.541	472.75
405.765	475.75
405.988	494.75
406.212	459.75
406.436	483.75
406.66	484.75
406.883	489.75
407.107	529.75
407.331	513.75
407.555	584.75
407.778	552.75
408.002	514.75
408.226	513.75
408.449	515.75
408.673	493.75
408.896	502.75
409.12	485.75
409.344	487.75
409.567	492.75
409.791	475.75
410.014	480.75
410.238	486.75
410.461	471.75
410.685	471.75
410.908	456.75
411.132	476.75
411.355	454.75
411.578	443.75
411.802	472.75
412.025	454.75
412.249	452.75
412.472	467.75
412.695	447.75
412.919	444.75
413.142	448.75
413.365	453.75
413.589	445.75
413.812	436.75
414.035	455.75
414.258	443.75
414.482	451.75
414.705	445.75
414.928	454.75
415.151	425.75
415.374	433.75
415.597	418.75
415.821	444.75
416.044	420.75
416.267	446.75
416.49	430.75
416.713	425.75
416.936	425.75
417.159	424.75
417.382	435.75
417.605	427.75
417.828	436.75
418.051	436.75
418.274	440.75
418.497	452.75
418.72	452.75
418.943	441.75
419.166	460.75
419.389	483.75
419.611	498.75
419.834	469.75
420.057	457.75
420.28	437.75
420.503	427.75
420.726	435.75
420.948	434.75
421.171	442.75
421.394	424.75
421.617	422.75
421.839	414.75
422.062	424.75
422.285	425.75
422.507	451.75
422.73	429.75
422.953	457.75
423.175	427.75
423.398	435.75
423.621	454.75
423.843	456.75
424.066	457.75
424.288	446.75
424.511	441.75
424.733	440.75
424.956	441.75
425.178	422.75
425.401	460.75
425.623	424.75
425.846	432.75
426.068	427.75
426.291	427.75
426.513	422.75
426.735	417.75
426.958	401.75
427.18	387.75
427.402	399.75
427.625	414.75
427.847	413.75
428.069	380.75
428.292	375.75
428.514	380.75
428.736	383.75
428.958	375.75
429.181	379.75
429.403	370.75
429.625	390.75
429.847	392.75
430.069	388.75
430.292	380.75
430.514	373.75
430.736	371.75
430.958	391.75
431.18	389.75
431.402	379.75
431.624	381.75
431.846	425.75
432.068	408.75
432.29	407.75
432.512	385.75
432.734	382.75
432.956	382.75
433.178	386.75
433.4	393.75
433.622	407.75
433.844	428.75
434.066	416.75
434.287	402.75
434.509	425.75
434.731	423.75
434.953	419.75
435.175	432.75
435.397	418.75
435.618	417.75
435.84	407.75
436.062	403.75
436.284	382.75
436.505	370.75
436.727	390.75
436.949	393.75
437.17	390.75
437.392	383.75
437.614	383.75
437.835	389.75
438.057	380.75
438.278	364.75
438.5	387.75
438.721	360.75
438.943	375.75
439.165	375.75
439.386	379.75
439.608	386.75
439.829	402.75
440.05	369.75
440.272	390.75
440.493	375.75
440.715	407.75
440.936	402.75
441.158	422.75
441.379	428.75
441.6	421.75
441.822	425.75
442.043	422.75
442.264	401.75
442.486	416.75
442.707	416.75
442.928	414.75
443.149	424.75
443.371	411.75
443.592	420.75
443.813	411.75
444.034	428.75
444.255	443.75
444.476	460.75
444.698	469.75
444.919	480.75
445.14	571.75
445.361	518.75
445.582	424.75
445.803	400.75
446.024	435.75
446.245	415.75
446.466	407.75
446.687	387.75
446.908	390.75
447.129	370.75
447.35	383.75
447.571	379.75
447.792	372.75
448.013	360.75
448.234	366.75
448.455	364.75
448.675	367.75
448.896	363.75
449.117	356.75
449.338	377.75
449.559	377.75
449.779	345.75
450	359.75
450.221	368.75
450.442	353.75
450.662	349.75
450.883	368.75
451.104	374.75
451.324	360.75
451.545	385.75
451.766	365.75
451.986	359.75
452.207	365.75
452.428	363.75
452.648	365.75
452.869	369.75
453.089	343.75
453.31	333.75
453.53	346.75
453.751	335.75
453.971	344.75
454.192	337.75
454.412	341.75
454.633	344.75
454.853	359.75
455.073	337.75
455.294	356.75
455.514	342.75
455.734	330.75
455.955	341.75
456.175	349.75
456.395	323.75
456.616	357.75
456.836	355.75
457.056	338.75
457.276	348.75
457.497	330.75
457.717	328.75
457.937	331.75
458.157	351.75
458.377	351.75
458.598	372.75
458.818	361.75
459.038	399.75
459.258	396.75
459.478	388.75
459.698	383.75
459.918	404.75
460.138	387.75
460.358	440.75
460.578	435.75
460.798	430.75
461.018	429.75
461.238	443.75
461.458	432.75
461.678	457.75
461.898	448.75
462.118	460.75
462.338	478.75
462.558	477.75
462.777	510.75
462.997	521.75
463.217	546.75
463.437	560.75
463.657	520.75
463.876	536.75
464.096	507.75
464.316	495.75
464.536	493.75
464.755	499.75
464.975	480.75
465.195	459.75
465.414	421.75
465.634	417.75
465.854	395.75
466.073	382.75
466.293	377.75
466.512	374.75
466.732	371.75
466.951	380.75
467.171	372.75
467.391	388.75
467.61	375.75
467.829	375.75
468.049	390.75
468.268	365.75
468.488	363.75
468.707	355.75
468.927	379.75
469.146	363.75
469.365	367.75
469.585	352.75
469.804	385.75
470.023	387.75
470.243	380.75
470.462	384.75
470.681	370.75
470.901	386.75
471.12	381.75
471.339	385.75
471.558	369.75
471.777	363.75
471.997	368.75
472.216	371.75
472.435	362.75
472.654	348.75
472.873	360.75
473.092	372.75
473.311	368.75
473.53	368.75
473.749	372.75
473.968	381.75
474.187	344.75
474.406	376.75
474.625	352.75
474.844	360.75
475.063	333.75
475.282	359.75
475.501	363.75
475.72	369.75
475.939	371.75
476.158	373.75
476.377	373.75
476.596	359.75
476.814	382.75
477.033	379.75
477.252	376.75
477.471	388.75
477.69	385.75
477.908	419.75
478.127	423.75
478.346	419.75
478.564	409.75
478.783	435.75
479.002	416.75
479.22	441.75
479.439	428.75
479.658	412.75
479.876	420.75
480.095	451.75
480.313	429.75
480.532	484.75
480.751	449.75
480.969	417.75
481.188	435.75
481.406	417.75
481.624	413.75
481.843	411.75
482.061	430.75
482.28	408.75
482.498	408.75
482.717	408.75
482.935	398.75
483.153	420.75
483.372	424.75
483.59	409.75
483.808	398.75
484.027	420.75
484.245	419.75
484.463	417.75
484.681	406.75
484.9	403.75
485.118	414.75
485.336	421.75
485.554	424.75
485.772	441.75
485.99	429.75
486.209	403.75
486.427	444.75
486.645	429.75
486.863	415.75
487.081	437.75
487.299	423.75
487.517	431.75
487.735	427.75
487.953	413.75
488.171	402.75
488.389	415.75
488.607	425.75
488.825	420.75
489.043	392.75
489.261	416.75
489.479	414.75
489.696	421.75
489.914	446.75
490.132	422.75
490.35	433.75
490.568	427.75
490.786	428.75
491.003	418.75
491.221	433.75
491.439	429.75
491.657	431.75
491.874	432.75
492.092	449.75
492.31	444.75
492.527	420.75
492.745	428.75
492.963	424.75
493.18	443.75
493.398	439.75
493.615	441.75
493.833	441.75
494.05	439.75
494.268	449.75
494.485	467.75
494.703	456.75
494.92	440.75
495.138	462.75
495.355	444.75
495.573	469.75
495.79	459.75
496.008	439.75
496.225	460.75
496.442	463.75
496.66	478.75
496.877	468.75
497.094	501.75
497.312	499.75
497.529	518.75
497.746	526.75
497.963	528.75
498.181	539.75
498.398	553.75
498.615	614.75
498.832	643.75
499.049	661.75
499.267	721.75
499.484	784.75
499.701	833.75
499.918	902.75
500.135	990.75
500.352	1109.75
500.569	1132.75
500.786	1121.75
501.003	1044.75
501.22	955.75
501.437	882.75
501.654	781.75
501.871	735.75
502.088	671.75
