Data from Fe(NO3)3@0.1M.TitratingCurve.Agarose3%dH2O.NegLispCup.LampEnergy10.LIBS07252019_HRD10591_16-39-38-332.txt Node
Date: Thu Jul 25 16:39:38 EDT 2019
User: cochatt
Spectrometer: HR+D1059
Trigger mode: 1
Integration Time (sec): 1.000000E-1
Scans to average: 1
Electric dark correction enabled: true
Nonlinearity correction enabled: false
Boxcar width: 0
XAxis mode: Wavelengths
Number of Pixels in Spectrum: 2048
>>>>>Begin Spectral Data<<<<<
223.165	-11.56
223.4	-11.56
223.635	-11.56
223.869	-24.56
224.104	-23.56
224.338	-0.56
224.573	1.44
224.808	-18.56
225.042	-19.56
225.277	-2.56
225.511	-5.56
225.746	4.44
225.98	10.44
226.215	16.44
226.449	8.44
226.683	16.44
226.918	18.44
227.152	30.44
227.387	41.44
227.621	38.44
227.856	49.44
228.09	58.44
228.324	52.44
228.559	59.44
228.793	48.44
229.027	82.44
229.262	72.44
229.496	79.44
229.73	83.44
229.964	84.44
230.199	94.44
230.433	98.44
230.667	93.44
230.901	93.44
231.136	84.44
231.37	102.44
231.604	106.44
231.838	88.44
232.072	104.44
232.306	107.44
232.541	108.44
232.775	109.44
233.009	108.44
233.243	102.44
233.477	112.44
233.711	115.44
233.945	109.44
234.179	105.44
234.413	114.44
234.647	99.44
234.881	101.44
235.115	98.44
235.349	96.44
235.583	119.44
235.817	108.44
236.051	124.44
236.285	107.44
236.519	117.44
236.753	113.44
236.987	114.44
237.221	114.44
237.455	113.44
237.689	123.44
237.922	117.44
238.156	104.44
238.39	95.44
238.624	107.44
238.858	124.44
239.091	111.44
239.325	115.44
239.559	109.44
239.793	105.44
240.027	118.44
240.26	113.44
240.494	112.44
240.728	104.44
240.961	113.44
241.195	124.44
241.429	118.44
241.662	105.44
241.896	115.44
242.13	128.44
242.363	115.44
242.597	125.44
242.83	121.44
243.064	116.44
243.298	119.44
243.531	115.44
243.765	134.44
243.998	127.44
244.232	127.44
244.465	121.44
244.699	136.44
244.932	136.44
245.166	128.44
245.399	117.44
245.633	134.44
245.866	114.44
246.099	123.44
246.333	125.44
246.566	135.44
246.8	135.44
247.033	136.44
247.266	129.44
247.5	140.44
247.733	130.44
247.966	140.44
248.2	140.44
248.433	136.44
248.666	145.44
248.899	145.44
249.133	141.44
249.366	148.44
249.599	140.44
249.832	139.44
250.066	132.44
250.299	142.44
250.532	137.44
250.765	159.44
250.998	152.44
251.231	133.44
251.465	147.44
251.698	138.44
251.931	134.44
252.164	141.44
252.397	151.44
252.63	133.44
252.863	142.44
253.096	150.44
253.329	147.44
253.562	150.44
253.795	159.44
254.028	140.44
254.261	160.44
254.494	156.44
254.727	139.44
254.96	146.44
255.193	149.44
255.426	157.44
255.659	150.44
255.892	164.44
256.124	154.44
256.357	147.44
256.59	166.44
256.823	152.44
257.056	154.44
257.289	157.44
257.521	155.44
257.754	171.44
257.987	169.44
258.22	163.44
258.452	173.44
258.685	162.44
258.918	147.44
259.151	150.44
259.383	172.44
259.616	159.44
259.849	169.44
260.081	171.44
260.314	155.44
260.547	156.44
260.779	151.44
261.012	161.44
261.244	185.44
261.477	176.44
261.71	174.44
261.942	169.44
262.175	161.44
262.407	169.44
262.64	167.44
262.872	165.44
263.105	176.44
263.337	178.44
263.57	179.44
263.802	172.44
264.035	159.44
264.267	170.44
264.499	167.44
264.732	165.44
264.964	175.44
265.197	170.44
265.429	181.44
265.661	171.44
265.894	181.44
266.126	182.44
266.358	183.44
266.591	172.44
266.823	184.44
267.055	179.44
267.287	177.44
267.52	179.44
267.752	181.44
267.984	187.44
268.216	187.44
268.448	186.44
268.681	199.44
268.913	187.44
269.145	205.44
269.377	193.44
269.609	186.44
269.841	198.44
270.073	191.44
270.306	191.44
270.538	193.44
270.77	204.44
271.002	187.44
271.234	192.44
271.466	205.44
271.698	192.44
271.93	220.44
272.162	184.44
272.394	193.44
272.626	195.44
272.858	193.44
273.09	192.44
273.322	208.44
273.553	184.44
273.785	209.44
274.017	196.44
274.249	206.44
274.481	202.44
274.713	197.44
274.945	204.44
275.176	206.44
275.408	211.44
275.64	186.44
275.872	208.44
276.104	206.44
276.335	198.44
276.567	195.44
276.799	211.44
277.031	210.44
277.262	203.44
277.494	193.44
277.726	216.44
277.957	215.44
278.189	203.44
278.421	195.44
278.652	206.44
278.884	200.44
279.115	203.44
279.347	228.44
279.579	210.44
279.81	207.44
280.042	204.44
280.273	229.44
280.505	227.44
280.736	225.44
280.968	226.44
281.199	223.44
281.431	216.44
281.662	229.44
281.894	229.44
282.125	222.44
282.356	224.44
282.588	235.44
282.819	222.44
283.051	240.44
283.282	228.44
283.513	257.44
283.745	224.44
283.976	225.44
284.207	227.44
284.439	220.44
284.67	241.44
284.901	226.44
285.132	243.44
285.364	260.44
285.595	229.44
285.826	231.44
286.057	225.44
286.288	224.44
286.52	232.44
286.751	228.44
286.982	244.44
287.213	230.44
287.444	222.44
287.675	227.44
287.906	247.44
288.138	225.44
288.369	255.44
288.6	250.44
288.831	263.44
289.062	228.44
289.293	240.44
289.524	239.44
289.755	242.44
289.986	249.44
290.217	229.44
290.448	254.44
290.679	231.44
290.91	261.44
291.141	253.44
291.371	262.44
291.602	236.44
291.833	241.44
292.064	233.44
292.295	243.44
292.526	239.44
292.757	245.44
292.987	243.44
293.218	253.44
293.449	243.44
293.68	256.44
293.91	257.44
294.141	242.44
294.372	248.44
294.603	253.44
294.833	260.44
295.064	269.44
295.295	253.44
295.525	262.44
295.756	255.44
295.987	256.44
296.217	247.44
296.448	268.44
296.679	232.44
296.909	270.44
297.14	250.44
297.37	267.44
297.601	268.44
297.831	264.44
298.062	263.44
298.292	267.44
298.523	266.44
298.753	262.44
298.984	267.44
299.214	273.44
299.445	270.44
299.675	274.44
299.905	275.44
300.136	272.44
300.366	296.44
300.597	280.44
300.827	271.44
301.057	278.44
301.288	293.44
301.518	270.44
301.748	303.44
301.979	276.44
302.209	282.44
302.439	285.44
302.669	285.44
302.9	284.44
303.13	267.44
303.36	285.44
303.59	261.44
303.82	272.44
304.051	282.44
304.281	274.44
304.511	283.44
304.741	293.44
304.971	280.44
305.201	293.44
305.431	291.44
305.661	284.44
305.891	276.44
306.121	276.44
306.352	268.44
306.582	273.44
306.812	279.44
307.042	265.44
307.272	256.44
307.502	281.44
307.731	281.44
307.961	298.44
308.191	288.44
308.421	275.44
308.651	265.44
308.881	284.44
309.111	253.44
309.341	267.44
309.571	290.44
309.8	284.44
310.03	269.44
310.26	276.44
310.49	272.44
310.72	279.44
310.949	277.44
311.179	270.44
311.409	275.44
311.639	292.44
311.868	283.44
312.098	279.44
312.328	300.44
312.557	267.44
312.787	301.44
313.017	290.44
313.246	289.44
313.476	273.44
313.706	299.44
313.935	290.44
314.165	315.44
314.394	307.44
314.624	298.44
314.853	307.44
315.083	297.44
315.312	297.44
315.542	320.44
315.771	296.44
316.001	287.44
316.23	303.44
316.46	296.44
316.689	283.44
316.919	300.44
317.148	307.44
317.377	287.44
317.607	284.44
317.836	287.44
318.065	283.44
318.295	305.44
318.524	300.44
318.753	301.44
318.983	288.44
319.212	289.44
319.441	295.44
319.67	284.44
319.9	308.44
320.129	299.44
320.358	289.44
320.587	308.44
320.816	280.44
321.046	293.44
321.275	292.44
321.504	275.44
321.733	288.44
321.962	304.44
322.191	287.44
322.42	295.44
322.649	311.44
322.878	282.44
323.108	283.44
323.337	293.44
323.566	300.44
323.795	304.44
324.024	330.44
324.253	310.44
324.482	307.44
324.71	296.44
324.939	315.44
325.168	326.44
325.397	295.44
325.626	329.44
325.855	315.44
326.084	310.44
326.313	313.44
326.542	318.44
326.77	322.44
326.999	310.44
327.228	309.44
327.457	325.44
327.686	332.44
327.914	307.44
328.143	327.44
328.372	322.44
328.6	332.44
328.829	333.44
329.058	316.44
329.287	326.44
329.515	321.44
329.744	339.44
329.972	330.44
330.201	323.44
330.43	330.44
330.658	337.44
330.887	321.44
331.115	343.44
331.344	333.44
331.572	331.44
331.801	353.44
332.03	332.44
332.258	359.44
332.486	364.44
332.715	371.44
332.943	381.44
333.172	387.44
333.4	384.44
333.629	383.44
333.857	418.44
334.085	404.44
334.314	403.44
334.542	395.44
334.771	377.44
334.999	398.44
335.227	404.44
335.455	394.44
335.684	416.44
335.912	371.44
336.14	401.44
336.369	396.44
336.597	393.44
336.825	386.44
337.053	376.44
337.281	378.44
337.51	381.44
337.738	372.44
337.966	371.44
338.194	352.44
338.422	360.44
338.65	358.44
338.878	339.44
339.106	355.44
339.334	359.44
339.562	348.44
339.79	332.44
340.018	351.44
340.246	325.44
340.474	355.44
340.702	330.44
340.93	341.44
341.158	343.44
341.386	328.44
341.614	354.44
341.842	329.44
342.07	339.44
342.298	350.44
342.526	332.44
342.754	336.44
342.981	347.44
343.209	355.44
343.437	369.44
343.665	389.44
343.893	412.44
344.12	399.44
344.348	390.44
344.576	376.44
344.804	375.44
345.031	357.44
345.259	341.44
345.487	333.44
345.714	336.44
345.942	345.44
346.17	324.44
346.397	329.44
346.625	315.44
346.853	337.44
347.08	322.44
347.308	329.44
347.535	339.44
347.763	332.44
347.99	339.44
348.218	348.44
348.445	348.44
348.673	324.44
348.9	338.44
349.128	332.44
349.355	326.44
349.583	324.44
349.81	313.44
350.037	310.44
350.265	332.44
350.492	318.44
350.72	349.44
350.947	335.44
351.174	325.44
351.402	338.44
351.629	331.44
351.856	319.44
352.083	301.44
352.311	320.44
352.538	320.44
352.765	316.44
352.992	314.44
353.22	323.44
353.447	315.44
353.674	318.44
353.901	307.44
354.128	320.44
354.355	308.44
354.583	321.44
354.81	314.44
355.037	330.44
355.264	325.44
355.491	319.44
355.718	316.44
355.945	332.44
356.172	320.44
356.399	327.44
356.626	348.44
356.853	335.44
357.08	332.44
357.307	325.44
357.534	317.44
357.761	322.44
357.988	317.44
358.215	332.44
358.441	330.44
358.668	333.44
358.895	328.44
359.122	318.44
359.349	332.44
359.576	317.44
359.802	343.44
360.029	308.44
360.256	326.44
360.483	321.44
360.709	352.44
360.936	327.44
361.163	302.44
361.39	330.44
361.616	327.44
361.843	327.44
362.07	324.44
362.296	308.44
362.523	331.44
362.749	316.44
362.976	322.44
363.203	342.44
363.429	337.44
363.656	333.44
363.882	321.44
364.109	330.44
364.335	327.44
364.562	316.44
364.788	329.44
365.015	333.44
365.241	332.44
365.468	314.44
365.694	329.44
365.92	326.44
366.147	323.44
366.373	319.44
366.599	313.44
366.826	324.44
367.052	332.44
367.278	337.44
367.505	315.44
367.731	315.44
367.957	327.44
368.184	329.44
368.41	335.44
368.636	332.44
368.862	345.44
369.089	360.44
369.315	332.44
369.541	330.44
369.767	359.44
369.993	337.44
370.219	343.44
370.445	340.44
370.672	349.44
370.898	361.44
371.124	355.44
371.35	348.44
371.576	351.44
371.802	358.44
372.028	339.44
372.254	370.44
372.48	369.44
372.706	367.44
372.932	360.44
373.158	358.44
373.384	348.44
373.61	358.44
373.835	359.44
374.061	342.44
374.287	359.44
374.513	369.44
374.739	383.44
374.965	379.44
375.191	400.44
375.416	395.44
375.642	375.44
375.868	360.44
376.094	367.44
376.319	349.44
376.545	353.44
376.771	362.44
376.997	375.44
377.222	364.44
377.448	349.44
377.674	360.44
377.899	355.44
378.125	352.44
378.35	351.44
378.576	363.44
378.802	352.44
379.027	340.44
379.253	357.44
379.478	349.44
379.704	331.44
379.929	349.44
380.155	349.44
380.38	346.44
380.606	361.44
380.831	350.44
381.057	354.44
381.282	361.44
381.507	359.44
381.733	351.44
381.958	363.44
382.184	363.44
382.409	364.44
382.634	370.44
382.86	379.44
383.085	373.44
383.31	383.44
383.535	396.44
383.761	382.44
383.986	399.44
384.211	398.44
384.436	404.44
384.662	418.44
384.887	404.44
385.112	419.44
385.337	417.44
385.562	434.44
385.787	421.44
386.013	431.44
386.238	411.44
386.463	432.44
386.688	435.44
386.913	410.44
387.138	436.44
387.363	427.44
387.588	425.44
387.813	412.44
388.038	436.44
388.263	429.44
388.488	444.44
388.713	429.44
388.938	417.44
389.163	414.44
389.387	424.44
389.612	424.44
389.837	414.44
390.062	401.44
390.287	422.44
390.512	411.44
390.736	443.44
390.961	420.44
391.186	429.44
391.411	452.44
391.636	443.44
391.86	458.44
392.085	477.44
392.31	467.44
392.534	437.44
392.759	461.44
392.984	458.44
393.208	430.44
393.433	450.44
393.658	438.44
393.882	450.44
394.107	431.44
394.331	449.44
394.556	452.44
394.78	449.44
395.005	468.44
395.229	463.44
395.454	477.44
395.678	463.44
395.903	467.44
396.127	453.44
396.352	451.44
396.576	442.44
396.801	453.44
397.025	467.44
397.249	468.44
397.474	484.44
397.698	467.44
397.922	481.44
398.147	491.44
398.371	484.44
398.595	512.44
398.82	524.44
399.044	558.44
399.268	596.44
399.492	650.44
399.717	711.44
399.941	697.44
400.165	652.44
400.389	610.44
400.613	561.44
400.837	550.44
401.062	537.44
401.286	542.44
401.51	519.44
401.734	530.44
401.958	538.44
402.182	526.44
402.406	548.44
402.63	523.44
402.854	543.44
403.078	561.44
403.302	565.44
403.526	566.44
403.75	559.44
403.974	583.44
404.198	578.44
404.422	588.44
404.645	580.44
404.869	562.44
405.093	580.44
405.317	549.44
405.541	573.44
405.765	572.44
405.988	586.44
406.212	572.44
406.436	570.44
406.66	581.44
406.883	601.44
407.107	625.44
407.331	635.44
407.555	643.44
407.778	633.44
408.002	611.44
408.226	611.44
408.449	624.44
408.673	591.44
408.896	575.44
409.12	584.44
409.344	582.44
409.567	561.44
409.791	563.44
410.014	594.44
410.238	584.44
410.461	581.44
410.685	575.44
410.908	574.44
411.132	580.44
411.355	556.44
411.578	565.44
411.802	564.44
412.025	548.44
412.249	592.44
412.472	560.44
412.695	533.44
412.919	522.44
413.142	543.44
413.365	556.44
413.589	544.44
413.812	538.44
414.035	547.44
414.258	544.44
414.482	520.44
414.705	548.44
414.928	565.44
415.151	540.44
415.374	543.44
415.597	529.44
415.821	540.44
416.044	538.44
416.267	513.44
416.49	518.44
416.713	529.44
416.936	519.44
417.159	521.44
417.382	525.44
417.605	482.44
417.828	518.44
418.051	517.44
418.274	512.44
418.497	529.44
418.72	527.44
418.943	531.44
419.166	559.44
419.389	589.44
419.611	569.44
419.834	549.44
420.057	552.44
420.28	531.44
420.503	515.44
420.726	506.44
420.948	512.44
421.171	512.44
421.394	513.44
421.617	529.44
421.839	523.44
422.062	543.44
422.285	511.44
422.507	553.44
422.73	539.44
422.953	535.44
423.175	537.44
423.398	538.44
423.621	545.44
423.843	552.44
424.066	553.44
424.288	555.44
424.511	546.44
424.733	535.44
424.956	534.44
425.178	519.44
425.401	516.44
425.623	526.44
425.846	525.44
426.068	514.44
426.291	519.44
426.513	506.44
426.735	507.44
426.958	503.44
427.18	488.44
427.402	473.44
427.625	486.44
427.847	479.44
428.069	485.44
428.292	469.44
428.514	473.44
428.736	489.44
428.958	487.44
429.181	487.44
429.403	481.44
429.625	495.44
429.847	471.44
430.069	455.44
430.292	499.44
430.514	463.44
430.736	470.44
430.958	467.44
431.18	469.44
431.402	489.44
431.624	472.44
431.846	461.44
432.068	487.44
432.29	484.44
432.512	466.44
432.734	490.44
432.956	463.44
433.178	476.44
433.4	489.44
433.622	491.44
433.844	528.44
434.066	511.44
434.287	501.44
434.509	492.44
434.731	505.44
434.953	538.44
435.175	517.44
435.397	522.44
435.618	519.44
435.84	492.44
436.062	509.44
436.284	483.44
436.505	462.44
436.727	491.44
436.949	489.44
437.17	496.44
437.392	484.44
437.614	469.44
437.835	468.44
438.057	459.44
438.278	472.44
438.5	457.44
438.721	474.44
438.943	471.44
439.165	440.44
439.386	475.44
439.608	471.44
439.829	494.44
440.05	501.44
440.272	517.44
440.493	489.44
440.715	513.44
440.936	492.44
441.158	524.44
441.379	527.44
441.6	535.44
441.822	535.44
442.043	561.44
442.264	551.44
442.486	528.44
442.707	543.44
442.928	549.44
443.149	539.44
443.371	517.44
443.592	539.44
443.813	532.44
444.034	527.44
444.255	549.44
444.476	588.44
444.698	598.44
444.919	603.44
445.14	676.44
445.361	608.44
445.582	559.44
445.803	533.44
446.024	528.44
446.245	533.44
446.466	528.44
446.687	517.44
446.908	504.44
447.129	501.44
447.35	479.44
447.571	473.44
447.792	484.44
448.013	475.44
448.234	481.44
448.455	458.44
448.675	462.44
448.896	441.44
449.117	458.44
449.338	461.44
449.559	454.44
449.779	459.44
450	460.44
450.221	471.44
450.442	451.44
450.662	453.44
450.883	478.44
451.104	465.44
451.324	465.44
451.545	455.44
451.766	441.44
451.986	427.44
452.207	440.44
452.428	452.44
452.648	453.44
452.869	437.44
453.089	434.44
453.31	439.44
453.53	451.44
453.751	443.44
453.971	433.44
454.192	416.44
454.412	424.44
454.633	429.44
454.853	432.44
455.073	418.44
455.294	431.44
455.514	428.44
455.734	421.44
455.955	417.44
456.175	411.44
456.395	421.44
456.616	430.44
456.836	421.44
457.056	419.44
457.276	416.44
457.497	441.44
457.717	441.44
457.937	403.44
458.157	449.44
458.377	439.44
458.598	458.44
458.818	431.44
459.038	465.44
459.258	480.44
459.478	521.44
459.698	492.44
459.918	530.44
460.138	529.44
460.358	551.44
460.578	567.44
460.798	571.44
461.018	559.44
461.238	565.44
461.458	553.44
461.678	554.44
461.898	558.44
462.118	557.44
462.338	581.44
462.558	616.44
462.777	608.44
462.997	668.44
463.217	685.44
463.437	693.44
463.657	675.44
463.876	627.44
464.096	637.44
464.316	619.44
464.536	631.44
464.755	593.44
464.975	588.44
465.195	550.44
465.414	529.44
465.634	515.44
465.854	499.44
466.073	508.44
466.293	490.44
466.512	487.44
466.732	468.44
466.951	489.44
467.171	457.44
467.391	491.44
467.61	487.44
467.829	459.44
468.049	440.44
468.268	451.44
468.488	441.44
468.707	468.44
468.927	457.44
469.146	469.44
469.365	451.44
469.585	467.44
469.804	489.44
470.023	498.44
470.243	475.44
470.462	473.44
470.681	489.44
470.901	488.44
471.12	460.44
471.339	484.44
471.558	482.44
471.777	468.44
471.997	460.44
472.216	463.44
472.435	443.44
472.654	454.44
472.873	434.44
473.092	432.44
473.311	440.44
473.53	451.44
473.749	446.44
473.968	441.44
474.187	442.44
474.406	461.44
474.625	476.44
474.844	447.44
475.063	461.44
475.282	444.44
475.501	450.44
475.72	441.44
475.939	442.44
476.158	475.44
476.377	458.44
476.596	461.44
476.814	468.44
477.033	469.44
477.252	462.44
477.471	464.44
477.69	461.44
477.908	490.44
478.127	484.44
478.346	500.44
478.564	515.44
478.783	525.44
479.002	515.44
479.22	547.44
479.439	531.44
479.658	522.44
479.876	513.44
480.095	565.44
480.313	553.44
480.532	551.44
480.751	553.44
480.969	554.44
481.188	516.44
481.406	507.44
481.624	510.44
481.843	521.44
482.061	520.44
482.28	486.44
482.498	484.44
482.717	480.44
482.935	512.44
483.153	493.44
483.372	490.44
483.59	497.44
483.808	506.44
484.027	478.44
484.245	496.44
484.463	489.44
484.681	521.44
484.9	528.44
485.118	497.44
485.336	493.44
485.554	502.44
485.772	531.44
485.99	500.44
486.209	519.44
486.427	526.44
486.645	515.44
486.863	525.44
487.081	531.44
487.299	515.44
487.517	513.44
487.735	534.44
487.953	552.44
488.171	514.44
488.389	525.44
488.607	532.44
488.825	502.44
489.043	517.44
489.261	514.44
489.479	516.44
489.696	502.44
489.914	512.44
490.132	523.44
490.35	524.44
490.568	520.44
490.786	517.44
491.003	529.44
491.221	518.44
491.439	544.44
491.657	527.44
491.874	531.44
492.092	539.44
492.31	514.44
492.527	529.44
492.745	533.44
492.963	543.44
493.18	536.44
493.398	556.44
493.615	533.44
493.833	533.44
494.05	532.44
494.268	555.44
494.485	549.44
494.703	539.44
494.92	561.44
495.138	559.44
495.355	531.44
495.573	562.44
495.79	577.44
496.008	596.44
496.225	543.44
496.442	571.44
496.66	561.44
496.877	587.44
497.094	608.44
497.312	611.44
497.529	607.44
497.746	634.44
497.963	610.44
498.181	647.44
498.398	673.44
498.615	727.44
498.832	767.44
499.049	788.44
499.267	817.44
499.484	899.44
499.701	975.44
499.918	1038.44
500.135	1178.44
500.352	1331.44
500.569	1370.44
500.786	1324.44
501.003	1236.44
501.22	1176.44
501.437	1067.44
501.654	940.44
