Data from Fe(NO3)3@0.1M.TitratingCurve.Agarose3%dH2O.NegLispCup.LampEnergy10.LIBS07252019_HRD10591_16-38-11-341.txt Node
Date: Thu Jul 25 16:38:11 EDT 2019
User: cochatt
Spectrometer: HR+D1059
Trigger mode: 1
Integration Time (sec): 1.000000E-1
Scans to average: 1
Electric dark correction enabled: true
Nonlinearity correction enabled: false
Boxcar width: 0
XAxis mode: Wavelengths
Number of Pixels in Spectrum: 2048
>>>>>Begin Spectral Data<<<<<
223.165	-15.56
223.4	-15.56
223.635	-15.56
223.869	-18.56
224.104	-22.56
224.338	-17.56
224.573	-8.56
224.808	-7.56
225.042	-5.56
225.277	-11.56
225.511	-4.56
225.746	-6.56
225.98	0.44
226.215	10.44
226.449	15.44
226.683	18.44
226.918	31.44
227.152	42.44
227.387	36.44
227.621	29.44
227.856	39.44
228.09	42.44
228.324	43.44
228.559	49.44
228.793	54.44
229.027	70.44
229.262	62.44
229.496	67.44
229.73	74.44
229.964	73.44
230.199	85.44
230.433	92.44
230.667	84.44
230.901	69.44
231.136	86.44
231.37	86.44
231.604	83.44
231.838	88.44
232.072	83.44
232.306	92.44
232.541	86.44
232.775	90.44
233.009	89.44
233.243	89.44
233.477	80.44
233.711	93.44
233.945	92.44
234.179	73.44
234.413	87.44
234.647	81.44
234.881	87.44
235.115	76.44
235.349	83.44
235.583	93.44
235.817	99.44
236.051	88.44
236.285	83.44
236.519	87.44
236.753	88.44
236.987	82.44
237.221	87.44
237.455	84.44
237.689	82.44
237.922	96.44
238.156	82.44
238.39	76.44
238.624	81.44
238.858	84.44
239.091	95.44
239.325	96.44
239.559	84.44
239.793	77.44
240.027	93.44
240.26	85.44
240.494	94.44
240.728	85.44
240.961	80.44
241.195	103.44
241.429	83.44
241.662	88.44
241.896	76.44
242.13	90.44
242.363	80.44
242.597	75.44
242.83	78.44
243.064	83.44
243.298	87.44
243.531	97.44
243.765	87.44
243.998	96.44
244.232	100.44
244.465	91.44
244.699	82.44
244.932	87.44
245.166	80.44
245.399	89.44
245.633	89.44
245.866	96.44
246.099	96.44
246.333	90.44
246.566	86.44
246.8	92.44
247.033	78.44
247.266	94.44
247.5	92.44
247.733	84.44
247.966	104.44
248.2	97.44
248.433	90.44
248.666	95.44
248.899	95.44
249.133	90.44
249.366	98.44
249.599	100.44
249.832	104.44
250.066	88.44
250.299	102.44
250.532	90.44
250.765	95.44
250.998	105.44
251.231	92.44
251.465	102.44
251.698	97.44
251.931	91.44
252.164	105.44
252.397	99.44
252.63	104.44
252.863	98.44
253.096	125.44
253.329	109.44
253.562	108.44
253.795	102.44
254.028	104.44
254.261	77.44
254.494	104.44
254.727	105.44
254.96	103.44
255.193	94.44
255.426	110.44
255.659	100.44
255.892	95.44
256.124	111.44
256.357	114.44
256.59	103.44
256.823	113.44
257.056	105.44
257.289	92.44
257.521	103.44
257.754	97.44
257.987	113.44
258.22	120.44
258.452	108.44
258.685	94.44
258.918	109.44
259.151	103.44
259.383	105.44
259.616	106.44
259.849	110.44
260.081	102.44
260.314	122.44
260.547	99.44
260.779	98.44
261.012	121.44
261.244	106.44
261.477	107.44
261.71	114.44
261.942	102.44
262.175	118.44
262.407	130.44
262.64	124.44
262.872	129.44
263.105	108.44
263.337	115.44
263.57	103.44
263.802	112.44
264.035	116.44
264.267	117.44
264.499	114.44
264.732	119.44
264.964	122.44
265.197	119.44
265.429	120.44
265.661	107.44
265.894	113.44
266.126	118.44
266.358	96.44
266.591	113.44
266.823	114.44
267.055	121.44
267.287	121.44
267.52	99.44
267.752	107.44
267.984	100.44
268.216	120.44
268.448	123.44
268.681	110.44
268.913	121.44
269.145	121.44
269.377	109.44
269.609	118.44
269.841	119.44
270.073	115.44
270.306	109.44
270.538	118.44
270.77	121.44
271.002	107.44
271.234	108.44
271.466	119.44
271.698	131.44
271.93	118.44
272.162	117.44
272.394	127.44
272.626	117.44
272.858	116.44
273.09	128.44
273.322	128.44
273.553	107.44
273.785	122.44
274.017	128.44
274.249	132.44
274.481	132.44
274.713	127.44
274.945	122.44
275.176	118.44
275.408	134.44
275.64	124.44
275.872	132.44
276.104	120.44
276.335	125.44
276.567	141.44
276.799	134.44
277.031	124.44
277.262	121.44
277.494	130.44
277.726	114.44
277.957	130.44
278.189	136.44
278.421	124.44
278.652	118.44
278.884	124.44
279.115	118.44
279.347	120.44
279.579	123.44
279.81	135.44
280.042	125.44
280.273	132.44
280.505	127.44
280.736	131.44
280.968	119.44
281.199	118.44
281.431	118.44
281.662	142.44
281.894	112.44
282.125	119.44
282.356	120.44
282.588	129.44
282.819	119.44
283.051	122.44
283.282	122.44
283.513	124.44
283.745	134.44
283.976	132.44
284.207	131.44
284.439	140.44
284.67	119.44
284.901	124.44
285.132	130.44
285.364	123.44
285.595	105.44
285.826	124.44
286.057	126.44
286.288	142.44
286.52	131.44
286.751	131.44
286.982	130.44
287.213	141.44
287.444	132.44
287.675	134.44
287.906	131.44
288.138	116.44
288.369	144.44
288.6	142.44
288.831	132.44
289.062	145.44
289.293	140.44
289.524	134.44
289.755	141.44
289.986	137.44
290.217	141.44
290.448	143.44
290.679	126.44
290.91	142.44
291.141	136.44
291.371	146.44
291.602	136.44
291.833	150.44
292.064	130.44
292.295	140.44
292.526	135.44
292.757	136.44
292.987	122.44
293.218	144.44
293.449	131.44
293.68	143.44
293.91	140.44
294.141	139.44
294.372	138.44
294.603	137.44
294.833	134.44
295.064	154.44
295.295	146.44
295.525	140.44
295.756	132.44
295.987	139.44
296.217	146.44
296.448	148.44
296.679	143.44
296.909	133.44
297.14	146.44
297.37	142.44
297.601	144.44
297.831	142.44
298.062	144.44
298.292	166.44
298.523	140.44
298.753	149.44
298.984	122.44
299.214	143.44
299.445	147.44
299.675	146.44
299.905	138.44
300.136	131.44
300.366	138.44
300.597	147.44
300.827	148.44
301.057	148.44
301.288	135.44
301.518	138.44
301.748	152.44
301.979	154.44
302.209	139.44
302.439	160.44
302.669	144.44
302.9	159.44
303.13	147.44
303.36	150.44
303.59	147.44
303.82	160.44
304.051	156.44
304.281	143.44
304.511	160.44
304.741	150.44
304.971	154.44
305.201	156.44
305.431	158.44
305.661	150.44
305.891	150.44
306.121	153.44
306.352	146.44
306.582	137.44
306.812	156.44
307.042	158.44
307.272	155.44
307.502	148.44
307.731	156.44
307.961	144.44
308.191	164.44
308.421	159.44
308.651	151.44
308.881	143.44
309.111	160.44
309.341	139.44
309.571	152.44
309.8	146.44
310.03	148.44
310.26	146.44
310.49	166.44
310.72	150.44
310.949	158.44
311.179	157.44
311.409	143.44
311.639	167.44
311.868	145.44
312.098	158.44
312.328	162.44
312.557	161.44
312.787	163.44
313.017	159.44
313.246	155.44
313.476	151.44
313.706	153.44
313.935	146.44
314.165	149.44
314.394	156.44
314.624	171.44
314.853	152.44
315.083	166.44
315.312	155.44
315.542	164.44
315.771	183.44
316.001	162.44
316.23	172.44
316.46	178.44
316.689	159.44
316.919	158.44
317.148	161.44
317.377	147.44
317.607	172.44
317.836	170.44
318.065	142.44
318.295	150.44
318.524	169.44
318.753	159.44
318.983	165.44
319.212	170.44
319.441	156.44
319.67	162.44
319.9	151.44
320.129	166.44
320.358	173.44
320.587	160.44
320.816	166.44
321.046	150.44
321.275	157.44
321.504	166.44
321.733	169.44
321.962	156.44
322.191	169.44
322.42	163.44
322.649	163.44
322.878	162.44
323.108	156.44
323.337	166.44
323.566	148.44
323.795	155.44
324.024	167.44
324.253	171.44
324.482	160.44
324.71	164.44
324.939	167.44
325.168	169.44
325.397	180.44
325.626	169.44
325.855	172.44
326.084	166.44
326.313	183.44
326.542	153.44
326.77	164.44
326.999	164.44
327.228	176.44
327.457	171.44
327.686	164.44
327.914	163.44
328.143	176.44
328.372	178.44
328.6	150.44
328.829	166.44
329.058	160.44
329.287	162.44
329.515	178.44
329.744	182.44
329.972	175.44
330.201	174.44
330.43	164.44
330.658	178.44
330.887	182.44
331.115	172.44
331.344	178.44
331.572	182.44
331.801	176.44
332.03	164.44
332.258	180.44
332.486	194.44
332.715	197.44
332.943	196.44
333.172	190.44
333.4	190.44
333.629	189.44
333.857	198.44
334.085	200.44
334.314	193.44
334.542	199.44
334.771	210.44
334.999	189.44
335.227	185.44
335.455	194.44
335.684	183.44
335.912	195.44
336.14	192.44
336.369	183.44
336.597	197.44
336.825	198.44
337.053	191.44
337.281	176.44
337.51	175.44
337.738	189.44
337.966	193.44
338.194	188.44
338.422	184.44
338.65	195.44
338.878	187.44
339.106	162.44
339.334	180.44
339.562	173.44
339.79	179.44
340.018	183.44
340.246	154.44
340.474	163.44
340.702	179.44
340.93	178.44
341.158	168.44
341.386	186.44
341.614	170.44
341.842	174.44
342.07	180.44
342.298	178.44
342.526	181.44
342.754	187.44
342.981	186.44
343.209	186.44
343.437	191.44
343.665	193.44
343.893	180.44
344.12	182.44
344.348	192.44
344.576	208.44
344.804	193.44
345.031	162.44
345.259	166.44
345.487	176.44
345.714	176.44
345.942	172.44
346.17	182.44
346.397	158.44
346.625	182.44
346.853	180.44
347.08	176.44
347.308	174.44
347.535	176.44
347.763	173.44
347.99	163.44
348.218	184.44
348.445	182.44
348.673	174.44
348.9	188.44
349.128	167.44
349.355	167.44
349.583	179.44
349.81	169.44
350.037	182.44
350.265	173.44
350.492	165.44
350.72	167.44
350.947	184.44
351.174	189.44
351.402	178.44
351.629	163.44
351.856	165.44
352.083	180.44
352.311	181.44
352.538	171.44
352.765	152.44
352.992	178.44
353.22	192.44
353.447	160.44
353.674	188.44
353.901	171.44
354.128	176.44
354.355	152.44
354.583	180.44
354.81	171.44
355.037	180.44
355.264	175.44
355.491	175.44
355.718	179.44
355.945	171.44
356.172	176.44
356.399	164.44
356.626	168.44
356.853	171.44
357.08	178.44
357.307	177.44
357.534	186.44
357.761	189.44
357.988	178.44
358.215	180.44
358.441	170.44
358.668	170.44
358.895	170.44
359.122	179.44
359.349	176.44
359.576	173.44
359.802	178.44
360.029	178.44
360.256	178.44
360.483	149.44
360.709	153.44
360.936	184.44
361.163	176.44
361.39	179.44
361.616	185.44
361.843	184.44
362.07	172.44
362.296	182.44
362.523	166.44
362.749	176.44
362.976	161.44
363.203	176.44
363.429	157.44
363.656	166.44
363.882	180.44
364.109	167.44
364.335	176.44
364.562	178.44
364.788	171.44
365.015	178.44
365.241	192.44
365.468	192.44
365.694	169.44
365.92	188.44
366.147	166.44
366.373	188.44
366.599	171.44
366.826	178.44
367.052	184.44
367.278	182.44
367.505	186.44
367.731	204.44
367.957	174.44
368.184	169.44
368.41	186.44
368.636	182.44
368.862	177.44
369.089	176.44
369.315	186.44
369.541	187.44
369.767	208.44
369.993	171.44
370.219	191.44
370.445	186.44
370.672	185.44
370.898	175.44
371.124	182.44
371.35	177.44
371.576	182.44
371.802	190.44
372.028	188.44
372.254	180.44
372.48	194.44
372.706	184.44
372.932	186.44
373.158	190.44
373.384	186.44
373.61	200.44
373.835	199.44
374.061	205.44
374.287	197.44
374.513	194.44
374.739	196.44
374.965	195.44
375.191	222.44
375.416	194.44
375.642	194.44
375.868	201.44
376.094	203.44
376.319	201.44
376.545	184.44
376.771	206.44
376.997	192.44
377.222	170.44
377.448	195.44
377.674	204.44
377.899	198.44
378.125	191.44
378.35	187.44
378.576	195.44
378.802	186.44
379.027	180.44
379.253	193.44
379.478	196.44
379.704	183.44
379.929	200.44
380.155	192.44
380.38	206.44
380.606	192.44
380.831	214.44
381.057	202.44
381.282	185.44
381.507	202.44
381.733	192.44
381.958	196.44
382.184	177.44
382.409	216.44
382.634	215.44
382.86	200.44
383.085	213.44
383.31	215.44
383.535	222.44
383.761	225.44
383.986	217.44
384.211	188.44
384.436	209.44
384.662	194.44
384.887	208.44
385.112	211.44
385.337	221.44
385.562	219.44
385.787	223.44
386.013	215.44
386.238	216.44
386.463	206.44
386.688	223.44
386.913	215.44
387.138	228.44
387.363	215.44
387.588	232.44
387.813	239.44
388.038	235.44
388.263	226.44
388.488	221.44
388.713	210.44
388.938	212.44
389.163	220.44
389.387	218.44
389.612	221.44
389.837	230.44
390.062	233.44
390.287	219.44
390.512	228.44
390.736	218.44
390.961	203.44
391.186	244.44
391.411	239.44
391.636	241.44
391.86	238.44
392.085	233.44
392.31	234.44
392.534	239.44
392.759	250.44
392.984	217.44
393.208	235.44
393.433	224.44
393.658	234.44
393.882	229.44
394.107	248.44
394.331	235.44
394.556	255.44
394.78	239.44
395.005	235.44
395.229	232.44
395.454	255.44
395.678	247.44
395.903	250.44
396.127	244.44
396.352	257.44
396.576	238.44
396.801	235.44
397.025	235.44
397.249	255.44
397.474	246.44
397.698	237.44
397.922	248.44
398.147	247.44
398.371	257.44
398.595	256.44
398.82	256.44
399.044	280.44
399.268	292.44
399.492	324.44
399.717	339.44
399.941	318.44
400.165	318.44
400.389	291.44
400.613	281.44
400.837	282.44
401.062	286.44
401.286	273.44
401.51	247.44
401.734	275.44
401.958	279.44
402.182	281.44
402.406	262.44
402.63	259.44
402.854	264.44
403.078	259.44
403.302	275.44
403.526	279.44
403.75	289.44
403.974	262.44
404.198	282.44
404.422	302.44
404.645	272.44
404.869	290.44
405.093	277.44
405.317	284.44
405.541	261.44
405.765	290.44
405.988	275.44
406.212	282.44
406.436	279.44
406.66	290.44
406.883	289.44
407.107	303.44
407.331	297.44
407.555	302.44
407.778	295.44
408.002	308.44
408.226	313.44
408.449	310.44
408.673	296.44
408.896	299.44
409.12	282.44
409.344	291.44
409.567	271.44
409.791	292.44
410.014	312.44
410.238	294.44
410.461	289.44
410.685	286.44
410.908	286.44
411.132	305.44
411.355	268.44
411.578	291.44
411.802	284.44
412.025	273.44
412.249	300.44
412.472	273.44
412.695	275.44
412.919	282.44
413.142	269.44
413.365	266.44
413.589	270.44
413.812	280.44
414.035	288.44
414.258	287.44
414.482	268.44
414.705	272.44
414.928	278.44
415.151	281.44
415.374	273.44
415.597	263.44
415.821	265.44
416.044	279.44
416.267	258.44
416.49	262.44
416.713	269.44
416.936	261.44
417.159	269.44
417.382	283.44
417.605	252.44
417.828	262.44
418.051	269.44
418.274	270.44
418.497	274.44
418.72	262.44
418.943	256.44
419.166	272.44
419.389	287.44
419.611	289.44
419.834	291.44
420.057	284.44
420.28	277.44
420.503	273.44
420.726	264.44
420.948	262.44
421.171	265.44
421.394	267.44
421.617	268.44
421.839	276.44
422.062	259.44
422.285	243.44
422.507	272.44
422.73	260.44
422.953	273.44
423.175	263.44
423.398	262.44
423.621	283.44
423.843	282.44
424.066	259.44
424.288	278.44
424.511	280.44
424.733	269.44
424.956	272.44
425.178	278.44
425.401	257.44
425.623	268.44
425.846	262.44
426.068	254.44
426.291	240.44
426.513	271.44
426.735	272.44
426.958	249.44
427.18	267.44
427.402	277.44
427.625	244.44
427.847	252.44
428.069	244.44
428.292	255.44
428.514	238.44
428.736	244.44
428.958	275.44
429.181	243.44
429.403	246.44
429.625	240.44
429.847	243.44
430.069	227.44
430.292	235.44
430.514	249.44
430.736	241.44
430.958	242.44
431.18	258.44
431.402	261.44
431.624	259.44
431.846	253.44
432.068	254.44
432.29	243.44
432.512	248.44
432.734	250.44
432.956	230.44
433.178	251.44
433.4	264.44
433.622	241.44
433.844	273.44
434.066	261.44
434.287	262.44
434.509	286.44
434.731	272.44
434.953	264.44
435.175	267.44
435.397	269.44
435.618	279.44
435.84	263.44
436.062	266.44
436.284	256.44
436.505	257.44
436.727	250.44
436.949	259.44
437.17	249.44
437.392	257.44
437.614	248.44
437.835	231.44
438.057	241.44
438.278	245.44
438.5	260.44
438.721	251.44
438.943	246.44
439.165	240.44
439.386	257.44
439.608	266.44
439.829	250.44
440.05	263.44
440.272	265.44
440.493	255.44
440.715	267.44
440.936	245.44
441.158	250.44
441.379	257.44
441.6	275.44
441.822	272.44
442.043	270.44
442.264	271.44
442.486	256.44
442.707	275.44
442.928	264.44
443.149	268.44
443.371	262.44
443.592	252.44
443.813	264.44
444.034	280.44
444.255	278.44
444.476	282.44
444.698	287.44
444.919	295.44
445.14	403.44
445.361	315.44
445.582	290.44
445.803	261.44
446.024	267.44
446.245	265.44
446.466	266.44
446.687	269.44
446.908	252.44
447.129	248.44
447.35	242.44
447.571	264.44
447.792	228.44
448.013	238.44
448.234	248.44
448.455	245.44
448.675	241.44
448.896	242.44
449.117	226.44
449.338	233.44
449.559	238.44
449.779	232.44
450	256.44
450.221	245.44
450.442	249.44
450.662	240.44
450.883	243.44
451.104	242.44
451.324	232.44
451.545	243.44
451.766	247.44
451.986	227.44
452.207	220.44
452.428	234.44
452.648	243.44
452.869	234.44
453.089	223.44
453.31	229.44
453.53	225.44
453.751	232.44
453.971	227.44
454.192	227.44
454.412	204.44
454.633	230.44
454.853	240.44
455.073	239.44
455.294	233.44
455.514	234.44
455.734	240.44
455.955	228.44
456.175	228.44
456.395	226.44
456.616	239.44
456.836	228.44
457.056	217.44
457.276	215.44
457.497	227.44
457.717	240.44
457.937	239.44
458.157	224.44
458.377	230.44
458.598	226.44
458.818	236.44
459.038	225.44
459.258	249.44
459.478	246.44
459.698	238.44
459.918	250.44
460.138	268.44
460.358	287.44
460.578	282.44
460.798	304.44
461.018	274.44
461.238	285.44
461.458	280.44
461.678	266.44
461.898	300.44
462.118	274.44
462.338	287.44
462.558	280.44
462.777	317.44
462.997	322.44
463.217	338.44
463.437	323.44
463.657	310.44
463.876	305.44
464.096	326.44
464.316	309.44
464.536	315.44
464.755	316.44
464.975	288.44
465.195	270.44
465.414	291.44
465.634	270.44
465.854	273.44
466.073	274.44
466.293	255.44
466.512	255.44
466.732	257.44
466.951	258.44
467.171	258.44
467.391	255.44
467.61	228.44
467.829	254.44
468.049	251.44
468.268	233.44
468.488	238.44
468.707	228.44
468.927	250.44
469.146	259.44
469.365	263.44
469.585	241.44
469.804	246.44
470.023	247.44
470.243	251.44
470.462	244.44
470.681	255.44
470.901	243.44
471.12	246.44
471.339	241.44
471.558	250.44
471.777	244.44
471.997	244.44
472.216	236.44
472.435	240.44
472.654	240.44
472.873	234.44
473.092	238.44
473.311	240.44
473.53	244.44
473.749	244.44
473.968	259.44
474.187	231.44
474.406	223.44
474.625	258.44
474.844	240.44
475.063	244.44
475.282	249.44
475.501	233.44
475.72	234.44
475.939	235.44
476.158	268.44
476.377	254.44
476.596	255.44
476.814	261.44
477.033	263.44
477.252	261.44
477.471	254.44
477.69	245.44
477.908	268.44
478.127	268.44
478.346	264.44
478.564	281.44
478.783	292.44
479.002	275.44
479.22	250.44
479.439	279.44
479.658	284.44
479.876	284.44
480.095	273.44
480.313	288.44
480.532	282.44
480.751	284.44
480.969	280.44
481.188	272.44
481.406	262.44
481.624	270.44
481.843	269.44
482.061	262.44
482.28	255.44
482.498	263.44
482.717	273.44
482.935	278.44
483.153	260.44
483.372	256.44
483.59	269.44
483.808	295.44
484.027	264.44
484.245	282.44
484.463	276.44
484.681	286.44
484.9	275.44
485.118	253.44
485.336	268.44
485.554	286.44
485.772	290.44
485.99	275.44
486.209	268.44
486.427	270.44
486.645	258.44
486.863	269.44
487.081	279.44
487.299	280.44
487.517	290.44
487.735	272.44
487.953	281.44
488.171	283.44
488.389	283.44
488.607	284.44
488.825	274.44
489.043	290.44
489.261	275.44
489.479	286.44
489.696	277.44
489.914	289.44
490.132	290.44
490.35	286.44
490.568	287.44
490.786	284.44
491.003	294.44
491.221	294.44
491.439	265.44
491.657	294.44
491.874	292.44
492.092	302.44
492.31	298.44
492.527	275.44
492.745	272.44
492.963	308.44
493.18	322.44
493.398	303.44
493.615	287.44
493.833	314.44
494.05	299.44
494.268	288.44
494.485	281.44
494.703	294.44
494.92	306.44
495.138	309.44
495.355	315.44
495.573	297.44
495.79	304.44
496.008	305.44
496.225	298.44
496.442	303.44
496.66	290.44
496.877	325.44
497.094	326.44
497.312	324.44
497.529	344.44
497.746	322.44
497.963	327.44
498.181	333.44
498.398	360.44
498.615	374.44
498.832	376.44
499.049	391.44
499.267	417.44
499.484	442.44
499.701	466.44
499.918	491.44
500.135	551.44
500.352	576.44
500.569	578.44
500.786	576.44
501.003	547.44
501.22	511.44
501.437	475.44
501.654	435.44
501.871	416.44
502.088	409.44
502.305	387.44
502.522	378.44
502.739	335.44
502.956	366.44
