Data from Fe(NO3)3@0.025M.TitratingCurve.Agarose3%dH2O.NegLispCup.LampEnergy10.LIBS07252019_HRD10591_16-54-47-335.txt Node
Date: Thu Jul 25 16:54:47 EDT 2019
User: cochatt
Spectrometer: HR+D1059
Trigger mode: 1
Integration Time (sec): 1.000000E-1
Scans to average: 1
Electric dark correction enabled: true
Nonlinearity correction enabled: false
Boxcar width: 0
XAxis mode: Wavelengths
Number of Pixels in Spectrum: 2048
>>>>>Begin Spectral Data<<<<<
223.165	-15.75
223.4	-15.75
223.635	-15.75
223.869	-16.75
224.104	-25.75
224.338	-10.75
224.573	-13.75
224.808	-9.75
225.042	-11.75
225.277	-11.75
225.511	-3.75
225.746	0.25
225.98	-1.75
226.215	29.25
226.449	16.25
226.683	26.25
226.918	31.25
227.152	18.25
227.387	25.25
227.621	36.25
227.856	29.25
228.09	41.25
228.324	51.25
228.559	47.25
228.793	55.25
229.027	75.25
229.262	72.25
229.496	90.25
229.73	86.25
229.964	90.25
230.199	89.25
230.433	92.25
230.667	100.25
230.901	91.25
231.136	96.25
231.37	97.25
231.604	103.25
231.838	98.25
232.072	106.25
232.306	108.25
232.541	98.25
232.775	96.25
233.009	101.25
233.243	103.25
233.477	99.25
233.711	106.25
233.945	117.25
234.179	100.25
234.413	111.25
234.647	114.25
234.881	117.25
235.115	103.25
235.349	112.25
235.583	125.25
235.817	113.25
236.051	119.25
236.285	97.25
236.519	106.25
236.753	98.25
236.987	104.25
237.221	112.25
237.455	102.25
237.689	99.25
237.922	115.25
238.156	108.25
238.39	108.25
238.624	111.25
238.858	103.25
239.091	109.25
239.325	132.25
239.559	118.25
239.793	116.25
240.027	105.25
240.26	105.25
240.494	116.25
240.728	112.25
240.961	126.25
241.195	128.25
241.429	122.25
241.662	108.25
241.896	114.25
242.13	127.25
242.363	124.25
242.597	115.25
242.83	122.25
243.064	113.25
243.298	120.25
243.531	111.25
243.765	118.25
243.998	123.25
244.232	129.25
244.465	123.25
244.699	122.25
244.932	116.25
245.166	126.25
245.399	127.25
245.633	139.25
245.866	126.25
246.099	118.25
246.333	138.25
246.566	136.25
246.8	122.25
247.033	136.25
247.266	126.25
247.5	121.25
247.733	141.25
247.966	135.25
248.2	134.25
248.433	152.25
248.666	129.25
248.899	130.25
249.133	136.25
249.366	127.25
249.599	133.25
249.832	142.25
250.066	140.25
250.299	135.25
250.532	138.25
250.765	132.25
250.998	139.25
251.231	140.25
251.465	146.25
251.698	143.25
251.931	136.25
252.164	139.25
252.397	141.25
252.63	129.25
252.863	150.25
253.096	141.25
253.329	163.25
253.562	149.25
253.795	153.25
254.028	165.25
254.261	153.25
254.494	149.25
254.727	151.25
254.96	141.25
255.193	136.25
255.426	165.25
255.659	138.25
255.892	162.25
256.124	142.25
256.357	154.25
256.59	156.25
256.823	150.25
257.056	153.25
257.289	145.25
257.521	158.25
257.754	150.25
257.987	154.25
258.22	147.25
258.452	152.25
258.685	165.25
258.918	161.25
259.151	158.25
259.383	167.25
259.616	181.25
259.849	177.25
260.081	163.25
260.314	163.25
260.547	178.25
260.779	164.25
261.012	170.25
261.244	163.25
261.477	178.25
261.71	161.25
261.942	158.25
262.175	175.25
262.407	166.25
262.64	174.25
262.872	165.25
263.105	178.25
263.337	180.25
263.57	168.25
263.802	180.25
264.035	163.25
264.267	190.25
264.499	161.25
264.732	164.25
264.964	156.25
265.197	170.25
265.429	178.25
265.661	180.25
265.894	175.25
266.126	177.25
266.358	184.25
266.591	177.25
266.823	182.25
267.055	178.25
267.287	178.25
267.52	176.25
267.752	174.25
267.984	193.25
268.216	189.25
268.448	179.25
268.681	178.25
268.913	187.25
269.145	179.25
269.377	184.25
269.609	180.25
269.841	186.25
270.073	192.25
270.306	202.25
270.538	197.25
270.77	192.25
271.002	190.25
271.234	212.25
271.466	194.25
271.698	195.25
271.93	184.25
272.162	186.25
272.394	196.25
272.626	187.25
272.858	207.25
273.09	206.25
273.322	202.25
273.553	184.25
273.785	191.25
274.017	182.25
274.249	205.25
274.481	197.25
274.713	229.25
274.945	209.25
275.176	202.25
275.408	204.25
275.64	213.25
275.872	227.25
276.104	225.25
276.335	218.25
276.567	214.25
276.799	198.25
277.031	216.25
277.262	202.25
277.494	198.25
277.726	206.25
277.957	210.25
278.189	223.25
278.421	230.25
278.652	215.25
278.884	204.25
279.115	220.25
279.347	228.25
279.579	220.25
279.81	216.25
280.042	231.25
280.273	212.25
280.505	228.25
280.736	227.25
280.968	210.25
281.199	203.25
281.431	218.25
281.662	208.25
281.894	220.25
282.125	223.25
282.356	217.25
282.588	232.25
282.819	233.25
283.051	234.25
283.282	239.25
283.513	230.25
283.745	236.25
283.976	225.25
284.207	223.25
284.439	232.25
284.67	228.25
284.901	235.25
285.132	226.25
285.364	237.25
285.595	224.25
285.826	225.25
286.057	238.25
286.288	225.25
286.52	240.25
286.751	240.25
286.982	255.25
287.213	260.25
287.444	232.25
287.675	253.25
287.906	242.25
288.138	242.25
288.369	247.25
288.6	244.25
288.831	248.25
289.062	240.25
289.293	248.25
289.524	247.25
289.755	242.25
289.986	252.25
290.217	261.25
290.448	230.25
290.679	269.25
290.91	258.25
291.141	250.25
291.371	263.25
291.602	248.25
291.833	262.25
292.064	241.25
292.295	267.25
292.526	239.25
292.757	256.25
292.987	262.25
293.218	253.25
293.449	264.25
293.68	263.25
293.91	256.25
294.141	255.25
294.372	245.25
294.603	267.25
294.833	254.25
295.064	278.25
295.295	258.25
295.525	262.25
295.756	271.25
295.987	261.25
296.217	278.25
296.448	260.25
296.679	264.25
296.909	273.25
297.14	277.25
297.37	267.25
297.601	276.25
297.831	270.25
298.062	280.25
298.292	267.25
298.523	277.25
298.753	282.25
298.984	282.25
299.214	266.25
299.445	276.25
299.675	268.25
299.905	262.25
300.136	262.25
300.366	271.25
300.597	267.25
300.827	290.25
301.057	308.25
301.288	275.25
301.518	284.25
301.748	297.25
301.979	282.25
302.209	284.25
302.439	283.25
302.669	288.25
302.9	297.25
303.13	281.25
303.36	288.25
303.59	286.25
303.82	298.25
304.051	284.25
304.281	284.25
304.511	288.25
304.741	281.25
304.971	281.25
305.201	289.25
305.431	273.25
305.661	278.25
305.891	280.25
306.121	292.25
306.352	265.25
306.582	282.25
306.812	286.25
307.042	276.25
307.272	295.25
307.502	283.25
307.731	265.25
307.961	294.25
308.191	267.25
308.421	271.25
308.651	265.25
308.881	294.25
309.111	287.25
309.341	291.25
309.571	291.25
309.8	291.25
310.03	296.25
310.26	291.25
310.49	295.25
310.72	287.25
310.949	304.25
311.179	310.25
311.409	294.25
311.639	293.25
311.868	299.25
312.098	304.25
312.328	294.25
312.557	311.25
312.787	305.25
313.017	305.25
313.246	300.25
313.476	302.25
313.706	297.25
313.935	310.25
314.165	298.25
314.394	309.25
314.624	325.25
314.853	303.25
315.083	298.25
315.312	308.25
315.542	311.25
315.771	311.25
316.001	302.25
316.23	318.25
316.46	307.25
316.689	326.25
316.919	316.25
317.148	311.25
317.377	318.25
317.607	305.25
317.836	306.25
318.065	296.25
318.295	308.25
318.524	298.25
318.753	311.25
318.983	304.25
319.212	306.25
319.441	300.25
319.67	311.25
319.9	298.25
320.129	311.25
320.358	300.25
320.587	297.25
320.816	316.25
321.046	320.25
321.275	329.25
321.504	306.25
321.733	318.25
321.962	314.25
322.191	305.25
322.42	302.25
322.649	331.25
322.878	338.25
323.108	320.25
323.337	323.25
323.566	308.25
323.795	329.25
324.024	317.25
324.253	313.25
324.482	308.25
324.71	330.25
324.939	329.25
325.168	348.25
325.397	347.25
325.626	321.25
325.855	342.25
326.084	317.25
326.313	356.25
326.542	336.25
326.77	341.25
326.999	348.25
327.228	347.25
327.457	339.25
327.686	337.25
327.914	325.25
328.143	331.25
328.372	335.25
328.6	347.25
328.829	328.25
329.058	341.25
329.287	350.25
329.515	347.25
329.744	337.25
329.972	338.25
330.201	346.25
330.43	326.25
330.658	364.25
330.887	338.25
331.115	353.25
331.344	359.25
331.572	351.25
331.801	351.25
332.03	366.25
332.258	378.25
332.486	369.25
332.715	379.25
332.943	409.25
333.172	391.25
333.4	408.25
333.629	419.25
333.857	430.25
334.085	387.25
334.314	424.25
334.542	416.25
334.771	409.25
334.999	407.25
335.227	415.25
335.455	401.25
335.684	402.25
335.912	407.25
336.14	393.25
336.369	390.25
336.597	396.25
336.825	402.25
337.053	395.25
337.281	374.25
337.51	395.25
337.738	369.25
337.966	387.25
338.194	350.25
338.422	380.25
338.65	371.25
338.878	384.25
339.106	380.25
339.334	361.25
339.562	355.25
339.79	362.25
340.018	372.25
340.246	343.25
340.474	373.25
340.702	378.25
340.93	372.25
341.158	373.25
341.386	368.25
341.614	372.25
341.842	350.25
342.07	367.25
342.298	367.25
342.526	358.25
342.754	347.25
342.981	356.25
343.209	347.25
343.437	395.25
343.665	385.25
343.893	403.25
344.12	406.25
344.348	393.25
344.576	395.25
344.804	367.25
345.031	361.25
345.259	353.25
345.487	354.25
345.714	370.25
345.942	352.25
346.17	363.25
346.397	352.25
346.625	338.25
346.853	363.25
347.08	356.25
347.308	351.25
347.535	344.25
347.763	328.25
347.99	337.25
348.218	349.25
348.445	344.25
348.673	349.25
348.9	347.25
349.128	344.25
349.355	326.25
349.583	350.25
349.81	354.25
350.037	339.25
350.265	335.25
350.492	344.25
350.72	359.25
350.947	344.25
351.174	331.25
351.402	358.25
351.629	339.25
351.856	350.25
352.083	355.25
352.311	357.25
352.538	334.25
352.765	327.25
352.992	328.25
353.22	338.25
353.447	333.25
353.674	360.25
353.901	343.25
354.128	360.25
354.355	341.25
354.583	331.25
354.81	338.25
355.037	339.25
355.264	330.25
355.491	337.25
355.718	340.25
355.945	359.25
356.172	346.25
356.399	355.25
356.626	350.25
356.853	368.25
357.08	352.25
357.307	353.25
357.534	335.25
357.761	321.25
357.988	358.25
358.215	347.25
358.441	316.25
358.668	356.25
358.895	347.25
359.122	334.25
359.349	332.25
359.576	357.25
359.802	348.25
360.029	347.25
360.256	331.25
360.483	337.25
360.709	336.25
360.936	354.25
361.163	344.25
361.39	356.25
361.616	349.25
361.843	354.25
362.07	347.25
362.296	348.25
362.523	340.25
362.749	366.25
362.976	339.25
363.203	340.25
363.429	342.25
363.656	344.25
363.882	356.25
364.109	335.25
364.335	372.25
364.562	328.25
364.788	338.25
365.015	328.25
365.241	335.25
365.468	358.25
365.694	362.25
365.92	358.25
366.147	347.25
366.373	351.25
366.599	342.25
366.826	350.25
367.052	348.25
367.278	356.25
367.505	348.25
367.731	352.25
367.957	339.25
368.184	336.25
368.41	360.25
368.636	375.25
368.862	347.25
369.089	351.25
369.315	348.25
369.541	351.25
369.767	369.25
369.993	354.25
370.219	364.25
370.445	343.25
370.672	376.25
370.898	357.25
371.124	361.25
371.35	352.25
371.576	380.25
371.802	392.25
372.028	385.25
372.254	367.25
372.48	389.25
372.706	370.25
372.932	396.25
373.158	375.25
373.384	382.25
373.61	378.25
373.835	389.25
374.061	391.25
374.287	391.25
374.513	392.25
374.739	403.25
374.965	426.25
375.191	386.25
375.416	391.25
375.642	399.25
375.868	394.25
376.094	377.25
376.319	401.25
376.545	355.25
376.771	386.25
376.997	372.25
377.222	387.25
377.448	362.25
377.674	396.25
377.899	373.25
378.125	357.25
378.35	382.25
378.576	354.25
378.802	364.25
379.027	371.25
379.253	376.25
379.478	384.25
379.704	374.25
379.929	361.25
380.155	376.25
380.38	382.25
380.606	386.25
380.831	372.25
381.057	380.25
381.282	381.25
381.507	384.25
381.733	372.25
381.958	391.25
382.184	354.25
382.409	374.25
382.634	396.25
382.86	386.25
383.085	416.25
383.31	409.25
383.535	384.25
383.761	414.25
383.986	406.25
384.211	405.25
384.436	413.25
384.662	414.25
384.887	440.25
385.112	432.25
385.337	434.25
385.562	443.25
385.787	426.25
386.013	434.25
386.238	436.25
386.463	424.25
386.688	448.25
386.913	428.25
387.138	455.25
387.363	439.25
387.588	434.25
387.813	450.25
388.038	447.25
388.263	394.25
388.488	450.25
388.713	451.25
388.938	436.25
389.163	428.25
389.387	426.25
389.612	419.25
389.837	423.25
390.062	442.25
390.287	438.25
390.512	436.25
390.736	441.25
390.961	443.25
391.186	442.25
391.411	463.25
391.636	465.25
391.86	468.25
392.085	455.25
392.31	457.25
392.534	484.25
392.759	463.25
392.984	486.25
393.208	470.25
393.433	457.25
393.658	458.25
393.882	466.25
394.107	460.25
394.331	469.25
394.556	464.25
394.78	473.25
395.005	463.25
395.229	452.25
395.454	488.25
395.678	452.25
395.903	458.25
396.127	466.25
396.352	492.25
396.576	465.25
396.801	461.25
397.025	480.25
397.249	472.25
397.474	482.25
397.698	489.25
397.922	499.25
398.147	510.25
398.371	483.25
398.595	512.25
398.82	524.25
399.044	567.25
399.268	593.25
399.492	668.25
399.717	704.25
399.941	690.25
400.165	631.25
400.389	612.25
400.613	599.25
400.837	570.25
401.062	549.25
401.286	547.25
401.51	550.25
401.734	516.25
401.958	533.25
402.182	542.25
402.406	548.25
402.63	533.25
402.854	539.25
403.078	545.25
403.302	568.25
403.526	562.25
403.75	565.25
403.974	589.25
404.198	588.25
404.422	577.25
404.645	560.25
404.869	551.25
405.093	565.25
405.317	554.25
405.541	567.25
405.765	577.25
405.988	555.25
406.212	575.25
406.436	567.25
406.66	566.25
406.883	572.25
407.107	624.25
407.331	628.25
407.555	627.25
407.778	624.25
408.002	631.25
408.226	594.25
408.449	596.25
408.673	600.25
408.896	579.25
409.12	559.25
409.344	593.25
409.567	585.25
409.791	573.25
410.014	566.25
410.238	603.25
410.461	562.25
410.685	576.25
410.908	564.25
411.132	549.25
411.355	563.25
411.578	546.25
411.802	562.25
412.025	535.25
412.249	545.25
412.472	558.25
412.695	536.25
412.919	538.25
413.142	551.25
413.365	537.25
413.589	548.25
413.812	534.25
414.035	538.25
414.258	522.25
414.482	521.25
414.705	552.25
414.928	552.25
415.151	533.25
415.374	525.25
415.597	514.25
415.821	519.25
416.044	526.25
416.267	522.25
416.49	516.25
416.713	508.25
416.936	518.25
417.159	504.25
417.382	519.25
417.605	506.25
417.828	532.25
418.051	521.25
418.274	516.25
418.497	518.25
418.72	516.25
418.943	542.25
419.166	560.25
419.389	567.25
419.611	552.25
419.834	568.25
420.057	533.25
420.28	507.25
420.503	498.25
420.726	514.25
420.948	506.25
421.171	528.25
421.394	509.25
421.617	503.25
421.839	500.25
422.062	498.25
422.285	503.25
422.507	514.25
422.73	516.25
422.953	507.25
423.175	503.25
423.398	539.25
423.621	508.25
423.843	519.25
424.066	482.25
424.288	531.25
424.511	518.25
424.733	540.25
424.956	515.25
425.178	522.25
425.401	487.25
425.623	483.25
425.846	485.25
426.068	487.25
426.291	485.25
426.513	482.25
426.735	489.25
426.958	489.25
427.18	481.25
427.402	500.25
427.625	471.25
427.847	483.25
428.069	491.25
428.292	487.25
428.514	474.25
428.736	491.25
428.958	482.25
429.181	473.25
429.403	452.25
429.625	446.25
429.847	459.25
430.069	463.25
430.292	473.25
430.514	447.25
430.736	477.25
430.958	455.25
431.18	452.25
431.402	439.25
431.624	442.25
431.846	466.25
432.068	484.25
432.29	465.25
432.512	450.25
432.734	474.25
432.956	471.25
433.178	466.25
433.4	478.25
433.622	478.25
433.844	471.25
434.066	478.25
434.287	479.25
434.509	494.25
434.731	513.25
434.953	520.25
435.175	511.25
435.397	495.25
435.618	476.25
435.84	467.25
436.062	482.25
436.284	475.25
436.505	455.25
436.727	457.25
436.949	464.25
437.17	466.25
437.392	455.25
437.614	454.25
437.835	461.25
438.057	470.25
438.278	468.25
438.5	466.25
438.721	436.25
438.943	458.25
439.165	450.25
439.386	453.25
439.608	451.25
439.829	455.25
440.05	460.25
440.272	498.25
440.493	440.25
440.715	476.25
440.936	488.25
441.158	472.25
441.379	471.25
441.6	494.25
441.822	482.25
442.043	473.25
442.264	480.25
442.486	494.25
442.707	491.25
442.928	497.25
443.149	494.25
443.371	495.25
443.592	497.25
443.813	486.25
444.034	524.25
444.255	546.25
444.476	523.25
444.698	539.25
444.919	545.25
445.14	672.25
445.361	584.25
445.582	538.25
445.803	496.25
446.024	484.25
446.245	479.25
446.466	482.25
446.687	467.25
446.908	474.25
447.129	444.25
447.35	458.25
447.571	443.25
447.792	448.25
448.013	426.25
448.234	434.25
448.455	451.25
448.675	431.25
448.896	431.25
449.117	426.25
449.338	431.25
449.559	420.25
449.779	416.25
450	427.25
450.221	425.25
450.442	435.25
450.662	421.25
450.883	443.25
451.104	456.25
451.324	432.25
451.545	428.25
451.766	430.25
451.986	430.25
452.207	435.25
452.428	408.25
452.648	428.25
452.869	434.25
453.089	408.25
453.31	419.25
453.53	420.25
453.751	418.25
453.971	412.25
454.192	418.25
454.412	417.25
454.633	432.25
454.853	406.25
455.073	399.25
455.294	396.25
455.514	386.25
455.734	412.25
455.955	398.25
456.175	408.25
456.395	404.25
456.616	404.25
456.836	417.25
457.056	415.25
457.276	410.25
457.497	410.25
457.717	420.25
457.937	429.25
458.157	428.25
458.377	408.25
458.598	424.25
458.818	448.25
459.038	435.25
459.258	459.25
459.478	465.25
459.698	467.25
459.918	491.25
460.138	514.25
460.358	524.25
460.578	498.25
460.798	492.25
461.018	539.25
461.238	520.25
461.458	530.25
461.678	521.25
461.898	540.25
462.118	522.25
462.338	561.25
462.558	584.25
462.777	602.25
462.997	622.25
463.217	628.25
463.437	631.25
463.657	596.25
463.876	594.25
464.096	591.25
464.316	574.25
464.536	578.25
464.755	564.25
464.975	570.25
465.195	546.25
465.414	532.25
465.634	511.25
465.854	484.25
466.073	485.25
466.293	468.25
466.512	443.25
466.732	452.25
466.951	478.25
467.171	427.25
467.391	434.25
467.61	452.25
467.829	422.25
468.049	459.25
468.268	436.25
468.488	438.25
468.707	444.25
468.927	426.25
469.146	419.25
469.365	457.25
469.585	456.25
469.804	454.25
470.023	465.25
470.243	451.25
470.462	451.25
470.681	439.25
470.901	450.25
471.12	446.25
471.339	441.25
471.558	440.25
471.777	463.25
471.997	446.25
472.216	430.25
472.435	427.25
472.654	417.25
472.873	431.25
473.092	430.25
473.311	430.25
473.53	445.25
473.749	425.25
473.968	422.25
474.187	436.25
474.406	420.25
474.625	429.25
474.844	425.25
475.063	431.25
475.282	457.25
475.501	431.25
475.72	442.25
475.939	446.25
476.158	444.25
476.377	451.25
476.596	452.25
476.814	460.25
477.033	434.25
477.252	464.25
477.471	472.25
477.69	460.25
477.908	503.25
478.127	512.25
478.346	509.25
478.564	509.25
478.783	495.25
479.002	527.25
479.22	517.25
479.439	514.25
479.658	503.25
479.876	501.25
480.095	507.25
480.313	545.25
480.532	563.25
480.751	541.25
480.969	528.25
481.188	525.25
481.406	500.25
481.624	494.25
481.843	504.25
482.061	506.25
482.28	505.25
482.498	486.25
482.717	470.25
482.935	482.25
483.153	511.25
483.372	517.25
483.59	496.25
483.808	491.25
484.027	496.25
484.245	473.25
484.463	502.25
484.681	499.25
484.9	494.25
485.118	518.25
485.336	530.25
485.554	514.25
485.772	495.25
485.99	496.25
486.209	546.25
486.427	506.25
486.645	516.25
486.863	518.25
487.081	529.25
487.299	516.25
487.517	517.25
487.735	521.25
487.953	497.25
488.171	515.25
488.389	508.25
488.607	492.25
488.825	508.25
489.043	507.25
489.261	516.25
489.479	519.25
489.696	479.25
489.914	514.25
490.132	512.25
490.35	528.25
490.568	502.25
490.786	527.25
491.003	492.25
491.221	524.25
491.439	524.25
491.657	507.25
491.874	530.25
492.092	536.25
492.31	492.25
492.527	523.25
492.745	517.25
492.963	540.25
493.18	515.25
493.398	515.25
493.615	560.25
493.833	528.25
494.05	543.25
494.268	531.25
494.485	547.25
494.703	552.25
494.92	547.25
495.138	541.25
495.355	548.25
495.573	531.25
495.79	556.25
496.008	546.25
496.225	547.25
496.442	570.25
496.66	593.25
496.877	609.25
497.094	591.25
497.312	589.25
497.529	606.25
497.746	632.25
497.963	636.25
498.181	642.25
498.398	702.25
498.615	710.25
498.832	736.25
499.049	790.25
499.267	867.25
499.484	883.25
499.701	948.25
499.918	1017.25
500.135	1091.25
500.352	1192.25
500.569	1229.25
500.786	1234.25
501.003	1180.25
501.22	1071.25
501.437	1001.25
501.654	946.25
