Data from Fe(NO3)3@0.025M.TitratingCurve.Agarose3%dH2O.NegLispCup.LampEnergy10.LIBS07252019_HRD10591_16-55-13-335.txt Node
Date: Thu Jul 25 16:55:13 EDT 2019
User: cochatt
Spectrometer: HR+D1059
Trigger mode: 1
Integration Time (sec): 1.000000E-1
Scans to average: 1
Electric dark correction enabled: true
Nonlinearity correction enabled: false
Boxcar width: 0
XAxis mode: Wavelengths
Number of Pixels in Spectrum: 2048
>>>>>Begin Spectral Data<<<<<
223.165	-4.62
223.4	-4.62
223.635	-4.62
223.869	-6.62
224.104	-4.62
224.338	-21.62
224.573	-5.62
224.808	-24.62
225.042	-13.62
225.277	-13.62
225.511	-8.62
225.746	6.38
225.98	18.38
226.215	15.38
226.449	2.38
226.683	18.38
226.918	17.38
227.152	25.38
227.387	45.38
227.621	32.38
227.856	35.38
228.09	37.38
228.324	54.38
228.559	63.38
228.793	74.38
229.027	62.38
229.262	58.38
229.496	81.38
229.73	82.38
229.964	79.38
230.199	88.38
230.433	71.38
230.667	84.38
230.901	93.38
231.136	91.38
231.37	75.38
231.604	86.38
231.838	86.38
232.072	96.38
232.306	90.38
232.541	94.38
232.775	79.38
233.009	93.38
233.243	99.38
233.477	85.38
233.711	94.38
233.945	92.38
234.179	95.38
234.413	94.38
234.647	96.38
234.881	106.38
235.115	88.38
235.349	114.38
235.583	98.38
235.817	92.38
236.051	94.38
236.285	81.38
236.519	84.38
236.753	101.38
236.987	83.38
237.221	88.38
237.455	99.38
237.689	104.38
237.922	83.38
238.156	101.38
238.39	93.38
238.624	104.38
238.858	98.38
239.091	86.38
239.325	107.38
239.559	100.38
239.793	94.38
240.027	98.38
240.26	99.38
240.494	88.38
240.728	85.38
240.961	96.38
241.195	96.38
241.429	98.38
241.662	91.38
241.896	104.38
242.13	112.38
242.363	100.38
242.597	113.38
242.83	109.38
243.064	100.38
243.298	100.38
243.531	102.38
243.765	113.38
243.998	98.38
244.232	92.38
244.465	101.38
244.699	108.38
244.932	100.38
245.166	101.38
245.399	95.38
245.633	97.38
245.866	89.38
246.099	91.38
246.333	104.38
246.566	101.38
246.8	123.38
247.033	110.38
247.266	102.38
247.5	98.38
247.733	99.38
247.966	108.38
248.2	107.38
248.433	91.38
248.666	114.38
248.899	118.38
249.133	110.38
249.366	103.38
249.599	107.38
249.832	119.38
250.066	110.38
250.299	113.38
250.532	131.38
250.765	110.38
250.998	110.38
251.231	95.38
251.465	118.38
251.698	110.38
251.931	106.38
252.164	121.38
252.397	112.38
252.63	110.38
252.863	112.38
253.096	101.38
253.329	117.38
253.562	118.38
253.795	123.38
254.028	136.38
254.261	128.38
254.494	102.38
254.727	125.38
254.96	101.38
255.193	119.38
255.426	116.38
255.659	118.38
255.892	114.38
256.124	107.38
256.357	118.38
256.59	112.38
256.823	128.38
257.056	137.38
257.289	131.38
257.521	125.38
257.754	105.38
257.987	119.38
258.22	126.38
258.452	126.38
258.685	131.38
258.918	108.38
259.151	126.38
259.383	124.38
259.616	115.38
259.849	136.38
260.081	122.38
260.314	126.38
260.547	129.38
260.779	119.38
261.012	130.38
261.244	131.38
261.477	132.38
261.71	139.38
261.942	118.38
262.175	126.38
262.407	124.38
262.64	120.38
262.872	135.38
263.105	131.38
263.337	128.38
263.57	131.38
263.802	133.38
264.035	136.38
264.267	129.38
264.499	144.38
264.732	138.38
264.964	139.38
265.197	135.38
265.429	147.38
265.661	143.38
265.894	135.38
266.126	150.38
266.358	149.38
266.591	148.38
266.823	119.38
267.055	151.38
267.287	130.38
267.52	144.38
267.752	128.38
267.984	138.38
268.216	144.38
268.448	139.38
268.681	126.38
268.913	146.38
269.145	139.38
269.377	142.38
269.609	142.38
269.841	143.38
270.073	120.38
270.306	127.38
270.538	130.38
270.77	156.38
271.002	158.38
271.234	139.38
271.466	143.38
271.698	143.38
271.93	147.38
272.162	155.38
272.394	151.38
272.626	138.38
272.858	138.38
273.09	155.38
273.322	161.38
273.553	135.38
273.785	150.38
274.017	142.38
274.249	161.38
274.481	162.38
274.713	157.38
274.945	170.38
275.176	155.38
275.408	160.38
275.64	163.38
275.872	160.38
276.104	150.38
276.335	136.38
276.567	162.38
276.799	153.38
277.031	160.38
277.262	165.38
277.494	163.38
277.726	155.38
277.957	162.38
278.189	156.38
278.421	156.38
278.652	163.38
278.884	170.38
279.115	168.38
279.347	163.38
279.579	155.38
279.81	160.38
280.042	167.38
280.273	162.38
280.505	176.38
280.736	155.38
280.968	164.38
281.199	148.38
281.431	172.38
281.662	184.38
281.894	172.38
282.125	166.38
282.356	160.38
282.588	160.38
282.819	160.38
283.051	160.38
283.282	184.38
283.513	188.38
283.745	178.38
283.976	174.38
284.207	166.38
284.439	191.38
284.67	179.38
284.901	164.38
285.132	178.38
285.364	184.38
285.595	182.38
285.826	177.38
286.057	182.38
286.288	181.38
286.52	179.38
286.751	178.38
286.982	189.38
287.213	182.38
287.444	175.38
287.675	175.38
287.906	190.38
288.138	198.38
288.369	201.38
288.6	188.38
288.831	190.38
289.062	170.38
289.293	176.38
289.524	193.38
289.755	170.38
289.986	182.38
290.217	199.38
290.448	197.38
290.679	181.38
290.91	181.38
291.141	202.38
291.371	183.38
291.602	187.38
291.833	195.38
292.064	188.38
292.295	188.38
292.526	191.38
292.757	192.38
292.987	189.38
293.218	193.38
293.449	198.38
293.68	199.38
293.91	179.38
294.141	187.38
294.372	190.38
294.603	199.38
294.833	211.38
295.064	178.38
295.295	184.38
295.525	199.38
295.756	200.38
295.987	184.38
296.217	202.38
296.448	197.38
296.679	205.38
296.909	214.38
297.14	183.38
297.37	194.38
297.601	207.38
297.831	214.38
298.062	215.38
298.292	196.38
298.523	216.38
298.753	184.38
298.984	209.38
299.214	223.38
299.445	205.38
299.675	203.38
299.905	207.38
300.136	196.38
300.366	207.38
300.597	209.38
300.827	202.38
301.057	206.38
301.288	210.38
301.518	209.38
301.748	227.38
301.979	217.38
302.209	225.38
302.439	207.38
302.669	197.38
302.9	199.38
303.13	215.38
303.36	220.38
303.59	217.38
303.82	213.38
304.051	204.38
304.281	197.38
304.511	225.38
304.741	223.38
304.971	206.38
305.201	211.38
305.431	228.38
305.661	199.38
305.891	212.38
306.121	211.38
306.352	217.38
306.582	224.38
306.812	215.38
307.042	202.38
307.272	208.38
307.502	221.38
307.731	214.38
307.961	209.38
308.191	221.38
308.421	231.38
308.651	218.38
308.881	215.38
309.111	224.38
309.341	223.38
309.571	223.38
309.8	223.38
310.03	205.38
310.26	215.38
310.49	212.38
310.72	211.38
310.949	227.38
311.179	215.38
311.409	229.38
311.639	228.38
311.868	222.38
312.098	229.38
312.328	220.38
312.557	222.38
312.787	244.38
313.017	218.38
313.246	223.38
313.476	226.38
313.706	238.38
313.935	248.38
314.165	243.38
314.394	246.38
314.624	242.38
314.853	231.38
315.083	234.38
315.312	225.38
315.542	225.38
315.771	252.38
316.001	226.38
316.23	238.38
316.46	232.38
316.689	247.38
316.919	229.38
317.148	224.38
317.377	251.38
317.607	255.38
317.836	234.38
318.065	241.38
318.295	251.38
318.524	227.38
318.753	238.38
318.983	231.38
319.212	247.38
319.441	244.38
319.67	244.38
319.9	248.38
320.129	240.38
320.358	243.38
320.587	258.38
320.816	237.38
321.046	226.38
321.275	257.38
321.504	261.38
321.733	259.38
321.962	266.38
322.191	263.38
322.42	254.38
322.649	237.38
322.878	251.38
323.108	236.38
323.337	243.38
323.566	254.38
323.795	235.38
324.024	232.38
324.253	239.38
324.482	240.38
324.71	240.38
324.939	251.38
325.168	239.38
325.397	239.38
325.626	258.38
325.855	250.38
326.084	261.38
326.313	261.38
326.542	244.38
326.77	251.38
326.999	254.38
327.228	256.38
327.457	275.38
327.686	268.38
327.914	252.38
328.143	257.38
328.372	261.38
328.6	263.38
328.829	266.38
329.058	260.38
329.287	269.38
329.515	272.38
329.744	280.38
329.972	275.38
330.201	257.38
330.43	261.38
330.658	263.38
330.887	275.38
331.115	275.38
331.344	275.38
331.572	277.38
331.801	290.38
332.03	280.38
332.258	290.38
332.486	285.38
332.715	280.38
332.943	288.38
333.172	297.38
333.4	325.38
333.629	297.38
333.857	332.38
334.085	326.38
334.314	306.38
334.542	322.38
334.771	322.38
334.999	305.38
335.227	316.38
335.455	323.38
335.684	315.38
335.912	308.38
336.14	303.38
336.369	278.38
336.597	308.38
336.825	316.38
337.053	292.38
337.281	293.38
337.51	300.38
337.738	304.38
337.966	291.38
338.194	291.38
338.422	287.38
338.65	292.38
338.878	295.38
339.106	282.38
339.334	302.38
339.562	300.38
339.79	288.38
340.018	282.38
340.246	278.38
340.474	295.38
340.702	274.38
340.93	278.38
341.158	277.38
341.386	290.38
341.614	274.38
341.842	280.38
342.07	299.38
342.298	300.38
342.526	275.38
342.754	271.38
342.981	288.38
343.209	299.38
343.437	318.38
343.665	302.38
343.893	326.38
344.12	321.38
344.348	314.38
344.576	321.38
344.804	282.38
345.031	293.38
345.259	278.38
345.487	268.38
345.714	274.38
345.942	260.38
346.17	275.38
346.397	263.38
346.625	270.38
346.853	274.38
347.08	282.38
347.308	259.38
347.535	275.38
347.763	276.38
347.99	284.38
348.218	273.38
348.445	261.38
348.673	259.38
348.9	274.38
349.128	264.38
349.355	284.38
349.583	272.38
349.81	284.38
350.037	272.38
350.265	285.38
350.492	282.38
350.72	259.38
350.947	256.38
351.174	282.38
351.402	273.38
351.629	264.38
351.856	255.38
352.083	271.38
352.311	267.38
352.538	273.38
352.765	279.38
352.992	251.38
353.22	279.38
353.447	276.38
353.674	261.38
353.901	274.38
354.128	282.38
354.355	272.38
354.583	280.38
354.81	257.38
355.037	268.38
355.264	276.38
355.491	261.38
355.718	261.38
355.945	272.38
356.172	260.38
356.399	267.38
356.626	272.38
356.853	289.38
357.08	285.38
357.307	295.38
357.534	296.38
357.761	291.38
357.988	279.38
358.215	269.38
358.441	271.38
358.668	294.38
358.895	286.38
359.122	294.38
359.349	277.38
359.576	274.38
359.802	281.38
360.029	278.38
360.256	277.38
360.483	288.38
360.709	284.38
360.936	285.38
361.163	278.38
361.39	279.38
361.616	261.38
361.843	281.38
362.07	258.38
362.296	284.38
362.523	271.38
362.749	290.38
362.976	283.38
363.203	294.38
363.429	276.38
363.656	272.38
363.882	280.38
364.109	275.38
364.335	273.38
364.562	293.38
364.788	270.38
365.015	281.38
365.241	274.38
365.468	282.38
365.694	291.38
365.92	284.38
366.147	275.38
366.373	283.38
366.599	288.38
366.826	270.38
367.052	280.38
367.278	290.38
367.505	293.38
367.731	263.38
367.957	285.38
368.184	280.38
368.41	279.38
368.636	281.38
368.862	277.38
369.089	293.38
369.315	295.38
369.541	289.38
369.767	306.38
369.993	306.38
370.219	285.38
370.445	302.38
370.672	317.38
370.898	299.38
371.124	307.38
371.35	291.38
371.576	315.38
371.802	304.38
372.028	304.38
372.254	312.38
372.48	313.38
372.706	306.38
372.932	326.38
373.158	326.38
373.384	296.38
373.61	314.38
373.835	306.38
374.061	319.38
374.287	315.38
374.513	314.38
374.739	319.38
374.965	347.38
375.191	316.38
375.416	307.38
375.642	317.38
375.868	321.38
376.094	290.38
376.319	304.38
376.545	316.38
376.771	302.38
376.997	305.38
377.222	307.38
377.448	296.38
377.674	296.38
377.899	290.38
378.125	286.38
378.35	310.38
378.576	297.38
378.802	294.38
379.027	278.38
379.253	316.38
379.478	304.38
379.704	293.38
379.929	315.38
380.155	314.38
380.38	322.38
380.606	310.38
380.831	294.38
381.057	290.38
381.282	298.38
381.507	299.38
381.733	321.38
381.958	315.38
382.184	298.38
382.409	306.38
382.634	315.38
382.86	320.38
383.085	332.38
383.31	303.38
383.535	345.38
383.761	316.38
383.986	316.38
384.211	333.38
384.436	347.38
384.662	342.38
384.887	340.38
385.112	339.38
385.337	344.38
385.562	336.38
385.787	314.38
386.013	342.38
386.238	348.38
386.463	359.38
386.688	345.38
386.913	344.38
387.138	351.38
387.363	338.38
387.588	355.38
387.813	348.38
388.038	351.38
388.263	368.38
388.488	348.38
388.713	359.38
388.938	333.38
389.163	363.38
389.387	350.38
389.612	356.38
389.837	359.38
390.062	348.38
390.287	361.38
390.512	357.38
390.736	351.38
390.961	362.38
391.186	350.38
391.411	367.38
391.636	380.38
391.86	383.38
392.085	377.38
392.31	388.38
392.534	378.38
392.759	391.38
392.984	358.38
393.208	366.38
393.433	364.38
393.658	382.38
393.882	380.38
394.107	375.38
394.331	392.38
394.556	373.38
394.78	347.38
395.005	366.38
395.229	384.38
395.454	378.38
395.678	392.38
395.903	404.38
396.127	375.38
396.352	378.38
396.576	379.38
396.801	384.38
397.025	401.38
397.249	402.38
397.474	392.38
397.698	406.38
397.922	383.38
398.147	400.38
398.371	384.38
398.595	431.38
398.82	441.38
399.044	424.38
399.268	467.38
399.492	486.38
399.717	527.38
399.941	511.38
400.165	501.38
400.389	466.38
400.613	456.38
400.837	462.38
401.062	453.38
401.286	437.38
401.51	446.38
401.734	398.38
401.958	427.38
402.182	433.38
402.406	427.38
402.63	436.38
402.854	417.38
403.078	412.38
403.302	414.38
403.526	436.38
403.75	448.38
403.974	431.38
404.198	439.38
404.422	454.38
404.645	444.38
404.869	442.38
405.093	429.38
405.317	448.38
405.541	442.38
405.765	442.38
405.988	443.38
406.212	440.38
406.436	431.38
406.66	467.38
406.883	463.38
407.107	481.38
407.331	467.38
407.555	478.38
407.778	480.38
408.002	484.38
408.226	472.38
408.449	490.38
408.673	485.38
408.896	457.38
409.12	463.38
409.344	460.38
409.567	441.38
409.791	459.38
410.014	465.38
410.238	459.38
410.461	450.38
410.685	440.38
410.908	455.38
411.132	442.38
411.355	434.38
411.578	443.38
411.802	431.38
412.025	456.38
412.249	446.38
412.472	417.38
412.695	422.38
412.919	414.38
413.142	436.38
413.365	436.38
413.589	422.38
413.812	427.38
414.035	415.38
414.258	435.38
414.482	428.38
414.705	416.38
414.928	422.38
415.151	422.38
415.374	425.38
415.597	430.38
415.821	409.38
416.044	431.38
416.267	399.38
416.49	404.38
416.713	392.38
416.936	394.38
417.159	418.38
417.382	420.38
417.605	416.38
417.828	396.38
418.051	415.38
418.274	410.38
418.497	406.38
418.72	410.38
418.943	404.38
419.166	422.38
419.389	448.38
419.611	432.38
419.834	435.38
420.057	414.38
420.28	408.38
420.503	415.38
420.726	405.38
420.948	396.38
421.171	396.38
421.394	412.38
421.617	378.38
421.839	394.38
422.062	402.38
422.285	383.38
422.507	404.38
422.73	423.38
422.953	419.38
423.175	424.38
423.398	410.38
423.621	388.38
423.843	396.38
424.066	435.38
424.288	404.38
424.511	416.38
424.733	397.38
424.956	402.38
425.178	416.38
425.401	401.38
425.623	389.38
425.846	381.38
426.068	407.38
426.291	404.38
426.513	408.38
426.735	402.38
426.958	407.38
427.18	372.38
427.402	378.38
427.625	380.38
427.847	384.38
428.069	392.38
428.292	390.38
428.514	373.38
428.736	374.38
428.958	356.38
429.181	367.38
429.403	360.38
429.625	402.38
429.847	372.38
430.069	373.38
430.292	376.38
430.514	355.38
430.736	368.38
430.958	368.38
431.18	354.38
431.402	374.38
431.624	389.38
431.846	387.38
432.068	404.38
432.29	382.38
432.512	380.38
432.734	376.38
432.956	391.38
433.178	401.38
433.4	388.38
433.622	390.38
433.844	387.38
434.066	382.38
434.287	388.38
434.509	395.38
434.731	403.38
434.953	404.38
435.175	406.38
435.397	382.38
435.618	394.38
435.84	386.38
436.062	373.38
436.284	374.38
436.505	365.38
436.727	372.38
436.949	394.38
437.17	388.38
437.392	358.38
437.614	360.38
437.835	352.38
438.057	350.38
438.278	367.38
438.5	372.38
438.721	375.38
438.943	355.38
439.165	374.38
439.386	401.38
439.608	387.38
439.829	354.38
440.05	363.38
440.272	376.38
440.493	384.38
440.715	378.38
440.936	369.38
441.158	384.38
441.379	395.38
441.6	407.38
441.822	400.38
442.043	401.38
442.264	390.38
442.486	408.38
442.707	392.38
442.928	392.38
443.149	393.38
443.371	400.38
443.592	408.38
443.813	397.38
444.034	403.38
444.255	420.38
444.476	408.38
444.698	414.38
444.919	421.38
445.14	507.38
445.361	446.38
445.582	404.38
445.803	404.38
446.024	386.38
446.245	392.38
446.466	386.38
446.687	392.38
446.908	377.38
447.129	389.38
447.35	369.38
447.571	362.38
447.792	388.38
448.013	374.38
448.234	358.38
448.455	362.38
448.675	359.38
448.896	352.38
449.117	355.38
449.338	344.38
449.559	344.38
449.779	369.38
450	329.38
450.221	345.38
450.442	356.38
450.662	348.38
450.883	346.38
451.104	343.38
451.324	338.38
451.545	348.38
451.766	350.38
451.986	358.38
452.207	348.38
452.428	343.38
452.648	344.38
452.869	352.38
453.089	346.38
453.31	344.38
453.53	341.38
453.751	354.38
453.971	339.38
454.192	351.38
454.412	339.38
454.633	334.38
454.853	339.38
455.073	341.38
455.294	351.38
455.514	344.38
455.734	315.38
455.955	336.38
456.175	343.38
456.395	345.38
456.616	339.38
456.836	324.38
457.056	335.38
457.276	331.38
457.497	339.38
457.717	351.38
457.937	337.38
458.157	354.38
458.377	356.38
458.598	360.38
458.818	362.38
459.038	352.38
459.258	356.38
459.478	367.38
459.698	374.38
459.918	393.38
460.138	409.38
460.358	414.38
460.578	404.38
460.798	414.38
461.018	438.38
461.238	432.38
461.458	420.38
461.678	439.38
461.898	426.38
462.118	424.38
462.338	430.38
462.558	416.38
462.777	458.38
462.997	456.38
463.217	487.38
463.437	480.38
463.657	473.38
463.876	470.38
464.096	472.38
464.316	470.38
464.536	468.38
464.755	434.38
464.975	433.38
465.195	410.38
465.414	412.38
465.634	387.38
465.854	383.38
466.073	387.38
466.293	380.38
466.512	404.38
466.732	382.38
466.951	366.38
467.171	378.38
467.391	391.38
467.61	372.38
467.829	373.38
468.049	364.38
468.268	357.38
468.488	357.38
468.707	367.38
468.927	364.38
469.146	357.38
469.365	364.38
469.585	361.38
469.804	379.38
470.023	380.38
470.243	370.38
470.462	382.38
470.681	386.38
470.901	388.38
471.12	385.38
471.339	363.38
471.558	363.38
471.777	373.38
471.997	381.38
472.216	367.38
472.435	368.38
472.654	347.38
472.873	338.38
473.092	367.38
473.311	358.38
473.53	371.38
473.749	368.38
473.968	362.38
474.187	355.38
474.406	370.38
474.625	360.38
474.844	380.38
475.063	377.38
475.282	369.38
475.501	379.38
475.72	383.38
475.939	384.38
476.158	380.38
476.377	394.38
476.596	379.38
476.814	407.38
477.033	408.38
477.252	386.38
477.471	392.38
477.69	391.38
477.908	430.38
478.127	408.38
478.346	434.38
478.564	415.38
478.783	422.38
479.002	414.38
479.22	425.38
479.439	406.38
479.658	436.38
479.876	437.38
480.095	456.38
480.313	460.38
480.532	428.38
480.751	440.38
480.969	436.38
481.188	412.38
481.406	435.38
481.624	421.38
481.843	434.38
482.061	425.38
482.28	408.38
482.498	416.38
482.717	403.38
482.935	405.38
483.153	410.38
483.372	418.38
483.59	420.38
483.808	408.38
484.027	434.38
484.245	448.38
484.463	441.38
484.681	430.38
484.9	432.38
485.118	428.38
485.336	438.38
485.554	426.38
485.772	436.38
485.99	422.38
486.209	438.38
486.427	439.38
486.645	426.38
486.863	430.38
487.081	432.38
487.299	418.38
487.517	444.38
487.735	446.38
487.953	421.38
488.171	435.38
488.389	423.38
488.607	417.38
488.825	434.38
489.043	427.38
489.261	422.38
489.479	449.38
489.696	443.38
489.914	427.38
490.132	450.38
490.35	446.38
490.568	439.38
490.786	443.38
491.003	451.38
491.221	425.38
491.439	434.38
491.657	432.38
491.874	440.38
492.092	459.38
492.31	459.38
492.527	437.38
492.745	457.38
492.963	463.38
493.18	458.38
493.398	452.38
493.615	442.38
493.833	458.38
494.05	448.38
494.268	455.38
494.485	443.38
494.703	479.38
494.92	464.38
495.138	482.38
495.355	468.38
495.573	492.38
495.79	485.38
496.008	480.38
496.225	494.38
496.442	472.38
496.66	471.38
496.877	502.38
497.094	517.38
497.312	516.38
497.529	536.38
497.746	521.38
497.963	533.38
498.181	553.38
498.398	577.38
498.615	609.38
498.832	610.38
499.049	628.38
499.267	699.38
499.484	737.38
499.701	770.38
499.918	769.38
500.135	810.38
500.352	854.38
500.569	842.38
500.786	872.38
501.003	844.38
501.22	791.38
501.437	784.38
501.654	732.38
501.871	678.38
502.088	661.38
502.305	622.38
