Data from Fe(NO3)3@0.0125M.TitratingCurve.Agarose3%dH2O.NegLispCup.LampEnergy10.LIBS07252019_HRD10591_17-00-04-337.txt Node
Date: Thu Jul 25 17:00:04 EDT 2019
User: cochatt
Spectrometer: HR+D1059
Trigger mode: 1
Integration Time (sec): 1.000000E-1
Scans to average: 1
Electric dark correction enabled: true
Nonlinearity correction enabled: false
Boxcar width: 0
XAxis mode: Wavelengths
Number of Pixels in Spectrum: 2048
>>>>>Begin Spectral Data<<<<<
223.165	-19.81
223.4	-19.81
223.635	-19.81
223.869	-27.81
224.104	-20.81
224.338	-4.81
224.573	-23.81
224.808	-17.81
225.042	0.19
225.277	-7.81
225.511	1.19
225.746	2.19
225.98	3.19
226.215	0.19
226.449	15.19
226.683	23.19
226.918	31.19
227.152	46.19
227.387	48.19
227.621	40.19
227.856	41.19
228.09	42.19
228.324	32.19
228.559	39.19
228.793	73.19
229.027	93.19
229.262	96.19
229.496	97.19
229.73	82.19
229.964	100.19
230.199	113.19
230.433	79.19
230.667	110.19
230.901	100.19
231.136	90.19
231.37	122.19
231.604	116.19
231.838	100.19
232.072	114.19
232.306	104.19
232.541	96.19
232.775	102.19
233.009	102.19
233.243	116.19
233.477	113.19
233.711	107.19
233.945	103.19
234.179	107.19
234.413	117.19
234.647	123.19
234.881	104.19
235.115	120.19
235.349	106.19
235.583	114.19
235.817	120.19
236.051	110.19
236.285	111.19
236.519	112.19
236.753	118.19
236.987	114.19
237.221	107.19
237.455	106.19
237.689	115.19
237.922	117.19
238.156	129.19
238.39	129.19
238.624	135.19
238.858	114.19
239.091	119.19
239.325	110.19
239.559	116.19
239.793	127.19
240.027	132.19
240.26	121.19
240.494	121.19
240.728	128.19
240.961	123.19
241.195	122.19
241.429	117.19
241.662	122.19
241.896	121.19
242.13	113.19
242.363	141.19
242.597	136.19
242.83	124.19
243.064	110.19
243.298	131.19
243.531	133.19
243.765	122.19
243.998	130.19
244.232	135.19
244.465	140.19
244.699	140.19
244.932	144.19
245.166	131.19
245.399	136.19
245.633	140.19
245.866	141.19
246.099	146.19
246.333	148.19
246.566	127.19
246.8	136.19
247.033	144.19
247.266	133.19
247.5	131.19
247.733	156.19
247.966	150.19
248.2	149.19
248.433	150.19
248.666	146.19
248.899	143.19
249.133	174.19
249.366	142.19
249.599	171.19
249.832	162.19
250.066	141.19
250.299	142.19
250.532	153.19
250.765	146.19
250.998	147.19
251.231	163.19
251.465	164.19
251.698	154.19
251.931	158.19
252.164	154.19
252.397	159.19
252.63	171.19
252.863	167.19
253.096	151.19
253.329	164.19
253.562	174.19
253.795	179.19
254.028	169.19
254.261	164.19
254.494	179.19
254.727	179.19
254.96	160.19
255.193	172.19
255.426	167.19
255.659	164.19
255.892	164.19
256.124	167.19
256.357	182.19
256.59	172.19
256.823	178.19
257.056	179.19
257.289	161.19
257.521	167.19
257.754	180.19
257.987	168.19
258.22	187.19
258.452	192.19
258.685	188.19
258.918	195.19
259.151	182.19
259.383	161.19
259.616	202.19
259.849	194.19
260.081	203.19
260.314	206.19
260.547	190.19
260.779	186.19
261.012	195.19
261.244	217.19
261.477	212.19
261.71	209.19
261.942	196.19
262.175	187.19
262.407	182.19
262.64	202.19
262.872	203.19
263.105	208.19
263.337	205.19
263.57	208.19
263.802	200.19
264.035	200.19
264.267	186.19
264.499	203.19
264.732	192.19
264.964	199.19
265.197	199.19
265.429	208.19
265.661	195.19
265.894	195.19
266.126	204.19
266.358	208.19
266.591	200.19
266.823	210.19
267.055	207.19
267.287	212.19
267.52	215.19
267.752	208.19
267.984	225.19
268.216	200.19
268.448	222.19
268.681	223.19
268.913	219.19
269.145	215.19
269.377	213.19
269.609	219.19
269.841	210.19
270.073	213.19
270.306	215.19
270.538	218.19
270.77	212.19
271.002	216.19
271.234	203.19
271.466	223.19
271.698	223.19
271.93	206.19
272.162	226.19
272.394	214.19
272.626	235.19
272.858	235.19
273.09	223.19
273.322	225.19
273.553	246.19
273.785	246.19
274.017	253.19
274.249	256.19
274.481	238.19
274.713	255.19
274.945	302.19
275.176	272.19
275.408	249.19
275.64	248.19
275.872	272.19
276.104	275.19
276.335	231.19
276.567	248.19
276.799	255.19
277.031	245.19
277.262	253.19
277.494	242.19
277.726	265.19
277.957	229.19
278.189	236.19
278.421	262.19
278.652	250.19
278.884	257.19
279.115	268.19
279.347	265.19
279.579	262.19
279.81	253.19
280.042	255.19
280.273	260.19
280.505	252.19
280.736	271.19
280.968	257.19
281.199	254.19
281.431	267.19
281.662	271.19
281.894	261.19
282.125	271.19
282.356	263.19
282.588	263.19
282.819	275.19
283.051	287.19
283.282	268.19
283.513	277.19
283.745	274.19
283.976	273.19
284.207	291.19
284.439	284.19
284.67	281.19
284.901	284.19
285.132	282.19
285.364	262.19
285.595	264.19
285.826	268.19
286.057	291.19
286.288	289.19
286.52	273.19
286.751	284.19
286.982	304.19
287.213	279.19
287.444	295.19
287.675	302.19
287.906	299.19
288.138	302.19
288.369	254.19
288.6	271.19
288.831	297.19
289.062	292.19
289.293	282.19
289.524	288.19
289.755	304.19
289.986	298.19
290.217	280.19
290.448	296.19
290.679	298.19
290.91	290.19
291.141	304.19
291.371	296.19
291.602	299.19
291.833	289.19
292.064	297.19
292.295	282.19
292.526	295.19
292.757	306.19
292.987	316.19
293.218	310.19
293.449	316.19
293.68	306.19
293.91	299.19
294.141	306.19
294.372	288.19
294.603	304.19
294.833	304.19
295.064	295.19
295.295	304.19
295.525	304.19
295.756	320.19
295.987	298.19
296.217	323.19
296.448	306.19
296.679	313.19
296.909	308.19
297.14	305.19
297.37	315.19
297.601	314.19
297.831	330.19
298.062	315.19
298.292	314.19
298.523	330.19
298.753	334.19
298.984	332.19
299.214	324.19
299.445	345.19
299.675	336.19
299.905	332.19
300.136	326.19
300.366	327.19
300.597	324.19
300.827	340.19
301.057	348.19
301.288	332.19
301.518	331.19
301.748	347.19
301.979	366.19
302.209	363.19
302.439	356.19
302.669	337.19
302.9	339.19
303.13	347.19
303.36	334.19
303.59	337.19
303.82	351.19
304.051	329.19
304.281	346.19
304.511	346.19
304.741	360.19
304.971	355.19
305.201	356.19
305.431	338.19
305.661	354.19
305.891	336.19
306.121	337.19
306.352	352.19
306.582	350.19
306.812	343.19
307.042	386.19
307.272	370.19
307.502	361.19
307.731	360.19
307.961	348.19
308.191	355.19
308.421	353.19
308.651	343.19
308.881	334.19
309.111	365.19
309.341	366.19
309.571	373.19
309.8	362.19
310.03	369.19
310.26	363.19
310.49	369.19
310.72	375.19
310.949	368.19
311.179	372.19
311.409	356.19
311.639	372.19
311.868	369.19
312.098	368.19
312.328	378.19
312.557	371.19
312.787	381.19
313.017	387.19
313.246	382.19
313.476	373.19
313.706	379.19
313.935	364.19
314.165	386.19
314.394	380.19
314.624	390.19
314.853	378.19
315.083	394.19
315.312	390.19
315.542	378.19
315.771	394.19
316.001	378.19
316.23	383.19
316.46	416.19
316.689	388.19
316.919	406.19
317.148	392.19
317.377	393.19
317.607	405.19
317.836	402.19
318.065	401.19
318.295	392.19
318.524	382.19
318.753	389.19
318.983	397.19
319.212	396.19
319.441	394.19
319.67	401.19
319.9	411.19
320.129	425.19
320.358	388.19
320.587	413.19
320.816	400.19
321.046	413.19
321.275	413.19
321.504	403.19
321.733	415.19
321.962	410.19
322.191	402.19
322.42	400.19
322.649	409.19
322.878	392.19
323.108	412.19
323.337	420.19
323.566	411.19
323.795	430.19
324.024	412.19
324.253	432.19
324.482	398.19
324.71	411.19
324.939	428.19
325.168	441.19
325.397	425.19
325.626	405.19
325.855	434.19
326.084	421.19
326.313	446.19
326.542	434.19
326.77	421.19
326.999	428.19
327.228	436.19
327.457	424.19
327.686	422.19
327.914	428.19
328.143	462.19
328.372	430.19
328.6	435.19
328.829	460.19
329.058	423.19
329.287	457.19
329.515	439.19
329.744	435.19
329.972	419.19
330.201	435.19
330.43	458.19
330.658	438.19
330.887	452.19
331.115	453.19
331.344	452.19
331.572	442.19
331.801	436.19
332.03	438.19
332.258	447.19
332.486	453.19
332.715	464.19
332.943	474.19
333.172	463.19
333.4	459.19
333.629	490.19
333.857	478.19
334.085	478.19
334.314	470.19
334.542	499.19
334.771	500.19
334.999	482.19
335.227	484.19
335.455	486.19
335.684	502.19
335.912	483.19
336.14	495.19
336.369	499.19
336.597	500.19
336.825	470.19
337.053	491.19
337.281	487.19
337.51	460.19
337.738	470.19
337.966	486.19
338.194	500.19
338.422	475.19
338.65	496.19
338.878	512.19
339.106	466.19
339.334	491.19
339.562	481.19
339.79	493.19
340.018	465.19
340.246	470.19
340.474	490.19
340.702	454.19
340.93	467.19
341.158	470.19
341.386	461.19
341.614	464.19
341.842	494.19
342.07	475.19
342.298	471.19
342.526	468.19
342.754	467.19
342.981	464.19
343.209	475.19
343.437	502.19
343.665	504.19
343.893	486.19
344.12	508.19
344.348	512.19
344.576	520.19
344.804	510.19
345.031	487.19
345.259	484.19
345.487	479.19
345.714	497.19
345.942	477.19
346.17	494.19
346.397	466.19
346.625	474.19
346.853	478.19
347.08	468.19
347.308	479.19
347.535	485.19
347.763	470.19
347.99	467.19
348.218	474.19
348.445	460.19
348.673	446.19
348.9	455.19
349.128	460.19
349.355	474.19
349.583	477.19
349.81	470.19
350.037	468.19
350.265	457.19
350.492	463.19
350.72	452.19
350.947	483.19
351.174	468.19
351.402	451.19
351.629	463.19
351.856	481.19
352.083	472.19
352.311	475.19
352.538	462.19
352.765	449.19
352.992	440.19
353.22	475.19
353.447	456.19
353.674	465.19
353.901	469.19
354.128	450.19
354.355	468.19
354.583	454.19
354.81	458.19
355.037	455.19
355.264	462.19
355.491	451.19
355.718	472.19
355.945	470.19
356.172	454.19
356.399	478.19
356.626	461.19
356.853	458.19
357.08	454.19
357.307	468.19
357.534	449.19
357.761	480.19
357.988	471.19
358.215	472.19
358.441	477.19
358.668	448.19
358.895	452.19
359.122	463.19
359.349	468.19
359.576	450.19
359.802	474.19
360.029	463.19
360.256	466.19
360.483	489.19
360.709	460.19
360.936	466.19
361.163	457.19
361.39	469.19
361.616	475.19
361.843	467.19
362.07	457.19
362.296	453.19
362.523	466.19
362.749	482.19
362.976	471.19
363.203	488.19
363.429	492.19
363.656	488.19
363.882	492.19
364.109	491.19
364.335	474.19
364.562	479.19
364.788	483.19
365.015	474.19
365.241	477.19
365.468	483.19
365.694	471.19
365.92	462.19
366.147	466.19
366.373	481.19
366.599	478.19
366.826	470.19
367.052	480.19
367.278	480.19
367.505	483.19
367.731	477.19
367.957	476.19
368.184	502.19
368.41	480.19
368.636	498.19
368.862	481.19
369.089	504.19
369.315	482.19
369.541	479.19
369.767	510.19
369.993	518.19
370.219	494.19
370.445	487.19
370.672	499.19
370.898	497.19
371.124	499.19
371.35	508.19
371.576	524.19
371.802	505.19
372.028	525.19
372.254	510.19
372.48	532.19
372.706	546.19
372.932	519.19
373.158	520.19
373.384	544.19
373.61	533.19
373.835	546.19
374.061	527.19
374.287	524.19
374.513	515.19
374.739	546.19
374.965	530.19
375.191	548.19
375.416	547.19
375.642	534.19
375.868	521.19
376.094	552.19
376.319	532.19
376.545	525.19
376.771	546.19
376.997	530.19
377.222	500.19
377.448	513.19
377.674	512.19
377.899	533.19
378.125	518.19
378.35	476.19
378.576	495.19
378.802	503.19
379.027	514.19
379.253	532.19
379.478	523.19
379.704	528.19
379.929	536.19
380.155	517.19
380.38	501.19
380.606	513.19
380.831	517.19
381.057	537.19
381.282	527.19
381.507	524.19
381.733	540.19
381.958	522.19
382.184	539.19
382.409	554.19
382.634	529.19
382.86	562.19
383.085	539.19
383.31	540.19
383.535	529.19
383.761	543.19
383.986	542.19
384.211	560.19
384.436	528.19
384.662	551.19
384.887	564.19
385.112	548.19
385.337	570.19
385.562	575.19
385.787	570.19
386.013	587.19
386.238	563.19
386.463	574.19
386.688	591.19
386.913	562.19
387.138	599.19
387.363	578.19
387.588	572.19
387.813	586.19
388.038	598.19
388.263	595.19
388.488	593.19
388.713	591.19
388.938	595.19
389.163	597.19
389.387	611.19
389.612	599.19
389.837	611.19
390.062	595.19
390.287	587.19
390.512	601.19
390.736	584.19
390.961	583.19
391.186	585.19
391.411	591.19
391.636	614.19
391.86	595.19
392.085	605.19
392.31	606.19
392.534	597.19
392.759	620.19
392.984	640.19
393.208	642.19
393.433	650.19
393.658	646.19
393.882	606.19
394.107	629.19
394.331	599.19
394.556	604.19
394.78	615.19
395.005	627.19
395.229	608.19
395.454	631.19
395.678	612.19
395.903	632.19
396.127	634.19
396.352	634.19
396.576	658.19
396.801	658.19
397.025	656.19
397.249	648.19
397.474	644.19
397.698	637.19
397.922	640.19
398.147	640.19
398.371	675.19
398.595	678.19
398.82	679.19
399.044	678.19
399.268	696.19
399.492	708.19
399.717	718.19
399.941	753.19
400.165	751.19
400.389	731.19
400.613	714.19
400.837	698.19
401.062	712.19
401.286	710.19
401.51	709.19
401.734	693.19
401.958	688.19
402.182	682.19
402.406	702.19
402.63	680.19
402.854	663.19
403.078	687.19
403.302	671.19
403.526	678.19
403.75	699.19
403.974	692.19
404.198	686.19
404.422	697.19
404.645	699.19
404.869	695.19
405.093	699.19
405.317	676.19
405.541	678.19
405.765	710.19
405.988	708.19
406.212	712.19
406.436	716.19
406.66	733.19
406.883	722.19
407.107	733.19
407.331	722.19
407.555	758.19
407.778	762.19
408.002	753.19
408.226	733.19
408.449	754.19
408.673	737.19
408.896	727.19
409.12	725.19
409.344	739.19
409.567	716.19
409.791	705.19
410.014	727.19
410.238	724.19
410.461	713.19
410.685	712.19
410.908	724.19
411.132	717.19
411.355	692.19
411.578	681.19
411.802	707.19
412.025	692.19
412.249	706.19
412.472	714.19
412.695	701.19
412.919	710.19
413.142	712.19
413.365	675.19
413.589	698.19
413.812	662.19
414.035	690.19
414.258	667.19
414.482	676.19
414.705	678.19
414.928	690.19
415.151	700.19
415.374	697.19
415.597	679.19
415.821	654.19
416.044	672.19
416.267	673.19
416.49	668.19
416.713	656.19
416.936	663.19
417.159	667.19
417.382	658.19
417.605	668.19
417.828	652.19
418.051	652.19
418.274	635.19
418.497	655.19
418.72	654.19
418.943	668.19
419.166	670.19
419.389	710.19
419.611	723.19
419.834	692.19
420.057	679.19
420.28	652.19
420.503	615.19
420.726	650.19
420.948	642.19
421.171	659.19
421.394	653.19
421.617	686.19
421.839	650.19
422.062	650.19
422.285	639.19
422.507	673.19
422.73	664.19
422.953	670.19
423.175	644.19
423.398	660.19
423.621	611.19
423.843	648.19
424.066	650.19
424.288	665.19
424.511	632.19
424.733	649.19
424.956	631.19
425.178	626.19
425.401	632.19
425.623	654.19
425.846	642.19
426.068	665.19
426.291	663.19
426.513	650.19
426.735	654.19
426.958	650.19
427.18	620.19
427.402	647.19
427.625	651.19
427.847	632.19
428.069	619.19
428.292	624.19
428.514	624.19
428.736	628.19
428.958	619.19
429.181	633.19
429.403	614.19
429.625	640.19
429.847	638.19
430.069	619.19
430.292	633.19
430.514	638.19
430.736	634.19
430.958	649.19
431.18	643.19
431.402	631.19
431.624	633.19
431.846	632.19
432.068	625.19
432.29	652.19
432.512	635.19
432.734	654.19
432.956	622.19
433.178	633.19
433.4	646.19
433.622	643.19
433.844	651.19
434.066	644.19
434.287	630.19
434.509	635.19
434.731	623.19
434.953	638.19
435.175	651.19
435.397	637.19
435.618	637.19
435.84	658.19
436.062	644.19
436.284	612.19
436.505	638.19
436.727	647.19
436.949	619.19
437.17	622.19
437.392	616.19
437.614	629.19
437.835	638.19
438.057	614.19
438.278	599.19
438.5	634.19
438.721	619.19
438.943	620.19
439.165	629.19
439.386	624.19
439.608	630.19
439.829	620.19
440.05	592.19
440.272	629.19
440.493	649.19
440.715	624.19
440.936	640.19
441.158	640.19
441.379	634.19
441.6	640.19
441.822	634.19
442.043	650.19
442.264	658.19
442.486	638.19
442.707	650.19
442.928	638.19
443.149	645.19
443.371	666.19
443.592	642.19
443.813	630.19
444.034	631.19
444.255	652.19
444.476	644.19
444.698	670.19
444.919	681.19
445.14	758.19
445.361	674.19
445.582	674.19
445.803	652.19
446.024	612.19
446.245	629.19
446.466	636.19
446.687	625.19
446.908	610.19
447.129	632.19
447.35	609.19
447.571	590.19
447.792	579.19
448.013	626.19
448.234	635.19
448.455	599.19
448.675	602.19
448.896	596.19
449.117	622.19
449.338	577.19
449.559	587.19
449.779	574.19
450	573.19
450.221	613.19
450.442	575.19
450.662	587.19
450.883	599.19
451.104	605.19
451.324	573.19
451.545	586.19
451.766	595.19
451.986	589.19
452.207	589.19
452.428	595.19
452.648	572.19
452.869	584.19
453.089	588.19
453.31	580.19
453.53	581.19
453.751	578.19
453.971	592.19
454.192	547.19
454.412	555.19
454.633	568.19
454.853	584.19
455.073	572.19
455.294	601.19
455.514	562.19
455.734	579.19
455.955	549.19
456.175	582.19
456.395	571.19
456.616	577.19
456.836	579.19
457.056	600.19
457.276	569.19
457.497	582.19
457.717	577.19
457.937	588.19
458.157	582.19
458.377	562.19
458.598	600.19
458.818	601.19
459.038	620.19
459.258	612.19
459.478	634.19
459.698	632.19
459.918	610.19
460.138	654.19
460.358	658.19
460.578	657.19
460.798	679.19
461.018	656.19
461.238	641.19
461.458	688.19
461.678	660.19
461.898	680.19
462.118	687.19
462.338	680.19
462.558	696.19
462.777	711.19
462.997	701.19
463.217	727.19
463.437	720.19
463.657	735.19
463.876	711.19
464.096	719.19
464.316	697.19
464.536	738.19
464.755	726.19
464.975	696.19
465.195	674.19
465.414	650.19
465.634	650.19
465.854	639.19
466.073	642.19
466.293	642.19
466.512	617.19
466.732	626.19
466.951	656.19
467.171	608.19
467.391	635.19
467.61	633.19
467.829	615.19
468.049	630.19
468.268	635.19
468.488	595.19
468.707	604.19
468.927	631.19
469.146	593.19
469.365	625.19
469.585	627.19
469.804	615.19
470.023	638.19
470.243	642.19
470.462	622.19
470.681	626.19
470.901	635.19
471.12	619.19
471.339	625.19
471.558	638.19
471.777	637.19
471.997	626.19
472.216	643.19
472.435	640.19
472.654	647.19
472.873	632.19
473.092	619.19
473.311	640.19
473.53	638.19
473.749	648.19
473.968	638.19
474.187	627.19
474.406	622.19
474.625	642.19
474.844	631.19
475.063	659.19
475.282	653.19
475.501	643.19
475.72	654.19
475.939	634.19
476.158	652.19
476.377	684.19
476.596	674.19
476.814	683.19
477.033	691.19
477.252	680.19
477.471	709.19
477.69	698.19
477.908	705.19
478.127	720.19
478.346	685.19
478.564	704.19
478.783	705.19
479.002	747.19
479.22	722.19
479.439	756.19
479.658	755.19
479.876	754.19
480.095	748.19
480.313	766.19
480.532	754.19
480.751	771.19
480.969	743.19
481.188	762.19
481.406	758.19
481.624	762.19
481.843	767.19
482.061	745.19
482.28	758.19
482.498	762.19
482.717	764.19
482.935	750.19
483.153	763.19
483.372	736.19
483.59	782.19
483.808	771.19
484.027	761.19
484.245	766.19
484.463	762.19
484.681	790.19
484.9	774.19
485.118	775.19
485.336	771.19
485.554	771.19
485.772	785.19
485.99	776.19
486.209	763.19
486.427	794.19
486.645	744.19
486.863	774.19
487.081	785.19
487.299	753.19
487.517	799.19
487.735	806.19
487.953	764.19
488.171	788.19
488.389	763.19
488.607	774.19
488.825	758.19
489.043	772.19
489.261	780.19
489.479	780.19
489.696	797.19
489.914	770.19
490.132	798.19
490.35	770.19
490.568	780.19
490.786	806.19
491.003	786.19
491.221	802.19
491.439	804.19
491.657	773.19
491.874	816.19
492.092	811.19
492.31	800.19
492.527	839.19
492.745	822.19
492.963	790.19
493.18	815.19
493.398	823.19
493.615	819.19
493.833	826.19
494.05	830.19
494.268	832.19
494.485	851.19
494.703	816.19
494.92	836.19
495.138	832.19
495.355	833.19
495.573	821.19
495.79	832.19
496.008	847.19
496.225	831.19
496.442	851.19
496.66	856.19
496.877	879.19
497.094	902.19
497.312	882.19
497.529	883.19
497.746	907.19
497.963	917.19
498.181	933.19
498.398	961.19
498.615	939.19
498.832	977.19
499.049	1038.19
499.267	1062.19
499.484	1068.19
499.701	1090.19
499.918	1130.19
500.135	1173.19
500.352	1199.19
500.569	1192.19
500.786	1198.19
501.003	1156.19
501.22	1170.19
501.437	1109.19
