Data from Fe(NO3)3@0.0125M.TitratingCurve.Agarose3%dH2O.NegLispCup.LampEnergy10.LIBS07252019_HRD10591_17-01-15-341.txt Node
Date: Thu Jul 25 17:01:15 EDT 2019
User: cochatt
Spectrometer: HR+D1059
Trigger mode: 1
Integration Time (sec): 1.000000E-1
Scans to average: 1
Electric dark correction enabled: true
Nonlinearity correction enabled: false
Boxcar width: 0
XAxis mode: Wavelengths
Number of Pixels in Spectrum: 2048
>>>>>Begin Spectral Data<<<<<
223.165	-20.44
223.4	-20.44
223.635	-20.44
223.869	-13.44
224.104	-17.44
224.338	-8.44
224.573	-18.44
224.808	-12.44
225.042	-19.44
225.277	-11.44
225.511	3.56
225.746	5.56
225.98	9.56
226.215	11.56
226.449	13.56
226.683	28.56
226.918	24.56
227.152	24.56
227.387	36.56
227.621	33.56
227.856	32.56
228.09	49.56
228.324	40.56
228.559	48.56
228.793	73.56
229.027	82.56
229.262	72.56
229.496	88.56
229.73	99.56
229.964	88.56
230.199	91.56
230.433	93.56
230.667	93.56
230.901	87.56
231.136	77.56
231.37	100.56
231.604	104.56
231.838	103.56
232.072	94.56
232.306	105.56
232.541	96.56
232.775	108.56
233.009	116.56
233.243	116.56
233.477	99.56
233.711	101.56
233.945	108.56
234.179	107.56
234.413	92.56
234.647	88.56
234.881	105.56
235.115	99.56
235.349	93.56
235.583	108.56
235.817	99.56
236.051	103.56
236.285	107.56
236.519	84.56
236.753	109.56
236.987	105.56
237.221	110.56
237.455	96.56
237.689	106.56
237.922	110.56
238.156	123.56
238.39	107.56
238.624	107.56
238.858	118.56
239.091	103.56
239.325	107.56
239.559	96.56
239.793	112.56
240.027	107.56
240.26	120.56
240.494	119.56
240.728	115.56
240.961	126.56
241.195	119.56
241.429	117.56
241.662	119.56
241.896	118.56
242.13	102.56
242.363	107.56
242.597	113.56
242.83	125.56
243.064	113.56
243.298	124.56
243.531	109.56
243.765	109.56
243.998	115.56
244.232	126.56
244.465	121.56
244.699	133.56
244.932	136.56
245.166	134.56
245.399	115.56
245.633	120.56
245.866	118.56
246.099	116.56
246.333	123.56
246.566	133.56
246.8	121.56
247.033	127.56
247.266	126.56
247.5	124.56
247.733	134.56
247.966	129.56
248.2	125.56
248.433	132.56
248.666	136.56
248.899	135.56
249.133	123.56
249.366	148.56
249.599	138.56
249.832	136.56
250.066	133.56
250.299	136.56
250.532	139.56
250.765	129.56
250.998	128.56
251.231	131.56
251.465	139.56
251.698	136.56
251.931	117.56
252.164	138.56
252.397	136.56
252.63	130.56
252.863	126.56
253.096	157.56
253.329	140.56
253.562	157.56
253.795	151.56
254.028	133.56
254.261	141.56
254.494	143.56
254.727	142.56
254.96	132.56
255.193	149.56
255.426	144.56
255.659	165.56
255.892	139.56
256.124	143.56
256.357	138.56
256.59	146.56
256.823	144.56
257.056	137.56
257.289	152.56
257.521	147.56
257.754	162.56
257.987	142.56
258.22	150.56
258.452	143.56
258.685	152.56
258.918	133.56
259.151	133.56
259.383	156.56
259.616	160.56
259.849	150.56
260.081	153.56
260.314	160.56
260.547	171.56
260.779	155.56
261.012	162.56
261.244	155.56
261.477	166.56
261.71	156.56
261.942	163.56
262.175	179.56
262.407	157.56
262.64	148.56
262.872	165.56
263.105	156.56
263.337	173.56
263.57	145.56
263.802	157.56
264.035	157.56
264.267	162.56
264.499	161.56
264.732	164.56
264.964	166.56
265.197	167.56
265.429	162.56
265.661	161.56
265.894	172.56
266.126	172.56
266.358	163.56
266.591	168.56
266.823	179.56
267.055	176.56
267.287	169.56
267.52	166.56
267.752	176.56
267.984	165.56
268.216	174.56
268.448	165.56
268.681	179.56
268.913	178.56
269.145	173.56
269.377	154.56
269.609	176.56
269.841	174.56
270.073	178.56
270.306	180.56
270.538	179.56
270.77	180.56
271.002	185.56
271.234	184.56
271.466	179.56
271.698	183.56
271.93	179.56
272.162	189.56
272.394	182.56
272.626	179.56
272.858	178.56
273.09	188.56
273.322	189.56
273.553	179.56
273.785	182.56
274.017	180.56
274.249	200.56
274.481	190.56
274.713	211.56
274.945	210.56
275.176	210.56
275.408	217.56
275.64	205.56
275.872	211.56
276.104	210.56
276.335	184.56
276.567	184.56
276.799	212.56
277.031	204.56
277.262	203.56
277.494	201.56
277.726	191.56
277.957	200.56
278.189	195.56
278.421	198.56
278.652	204.56
278.884	207.56
279.115	198.56
279.347	216.56
279.579	200.56
279.81	199.56
280.042	218.56
280.273	203.56
280.505	195.56
280.736	165.56
280.968	193.56
281.199	211.56
281.431	213.56
281.662	194.56
281.894	226.56
282.125	200.56
282.356	220.56
282.588	228.56
282.819	194.56
283.051	221.56
283.282	221.56
283.513	226.56
283.745	217.56
283.976	221.56
284.207	227.56
284.439	213.56
284.67	211.56
284.901	206.56
285.132	211.56
285.364	231.56
285.595	213.56
285.826	220.56
286.057	213.56
286.288	201.56
286.52	205.56
286.751	236.56
286.982	221.56
287.213	217.56
287.444	230.56
287.675	242.56
287.906	231.56
288.138	218.56
288.369	219.56
288.6	220.56
288.831	230.56
289.062	222.56
289.293	238.56
289.524	224.56
289.755	231.56
289.986	226.56
290.217	235.56
290.448	214.56
290.679	227.56
290.91	233.56
291.141	230.56
291.371	222.56
291.602	216.56
291.833	234.56
292.064	219.56
292.295	252.56
292.526	235.56
292.757	220.56
292.987	248.56
293.218	231.56
293.449	240.56
293.68	235.56
293.91	232.56
294.141	233.56
294.372	257.56
294.603	227.56
294.833	242.56
295.064	238.56
295.295	251.56
295.525	245.56
295.756	240.56
295.987	234.56
296.217	225.56
296.448	245.56
296.679	252.56
296.909	233.56
297.14	240.56
297.37	256.56
297.601	264.56
297.831	236.56
298.062	249.56
298.292	252.56
298.523	256.56
298.753	252.56
298.984	238.56
299.214	252.56
299.445	250.56
299.675	257.56
299.905	264.56
300.136	245.56
300.366	250.56
300.597	246.56
300.827	261.56
301.057	261.56
301.288	253.56
301.518	246.56
301.748	260.56
301.979	279.56
302.209	281.56
302.439	274.56
302.669	250.56
302.9	269.56
303.13	264.56
303.36	241.56
303.59	261.56
303.82	265.56
304.051	251.56
304.281	282.56
304.511	270.56
304.741	266.56
304.971	264.56
305.201	278.56
305.431	270.56
305.661	263.56
305.891	275.56
306.121	264.56
306.352	278.56
306.582	274.56
306.812	255.56
307.042	290.56
307.272	282.56
307.502	260.56
307.731	276.56
307.961	275.56
308.191	264.56
308.421	258.56
308.651	257.56
308.881	268.56
309.111	256.56
309.341	263.56
309.571	273.56
309.8	283.56
310.03	273.56
310.26	261.56
310.49	289.56
310.72	274.56
310.949	261.56
311.179	274.56
311.409	280.56
311.639	263.56
311.868	286.56
312.098	279.56
312.328	295.56
312.557	280.56
312.787	280.56
313.017	291.56
313.246	304.56
313.476	294.56
313.706	300.56
313.935	291.56
314.165	283.56
314.394	293.56
314.624	280.56
314.853	292.56
315.083	298.56
315.312	300.56
315.542	279.56
315.771	299.56
316.001	308.56
316.23	312.56
316.46	285.56
316.689	309.56
316.919	312.56
317.148	299.56
317.377	282.56
317.607	305.56
317.836	288.56
318.065	280.56
318.295	306.56
318.524	296.56
318.753	283.56
318.983	296.56
319.212	288.56
319.441	300.56
319.67	286.56
319.9	294.56
320.129	321.56
320.358	301.56
320.587	300.56
320.816	314.56
321.046	305.56
321.275	305.56
321.504	311.56
321.733	296.56
321.962	313.56
322.191	323.56
322.42	306.56
322.649	308.56
322.878	294.56
323.108	323.56
323.337	309.56
323.566	306.56
323.795	314.56
324.024	304.56
324.253	301.56
324.482	312.56
324.71	320.56
324.939	319.56
325.168	328.56
325.397	318.56
325.626	324.56
325.855	332.56
326.084	323.56
326.313	316.56
326.542	326.56
326.77	329.56
326.999	319.56
327.228	330.56
327.457	347.56
327.686	341.56
327.914	325.56
328.143	335.56
328.372	317.56
328.6	327.56
328.829	314.56
329.058	310.56
329.287	332.56
329.515	330.56
329.744	340.56
329.972	334.56
330.201	331.56
330.43	331.56
330.658	314.56
330.887	332.56
331.115	336.56
331.344	343.56
331.572	348.56
331.801	333.56
332.03	355.56
332.258	345.56
332.486	342.56
332.715	353.56
332.943	360.56
333.172	341.56
333.4	362.56
333.629	377.56
333.857	376.56
334.085	391.56
334.314	373.56
334.542	348.56
334.771	366.56
334.999	386.56
335.227	390.56
335.455	365.56
335.684	372.56
335.912	370.56
336.14	382.56
336.369	377.56
336.597	370.56
336.825	360.56
337.053	382.56
337.281	352.56
337.51	354.56
337.738	377.56
337.966	378.56
338.194	356.56
338.422	352.56
338.65	346.56
338.878	366.56
339.106	367.56
339.334	360.56
339.562	376.56
339.79	342.56
340.018	331.56
340.246	345.56
340.474	361.56
340.702	363.56
340.93	358.56
341.158	355.56
341.386	347.56
341.614	346.56
341.842	357.56
342.07	355.56
342.298	356.56
342.526	369.56
342.754	328.56
342.981	352.56
343.209	349.56
343.437	349.56
343.665	369.56
343.893	355.56
344.12	374.56
344.348	376.56
344.576	374.56
344.804	370.56
345.031	385.56
345.259	354.56
345.487	357.56
345.714	345.56
345.942	368.56
346.17	369.56
346.397	357.56
346.625	354.56
346.853	362.56
347.08	333.56
347.308	351.56
347.535	340.56
347.763	337.56
347.99	356.56
348.218	325.56
348.445	337.56
348.673	325.56
348.9	326.56
349.128	344.56
349.355	320.56
349.583	340.56
349.81	325.56
350.037	359.56
350.265	338.56
350.492	329.56
350.72	332.56
350.947	341.56
351.174	337.56
351.402	330.56
351.629	341.56
351.856	333.56
352.083	350.56
352.311	341.56
352.538	341.56
352.765	339.56
352.992	337.56
353.22	346.56
353.447	345.56
353.674	341.56
353.901	344.56
354.128	336.56
354.355	340.56
354.583	345.56
354.81	357.56
355.037	339.56
355.264	333.56
355.491	327.56
355.718	349.56
355.945	352.56
356.172	355.56
356.399	347.56
356.626	355.56
356.853	336.56
357.08	364.56
357.307	333.56
357.534	330.56
357.761	334.56
357.988	345.56
358.215	358.56
358.441	336.56
358.668	345.56
358.895	329.56
359.122	340.56
359.349	341.56
359.576	357.56
359.802	369.56
360.029	354.56
360.256	355.56
360.483	344.56
360.709	359.56
360.936	353.56
361.163	359.56
361.39	340.56
361.616	335.56
361.843	346.56
362.07	348.56
362.296	368.56
362.523	340.56
362.749	344.56
362.976	344.56
363.203	368.56
363.429	346.56
363.656	344.56
363.882	353.56
364.109	366.56
364.335	354.56
364.562	368.56
364.788	338.56
365.015	361.56
365.241	350.56
365.468	345.56
365.694	355.56
365.92	373.56
366.147	331.56
366.373	352.56
366.599	360.56
366.826	341.56
367.052	354.56
367.278	363.56
367.505	360.56
367.731	385.56
367.957	352.56
368.184	355.56
368.41	360.56
368.636	369.56
368.862	363.56
369.089	378.56
369.315	351.56
369.541	358.56
369.767	360.56
369.993	366.56
370.219	368.56
370.445	360.56
370.672	376.56
370.898	368.56
371.124	357.56
371.35	373.56
371.576	372.56
371.802	376.56
372.028	382.56
372.254	389.56
372.48	363.56
372.706	376.56
372.932	380.56
373.158	354.56
373.384	376.56
373.61	399.56
373.835	379.56
374.061	366.56
374.287	388.56
374.513	390.56
374.739	392.56
374.965	379.56
375.191	391.56
375.416	391.56
375.642	385.56
375.868	383.56
376.094	359.56
376.319	370.56
376.545	384.56
376.771	374.56
376.997	378.56
377.222	389.56
377.448	368.56
377.674	350.56
377.899	359.56
378.125	379.56
378.35	372.56
378.576	351.56
378.802	360.56
379.027	365.56
379.253	377.56
379.478	341.56
379.704	372.56
379.929	378.56
380.155	367.56
380.38	395.56
380.606	381.56
380.831	398.56
381.057	381.56
381.282	373.56
381.507	384.56
381.733	374.56
381.958	400.56
382.184	371.56
382.409	393.56
382.634	392.56
382.86	396.56
383.085	387.56
383.31	401.56
383.535	391.56
383.761	397.56
383.986	404.56
384.211	416.56
384.436	394.56
384.662	399.56
384.887	401.56
385.112	389.56
385.337	420.56
385.562	418.56
385.787	420.56
386.013	410.56
386.238	416.56
386.463	427.56
386.688	426.56
386.913	425.56
387.138	423.56
387.363	437.56
387.588	411.56
387.813	433.56
388.038	412.56
388.263	416.56
388.488	461.56
388.713	426.56
388.938	434.56
389.163	421.56
389.387	431.56
389.612	424.56
389.837	451.56
390.062	417.56
390.287	420.56
390.512	448.56
390.736	425.56
390.961	407.56
391.186	426.56
391.411	433.56
391.636	446.56
391.86	473.56
392.085	458.56
392.31	458.56
392.534	456.56
392.759	454.56
392.984	440.56
393.208	440.56
393.433	460.56
393.658	443.56
393.882	436.56
394.107	452.56
394.331	452.56
394.556	450.56
394.78	456.56
395.005	434.56
395.229	428.56
395.454	462.56
395.678	471.56
395.903	466.56
396.127	462.56
396.352	452.56
396.576	445.56
396.801	436.56
397.025	445.56
397.249	459.56
397.474	484.56
397.698	467.56
397.922	473.56
398.147	470.56
398.371	492.56
398.595	486.56
398.82	490.56
399.044	516.56
399.268	526.56
399.492	556.56
399.717	570.56
399.941	577.56
400.165	580.56
400.389	538.56
400.613	514.56
400.837	526.56
401.062	498.56
401.286	513.56
401.51	500.56
401.734	496.56
401.958	500.56
402.182	521.56
402.406	473.56
402.63	502.56
402.854	504.56
403.078	504.56
403.302	483.56
403.526	506.56
403.75	516.56
403.974	508.56
404.198	524.56
404.422	506.56
404.645	515.56
404.869	516.56
405.093	509.56
405.317	503.56
405.541	518.56
405.765	514.56
405.988	516.56
406.212	531.56
406.436	531.56
406.66	537.56
406.883	509.56
407.107	555.56
407.331	537.56
407.555	556.56
407.778	577.56
408.002	560.56
408.226	545.56
408.449	547.56
408.673	553.56
408.896	524.56
409.12	548.56
409.344	534.56
409.567	513.56
409.791	534.56
410.014	500.56
410.238	514.56
410.461	519.56
410.685	529.56
410.908	540.56
411.132	526.56
411.355	508.56
411.578	512.56
411.802	501.56
412.025	510.56
412.249	505.56
412.472	506.56
412.695	485.56
412.919	514.56
413.142	511.56
413.365	519.56
413.589	503.56
413.812	489.56
414.035	505.56
414.258	501.56
414.482	501.56
414.705	480.56
414.928	481.56
415.151	480.56
415.374	492.56
415.597	486.56
415.821	459.56
416.044	489.56
416.267	476.56
416.49	481.56
416.713	472.56
416.936	480.56
417.159	474.56
417.382	485.56
417.605	475.56
417.828	458.56
418.051	502.56
418.274	478.56
418.497	470.56
418.72	486.56
418.943	486.56
419.166	496.56
419.389	504.56
419.611	510.56
419.834	513.56
420.057	492.56
420.28	479.56
420.503	488.56
420.726	493.56
420.948	470.56
421.171	470.56
421.394	475.56
421.617	456.56
421.839	473.56
422.062	474.56
422.285	453.56
422.507	490.56
422.73	485.56
422.953	472.56
423.175	484.56
423.398	479.56
423.621	473.56
423.843	468.56
424.066	464.56
424.288	475.56
424.511	495.56
424.733	461.56
424.956	485.56
425.178	485.56
425.401	466.56
425.623	488.56
425.846	466.56
426.068	457.56
426.291	450.56
426.513	469.56
426.735	457.56
426.958	466.56
427.18	457.56
427.402	465.56
427.625	472.56
427.847	454.56
428.069	453.56
428.292	453.56
428.514	445.56
428.736	449.56
428.958	458.56
429.181	475.56
429.403	445.56
429.625	474.56
429.847	446.56
430.069	444.56
430.292	422.56
430.514	446.56
430.736	455.56
430.958	453.56
431.18	460.56
431.402	447.56
431.624	445.56
431.846	454.56
432.068	466.56
432.29	434.56
432.512	441.56
432.734	473.56
432.956	472.56
433.178	445.56
433.4	454.56
433.622	460.56
433.844	457.56
434.066	457.56
434.287	453.56
434.509	477.56
434.731	467.56
434.953	487.56
435.175	461.56
435.397	489.56
435.618	441.56
435.84	452.56
436.062	454.56
436.284	448.56
436.505	455.56
436.727	469.56
436.949	433.56
437.17	429.56
437.392	425.56
437.614	465.56
437.835	452.56
438.057	439.56
438.278	453.56
438.5	426.56
438.721	449.56
438.943	453.56
439.165	429.56
439.386	435.56
439.608	437.56
439.829	448.56
440.05	455.56
440.272	464.56
440.493	438.56
440.715	455.56
440.936	448.56
441.158	461.56
441.379	462.56
441.6	487.56
441.822	465.56
442.043	457.56
442.264	452.56
442.486	452.56
442.707	462.56
442.928	457.56
443.149	469.56
443.371	486.56
443.592	476.56
443.813	466.56
444.034	473.56
444.255	487.56
444.476	469.56
444.698	482.56
444.919	494.56
445.14	567.56
445.361	510.56
445.582	465.56
445.803	466.56
446.024	461.56
446.245	450.56
446.466	453.56
446.687	447.56
446.908	457.56
447.129	444.56
447.35	465.56
447.571	425.56
447.792	432.56
448.013	416.56
448.234	405.56
448.455	424.56
448.675	429.56
448.896	409.56
449.117	401.56
449.338	420.56
449.559	420.56
449.779	435.56
450	410.56
450.221	418.56
450.442	405.56
450.662	422.56
450.883	422.56
451.104	406.56
451.324	428.56
451.545	401.56
451.766	394.56
451.986	440.56
452.207	419.56
452.428	420.56
452.648	413.56
452.869	392.56
453.089	401.56
453.31	409.56
453.53	384.56
453.751	411.56
453.971	395.56
454.192	398.56
454.412	400.56
454.633	400.56
454.853	398.56
455.073	397.56
455.294	387.56
455.514	402.56
455.734	379.56
455.955	386.56
456.175	393.56
456.395	421.56
456.616	389.56
456.836	396.56
457.056	399.56
457.276	414.56
457.497	401.56
457.717	388.56
457.937	404.56
458.157	416.56
458.377	411.56
458.598	434.56
458.818	434.56
459.038	425.56
459.258	438.56
459.478	447.56
459.698	466.56
459.918	448.56
460.138	462.56
460.358	481.56
460.578	483.56
460.798	498.56
461.018	486.56
461.238	475.56
461.458	486.56
461.678	483.56
461.898	484.56
462.118	502.56
462.338	496.56
462.558	512.56
462.777	545.56
462.997	535.56
463.217	543.56
463.437	542.56
463.657	514.56
463.876	521.56
464.096	524.56
464.316	513.56
464.536	504.56
464.755	524.56
464.975	499.56
465.195	462.56
465.414	487.56
465.634	496.56
465.854	482.56
466.073	470.56
466.293	454.56
466.512	438.56
466.732	437.56
466.951	467.56
467.171	434.56
467.391	435.56
467.61	445.56
467.829	438.56
468.049	434.56
468.268	438.56
468.488	443.56
468.707	440.56
468.927	448.56
469.146	408.56
469.365	449.56
469.585	438.56
469.804	433.56
470.023	447.56
470.243	436.56
470.462	456.56
470.681	456.56
470.901	444.56
471.12	436.56
471.339	454.56
471.558	447.56
471.777	444.56
471.997	441.56
472.216	443.56
472.435	429.56
472.654	442.56
472.873	464.56
473.092	436.56
473.311	437.56
473.53	450.56
473.749	440.56
473.968	450.56
474.187	436.56
474.406	445.56
474.625	443.56
474.844	437.56
475.063	452.56
475.282	454.56
475.501	461.56
475.72	444.56
475.939	459.56
476.158	469.56
476.377	454.56
476.596	482.56
476.814	481.56
477.033	465.56
477.252	465.56
477.471	478.56
477.69	492.56
477.908	496.56
478.127	504.56
478.346	482.56
478.564	518.56
478.783	491.56
479.002	499.56
479.22	512.56
479.439	523.56
479.658	512.56
479.876	531.56
480.095	525.56
480.313	532.56
480.532	551.56
480.751	552.56
480.969	542.56
481.188	525.56
481.406	544.56
481.624	505.56
481.843	520.56
482.061	518.56
482.28	496.56
482.498	518.56
482.717	532.56
482.935	533.56
483.153	534.56
483.372	516.56
483.59	547.56
483.808	517.56
484.027	535.56
484.245	546.56
484.463	510.56
484.681	521.56
484.9	519.56
485.118	514.56
485.336	528.56
485.554	522.56
485.772	529.56
485.99	540.56
486.209	538.56
486.427	532.56
486.645	533.56
486.863	530.56
487.081	553.56
487.299	554.56
487.517	537.56
487.735	541.56
487.953	547.56
488.171	552.56
488.389	553.56
488.607	542.56
488.825	542.56
489.043	505.56
489.261	549.56
489.479	541.56
489.696	506.56
489.914	535.56
490.132	554.56
490.35	539.56
490.568	542.56
490.786	522.56
491.003	531.56
491.221	539.56
491.439	541.56
491.657	550.56
491.874	545.56
492.092	566.56
492.31	564.56
492.527	550.56
492.745	547.56
492.963	541.56
493.18	550.56
493.398	539.56
493.615	558.56
493.833	554.56
494.05	562.56
494.268	562.56
494.485	555.56
494.703	547.56
494.92	564.56
495.138	588.56
495.355	598.56
495.573	578.56
495.79	568.56
496.008	584.56
496.225	576.56
496.442	597.56
496.66	602.56
496.877	569.56
497.094	588.56
497.312	594.56
497.529	614.56
497.746	633.56
497.963	651.56
498.181	664.56
498.398	673.56
498.615	668.56
498.832	718.56
499.049	718.56
499.267	756.56
499.484	778.56
499.701	826.56
499.918	861.56
500.135	898.56
500.352	952.56
500.569	921.56
500.786	948.56
501.003	895.56
501.22	888.56
501.437	832.56
501.654	785.56
501.871	770.56
