Data from Fe(NO3)3@0.0125M.TitratingCurve.Agarose3%dH2O.NegLispCup.LampEnergy10.LIBS07252019_HRD10591_16-58-29-336.txt Node
Date: Thu Jul 25 16:58:29 EDT 2019
User: cochatt
Spectrometer: HR+D1059
Trigger mode: 1
Integration Time (sec): 1.000000E-1
Scans to average: 1
Electric dark correction enabled: true
Nonlinearity correction enabled: false
Boxcar width: 0
XAxis mode: Wavelengths
Number of Pixels in Spectrum: 2048
>>>>>Begin Spectral Data<<<<<
223.165	-17.38
223.4	-17.38
223.635	-17.38
223.869	-24.38
224.104	-15.38
224.338	-9.38
224.573	-15.38
224.808	-7.38
225.042	-11.38
225.277	-15.38
225.511	-5.38
225.746	3.62
225.98	1.62
226.215	17.62
226.449	13.62
226.683	37.62
226.918	23.62
227.152	23.62
227.387	37.62
227.621	37.62
227.856	32.62
228.09	61.62
228.324	58.62
228.559	54.62
228.793	57.62
229.027	91.62
229.262	101.62
229.496	101.62
229.73	111.62
229.964	105.62
230.199	119.62
230.433	119.62
230.667	129.62
230.901	116.62
231.136	120.62
231.37	118.62
231.604	120.62
231.838	131.62
232.072	124.62
232.306	127.62
232.541	131.62
232.775	116.62
233.009	134.62
233.243	129.62
233.477	128.62
233.711	138.62
233.945	126.62
234.179	139.62
234.413	146.62
234.647	137.62
234.881	139.62
235.115	128.62
235.349	138.62
235.583	124.62
235.817	135.62
236.051	140.62
236.285	144.62
236.519	144.62
236.753	153.62
236.987	145.62
237.221	144.62
237.455	125.62
237.689	138.62
237.922	151.62
238.156	145.62
238.39	149.62
238.624	144.62
238.858	151.62
239.091	150.62
239.325	156.62
239.559	149.62
239.793	149.62
240.027	152.62
240.26	147.62
240.494	141.62
240.728	152.62
240.961	161.62
241.195	144.62
241.429	155.62
241.662	173.62
241.896	168.62
242.13	162.62
242.363	170.62
242.597	162.62
242.83	167.62
243.064	151.62
243.298	172.62
243.531	186.62
243.765	175.62
243.998	171.62
244.232	180.62
244.465	194.62
244.699	191.62
244.932	190.62
245.166	192.62
245.399	187.62
245.633	189.62
245.866	192.62
246.099	200.62
246.333	174.62
246.566	195.62
246.8	193.62
247.033	184.62
247.266	200.62
247.5	196.62
247.733	174.62
247.966	192.62
248.2	180.62
248.433	199.62
248.666	208.62
248.899	192.62
249.133	196.62
249.366	203.62
249.599	225.62
249.832	199.62
250.066	199.62
250.299	217.62
250.532	191.62
250.765	213.62
250.998	213.62
251.231	217.62
251.465	219.62
251.698	201.62
251.931	216.62
252.164	220.62
252.397	234.62
252.63	228.62
252.863	208.62
253.096	222.62
253.329	230.62
253.562	216.62
253.795	219.62
254.028	235.62
254.261	240.62
254.494	219.62
254.727	243.62
254.96	226.62
255.193	219.62
255.426	253.62
255.659	227.62
255.892	245.62
256.124	223.62
256.357	255.62
256.59	255.62
256.823	241.62
257.056	255.62
257.289	241.62
257.521	248.62
257.754	254.62
257.987	255.62
258.22	251.62
258.452	263.62
258.685	255.62
258.918	267.62
259.151	266.62
259.383	254.62
259.616	262.62
259.849	259.62
260.081	255.62
260.314	288.62
260.547	273.62
260.779	256.62
261.012	264.62
261.244	279.62
261.477	281.62
261.71	267.62
261.942	285.62
262.175	289.62
262.407	268.62
262.64	280.62
262.872	267.62
263.105	289.62
263.337	283.62
263.57	283.62
263.802	283.62
264.035	279.62
264.267	280.62
264.499	283.62
264.732	281.62
264.964	294.62
265.197	297.62
265.429	304.62
265.661	301.62
265.894	284.62
266.126	291.62
266.358	314.62
266.591	310.62
266.823	318.62
267.055	309.62
267.287	302.62
267.52	307.62
267.752	311.62
267.984	320.62
268.216	296.62
268.448	312.62
268.681	305.62
268.913	327.62
269.145	310.62
269.377	317.62
269.609	331.62
269.841	326.62
270.073	309.62
270.306	322.62
270.538	331.62
270.77	330.62
271.002	345.62
271.234	321.62
271.466	320.62
271.698	326.62
271.93	318.62
272.162	344.62
272.394	334.62
272.626	344.62
272.858	335.62
273.09	331.62
273.322	336.62
273.553	347.62
273.785	352.62
274.017	350.62
274.249	353.62
274.481	362.62
274.713	349.62
274.945	363.62
275.176	350.62
275.408	357.62
275.64	354.62
275.872	367.62
276.104	363.62
276.335	359.62
276.567	350.62
276.799	368.62
277.031	365.62
277.262	375.62
277.494	377.62
277.726	377.62
277.957	374.62
278.189	378.62
278.421	366.62
278.652	383.62
278.884	383.62
279.115	377.62
279.347	398.62
279.579	391.62
279.81	394.62
280.042	411.62
280.273	386.62
280.505	391.62
280.736	392.62
280.968	395.62
281.199	399.62
281.431	395.62
281.662	404.62
281.894	406.62
282.125	411.62
282.356	389.62
282.588	393.62
282.819	394.62
283.051	421.62
283.282	398.62
283.513	405.62
283.745	431.62
283.976	399.62
284.207	415.62
284.439	414.62
284.67	415.62
284.901	405.62
285.132	427.62
285.364	425.62
285.595	421.62
285.826	414.62
286.057	433.62
286.288	405.62
286.52	440.62
286.751	419.62
286.982	433.62
287.213	423.62
287.444	415.62
287.675	438.62
287.906	439.62
288.138	418.62
288.369	419.62
288.6	445.62
288.831	424.62
289.062	432.62
289.293	456.62
289.524	445.62
289.755	442.62
289.986	445.62
290.217	452.62
290.448	453.62
290.679	458.62
290.91	451.62
291.141	464.62
291.371	463.62
291.602	446.62
291.833	455.62
292.064	448.62
292.295	452.62
292.526	448.62
292.757	463.62
292.987	460.62
293.218	458.62
293.449	456.62
293.68	457.62
293.91	448.62
294.141	455.62
294.372	465.62
294.603	482.62
294.833	470.62
295.064	475.62
295.295	474.62
295.525	469.62
295.756	475.62
295.987	475.62
296.217	464.62
296.448	480.62
296.679	510.62
296.909	491.62
297.14	469.62
297.37	479.62
297.601	493.62
297.831	481.62
298.062	494.62
298.292	497.62
298.523	516.62
298.753	517.62
298.984	479.62
299.214	517.62
299.445	477.62
299.675	494.62
299.905	499.62
300.136	501.62
300.366	502.62
300.597	493.62
300.827	501.62
301.057	503.62
301.288	509.62
301.518	497.62
301.748	514.62
301.979	527.62
302.209	525.62
302.439	503.62
302.669	527.62
302.9	534.62
303.13	504.62
303.36	542.62
303.59	504.62
303.82	565.62
304.051	549.62
304.281	541.62
304.511	526.62
304.741	522.62
304.971	536.62
305.201	504.62
305.431	520.62
305.661	530.62
305.891	533.62
306.121	533.62
306.352	536.62
306.582	532.62
306.812	525.62
307.042	545.62
307.272	528.62
307.502	521.62
307.731	536.62
307.961	542.62
308.191	555.62
308.421	538.62
308.651	525.62
308.881	540.62
309.111	549.62
309.341	532.62
309.571	540.62
309.8	531.62
310.03	553.62
310.26	533.62
310.49	555.62
310.72	544.62
310.949	552.62
311.179	547.62
311.409	545.62
311.639	563.62
311.868	566.62
312.098	535.62
312.328	560.62
312.557	560.62
312.787	568.62
313.017	556.62
313.246	569.62
313.476	540.62
313.706	558.62
313.935	585.62
314.165	595.62
314.394	558.62
314.624	590.62
314.853	570.62
315.083	567.62
315.312	585.62
315.542	580.62
315.771	598.62
316.001	603.62
316.23	592.62
316.46	595.62
316.689	599.62
316.919	581.62
317.148	614.62
317.377	581.62
317.607	577.62
317.836	595.62
318.065	593.62
318.295	589.62
318.524	597.62
318.753	596.62
318.983	593.62
319.212	597.62
319.441	595.62
319.67	600.62
319.9	595.62
320.129	599.62
320.358	607.62
320.587	582.62
320.816	591.62
321.046	637.62
321.275	615.62
321.504	623.62
321.733	593.62
321.962	607.62
322.191	633.62
322.42	611.62
322.649	631.62
322.878	615.62
323.108	612.62
323.337	628.62
323.566	629.62
323.795	631.62
324.024	623.62
324.253	620.62
324.482	661.62
324.71	613.62
324.939	652.62
325.168	628.62
325.397	639.62
325.626	639.62
325.855	630.62
326.084	643.62
326.313	638.62
326.542	615.62
326.77	648.62
326.999	641.62
327.228	629.62
327.457	663.62
327.686	639.62
327.914	677.62
328.143	669.62
328.372	644.62
328.6	661.62
328.829	657.62
329.058	661.62
329.287	663.62
329.515	652.62
329.744	657.62
329.972	677.62
330.201	673.62
330.43	645.62
330.658	659.62
330.887	678.62
331.115	670.62
331.344	677.62
331.572	668.62
331.801	668.62
332.03	697.62
332.258	693.62
332.486	699.62
332.715	686.62
332.943	684.62
333.172	704.62
333.4	683.62
333.629	697.62
333.857	734.62
334.085	712.62
334.314	719.62
334.542	725.62
334.771	732.62
334.999	748.62
335.227	729.62
335.455	730.62
335.684	749.62
335.912	749.62
336.14	726.62
336.369	735.62
336.597	734.62
336.825	733.62
337.053	736.62
337.281	738.62
337.51	730.62
337.738	746.62
337.966	716.62
338.194	712.62
338.422	716.62
338.65	716.62
338.878	740.62
339.106	741.62
339.334	735.62
339.562	727.62
339.79	694.62
340.018	719.62
340.246	704.62
340.474	695.62
340.702	707.62
340.93	721.62
341.158	694.62
341.386	693.62
341.614	719.62
341.842	711.62
342.07	707.62
342.298	704.62
342.526	702.62
342.754	687.62
342.981	698.62
343.209	707.62
343.437	713.62
343.665	716.62
343.893	728.62
344.12	720.62
344.348	732.62
344.576	741.62
344.804	700.62
345.031	733.62
345.259	742.62
345.487	714.62
345.714	724.62
345.942	716.62
346.17	702.62
346.397	695.62
346.625	703.62
346.853	699.62
347.08	688.62
347.308	680.62
347.535	701.62
347.763	687.62
347.99	683.62
348.218	679.62
348.445	680.62
348.673	660.62
348.9	660.62
349.128	670.62
349.355	681.62
349.583	667.62
349.81	663.62
350.037	670.62
350.265	675.62
350.492	687.62
350.72	683.62
350.947	668.62
351.174	678.62
351.402	673.62
351.629	673.62
351.856	663.62
352.083	668.62
352.311	655.62
352.538	669.62
352.765	684.62
352.992	666.62
353.22	663.62
353.447	665.62
353.674	666.62
353.901	664.62
354.128	678.62
354.355	671.62
354.583	689.62
354.81	673.62
355.037	685.62
355.264	676.62
355.491	669.62
355.718	659.62
355.945	672.62
356.172	657.62
356.399	660.62
356.626	667.62
356.853	674.62
357.08	682.62
357.307	677.62
357.534	676.62
357.761	664.62
357.988	680.62
358.215	657.62
358.441	667.62
358.668	682.62
358.895	705.62
359.122	654.62
359.349	702.62
359.576	678.62
359.802	679.62
360.029	665.62
360.256	685.62
360.483	681.62
360.709	686.62
360.936	680.62
361.163	682.62
361.39	665.62
361.616	703.62
361.843	649.62
362.07	676.62
362.296	704.62
362.523	685.62
362.749	699.62
362.976	681.62
363.203	682.62
363.429	695.62
363.656	681.62
363.882	671.62
364.109	673.62
364.335	661.62
364.562	696.62
364.788	686.62
365.015	685.62
365.241	687.62
365.468	663.62
365.694	693.62
365.92	692.62
366.147	702.62
366.373	661.62
366.599	693.62
366.826	703.62
367.052	682.62
367.278	703.62
367.505	700.62
367.731	708.62
367.957	684.62
368.184	687.62
368.41	731.62
368.636	708.62
368.862	733.62
369.089	733.62
369.315	717.62
369.541	743.62
369.767	732.62
369.993	721.62
370.219	725.62
370.445	716.62
370.672	730.62
370.898	733.62
371.124	740.62
371.35	737.62
371.576	725.62
371.802	740.62
372.028	739.62
372.254	750.62
372.48	748.62
372.706	756.62
372.932	730.62
373.158	756.62
373.384	715.62
373.61	746.62
373.835	750.62
374.061	741.62
374.287	712.62
374.513	741.62
374.739	764.62
374.965	744.62
375.191	739.62
375.416	757.62
375.642	744.62
375.868	747.62
376.094	736.62
376.319	737.62
376.545	748.62
376.771	765.62
376.997	734.62
377.222	734.62
377.448	721.62
377.674	721.62
377.899	716.62
378.125	712.62
378.35	725.62
378.576	712.62
378.802	718.62
379.027	737.62
379.253	753.62
379.478	715.62
379.704	739.62
379.929	731.62
380.155	706.62
380.38	691.62
380.606	731.62
380.831	741.62
381.057	731.62
381.282	706.62
381.507	739.62
381.733	767.62
381.958	729.62
382.184	742.62
382.409	767.62
382.634	743.62
382.86	782.62
383.085	785.62
383.31	753.62
383.535	767.62
383.761	745.62
383.986	772.62
384.211	775.62
384.436	786.62
384.662	781.62
384.887	787.62
385.112	764.62
385.337	799.62
385.562	776.62
385.787	806.62
386.013	816.62
386.238	787.62
386.463	813.62
386.688	831.62
386.913	789.62
387.138	811.62
387.363	790.62
387.588	814.62
387.813	809.62
388.038	809.62
388.263	817.62
388.488	837.62
388.713	806.62
388.938	846.62
389.163	828.62
389.387	818.62
389.612	815.62
389.837	841.62
390.062	844.62
390.287	839.62
390.512	865.62
390.736	848.62
390.961	826.62
391.186	825.62
391.411	847.62
391.636	839.62
391.86	867.62
392.085	832.62
392.31	865.62
392.534	856.62
392.759	854.62
392.984	870.62
393.208	832.62
393.433	855.62
393.658	874.62
393.882	847.62
394.107	834.62
394.331	853.62
394.556	842.62
394.78	867.62
395.005	843.62
395.229	849.62
395.454	876.62
395.678	854.62
395.903	841.62
396.127	887.62
396.352	869.62
396.576	897.62
396.801	874.62
397.025	886.62
397.249	898.62
397.474	904.62
397.698	880.62
397.922	875.62
398.147	905.62
398.371	930.62
398.595	931.62
398.82	951.62
399.044	969.62
399.268	982.62
399.492	982.62
399.717	1014.62
399.941	994.62
400.165	1008.62
400.389	1013.62
400.613	1033.62
400.837	970.62
401.062	979.62
401.286	990.62
401.51	977.62
401.734	940.62
401.958	944.62
402.182	941.62
402.406	940.62
402.63	933.62
402.854	958.62
403.078	930.62
403.302	952.62
403.526	941.62
403.75	940.62
403.974	953.62
404.198	958.62
404.422	943.62
404.645	952.62
404.869	941.62
405.093	963.62
405.317	951.62
405.541	989.62
405.765	964.62
405.988	959.62
406.212	995.62
406.436	957.62
406.66	1006.62
406.883	983.62
407.107	998.62
407.331	998.62
407.555	1066.62
407.778	1044.62
408.002	1049.62
408.226	1073.62
408.449	1084.62
408.673	1021.62
408.896	1010.62
409.12	991.62
409.344	1009.62
409.567	1017.62
409.791	1011.62
410.014	992.62
410.238	995.62
410.461	1018.62
410.685	997.62
410.908	1020.62
411.132	971.62
411.355	951.62
411.578	996.62
411.802	961.62
412.025	969.62
412.249	964.62
412.472	995.62
412.695	941.62
412.919	949.62
413.142	989.62
413.365	971.62
413.589	966.62
413.812	957.62
414.035	965.62
414.258	989.62
414.482	949.62
414.705	958.62
414.928	976.62
415.151	954.62
415.374	928.62
415.597	937.62
415.821	939.62
416.044	920.62
416.267	911.62
416.49	931.62
416.713	935.62
416.936	917.62
417.159	893.62
417.382	914.62
417.605	901.62
417.828	908.62
418.051	895.62
418.274	883.62
418.497	905.62
418.72	892.62
418.943	894.62
419.166	917.62
419.389	1004.62
419.611	973.62
419.834	946.62
420.057	907.62
420.28	896.62
420.503	856.62
420.726	864.62
420.948	899.62
421.171	872.62
421.394	870.62
421.617	873.62
421.839	865.62
422.062	874.62
422.285	877.62
422.507	881.62
422.73	880.62
422.953	885.62
423.175	876.62
423.398	888.62
423.621	857.62
423.843	888.62
424.066	893.62
424.288	892.62
424.511	863.62
424.733	851.62
424.956	869.62
425.178	869.62
425.401	877.62
425.623	848.62
425.846	839.62
426.068	856.62
426.291	878.62
426.513	854.62
426.735	861.62
426.958	877.62
427.18	879.62
427.402	884.62
427.625	862.62
427.847	841.62
428.069	889.62
428.292	873.62
428.514	834.62
428.736	859.62
428.958	885.62
429.181	872.62
429.403	839.62
429.625	826.62
429.847	852.62
430.069	859.62
430.292	865.62
430.514	874.62
430.736	853.62
430.958	872.62
431.18	864.62
431.402	849.62
431.624	845.62
431.846	855.62
432.068	855.62
432.29	866.62
432.512	857.62
432.734	880.62
432.956	840.62
433.178	836.62
433.4	847.62
433.622	843.62
433.844	850.62
434.066	875.62
434.287	875.62
434.509	835.62
434.731	877.62
434.953	895.62
435.175	884.62
435.397	861.62
435.618	865.62
435.84	886.62
436.062	886.62
436.284	876.62
436.505	857.62
436.727	873.62
436.949	843.62
437.17	844.62
437.392	826.62
437.614	852.62
437.835	824.62
438.057	839.62
438.278	834.62
438.5	855.62
438.721	834.62
438.943	830.62
439.165	809.62
439.386	811.62
439.608	819.62
439.829	835.62
440.05	846.62
440.272	844.62
440.493	840.62
440.715	848.62
440.936	868.62
441.158	885.62
441.379	843.62
441.6	881.62
441.822	855.62
442.043	845.62
442.264	872.62
442.486	825.62
442.707	868.62
442.928	870.62
443.149	883.62
443.371	862.62
443.592	848.62
443.813	883.62
444.034	861.62
444.255	864.62
444.476	875.62
444.698	893.62
444.919	905.62
445.14	987.62
445.361	901.62
445.582	868.62
445.803	835.62
446.024	846.62
446.245	850.62
446.466	824.62
446.687	836.62
446.908	829.62
447.129	809.62
447.35	824.62
447.571	827.62
447.792	764.62
448.013	786.62
448.234	786.62
448.455	784.62
448.675	793.62
448.896	777.62
449.117	805.62
449.338	776.62
449.559	798.62
449.779	803.62
450	798.62
450.221	763.62
450.442	784.62
450.662	791.62
450.883	783.62
451.104	788.62
451.324	779.62
451.545	779.62
451.766	765.62
451.986	788.62
452.207	776.62
452.428	768.62
452.648	744.62
452.869	747.62
453.089	758.62
453.31	798.62
453.53	748.62
453.751	775.62
453.971	751.62
454.192	763.62
454.412	748.62
454.633	748.62
454.853	736.62
455.073	735.62
455.294	742.62
455.514	774.62
455.734	765.62
455.955	741.62
456.175	755.62
456.395	741.62
456.616	758.62
456.836	747.62
457.056	756.62
457.276	738.62
457.497	760.62
457.717	741.62
457.937	758.62
458.157	791.62
458.377	781.62
458.598	776.62
458.818	786.62
459.038	805.62
459.258	835.62
459.478	801.62
459.698	828.62
459.918	843.62
460.138	832.62
460.358	859.62
460.578	854.62
460.798	848.62
461.018	893.62
461.238	885.62
461.458	887.62
461.678	880.62
461.898	873.62
462.118	862.62
462.338	911.62
462.558	901.62
462.777	920.62
462.997	943.62
463.217	951.62
463.437	913.62
463.657	976.62
463.876	939.62
464.096	941.62
464.316	903.62
464.536	917.62
464.755	913.62
464.975	922.62
465.195	879.62
465.414	872.62
465.634	864.62
465.854	861.62
466.073	849.62
466.293	837.62
466.512	821.62
466.732	811.62
466.951	860.62
467.171	825.62
467.391	836.62
467.61	815.62
467.829	789.62
468.049	797.62
468.268	794.62
468.488	816.62
468.707	800.62
468.927	787.62
469.146	793.62
469.365	829.62
469.585	821.62
469.804	822.62
470.023	831.62
470.243	825.62
470.462	828.62
470.681	791.62
470.901	807.62
471.12	831.62
471.339	838.62
471.558	835.62
471.777	819.62
471.997	829.62
472.216	826.62
472.435	801.62
472.654	821.62
472.873	838.62
473.092	819.62
473.311	815.62
473.53	821.62
473.749	793.62
473.968	815.62
474.187	824.62
474.406	843.62
474.625	822.62
474.844	822.62
475.063	836.62
475.282	863.62
475.501	853.62
475.72	853.62
475.939	874.62
476.158	873.62
476.377	851.62
476.596	859.62
476.814	886.62
477.033	904.62
477.252	885.62
477.471	886.62
477.69	903.62
477.908	887.62
478.127	920.62
478.346	931.62
478.564	929.62
478.783	917.62
479.002	967.62
479.22	923.62
479.439	981.62
479.658	951.62
479.876	942.62
480.095	985.62
480.313	955.62
480.532	965.62
480.751	959.62
480.969	950.62
481.188	962.62
481.406	967.62
481.624	935.62
481.843	951.62
482.061	959.62
482.28	965.62
482.498	960.62
482.717	977.62
482.935	996.62
483.153	979.62
483.372	962.62
483.59	967.62
483.808	981.62
484.027	958.62
484.245	972.62
484.463	981.62
484.681	990.62
484.9	984.62
485.118	999.62
485.336	983.62
485.554	971.62
485.772	1000.62
485.99	993.62
486.209	1003.62
486.427	990.62
486.645	987.62
486.863	987.62
487.081	989.62
487.299	1023.62
487.517	1017.62
487.735	967.62
487.953	979.62
488.171	1019.62
488.389	1008.62
488.607	1013.62
488.825	995.62
489.043	1012.62
489.261	994.62
489.479	1033.62
489.696	990.62
489.914	1013.62
490.132	1025.62
490.35	985.62
490.568	989.62
490.786	1006.62
491.003	1004.62
491.221	1010.62
491.439	1046.62
491.657	1020.62
491.874	1001.62
492.092	1018.62
492.31	1021.62
492.527	1032.62
492.745	1034.62
492.963	1031.62
493.18	1029.62
493.398	1032.62
493.615	1041.62
493.833	1020.62
494.05	1061.62
494.268	1072.62
494.485	1061.62
494.703	1054.62
494.92	1031.62
495.138	1047.62
495.355	1069.62
495.573	1091.62
495.79	1083.62
496.008	1111.62
496.225	1143.62
496.442	1085.62
496.66	1110.62
496.877	1125.62
497.094	1128.62
497.312	1121.62
497.529	1162.62
497.746	1168.62
497.963	1183.62
498.181	1212.62
498.398	1207.62
498.615	1240.62
498.832	1275.62
499.049	1337.62
499.267	1339.62
499.484	1357.62
499.701	1379.62
499.918	1429.62
500.135	1475.62
500.352	1500.62
500.569	1496.62
