Data from Fe(NO3)3@0.05M.TitratingCurve.Agarose3%dH2O.NegLispCup.LampEnergy10.LIBS07252019_HRD10591_16-48-17-334.txt Node
Date: Thu Jul 25 16:48:17 EDT 2019
User: cochatt
Spectrometer: HR+D1059
Trigger mode: 1
Integration Time (sec): 1.000000E-1
Scans to average: 1
Electric dark correction enabled: true
Nonlinearity correction enabled: false
Boxcar width: 0
XAxis mode: Wavelengths
Number of Pixels in Spectrum: 2048
>>>>>Begin Spectral Data<<<<<
223.165	-2.06
223.4	-2.06
223.635	-2.06
223.869	-13.06
224.104	-10.06
224.338	-24.06
224.573	-22.06
224.808	-6.06
225.042	-13.06
225.277	-6.06
225.511	1.94
225.746	7.94
225.98	-6.06
226.215	9.94
226.449	14.94
226.683	20.94
226.918	23.94
227.152	22.94
227.387	35.94
227.621	34.94
227.856	40.94
228.09	46.94
228.324	32.94
228.559	53.94
228.793	66.94
229.027	67.94
229.262	73.94
229.496	84.94
229.73	90.94
229.964	92.94
230.199	87.94
230.433	97.94
230.667	93.94
230.901	84.94
231.136	95.94
231.37	95.94
231.604	91.94
231.838	104.94
232.072	85.94
232.306	81.94
232.541	93.94
232.775	100.94
233.009	95.94
233.243	96.94
233.477	103.94
233.711	97.94
233.945	90.94
234.179	100.94
234.413	111.94
234.647	102.94
234.881	99.94
235.115	91.94
235.349	88.94
235.583	114.94
235.817	115.94
236.051	98.94
236.285	105.94
236.519	94.94
236.753	87.94
236.987	114.94
237.221	99.94
237.455	103.94
237.689	88.94
237.922	99.94
238.156	100.94
238.39	109.94
238.624	102.94
238.858	94.94
239.091	120.94
239.325	111.94
239.559	117.94
239.793	97.94
240.027	107.94
240.26	102.94
240.494	102.94
240.728	91.94
240.961	109.94
241.195	114.94
241.429	110.94
241.662	103.94
241.896	114.94
242.13	109.94
242.363	115.94
242.597	123.94
242.83	111.94
243.064	110.94
243.298	119.94
243.531	107.94
243.765	98.94
243.998	103.94
244.232	115.94
244.465	101.94
244.699	105.94
244.932	112.94
245.166	113.94
245.399	122.94
245.633	120.94
245.866	127.94
246.099	107.94
246.333	109.94
246.566	129.94
246.8	123.94
247.033	125.94
247.266	116.94
247.5	112.94
247.733	113.94
247.966	103.94
248.2	107.94
248.433	129.94
248.666	125.94
248.899	116.94
249.133	118.94
249.366	121.94
249.599	116.94
249.832	120.94
250.066	133.94
250.299	119.94
250.532	120.94
250.765	125.94
250.998	137.94
251.231	133.94
251.465	119.94
251.698	137.94
251.931	119.94
252.164	113.94
252.397	137.94
252.63	129.94
252.863	126.94
253.096	121.94
253.329	131.94
253.562	126.94
253.795	125.94
254.028	127.94
254.261	109.94
254.494	139.94
254.727	149.94
254.96	131.94
255.193	133.94
255.426	121.94
255.659	122.94
255.892	126.94
256.124	117.94
256.357	123.94
256.59	129.94
256.823	133.94
257.056	139.94
257.289	147.94
257.521	137.94
257.754	127.94
257.987	138.94
258.22	136.94
258.452	141.94
258.685	138.94
258.918	127.94
259.151	144.94
259.383	137.94
259.616	140.94
259.849	139.94
260.081	150.94
260.314	142.94
260.547	133.94
260.779	136.94
261.012	145.94
261.244	139.94
261.477	158.94
261.71	131.94
261.942	149.94
262.175	135.94
262.407	133.94
262.64	126.94
262.872	132.94
263.105	147.94
263.337	153.94
263.57	149.94
263.802	147.94
264.035	157.94
264.267	149.94
264.499	151.94
264.732	152.94
264.964	145.94
265.197	145.94
265.429	152.94
265.661	155.94
265.894	151.94
266.126	158.94
266.358	158.94
266.591	141.94
266.823	156.94
267.055	151.94
267.287	150.94
267.52	158.94
267.752	138.94
267.984	154.94
268.216	150.94
268.448	156.94
268.681	161.94
268.913	154.94
269.145	147.94
269.377	150.94
269.609	168.94
269.841	159.94
270.073	157.94
270.306	160.94
270.538	151.94
270.77	170.94
271.002	164.94
271.234	158.94
271.466	166.94
271.698	160.94
271.93	164.94
272.162	177.94
272.394	167.94
272.626	160.94
272.858	159.94
273.09	188.94
273.322	159.94
273.553	162.94
273.785	174.94
274.017	169.94
274.249	164.94
274.481	164.94
274.713	169.94
274.945	159.94
275.176	192.94
275.408	169.94
275.64	193.94
275.872	185.94
276.104	172.94
276.335	173.94
276.567	170.94
276.799	160.94
277.031	174.94
277.262	155.94
277.494	170.94
277.726	186.94
277.957	183.94
278.189	166.94
278.421	184.94
278.652	178.94
278.884	179.94
279.115	183.94
279.347	158.94
279.579	177.94
279.81	182.94
280.042	166.94
280.273	166.94
280.505	183.94
280.736	162.94
280.968	179.94
281.199	173.94
281.431	189.94
281.662	192.94
281.894	187.94
282.125	192.94
282.356	175.94
282.588	176.94
282.819	186.94
283.051	167.94
283.282	186.94
283.513	179.94
283.745	189.94
283.976	192.94
284.207	203.94
284.439	187.94
284.67	179.94
284.901	177.94
285.132	201.94
285.364	198.94
285.595	187.94
285.826	200.94
286.057	179.94
286.288	177.94
286.52	186.94
286.751	196.94
286.982	189.94
287.213	173.94
287.444	171.94
287.675	185.94
287.906	183.94
288.138	194.94
288.369	195.94
288.6	202.94
288.831	194.94
289.062	195.94
289.293	185.94
289.524	203.94
289.755	189.94
289.986	180.94
290.217	197.94
290.448	190.94
290.679	208.94
290.91	179.94
291.141	194.94
291.371	199.94
291.602	194.94
291.833	206.94
292.064	199.94
292.295	186.94
292.526	207.94
292.757	201.94
292.987	192.94
293.218	195.94
293.449	178.94
293.68	181.94
293.91	208.94
294.141	208.94
294.372	195.94
294.603	212.94
294.833	219.94
295.064	201.94
295.295	203.94
295.525	206.94
295.756	201.94
295.987	205.94
296.217	211.94
296.448	212.94
296.679	213.94
296.909	210.94
297.14	204.94
297.37	200.94
297.601	223.94
297.831	218.94
298.062	214.94
298.292	200.94
298.523	216.94
298.753	232.94
298.984	222.94
299.214	215.94
299.445	219.94
299.675	213.94
299.905	203.94
300.136	206.94
300.366	213.94
300.597	216.94
300.827	195.94
301.057	209.94
301.288	214.94
301.518	224.94
301.748	209.94
301.979	237.94
302.209	234.94
302.439	219.94
302.669	211.94
302.9	228.94
303.13	217.94
303.36	225.94
303.59	219.94
303.82	224.94
304.051	222.94
304.281	222.94
304.511	228.94
304.741	221.94
304.971	239.94
305.201	219.94
305.431	253.94
305.661	234.94
305.891	224.94
306.121	205.94
306.352	209.94
306.582	214.94
306.812	214.94
307.042	224.94
307.272	219.94
307.502	225.94
307.731	215.94
307.961	210.94
308.191	201.94
308.421	222.94
308.651	210.94
308.881	216.94
309.111	214.94
309.341	214.94
309.571	219.94
309.8	223.94
310.03	217.94
310.26	217.94
310.49	220.94
310.72	225.94
310.949	222.94
311.179	225.94
311.409	212.94
311.639	216.94
311.868	211.94
312.098	232.94
312.328	247.94
312.557	215.94
312.787	230.94
313.017	231.94
313.246	212.94
313.476	237.94
313.706	220.94
313.935	225.94
314.165	223.94
314.394	238.94
314.624	223.94
314.853	240.94
315.083	221.94
315.312	214.94
315.542	222.94
315.771	232.94
316.001	222.94
316.23	216.94
316.46	234.94
316.689	241.94
316.919	229.94
317.148	224.94
317.377	233.94
317.607	227.94
317.836	231.94
318.065	222.94
318.295	233.94
318.524	227.94
318.753	229.94
318.983	228.94
319.212	234.94
319.441	247.94
319.67	225.94
319.9	225.94
320.129	230.94
320.358	223.94
320.587	243.94
320.816	228.94
321.046	249.94
321.275	239.94
321.504	233.94
321.733	229.94
321.962	221.94
322.191	250.94
322.42	230.94
322.649	208.94
322.878	258.94
323.108	236.94
323.337	231.94
323.566	230.94
323.795	243.94
324.024	241.94
324.253	243.94
324.482	244.94
324.71	250.94
324.939	246.94
325.168	261.94
325.397	249.94
325.626	238.94
325.855	248.94
326.084	254.94
326.313	256.94
326.542	259.94
326.77	273.94
326.999	239.94
327.228	246.94
327.457	266.94
327.686	244.94
327.914	253.94
328.143	249.94
328.372	241.94
328.6	240.94
328.829	246.94
329.058	262.94
329.287	252.94
329.515	247.94
329.744	278.94
329.972	253.94
330.201	257.94
330.43	256.94
330.658	249.94
330.887	244.94
331.115	261.94
331.344	271.94
331.572	255.94
331.801	264.94
332.03	266.94
332.258	262.94
332.486	277.94
332.715	276.94
332.943	277.94
333.172	301.94
333.4	294.94
333.629	310.94
333.857	309.94
334.085	307.94
334.314	320.94
334.542	310.94
334.771	304.94
334.999	299.94
335.227	306.94
335.455	310.94
335.684	312.94
335.912	299.94
336.14	275.94
336.369	294.94
336.597	294.94
336.825	283.94
337.053	290.94
337.281	301.94
337.51	273.94
337.738	289.94
337.966	281.94
338.194	283.94
338.422	272.94
338.65	279.94
338.878	282.94
339.106	266.94
339.334	281.94
339.562	277.94
339.79	271.94
340.018	265.94
340.246	261.94
340.474	274.94
340.702	264.94
340.93	256.94
341.158	253.94
341.386	249.94
341.614	270.94
341.842	271.94
342.07	263.94
342.298	260.94
342.526	264.94
342.754	274.94
342.981	266.94
343.209	271.94
343.437	280.94
343.665	277.94
343.893	293.94
344.12	297.94
344.348	313.94
344.576	282.94
344.804	285.94
345.031	269.94
345.259	285.94
345.487	276.94
345.714	259.94
345.942	266.94
346.17	261.94
346.397	264.94
346.625	261.94
346.853	277.94
347.08	270.94
347.308	245.94
347.535	259.94
347.763	265.94
347.99	262.94
348.218	250.94
348.445	257.94
348.673	256.94
348.9	273.94
349.128	249.94
349.355	274.94
349.583	253.94
349.81	266.94
350.037	263.94
350.265	274.94
350.492	251.94
350.72	241.94
350.947	250.94
351.174	264.94
351.402	257.94
351.629	269.94
351.856	256.94
352.083	242.94
352.311	230.94
352.538	241.94
352.765	251.94
352.992	271.94
353.22	269.94
353.447	260.94
353.674	256.94
353.901	258.94
354.128	254.94
354.355	248.94
354.583	247.94
354.81	241.94
355.037	258.94
355.264	241.94
355.491	255.94
355.718	250.94
355.945	270.94
356.172	241.94
356.399	254.94
356.626	245.94
356.853	252.94
357.08	265.94
357.307	253.94
357.534	259.94
357.761	247.94
357.988	267.94
358.215	267.94
358.441	264.94
358.668	240.94
358.895	241.94
359.122	253.94
359.349	258.94
359.576	264.94
359.802	250.94
360.029	225.94
360.256	235.94
360.483	268.94
360.709	237.94
360.936	254.94
361.163	257.94
361.39	263.94
361.616	279.94
361.843	264.94
362.07	260.94
362.296	258.94
362.523	252.94
362.749	251.94
362.976	257.94
363.203	261.94
363.429	255.94
363.656	260.94
363.882	250.94
364.109	259.94
364.335	257.94
364.562	261.94
364.788	263.94
365.015	266.94
365.241	267.94
365.468	285.94
365.694	253.94
365.92	257.94
366.147	241.94
366.373	244.94
366.599	255.94
366.826	266.94
367.052	265.94
367.278	273.94
367.505	270.94
367.731	262.94
367.957	266.94
368.184	264.94
368.41	254.94
368.636	258.94
368.862	245.94
369.089	271.94
369.315	259.94
369.541	268.94
369.767	259.94
369.993	278.94
370.219	275.94
370.445	288.94
370.672	275.94
370.898	275.94
371.124	267.94
371.35	295.94
371.576	291.94
371.802	278.94
372.028	291.94
372.254	291.94
372.48	279.94
372.706	301.94
372.932	299.94
373.158	298.94
373.384	277.94
373.61	290.94
373.835	288.94
374.061	313.94
374.287	273.94
374.513	299.94
374.739	301.94
374.965	315.94
375.191	311.94
375.416	320.94
375.642	309.94
375.868	307.94
376.094	315.94
376.319	301.94
376.545	292.94
376.771	287.94
376.997	290.94
377.222	284.94
377.448	285.94
377.674	277.94
377.899	288.94
378.125	274.94
378.35	288.94
378.576	287.94
378.802	267.94
379.027	285.94
379.253	285.94
379.478	293.94
379.704	287.94
379.929	293.94
380.155	292.94
380.38	282.94
380.606	291.94
380.831	288.94
381.057	291.94
381.282	282.94
381.507	281.94
381.733	295.94
381.958	300.94
382.184	315.94
382.409	276.94
382.634	303.94
382.86	305.94
383.085	314.94
383.31	309.94
383.535	334.94
383.761	311.94
383.986	329.94
384.211	323.94
384.436	313.94
384.662	333.94
384.887	322.94
385.112	343.94
385.337	346.94
385.562	339.94
385.787	315.94
386.013	340.94
386.238	337.94
386.463	325.94
386.688	336.94
386.913	334.94
387.138	367.94
387.363	345.94
387.588	358.94
387.813	337.94
388.038	341.94
388.263	335.94
388.488	330.94
388.713	329.94
388.938	350.94
389.163	337.94
389.387	337.94
389.612	339.94
389.837	347.94
390.062	327.94
390.287	345.94
390.512	322.94
390.736	346.94
390.961	341.94
391.186	336.94
391.411	361.94
391.636	375.94
391.86	361.94
392.085	381.94
392.31	353.94
392.534	365.94
392.759	377.94
392.984	368.94
393.208	362.94
393.433	365.94
393.658	370.94
393.882	365.94
394.107	377.94
394.331	365.94
394.556	372.94
394.78	348.94
395.005	368.94
395.229	365.94
395.454	366.94
395.678	387.94
395.903	354.94
396.127	367.94
396.352	360.94
396.576	375.94
396.801	381.94
397.025	376.94
397.249	375.94
397.474	378.94
397.698	370.94
397.922	384.94
398.147	366.94
398.371	385.94
398.595	418.94
398.82	409.94
399.044	440.94
399.268	479.94
399.492	507.94
399.717	566.94
399.941	537.94
400.165	519.94
400.389	481.94
400.613	454.94
400.837	466.94
401.062	436.94
401.286	415.94
401.51	401.94
401.734	426.94
401.958	431.94
402.182	430.94
402.406	418.94
402.63	412.94
402.854	450.94
403.078	434.94
403.302	432.94
403.526	453.94
403.75	445.94
403.974	461.94
404.198	456.94
404.422	459.94
404.645	435.94
404.869	459.94
405.093	465.94
405.317	445.94
405.541	456.94
405.765	466.94
405.988	443.94
406.212	454.94
406.436	464.94
406.66	453.94
406.883	483.94
407.107	473.94
407.331	499.94
407.555	507.94
407.778	538.94
408.002	536.94
408.226	500.94
408.449	482.94
408.673	471.94
408.896	470.94
409.12	487.94
409.344	487.94
409.567	449.94
409.791	474.94
410.014	467.94
410.238	477.94
410.461	458.94
410.685	459.94
410.908	462.94
411.132	463.94
411.355	438.94
411.578	445.94
411.802	433.94
412.025	426.94
412.249	453.94
412.472	456.94
412.695	449.94
412.919	417.94
413.142	417.94
413.365	418.94
413.589	437.94
413.812	424.94
414.035	425.94
414.258	441.94
414.482	454.94
414.705	455.94
414.928	432.94
415.151	433.94
415.374	440.94
415.597	444.94
415.821	451.94
416.044	438.94
416.267	431.94
416.49	415.94
416.713	416.94
416.936	411.94
417.159	439.94
417.382	433.94
417.605	422.94
417.828	420.94
418.051	426.94
418.274	431.94
418.497	441.94
418.72	449.94
418.943	424.94
419.166	474.94
419.389	471.94
419.611	482.94
419.834	450.94
420.057	442.94
420.28	411.94
420.503	422.94
420.726	417.94
420.948	425.94
421.171	424.94
421.394	439.94
421.617	431.94
421.839	423.94
422.062	444.94
422.285	434.94
422.507	432.94
422.73	415.94
422.953	420.94
423.175	441.94
423.398	449.94
423.621	440.94
423.843	454.94
424.066	450.94
424.288	448.94
424.511	446.94
424.733	464.94
424.956	439.94
425.178	439.94
425.401	438.94
425.623	421.94
425.846	405.94
426.068	431.94
426.291	426.94
426.513	426.94
426.735	432.94
426.958	406.94
427.18	402.94
427.402	434.94
427.625	415.94
427.847	416.94
428.069	403.94
428.292	405.94
428.514	412.94
428.736	400.94
428.958	395.94
429.181	409.94
429.403	388.94
429.625	389.94
429.847	394.94
430.069	394.94
430.292	404.94
430.514	393.94
430.736	415.94
430.958	380.94
431.18	413.94
431.402	389.94
431.624	382.94
431.846	414.94
432.068	406.94
432.29	407.94
432.512	382.94
432.734	406.94
432.956	407.94
433.178	415.94
433.4	413.94
433.622	406.94
433.844	405.94
434.066	421.94
434.287	413.94
434.509	408.94
434.731	413.94
434.953	443.94
435.175	419.94
435.397	437.94
435.618	431.94
435.84	413.94
436.062	399.94
436.284	397.94
436.505	401.94
436.727	424.94
436.949	407.94
437.17	414.94
437.392	417.94
437.614	410.94
437.835	373.94
438.057	380.94
438.278	402.94
438.5	387.94
438.721	387.94
438.943	398.94
439.165	398.94
439.386	415.94
439.608	399.94
439.829	414.94
440.05	415.94
440.272	425.94
440.493	433.94
440.715	445.94
440.936	430.94
441.158	426.94
441.379	421.94
441.6	477.94
441.822	454.94
442.043	429.94
442.264	439.94
442.486	429.94
442.707	449.94
442.928	420.94
443.149	450.94
443.371	469.94
443.592	439.94
443.813	431.94
444.034	446.94
444.255	451.94
444.476	489.94
444.698	491.94
444.919	526.94
445.14	626.94
445.361	532.94
445.582	457.94
445.803	461.94
446.024	453.94
446.245	443.94
446.466	412.94
446.687	446.94
446.908	446.94
447.129	405.94
447.35	408.94
447.571	385.94
447.792	389.94
448.013	403.94
448.234	400.94
448.455	395.94
448.675	404.94
448.896	385.94
449.117	385.94
449.338	394.94
449.559	415.94
449.779	362.94
450	360.94
450.221	373.94
450.442	375.94
450.662	380.94
450.883	381.94
451.104	387.94
451.324	381.94
451.545	386.94
451.766	407.94
451.986	388.94
452.207	392.94
452.428	409.94
452.648	387.94
452.869	398.94
453.089	361.94
453.31	381.94
453.53	375.94
453.751	379.94
453.971	383.94
454.192	367.94
454.412	370.94
454.633	367.94
454.853	385.94
455.073	369.94
455.294	362.94
455.514	367.94
455.734	367.94
455.955	358.94
456.175	343.94
456.395	346.94
456.616	357.94
456.836	346.94
457.056	361.94
457.276	343.94
457.497	374.94
457.717	361.94
457.937	363.94
458.157	373.94
458.377	382.94
458.598	371.94
458.818	366.94
459.038	383.94
459.258	383.94
459.478	385.94
459.698	405.94
459.918	423.94
460.138	435.94
460.358	440.94
460.578	453.94
460.798	467.94
461.018	487.94
461.238	449.94
461.458	452.94
461.678	447.94
461.898	464.94
462.118	449.94
462.338	469.94
462.558	478.94
462.777	520.94
462.997	539.94
463.217	554.94
463.437	562.94
463.657	535.94
463.876	526.94
464.096	518.94
464.316	517.94
464.536	543.94
464.755	521.94
464.975	490.94
465.195	470.94
465.414	468.94
465.634	429.94
465.854	424.94
466.073	417.94
466.293	416.94
466.512	404.94
466.732	412.94
466.951	396.94
467.171	385.94
467.391	407.94
467.61	409.94
467.829	410.94
468.049	400.94
468.268	397.94
468.488	386.94
468.707	391.94
468.927	404.94
469.146	390.94
469.365	410.94
469.585	398.94
469.804	407.94
470.023	420.94
470.243	407.94
470.462	410.94
470.681	425.94
470.901	440.94
471.12	447.94
471.339	419.94
471.558	399.94
471.777	381.94
471.997	394.94
472.216	375.94
472.435	409.94
472.654	374.94
472.873	381.94
473.092	393.94
473.311	375.94
473.53	383.94
473.749	382.94
473.968	375.94
474.187	373.94
474.406	400.94
474.625	385.94
474.844	377.94
475.063	385.94
475.282	369.94
475.501	385.94
475.72	394.94
475.939	397.94
476.158	408.94
476.377	397.94
476.596	412.94
476.814	395.94
477.033	394.94
477.252	410.94
477.471	423.94
477.69	405.94
477.908	440.94
478.127	442.94
478.346	457.94
478.564	441.94
478.783	448.94
479.002	452.94
479.22	447.94
479.439	450.94
479.658	439.94
479.876	452.94
480.095	444.94
480.313	488.94
480.532	471.94
480.751	478.94
480.969	458.94
481.188	463.94
481.406	450.94
481.624	441.94
481.843	445.94
482.061	444.94
482.28	421.94
482.498	401.94
482.717	414.94
482.935	428.94
483.153	442.94
483.372	434.94
483.59	450.94
483.808	426.94
484.027	414.94
484.245	417.94
484.463	437.94
484.681	449.94
484.9	432.94
485.118	446.94
485.336	448.94
485.554	420.94
485.772	434.94
485.99	439.94
486.209	432.94
486.427	441.94
486.645	425.94
486.863	440.94
487.081	454.94
487.299	442.94
487.517	461.94
487.735	462.94
487.953	465.94
488.171	464.94
488.389	457.94
488.607	433.94
488.825	441.94
489.043	425.94
489.261	442.94
489.479	453.94
489.696	455.94
489.914	441.94
490.132	445.94
490.35	443.94
490.568	449.94
490.786	444.94
491.003	464.94
491.221	473.94
491.439	459.94
491.657	463.94
491.874	470.94
492.092	469.94
492.31	473.94
492.527	459.94
492.745	456.94
492.963	488.94
493.18	460.94
493.398	457.94
493.615	487.94
493.833	460.94
494.05	459.94
494.268	477.94
494.485	468.94
494.703	473.94
494.92	463.94
495.138	476.94
495.355	477.94
495.573	498.94
495.79	501.94
496.008	480.94
496.225	486.94
496.442	500.94
496.66	484.94
496.877	467.94
497.094	523.94
497.312	523.94
497.529	518.94
497.746	516.94
497.963	542.94
498.181	557.94
498.398	547.94
498.615	590.94
498.832	621.94
499.049	624.94
499.267	681.94
499.484	744.94
499.701	790.94
499.918	847.94
500.135	930.94
500.352	995.94
500.569	1085.94
500.786	1061.94
501.003	987.94
501.22	930.94
501.437	836.94
501.654	747.94
501.871	712.94
502.088	682.94
