Data from Fe(NO3)3@0.1M.TitratingCurve.Agarose3%dH2O.NegLispCup.LampEnergy10.LIBS07252019_HRD10591_16-38-03-332.txt Node
Date: Thu Jul 25 16:38:03 EDT 2019
User: cochatt
Spectrometer: HR+D1059
Trigger mode: 1
Integration Time (sec): 1.000000E-1
Scans to average: 1
Electric dark correction enabled: true
Nonlinearity correction enabled: false
Boxcar width: 0
XAxis mode: Wavelengths
Number of Pixels in Spectrum: 2048
>>>>>Begin Spectral Data<<<<<
223.165	-18.44
223.4	-18.44
223.635	-18.44
223.869	-27.44
224.104	-18.44
224.338	-18.44
224.573	-7.44
224.808	-21.44
225.042	-6.44
225.277	2.56
225.511	-7.44
225.746	-0.44
225.98	-3.44
226.215	15.56
226.449	20.56
226.683	23.56
226.918	31.56
227.152	35.56
227.387	43.56
227.621	32.56
227.856	52.56
228.09	25.56
228.324	55.56
228.559	48.56
228.793	63.56
229.027	63.56
229.262	47.56
229.496	73.56
229.73	88.56
229.964	88.56
230.199	87.56
230.433	86.56
230.667	83.56
230.901	89.56
231.136	75.56
231.37	73.56
231.604	85.56
231.838	97.56
232.072	85.56
232.306	96.56
232.541	86.56
232.775	96.56
233.009	81.56
233.243	93.56
233.477	88.56
233.711	88.56
233.945	82.56
234.179	95.56
234.413	84.56
234.647	93.56
234.881	104.56
235.115	101.56
235.349	105.56
235.583	83.56
235.817	85.56
236.051	93.56
236.285	92.56
236.519	82.56
236.753	106.56
236.987	100.56
237.221	96.56
237.455	90.56
237.689	100.56
237.922	97.56
238.156	95.56
238.39	103.56
238.624	94.56
238.858	100.56
239.091	92.56
239.325	89.56
239.559	97.56
239.793	99.56
240.027	115.56
240.26	112.56
240.494	97.56
240.728	100.56
240.961	93.56
241.195	98.56
241.429	94.56
241.662	82.56
241.896	98.56
242.13	100.56
242.363	117.56
242.597	100.56
242.83	98.56
243.064	109.56
243.298	122.56
243.531	93.56
243.765	104.56
243.998	115.56
244.232	115.56
244.465	90.56
244.699	93.56
244.932	96.56
245.166	104.56
245.399	118.56
245.633	97.56
245.866	111.56
246.099	99.56
246.333	104.56
246.566	95.56
246.8	96.56
247.033	93.56
247.266	117.56
247.5	122.56
247.733	105.56
247.966	109.56
248.2	112.56
248.433	104.56
248.666	101.56
248.899	102.56
249.133	106.56
249.366	100.56
249.599	103.56
249.832	111.56
250.066	113.56
250.299	106.56
250.532	118.56
250.765	109.56
250.998	114.56
251.231	106.56
251.465	121.56
251.698	118.56
251.931	123.56
252.164	106.56
252.397	122.56
252.63	110.56
252.863	105.56
253.096	113.56
253.329	111.56
253.562	122.56
253.795	117.56
254.028	120.56
254.261	139.56
254.494	118.56
254.727	126.56
254.96	109.56
255.193	129.56
255.426	121.56
255.659	128.56
255.892	130.56
256.124	136.56
256.357	124.56
256.59	119.56
256.823	112.56
257.056	115.56
257.289	127.56
257.521	123.56
257.754	137.56
257.987	135.56
258.22	135.56
258.452	131.56
258.685	113.56
258.918	134.56
259.151	108.56
259.383	131.56
259.616	139.56
259.849	125.56
260.081	151.56
260.314	138.56
260.547	143.56
260.779	134.56
261.012	140.56
261.244	123.56
261.477	136.56
261.71	129.56
261.942	141.56
262.175	119.56
262.407	147.56
262.64	131.56
262.872	127.56
263.105	127.56
263.337	131.56
263.57	128.56
263.802	136.56
264.035	137.56
264.267	146.56
264.499	131.56
264.732	117.56
264.964	120.56
265.197	130.56
265.429	133.56
265.661	125.56
265.894	127.56
266.126	130.56
266.358	126.56
266.591	143.56
266.823	145.56
267.055	142.56
267.287	143.56
267.52	128.56
267.752	140.56
267.984	137.56
268.216	136.56
268.448	152.56
268.681	159.56
268.913	152.56
269.145	151.56
269.377	139.56
269.609	145.56
269.841	137.56
270.073	139.56
270.306	142.56
270.538	137.56
270.77	140.56
271.002	157.56
271.234	146.56
271.466	149.56
271.698	145.56
271.93	139.56
272.162	144.56
272.394	133.56
272.626	152.56
272.858	152.56
273.09	154.56
273.322	147.56
273.553	149.56
273.785	136.56
274.017	143.56
274.249	159.56
274.481	170.56
274.713	159.56
274.945	150.56
275.176	153.56
275.408	148.56
275.64	149.56
275.872	149.56
276.104	166.56
276.335	157.56
276.567	156.56
276.799	171.56
277.031	144.56
277.262	151.56
277.494	156.56
277.726	147.56
277.957	148.56
278.189	152.56
278.421	164.56
278.652	159.56
278.884	152.56
279.115	163.56
279.347	155.56
279.579	171.56
279.81	154.56
280.042	160.56
280.273	158.56
280.505	152.56
280.736	151.56
280.968	157.56
281.199	161.56
281.431	158.56
281.662	173.56
281.894	162.56
282.125	159.56
282.356	165.56
282.588	159.56
282.819	159.56
283.051	165.56
283.282	166.56
283.513	176.56
283.745	163.56
283.976	153.56
284.207	170.56
284.439	152.56
284.67	180.56
284.901	173.56
285.132	171.56
285.364	169.56
285.595	159.56
285.826	175.56
286.057	183.56
286.288	175.56
286.52	169.56
286.751	170.56
286.982	168.56
287.213	178.56
287.444	173.56
287.675	194.56
287.906	182.56
288.138	166.56
288.369	193.56
288.6	186.56
288.831	163.56
289.062	173.56
289.293	187.56
289.524	169.56
289.755	177.56
289.986	167.56
290.217	168.56
290.448	182.56
290.679	177.56
290.91	179.56
291.141	174.56
291.371	189.56
291.602	191.56
291.833	172.56
292.064	193.56
292.295	178.56
292.526	174.56
292.757	192.56
292.987	173.56
293.218	180.56
293.449	184.56
293.68	180.56
293.91	161.56
294.141	166.56
294.372	178.56
294.603	193.56
294.833	187.56
295.064	200.56
295.295	194.56
295.525	193.56
295.756	181.56
295.987	194.56
296.217	189.56
296.448	190.56
296.679	184.56
296.909	189.56
297.14	187.56
297.37	199.56
297.601	192.56
297.831	187.56
298.062	194.56
298.292	181.56
298.523	196.56
298.753	202.56
298.984	198.56
299.214	184.56
299.445	202.56
299.675	193.56
299.905	190.56
300.136	184.56
300.366	195.56
300.597	188.56
300.827	211.56
301.057	194.56
301.288	189.56
301.518	208.56
301.748	187.56
301.979	198.56
302.209	194.56
302.439	170.56
302.669	208.56
302.9	208.56
303.13	211.56
303.36	200.56
303.59	182.56
303.82	177.56
304.051	199.56
304.281	192.56
304.511	200.56
304.741	200.56
304.971	212.56
305.201	196.56
305.431	198.56
305.661	209.56
305.891	189.56
306.121	199.56
306.352	199.56
306.582	195.56
306.812	195.56
307.042	199.56
307.272	208.56
307.502	188.56
307.731	193.56
307.961	205.56
308.191	189.56
308.421	189.56
308.651	192.56
308.881	184.56
309.111	207.56
309.341	207.56
309.571	188.56
309.8	185.56
310.03	200.56
310.26	191.56
310.49	189.56
310.72	209.56
310.949	188.56
311.179	200.56
311.409	197.56
311.639	212.56
311.868	199.56
312.098	202.56
312.328	205.56
312.557	197.56
312.787	206.56
313.017	207.56
313.246	200.56
313.476	197.56
313.706	205.56
313.935	217.56
314.165	226.56
314.394	200.56
314.624	224.56
314.853	203.56
315.083	235.56
315.312	212.56
315.542	202.56
315.771	202.56
316.001	202.56
316.23	214.56
316.46	207.56
316.689	203.56
316.919	205.56
317.148	214.56
317.377	207.56
317.607	212.56
317.836	210.56
318.065	212.56
318.295	204.56
318.524	214.56
318.753	207.56
318.983	216.56
319.212	207.56
319.441	195.56
319.67	210.56
319.9	204.56
320.129	230.56
320.358	193.56
320.587	200.56
320.816	208.56
321.046	217.56
321.275	206.56
321.504	200.56
321.733	200.56
321.962	212.56
322.191	195.56
322.42	211.56
322.649	203.56
322.878	216.56
323.108	195.56
323.337	211.56
323.566	206.56
323.795	211.56
324.024	221.56
324.253	211.56
324.482	206.56
324.71	201.56
324.939	216.56
325.168	215.56
325.397	207.56
325.626	207.56
325.855	221.56
326.084	234.56
326.313	217.56
326.542	234.56
326.77	219.56
326.999	213.56
327.228	222.56
327.457	217.56
327.686	239.56
327.914	211.56
328.143	230.56
328.372	226.56
328.6	215.56
328.829	232.56
329.058	220.56
329.287	227.56
329.515	218.56
329.744	240.56
329.972	222.56
330.201	226.56
330.43	217.56
330.658	225.56
330.887	224.56
331.115	226.56
331.344	246.56
331.572	231.56
331.801	220.56
332.03	229.56
332.258	256.56
332.486	241.56
332.715	262.56
332.943	281.56
333.172	279.56
333.4	281.56
333.629	285.56
333.857	295.56
334.085	280.56
334.314	274.56
334.542	264.56
334.771	273.56
334.999	290.56
335.227	263.56
335.455	281.56
335.684	273.56
335.912	273.56
336.14	280.56
336.369	265.56
336.597	260.56
336.825	275.56
337.053	266.56
337.281	253.56
337.51	246.56
337.738	256.56
337.966	250.56
338.194	230.56
338.422	229.56
338.65	225.56
338.878	240.56
339.106	233.56
339.334	243.56
339.562	248.56
339.79	223.56
340.018	226.56
340.246	219.56
340.474	231.56
340.702	227.56
340.93	248.56
341.158	221.56
341.386	221.56
341.614	233.56
341.842	238.56
342.07	225.56
342.298	246.56
342.526	227.56
342.754	224.56
342.981	242.56
343.209	236.56
343.437	253.56
343.665	267.56
343.893	268.56
344.12	266.56
344.348	271.56
344.576	257.56
344.804	254.56
345.031	238.56
345.259	233.56
345.487	249.56
345.714	236.56
345.942	241.56
346.17	233.56
346.397	239.56
346.625	232.56
346.853	221.56
347.08	233.56
347.308	229.56
347.535	226.56
347.763	229.56
347.99	222.56
348.218	217.56
348.445	232.56
348.673	211.56
348.9	228.56
349.128	202.56
349.355	229.56
349.583	237.56
349.81	216.56
350.037	237.56
350.265	235.56
350.492	217.56
350.72	218.56
350.947	217.56
351.174	216.56
351.402	221.56
351.629	224.56
351.856	220.56
352.083	206.56
352.311	216.56
352.538	198.56
352.765	220.56
352.992	235.56
353.22	221.56
353.447	217.56
353.674	219.56
353.901	218.56
354.128	218.56
354.355	218.56
354.583	212.56
354.81	226.56
355.037	228.56
355.264	224.56
355.491	217.56
355.718	239.56
355.945	230.56
356.172	205.56
356.399	239.56
356.626	242.56
356.853	228.56
357.08	234.56
357.307	236.56
357.534	221.56
357.761	223.56
357.988	217.56
358.215	242.56
358.441	210.56
358.668	238.56
358.895	229.56
359.122	243.56
359.349	212.56
359.576	199.56
359.802	203.56
360.029	235.56
360.256	217.56
360.483	215.56
360.709	239.56
360.936	232.56
361.163	224.56
361.39	217.56
361.616	212.56
361.843	222.56
362.07	225.56
362.296	227.56
362.523	223.56
362.749	195.56
362.976	238.56
363.203	234.56
363.429	212.56
363.656	221.56
363.882	208.56
364.109	220.56
364.335	217.56
364.562	238.56
364.788	211.56
365.015	213.56
365.241	231.56
365.468	219.56
365.694	229.56
365.92	227.56
366.147	233.56
366.373	216.56
366.599	212.56
366.826	227.56
367.052	222.56
367.278	240.56
367.505	232.56
367.731	215.56
367.957	226.56
368.184	211.56
368.41	228.56
368.636	240.56
368.862	217.56
369.089	223.56
369.315	259.56
369.541	235.56
369.767	221.56
369.993	244.56
370.219	240.56
370.445	243.56
370.672	217.56
370.898	233.56
371.124	244.56
371.35	238.56
371.576	237.56
371.802	240.56
372.028	253.56
372.254	251.56
372.48	240.56
372.706	230.56
372.932	242.56
373.158	253.56
373.384	257.56
373.61	245.56
373.835	246.56
374.061	253.56
374.287	239.56
374.513	250.56
374.739	253.56
374.965	238.56
375.191	265.56
375.416	275.56
375.642	274.56
375.868	247.56
376.094	268.56
376.319	250.56
376.545	249.56
376.771	247.56
376.997	232.56
377.222	244.56
377.448	237.56
377.674	238.56
377.899	231.56
378.125	245.56
378.35	229.56
378.576	253.56
378.802	232.56
379.027	256.56
379.253	241.56
379.478	253.56
379.704	241.56
379.929	259.56
380.155	253.56
380.38	243.56
380.606	246.56
380.831	242.56
381.057	251.56
381.282	250.56
381.507	241.56
381.733	250.56
381.958	240.56
382.184	268.56
382.409	258.56
382.634	253.56
382.86	267.56
383.085	263.56
383.31	265.56
383.535	265.56
383.761	266.56
383.986	275.56
384.211	274.56
384.436	273.56
384.662	291.56
384.887	282.56
385.112	272.56
385.337	276.56
385.562	297.56
385.787	289.56
386.013	280.56
386.238	283.56
386.463	292.56
386.688	284.56
386.913	296.56
387.138	289.56
387.363	271.56
387.588	283.56
387.813	304.56
388.038	298.56
388.263	278.56
388.488	282.56
388.713	303.56
388.938	285.56
389.163	290.56
389.387	288.56
389.612	283.56
389.837	295.56
390.062	277.56
390.287	308.56
390.512	294.56
390.736	280.56
390.961	275.56
391.186	304.56
391.411	327.56
391.636	315.56
391.86	324.56
392.085	324.56
392.31	329.56
392.534	312.56
392.759	303.56
392.984	306.56
393.208	301.56
393.433	311.56
393.658	281.56
393.882	298.56
394.107	311.56
394.331	302.56
394.556	303.56
394.78	319.56
395.005	315.56
395.229	322.56
395.454	320.56
395.678	311.56
395.903	318.56
396.127	315.56
396.352	319.56
396.576	298.56
396.801	318.56
397.025	331.56
397.249	326.56
397.474	352.56
397.698	324.56
397.922	309.56
398.147	320.56
398.371	351.56
398.595	360.56
398.82	357.56
399.044	375.56
399.268	413.56
399.492	483.56
399.717	518.56
399.941	479.56
400.165	435.56
400.389	398.56
400.613	422.56
400.837	365.56
401.062	356.56
401.286	351.56
401.51	351.56
401.734	344.56
401.958	356.56
402.182	370.56
402.406	369.56
402.63	377.56
402.854	399.56
403.078	392.56
403.302	399.56
403.526	433.56
403.75	409.56
403.974	415.56
404.198	410.56
404.422	403.56
404.645	412.56
404.869	385.56
405.093	389.56
405.317	382.56
405.541	388.56
405.765	382.56
405.988	384.56
406.212	378.56
406.436	390.56
406.66	399.56
406.883	396.56
407.107	426.56
407.331	430.56
407.555	461.56
407.778	458.56
408.002	439.56
408.226	435.56
408.449	410.56
408.673	404.56
408.896	396.56
409.12	393.56
409.344	384.56
409.567	390.56
409.791	409.56
410.014	398.56
410.238	387.56
410.461	387.56
410.685	407.56
410.908	377.56
411.132	365.56
411.355	374.56
411.578	370.56
411.802	369.56
412.025	363.56
412.249	385.56
412.472	369.56
412.695	369.56
412.919	366.56
413.142	377.56
413.365	361.56
413.589	373.56
413.812	357.56
414.035	350.56
414.258	353.56
414.482	377.56
414.705	407.56
414.928	376.56
415.151	369.56
415.374	367.56
415.597	379.56
415.821	358.56
416.044	358.56
416.267	377.56
416.49	345.56
416.713	367.56
416.936	361.56
417.159	373.56
417.382	359.56
417.605	370.56
417.828	375.56
418.051	354.56
418.274	348.56
418.497	370.56
418.72	384.56
418.943	372.56
419.166	382.56
419.389	406.56
419.611	414.56
419.834	365.56
420.057	386.56
420.28	355.56
420.503	356.56
420.726	346.56
420.948	353.56
421.171	360.56
421.394	371.56
421.617	385.56
421.839	359.56
422.062	356.56
422.285	366.56
422.507	371.56
422.73	366.56
422.953	374.56
423.175	379.56
423.398	355.56
423.621	401.56
423.843	393.56
424.066	400.56
424.288	389.56
424.511	375.56
424.733	355.56
424.956	360.56
425.178	377.56
425.401	389.56
425.623	352.56
425.846	337.56
426.068	326.56
426.291	343.56
426.513	348.56
426.735	330.56
426.958	334.56
427.18	335.56
427.402	344.56
427.625	341.56
427.847	313.56
428.069	322.56
428.292	344.56
428.514	330.56
428.736	325.56
428.958	318.56
429.181	305.56
429.403	328.56
429.625	319.56
429.847	333.56
430.069	304.56
430.292	307.56
430.514	309.56
430.736	322.56
430.958	313.56
431.18	329.56
431.402	328.56
431.624	307.56
431.846	312.56
432.068	326.56
432.29	341.56
432.512	333.56
432.734	329.56
432.956	314.56
433.178	335.56
433.4	320.56
433.622	340.56
433.844	329.56
434.066	350.56
434.287	328.56
434.509	356.56
434.731	363.56
434.953	372.56
435.175	379.56
435.397	361.56
435.618	333.56
435.84	343.56
436.062	327.56
436.284	326.56
436.505	326.56
436.727	338.56
436.949	337.56
437.17	342.56
437.392	326.56
437.614	321.56
437.835	290.56
438.057	321.56
438.278	320.56
438.5	317.56
438.721	329.56
438.943	348.56
439.165	329.56
439.386	333.56
439.608	325.56
439.829	303.56
440.05	321.56
440.272	337.56
440.493	334.56
440.715	346.56
440.936	354.56
441.158	357.56
441.379	361.56
441.6	368.56
441.822	375.56
442.043	359.56
442.264	359.56
442.486	355.56
442.707	355.56
442.928	357.56
443.149	353.56
443.371	352.56
443.592	356.56
443.813	372.56
444.034	354.56
444.255	360.56
444.476	386.56
444.698	392.56
444.919	422.56
445.14	557.56
445.361	444.56
445.582	376.56
445.803	351.56
446.024	344.56
446.245	341.56
446.466	341.56
446.687	333.56
446.908	354.56
447.129	321.56
447.35	329.56
447.571	335.56
447.792	320.56
448.013	326.56
448.234	283.56
448.455	308.56
448.675	307.56
448.896	301.56
449.117	322.56
449.338	328.56
449.559	312.56
449.779	311.56
450	306.56
450.221	322.56
450.442	310.56
450.662	311.56
450.883	320.56
451.104	318.56
451.324	329.56
451.545	310.56
451.766	319.56
451.986	302.56
452.207	323.56
452.428	306.56
452.648	304.56
452.869	288.56
453.089	279.56
453.31	303.56
453.53	296.56
453.751	295.56
453.971	305.56
454.192	287.56
454.412	285.56
454.633	316.56
454.853	303.56
455.073	306.56
455.294	303.56
455.514	277.56
455.734	302.56
455.955	285.56
456.175	297.56
456.395	289.56
456.616	276.56
456.836	294.56
457.056	298.56
457.276	278.56
457.497	295.56
457.717	290.56
457.937	286.56
458.157	288.56
458.377	300.56
458.598	305.56
458.818	286.56
459.038	306.56
459.258	312.56
459.478	326.56
459.698	319.56
459.918	355.56
460.138	371.56
460.358	359.56
460.578	383.56
460.798	383.56
461.018	387.56
461.238	371.56
461.458	373.56
461.678	373.56
461.898	384.56
462.118	360.56
462.338	401.56
462.558	399.56
462.777	420.56
462.997	453.56
463.217	495.56
463.437	480.56
463.657	443.56
463.876	422.56
464.096	431.56
464.316	429.56
464.536	435.56
464.755	405.56
464.975	404.56
465.195	387.56
465.414	353.56
465.634	365.56
465.854	345.56
466.073	329.56
466.293	348.56
466.512	329.56
466.732	320.56
466.951	328.56
467.171	334.56
467.391	320.56
467.61	321.56
467.829	316.56
468.049	305.56
468.268	307.56
468.488	330.56
468.707	289.56
468.927	309.56
469.146	309.56
469.365	308.56
469.585	301.56
469.804	300.56
470.023	314.56
470.243	321.56
470.462	309.56
470.681	331.56
470.901	337.56
471.12	314.56
471.339	311.56
471.558	321.56
471.777	328.56
471.997	308.56
472.216	326.56
472.435	311.56
472.654	307.56
472.873	295.56
473.092	296.56
473.311	311.56
473.53	296.56
473.749	296.56
473.968	316.56
474.187	277.56
474.406	294.56
474.625	303.56
474.844	302.56
475.063	311.56
475.282	287.56
475.501	306.56
475.72	300.56
475.939	321.56
476.158	318.56
476.377	310.56
476.596	321.56
476.814	324.56
477.033	291.56
477.252	303.56
477.471	335.56
477.69	339.56
477.908	334.56
478.127	335.56
478.346	351.56
478.564	346.56
478.783	344.56
479.002	375.56
479.22	336.56
479.439	360.56
479.658	336.56
479.876	372.56
480.095	371.56
480.313	398.56
480.532	391.56
480.751	383.56
480.969	363.56
481.188	342.56
481.406	344.56
481.624	335.56
481.843	333.56
482.061	315.56
482.28	340.56
482.498	339.56
482.717	330.56
482.935	337.56
483.153	351.56
483.372	327.56
483.59	343.56
483.808	350.56
484.027	337.56
484.245	333.56
484.463	339.56
484.681	359.56
484.9	340.56
485.118	350.56
485.336	372.56
485.554	336.56
485.772	335.56
485.99	345.56
486.209	347.56
486.427	329.56
486.645	341.56
486.863	351.56
487.081	353.56
487.299	338.56
487.517	353.56
487.735	349.56
487.953	358.56
488.171	350.56
488.389	358.56
488.607	355.56
488.825	342.56
489.043	339.56
489.261	347.56
489.479	329.56
489.696	360.56
489.914	351.56
490.132	330.56
490.35	359.56
490.568	346.56
490.786	351.56
491.003	372.56
491.221	362.56
491.439	359.56
491.657	365.56
491.874	363.56
492.092	357.56
492.31	361.56
492.527	375.56
492.745	351.56
492.963	356.56
493.18	344.56
493.398	362.56
493.615	370.56
493.833	367.56
494.05	346.56
494.268	360.56
494.485	374.56
494.703	377.56
494.92	371.56
495.138	372.56
495.355	368.56
495.573	366.56
495.79	374.56
496.008	374.56
496.225	382.56
496.442	366.56
496.66	371.56
496.877	382.56
497.094	388.56
497.312	396.56
497.529	409.56
497.746	415.56
497.963	403.56
498.181	438.56
498.398	460.56
498.615	480.56
498.832	519.56
499.049	538.56
499.267	580.56
499.484	629.56
499.701	691.56
499.918	741.56
500.135	859.56
500.352	937.56
500.569	945.56
500.786	929.56
501.003	890.56
501.22	804.56
501.437	715.56
501.654	621.56
501.871	607.56
502.088	557.56
502.305	497.56
