Data from Fe(NO3)3@0.0125M.TitratingCurve.Agarose3%dH2O.NegLispCup.LampEnergy10.LIBS07252019_HRD10591_16-58-49-337.txt Node
Date: Thu Jul 25 16:58:49 EDT 2019
User: cochatt
Spectrometer: HR+D1059
Trigger mode: 1
Integration Time (sec): 1.000000E-1
Scans to average: 1
Electric dark correction enabled: true
Nonlinearity correction enabled: false
Boxcar width: 0
XAxis mode: Wavelengths
Number of Pixels in Spectrum: 2048
>>>>>Begin Spectral Data<<<<<
223.165	-9.75
223.4	-9.75
223.635	-9.75
223.869	-14.75
224.104	-18.75
224.338	-15.75
224.573	-10.75
224.808	-12.75
225.042	-9.75
225.277	-10.75
225.511	-4.75
225.746	0.25
225.98	-9.75
226.215	4.25
226.449	18.25
226.683	27.25
226.918	38.25
227.152	29.25
227.387	41.25
227.621	27.25
227.856	43.25
228.09	39.25
228.324	62.25
228.559	65.25
228.793	66.25
229.027	118.25
229.262	119.25
229.496	118.25
229.73	115.25
229.964	131.25
230.199	126.25
230.433	130.25
230.667	127.25
230.901	128.25
231.136	147.25
231.37	142.25
231.604	148.25
231.838	145.25
232.072	142.25
232.306	134.25
232.541	153.25
232.775	148.25
233.009	140.25
233.243	152.25
233.477	148.25
233.711	147.25
233.945	149.25
234.179	150.25
234.413	157.25
234.647	157.25
234.881	161.25
235.115	166.25
235.349	166.25
235.583	154.25
235.817	160.25
236.051	159.25
236.285	158.25
236.519	167.25
236.753	167.25
236.987	155.25
237.221	147.25
237.455	166.25
237.689	164.25
237.922	175.25
238.156	180.25
238.39	178.25
238.624	187.25
238.858	180.25
239.091	180.25
239.325	175.25
239.559	188.25
239.793	178.25
240.027	187.25
240.26	184.25
240.494	201.25
240.728	199.25
240.961	189.25
241.195	190.25
241.429	169.25
241.662	192.25
241.896	198.25
242.13	202.25
242.363	195.25
242.597	214.25
242.83	199.25
243.064	195.25
243.298	194.25
243.531	213.25
243.765	208.25
243.998	210.25
244.232	214.25
244.465	205.25
244.699	207.25
244.932	209.25
245.166	222.25
245.399	199.25
245.633	224.25
245.866	216.25
246.099	216.25
246.333	212.25
246.566	219.25
246.8	213.25
247.033	214.25
247.266	204.25
247.5	227.25
247.733	228.25
247.966	220.25
248.2	253.25
248.433	244.25
248.666	242.25
248.899	236.25
249.133	253.25
249.366	254.25
249.599	272.25
249.832	243.25
250.066	246.25
250.299	262.25
250.532	244.25
250.765	252.25
250.998	252.25
251.231	250.25
251.465	255.25
251.698	272.25
251.931	272.25
252.164	266.25
252.397	266.25
252.63	280.25
252.863	262.25
253.096	271.25
253.329	296.25
253.562	294.25
253.795	290.25
254.028	297.25
254.261	282.25
254.494	265.25
254.727	298.25
254.96	278.25
255.193	293.25
255.426	278.25
255.659	284.25
255.892	294.25
256.124	304.25
256.357	301.25
256.59	315.25
256.823	305.25
257.056	317.25
257.289	314.25
257.521	291.25
257.754	325.25
257.987	322.25
258.22	314.25
258.452	299.25
258.685	322.25
258.918	328.25
259.151	315.25
259.383	324.25
259.616	318.25
259.849	323.25
260.081	350.25
260.314	354.25
260.547	350.25
260.779	320.25
261.012	344.25
261.244	336.25
261.477	345.25
261.71	339.25
261.942	348.25
262.175	334.25
262.407	351.25
262.64	351.25
262.872	328.25
263.105	350.25
263.337	357.25
263.57	354.25
263.802	349.25
264.035	344.25
264.267	358.25
264.499	360.25
264.732	356.25
264.964	351.25
265.197	361.25
265.429	380.25
265.661	357.25
265.894	362.25
266.126	384.25
266.358	346.25
266.591	363.25
266.823	386.25
267.055	365.25
267.287	370.25
267.52	379.25
267.752	381.25
267.984	379.25
268.216	380.25
268.448	374.25
268.681	393.25
268.913	384.25
269.145	376.25
269.377	394.25
269.609	392.25
269.841	401.25
270.073	404.25
270.306	382.25
270.538	406.25
270.77	386.25
271.002	401.25
271.234	401.25
271.466	408.25
271.698	401.25
271.93	406.25
272.162	418.25
272.394	412.25
272.626	421.25
272.858	424.25
273.09	409.25
273.322	425.25
273.553	424.25
273.785	439.25
274.017	461.25
274.249	456.25
274.481	459.25
274.713	464.25
274.945	488.25
275.176	484.25
275.408	459.25
275.64	460.25
275.872	461.25
276.104	458.25
276.335	458.25
276.567	463.25
276.799	466.25
277.031	471.25
277.262	471.25
277.494	443.25
277.726	457.25
277.957	452.25
278.189	475.25
278.421	470.25
278.652	465.25
278.884	453.25
279.115	470.25
279.347	457.25
279.579	477.25
279.81	493.25
280.042	469.25
280.273	479.25
280.505	458.25
280.736	467.25
280.968	470.25
281.199	485.25
281.431	484.25
281.662	484.25
281.894	488.25
282.125	471.25
282.356	508.25
282.588	513.25
282.819	522.25
283.051	505.25
283.282	501.25
283.513	511.25
283.745	476.25
283.976	503.25
284.207	516.25
284.439	521.25
284.67	527.25
284.901	518.25
285.132	524.25
285.364	525.25
285.595	524.25
285.826	535.25
286.057	516.25
286.288	528.25
286.52	524.25
286.751	528.25
286.982	548.25
287.213	539.25
287.444	538.25
287.675	538.25
287.906	525.25
288.138	550.25
288.369	547.25
288.6	549.25
288.831	539.25
289.062	543.25
289.293	565.25
289.524	546.25
289.755	542.25
289.986	543.25
290.217	546.25
290.448	549.25
290.679	566.25
290.91	590.25
291.141	574.25
291.371	557.25
291.602	547.25
291.833	556.25
292.064	548.25
292.295	562.25
292.526	558.25
292.757	539.25
292.987	574.25
293.218	579.25
293.449	557.25
293.68	562.25
293.91	564.25
294.141	569.25
294.372	565.25
294.603	572.25
294.833	572.25
295.064	579.25
295.295	582.25
295.525	574.25
295.756	582.25
295.987	575.25
296.217	579.25
296.448	586.25
296.679	597.25
296.909	591.25
297.14	603.25
297.37	607.25
297.601	567.25
297.831	582.25
298.062	586.25
298.292	602.25
298.523	622.25
298.753	620.25
298.984	586.25
299.214	631.25
299.445	613.25
299.675	598.25
299.905	621.25
300.136	635.25
300.366	606.25
300.597	599.25
300.827	631.25
301.057	610.25
301.288	640.25
301.518	621.25
301.748	636.25
301.979	644.25
302.209	638.25
302.439	672.25
302.669	635.25
302.9	650.25
303.13	655.25
303.36	659.25
303.59	664.25
303.82	652.25
304.051	660.25
304.281	679.25
304.511	671.25
304.741	653.25
304.971	660.25
305.201	666.25
305.431	670.25
305.661	675.25
305.891	648.25
306.121	672.25
306.352	670.25
306.582	646.25
306.812	645.25
307.042	669.25
307.272	684.25
307.502	667.25
307.731	686.25
307.961	647.25
308.191	674.25
308.421	686.25
308.651	678.25
308.881	675.25
309.111	668.25
309.341	675.25
309.571	672.25
309.8	666.25
310.03	658.25
310.26	682.25
310.49	695.25
310.72	685.25
310.949	701.25
311.179	699.25
311.409	696.25
311.639	679.25
311.868	690.25
312.098	721.25
312.328	729.25
312.557	702.25
312.787	719.25
313.017	707.25
313.246	723.25
313.476	718.25
313.706	728.25
313.935	696.25
314.165	717.25
314.394	697.25
314.624	743.25
314.853	723.25
315.083	734.25
315.312	738.25
315.542	706.25
315.771	738.25
316.001	744.25
316.23	717.25
316.46	723.25
316.689	756.25
316.919	754.25
317.148	737.25
317.377	751.25
317.607	722.25
317.836	736.25
318.065	764.25
318.295	760.25
318.524	742.25
318.753	753.25
318.983	754.25
319.212	741.25
319.441	759.25
319.67	748.25
319.9	748.25
320.129	762.25
320.358	748.25
320.587	782.25
320.816	772.25
321.046	745.25
321.275	770.25
321.504	762.25
321.733	762.25
321.962	788.25
322.191	787.25
322.42	764.25
322.649	774.25
322.878	782.25
323.108	805.25
323.337	757.25
323.566	784.25
323.795	778.25
324.024	807.25
324.253	798.25
324.482	773.25
324.71	801.25
324.939	801.25
325.168	783.25
325.397	790.25
325.626	834.25
325.855	818.25
326.084	828.25
326.313	807.25
326.542	820.25
326.77	795.25
326.999	816.25
327.228	834.25
327.457	815.25
327.686	831.25
327.914	813.25
328.143	802.25
328.372	832.25
328.6	830.25
328.829	802.25
329.058	815.25
329.287	821.25
329.515	796.25
329.744	816.25
329.972	806.25
330.201	853.25
330.43	839.25
330.658	824.25
330.887	866.25
331.115	826.25
331.344	824.25
331.572	847.25
331.801	856.25
332.03	892.25
332.258	870.25
332.486	864.25
332.715	864.25
332.943	866.25
333.172	827.25
333.4	860.25
333.629	890.25
333.857	873.25
334.085	894.25
334.314	896.25
334.542	890.25
334.771	895.25
334.999	900.25
335.227	919.25
335.455	902.25
335.684	890.25
335.912	900.25
336.14	909.25
336.369	887.25
336.597	912.25
336.825	909.25
337.053	915.25
337.281	902.25
337.51	880.25
337.738	884.25
337.966	906.25
338.194	879.25
338.422	930.25
338.65	910.25
338.878	900.25
339.106	886.25
339.334	878.25
339.562	884.25
339.79	890.25
340.018	883.25
340.246	846.25
340.474	878.25
340.702	869.25
340.93	871.25
341.158	902.25
341.386	878.25
341.614	877.25
341.842	871.25
342.07	871.25
342.298	893.25
342.526	882.25
342.754	869.25
342.981	882.25
343.209	899.25
343.437	878.25
343.665	883.25
343.893	910.25
344.12	902.25
344.348	902.25
344.576	906.25
344.804	900.25
345.031	918.25
345.259	860.25
345.487	877.25
345.714	895.25
345.942	894.25
346.17	882.25
346.397	893.25
346.625	862.25
346.853	858.25
347.08	869.25
347.308	859.25
347.535	854.25
347.763	854.25
347.99	891.25
348.218	847.25
348.445	838.25
348.673	869.25
348.9	833.25
349.128	860.25
349.355	880.25
349.583	854.25
349.81	824.25
350.037	831.25
350.265	830.25
350.492	831.25
350.72	855.25
350.947	835.25
351.174	847.25
351.402	847.25
351.629	821.25
351.856	851.25
352.083	860.25
352.311	846.25
352.538	847.25
352.765	852.25
352.992	861.25
353.22	837.25
353.447	828.25
353.674	858.25
353.901	846.25
354.128	858.25
354.355	861.25
354.583	834.25
354.81	837.25
355.037	864.25
355.264	835.25
355.491	839.25
355.718	832.25
355.945	830.25
356.172	843.25
356.399	843.25
356.626	842.25
356.853	904.25
357.08	845.25
357.307	862.25
357.534	849.25
357.761	843.25
357.988	853.25
358.215	844.25
358.441	849.25
358.668	822.25
358.895	840.25
359.122	855.25
359.349	865.25
359.576	833.25
359.802	866.25
360.029	826.25
360.256	862.25
360.483	853.25
360.709	834.25
360.936	848.25
361.163	872.25
361.39	852.25
361.616	855.25
361.843	830.25
362.07	848.25
362.296	845.25
362.523	870.25
362.749	851.25
362.976	884.25
363.203	864.25
363.429	881.25
363.656	888.25
363.882	867.25
364.109	868.25
364.335	884.25
364.562	842.25
364.788	872.25
365.015	891.25
365.241	842.25
365.468	871.25
365.694	872.25
365.92	876.25
366.147	850.25
366.373	880.25
366.599	885.25
366.826	864.25
367.052	878.25
367.278	877.25
367.505	882.25
367.731	890.25
367.957	863.25
368.184	906.25
368.41	876.25
368.636	898.25
368.862	908.25
369.089	872.25
369.315	890.25
369.541	918.25
369.767	916.25
369.993	880.25
370.219	875.25
370.445	888.25
370.672	926.25
370.898	903.25
371.124	888.25
371.35	894.25
371.576	895.25
371.802	899.25
372.028	909.25
372.254	910.25
372.48	952.25
372.706	918.25
372.932	921.25
373.158	927.25
373.384	946.25
373.61	919.25
373.835	915.25
374.061	955.25
374.287	943.25
374.513	957.25
374.739	954.25
374.965	955.25
375.191	962.25
375.416	915.25
375.642	950.25
375.868	934.25
376.094	927.25
376.319	902.25
376.545	924.25
376.771	917.25
376.997	902.25
377.222	923.25
377.448	920.25
377.674	894.25
377.899	901.25
378.125	894.25
378.35	912.25
378.576	903.25
378.802	933.25
379.027	911.25
379.253	927.25
379.478	907.25
379.704	904.25
379.929	902.25
380.155	917.25
380.38	922.25
380.606	922.25
380.831	910.25
381.057	927.25
381.282	939.25
381.507	926.25
381.733	891.25
381.958	938.25
382.184	968.25
382.409	938.25
382.634	930.25
382.86	958.25
383.085	932.25
383.31	932.25
383.535	943.25
383.761	930.25
383.986	941.25
384.211	953.25
384.436	965.25
384.662	967.25
384.887	988.25
385.112	979.25
385.337	980.25
385.562	1007.25
385.787	973.25
386.013	968.25
386.238	991.25
386.463	1007.25
386.688	1003.25
386.913	995.25
387.138	992.25
387.363	982.25
387.588	1032.25
387.813	1001.25
388.038	1010.25
388.263	991.25
388.488	1003.25
388.713	986.25
388.938	1021.25
389.163	1005.25
389.387	1003.25
389.612	1001.25
389.837	1020.25
390.062	1006.25
390.287	1012.25
390.512	1004.25
390.736	999.25
390.961	997.25
391.186	999.25
391.411	998.25
391.636	1018.25
391.86	1029.25
392.085	1036.25
392.31	1047.25
392.534	1040.25
392.759	1045.25
392.984	1026.25
393.208	1068.25
393.433	1053.25
393.658	1040.25
393.882	1030.25
394.107	1049.25
394.331	1059.25
394.556	1021.25
394.78	1029.25
395.005	1040.25
395.229	1050.25
395.454	1064.25
395.678	1036.25
395.903	1049.25
396.127	1060.25
396.352	1035.25
396.576	1064.25
396.801	1069.25
397.025	1058.25
397.249	1085.25
397.474	1066.25
397.698	1078.25
397.922	1095.25
398.147	1084.25
398.371	1092.25
398.595	1102.25
398.82	1094.25
399.044	1131.25
399.268	1135.25
399.492	1123.25
399.717	1180.25
399.941	1203.25
400.165	1202.25
400.389	1204.25
400.613	1169.25
400.837	1144.25
401.062	1142.25
401.286	1144.25
401.51	1118.25
401.734	1131.25
401.958	1116.25
402.182	1120.25
402.406	1150.25
402.63	1122.25
402.854	1112.25
403.078	1126.25
403.302	1130.25
403.526	1115.25
403.75	1112.25
403.974	1154.25
404.198	1098.25
404.422	1112.25
404.645	1174.25
404.869	1154.25
405.093	1150.25
405.317	1134.25
405.541	1141.25
405.765	1166.25
405.988	1131.25
406.212	1162.25
406.436	1154.25
406.66	1165.25
406.883	1155.25
407.107	1213.25
407.331	1192.25
407.555	1234.25
407.778	1213.25
408.002	1227.25
408.226	1214.25
408.449	1226.25
408.673	1231.25
408.896	1191.25
409.12	1193.25
409.344	1172.25
409.567	1174.25
409.791	1174.25
410.014	1158.25
410.238	1158.25
410.461	1161.25
410.685	1175.25
410.908	1178.25
411.132	1147.25
411.355	1154.25
411.578	1124.25
411.802	1141.25
412.025	1146.25
412.249	1162.25
412.472	1129.25
412.695	1156.25
412.919	1122.25
413.142	1123.25
413.365	1149.25
413.589	1132.25
413.812	1101.25
414.035	1108.25
414.258	1102.25
414.482	1123.25
414.705	1095.25
414.928	1127.25
415.151	1109.25
415.374	1094.25
415.597	1095.25
415.821	1104.25
416.044	1065.25
416.267	1104.25
416.49	1050.25
416.713	1042.25
416.936	1074.25
417.159	1091.25
417.382	1062.25
417.605	1091.25
417.828	1091.25
418.051	1053.25
418.274	1065.25
418.497	1018.25
418.72	1062.25
418.943	1028.25
419.166	1066.25
419.389	1140.25
419.611	1134.25
419.834	1103.25
420.057	1097.25
420.28	1063.25
420.503	1040.25
420.726	1053.25
420.948	1068.25
421.171	1058.25
421.394	1054.25
421.617	1044.25
421.839	1048.25
422.062	1035.25
422.285	1027.25
422.507	1028.25
422.73	1057.25
422.953	1059.25
423.175	1064.25
423.398	1042.25
423.621	1040.25
423.843	1028.25
424.066	1051.25
424.288	1070.25
424.511	1028.25
424.733	1023.25
424.956	1053.25
425.178	1041.25
425.401	1051.25
425.623	1033.25
425.846	1043.25
426.068	1054.25
426.291	1046.25
426.513	1034.25
426.735	1020.25
426.958	1031.25
427.18	1027.25
427.402	1045.25
427.625	1034.25
427.847	1029.25
428.069	1024.25
428.292	1066.25
428.514	994.25
428.736	1031.25
428.958	1017.25
429.181	1014.25
429.403	997.25
429.625	1019.25
429.847	1030.25
430.069	1023.25
430.292	1046.25
430.514	977.25
430.736	1015.25
430.958	1019.25
431.18	1018.25
431.402	1019.25
431.624	999.25
431.846	1026.25
432.068	1007.25
432.29	1032.25
432.512	995.25
432.734	1030.25
432.956	1031.25
433.178	1026.25
433.4	1039.25
433.622	1023.25
433.844	1052.25
434.066	1005.25
434.287	1006.25
434.509	1024.25
434.731	1035.25
434.953	1026.25
435.175	1030.25
435.397	1029.25
435.618	1049.25
435.84	1029.25
436.062	1016.25
436.284	1017.25
436.505	1002.25
436.727	1001.25
436.949	997.25
437.17	991.25
437.392	1029.25
437.614	988.25
437.835	987.25
438.057	992.25
438.278	959.25
438.5	978.25
438.721	968.25
438.943	1006.25
439.165	967.25
439.386	1001.25
439.608	1011.25
439.829	1015.25
440.05	986.25
440.272	981.25
440.493	982.25
440.715	995.25
440.936	1002.25
441.158	998.25
441.379	976.25
441.6	1019.25
441.822	1018.25
442.043	989.25
442.264	1017.25
442.486	996.25
442.707	968.25
442.928	964.25
443.149	1013.25
443.371	986.25
443.592	1010.25
443.813	1002.25
444.034	996.25
444.255	992.25
444.476	997.25
444.698	1011.25
444.919	1012.25
445.14	1113.25
445.361	1062.25
445.582	1007.25
445.803	983.25
446.024	998.25
446.245	1026.25
446.466	986.25
446.687	955.25
446.908	971.25
447.129	991.25
447.35	962.25
447.571	958.25
447.792	938.25
448.013	965.25
448.234	920.25
448.455	927.25
448.675	901.25
448.896	963.25
449.117	918.25
449.338	915.25
449.559	890.25
449.779	910.25
450	936.25
450.221	926.25
450.442	932.25
450.662	921.25
450.883	912.25
451.104	881.25
451.324	926.25
451.545	902.25
451.766	896.25
451.986	895.25
452.207	895.25
452.428	894.25
452.648	917.25
452.869	911.25
453.089	885.25
453.31	891.25
453.53	884.25
453.751	896.25
453.971	906.25
454.192	914.25
454.412	900.25
454.633	878.25
454.853	889.25
455.073	897.25
455.294	897.25
455.514	882.25
455.734	894.25
455.955	900.25
456.175	890.25
456.395	905.25
456.616	887.25
456.836	903.25
457.056	924.25
457.276	884.25
457.497	891.25
457.717	894.25
457.937	919.25
458.157	924.25
458.377	903.25
458.598	920.25
458.818	964.25
459.038	941.25
459.258	952.25
459.478	962.25
459.698	954.25
459.918	967.25
460.138	962.25
460.358	990.25
460.578	974.25
460.798	1016.25
461.018	972.25
461.238	990.25
461.458	1022.25
461.678	1034.25
461.898	1049.25
462.118	1027.25
462.338	1053.25
462.558	1087.25
462.777	1075.25
462.997	1054.25
463.217	1111.25
463.437	1090.25
463.657	1098.25
463.876	1087.25
464.096	1103.25
464.316	1052.25
464.536	1070.25
464.755	1088.25
464.975	1070.25
465.195	1040.25
465.414	1043.25
465.634	1004.25
465.854	1014.25
466.073	1000.25
466.293	990.25
466.512	984.25
466.732	954.25
466.951	975.25
467.171	983.25
467.391	973.25
467.61	980.25
467.829	958.25
468.049	956.25
468.268	981.25
468.488	966.25
468.707	962.25
468.927	1000.25
469.146	954.25
469.365	976.25
469.585	976.25
469.804	967.25
470.023	963.25
470.243	986.25
470.462	981.25
470.681	990.25
470.901	990.25
471.12	989.25
471.339	974.25
471.558	997.25
471.777	974.25
471.997	990.25
472.216	975.25
472.435	955.25
472.654	979.25
472.873	976.25
473.092	988.25
473.311	955.25
473.53	987.25
473.749	975.25
473.968	994.25
474.187	997.25
474.406	985.25
474.625	1014.25
474.844	995.25
475.063	1012.25
475.282	986.25
475.501	995.25
475.72	1036.25
475.939	1046.25
476.158	1025.25
476.377	1050.25
476.596	1066.25
476.814	1061.25
477.033	1075.25
477.252	1085.25
477.471	1070.25
477.69	1080.25
477.908	1099.25
478.127	1074.25
478.346	1103.25
478.564	1103.25
478.783	1123.25
479.002	1101.25
479.22	1158.25
479.439	1188.25
479.658	1143.25
479.876	1147.25
480.095	1152.25
480.313	1151.25
480.532	1154.25
480.751	1158.25
480.969	1152.25
481.188	1176.25
481.406	1155.25
481.624	1196.25
481.843	1174.25
482.061	1164.25
482.28	1189.25
482.498	1159.25
482.717	1168.25
482.935	1195.25
483.153	1158.25
483.372	1197.25
483.59	1182.25
483.808	1184.25
484.027	1194.25
484.245	1207.25
484.463	1193.25
484.681	1214.25
484.9	1197.25
485.118	1168.25
485.336	1188.25
485.554	1205.25
485.772	1213.25
485.99	1197.25
486.209	1208.25
486.427	1189.25
486.645	1213.25
486.863	1224.25
487.081	1203.25
487.299	1176.25
487.517	1195.25
487.735	1196.25
487.953	1199.25
488.171	1222.25
488.389	1246.25
488.607	1212.25
488.825	1210.25
489.043	1204.25
489.261	1203.25
489.479	1205.25
489.696	1230.25
489.914	1182.25
490.132	1240.25
490.35	1271.25
490.568	1207.25
490.786	1212.25
491.003	1223.25
491.221	1244.25
491.439	1234.25
491.657	1250.25
491.874	1236.25
492.092	1239.25
492.31	1235.25
492.527	1269.25
492.745	1261.25
492.963	1252.25
493.18	1268.25
493.398	1258.25
493.615	1240.25
493.833	1253.25
494.05	1248.25
494.268	1297.25
494.485	1269.25
494.703	1241.25
494.92	1293.25
495.138	1263.25
495.355	1260.25
495.573	1259.25
495.79	1274.25
496.008	1299.25
496.225	1264.25
496.442	1262.25
496.66	1297.25
