Data from Fe(NO3)3@0.0125M.TitratingCurve.Agarose3%dH2O.NegLispCup.LampEnergy10.LIBS07252019_HRD10591_17-00-36-337.txt Node
Date: Thu Jul 25 17:00:36 EDT 2019
User: cochatt
Spectrometer: HR+D1059
Trigger mode: 1
Integration Time (sec): 1.000000E-1
Scans to average: 1
Electric dark correction enabled: true
Nonlinearity correction enabled: false
Boxcar width: 0
XAxis mode: Wavelengths
Number of Pixels in Spectrum: 2048
>>>>>Begin Spectral Data<<<<<
223.165	-12.25
223.4	-12.25
223.635	-12.25
223.869	-28.25
224.104	-11.25
224.338	-12.25
224.573	-24.25
224.808	-3.25
225.042	2.75
225.277	-12.25
225.511	-11.25
225.746	0.75
225.98	2.75
226.215	13.75
226.449	17.75
226.683	17.75
226.918	24.75
227.152	34.75
227.387	30.75
227.621	44.75
227.856	42.75
228.09	45.75
228.324	53.75
228.559	58.75
228.793	66.75
229.027	86.75
229.262	88.75
229.496	103.75
229.73	115.75
229.964	93.75
230.199	102.75
230.433	97.75
230.667	109.75
230.901	90.75
231.136	93.75
231.37	85.75
231.604	98.75
231.838	111.75
232.072	115.75
232.306	104.75
232.541	110.75
232.775	112.75
233.009	120.75
233.243	118.75
233.477	115.75
233.711	105.75
233.945	105.75
234.179	117.75
234.413	109.75
234.647	105.75
234.881	118.75
235.115	118.75
235.349	103.75
235.583	112.75
235.817	105.75
236.051	111.75
236.285	126.75
236.519	110.75
236.753	105.75
236.987	123.75
237.221	104.75
237.455	116.75
237.689	116.75
237.922	102.75
238.156	111.75
238.39	110.75
238.624	118.75
238.858	126.75
239.091	114.75
239.325	111.75
239.559	106.75
239.793	114.75
240.027	119.75
240.26	107.75
240.494	118.75
240.728	125.75
240.961	123.75
241.195	124.75
241.429	132.75
241.662	105.75
241.896	113.75
242.13	125.75
242.363	123.75
242.597	126.75
242.83	130.75
243.064	125.75
243.298	126.75
243.531	124.75
243.765	115.75
243.998	132.75
244.232	138.75
244.465	145.75
244.699	128.75
244.932	119.75
245.166	136.75
245.399	137.75
245.633	140.75
245.866	145.75
246.099	137.75
246.333	138.75
246.566	141.75
246.8	142.75
247.033	135.75
247.266	136.75
247.5	127.75
247.733	136.75
247.966	138.75
248.2	166.75
248.433	145.75
248.666	152.75
248.899	150.75
249.133	157.75
249.366	137.75
249.599	160.75
249.832	149.75
250.066	164.75
250.299	160.75
250.532	158.75
250.765	153.75
250.998	165.75
251.231	153.75
251.465	163.75
251.698	165.75
251.931	154.75
252.164	154.75
252.397	156.75
252.63	163.75
252.863	162.75
253.096	164.75
253.329	169.75
253.562	148.75
253.795	150.75
254.028	162.75
254.261	182.75
254.494	162.75
254.727	154.75
254.96	162.75
255.193	149.75
255.426	164.75
255.659	166.75
255.892	171.75
256.124	175.75
256.357	159.75
256.59	170.75
256.823	161.75
257.056	170.75
257.289	170.75
257.521	164.75
257.754	170.75
257.987	174.75
258.22	158.75
258.452	174.75
258.685	163.75
258.918	172.75
259.151	181.75
259.383	184.75
259.616	192.75
259.849	180.75
260.081	175.75
260.314	198.75
260.547	175.75
260.779	187.75
261.012	187.75
261.244	187.75
261.477	208.75
261.71	178.75
261.942	164.75
262.175	174.75
262.407	190.75
262.64	193.75
262.872	186.75
263.105	184.75
263.337	196.75
263.57	195.75
263.802	182.75
264.035	186.75
264.267	184.75
264.499	182.75
264.732	194.75
264.964	188.75
265.197	192.75
265.429	167.75
265.661	200.75
265.894	204.75
266.126	198.75
266.358	202.75
266.591	198.75
266.823	186.75
267.055	192.75
267.287	199.75
267.52	189.75
267.752	198.75
267.984	194.75
268.216	186.75
268.448	202.75
268.681	211.75
268.913	188.75
269.145	207.75
269.377	193.75
269.609	212.75
269.841	204.75
270.073	185.75
270.306	219.75
270.538	227.75
270.77	200.75
271.002	194.75
271.234	208.75
271.466	222.75
271.698	211.75
271.93	221.75
272.162	212.75
272.394	198.75
272.626	214.75
272.858	224.75
273.09	230.75
273.322	226.75
273.553	227.75
273.785	240.75
274.017	226.75
274.249	240.75
274.481	231.75
274.713	233.75
274.945	220.75
275.176	206.75
275.408	236.75
275.64	244.75
275.872	231.75
276.104	216.75
276.335	214.75
276.567	227.75
276.799	234.75
277.031	239.75
277.262	227.75
277.494	240.75
277.726	228.75
277.957	229.75
278.189	220.75
278.421	227.75
278.652	233.75
278.884	227.75
279.115	223.75
279.347	236.75
279.579	245.75
279.81	230.75
280.042	222.75
280.273	220.75
280.505	261.75
280.736	227.75
280.968	236.75
281.199	254.75
281.431	233.75
281.662	257.75
281.894	254.75
282.125	266.75
282.356	266.75
282.588	252.75
282.819	246.75
283.051	234.75
283.282	248.75
283.513	254.75
283.745	264.75
283.976	247.75
284.207	245.75
284.439	238.75
284.67	238.75
284.901	259.75
285.132	253.75
285.364	254.75
285.595	261.75
285.826	261.75
286.057	246.75
286.288	234.75
286.52	258.75
286.751	263.75
286.982	269.75
287.213	286.75
287.444	279.75
287.675	263.75
287.906	262.75
288.138	268.75
288.369	256.75
288.6	273.75
288.831	276.75
289.062	284.75
289.293	265.75
289.524	267.75
289.755	261.75
289.986	269.75
290.217	263.75
290.448	268.75
290.679	243.75
290.91	268.75
291.141	271.75
291.371	281.75
291.602	260.75
291.833	261.75
292.064	278.75
292.295	263.75
292.526	268.75
292.757	264.75
292.987	268.75
293.218	287.75
293.449	277.75
293.68	262.75
293.91	272.75
294.141	287.75
294.372	261.75
294.603	277.75
294.833	280.75
295.064	281.75
295.295	273.75
295.525	280.75
295.756	284.75
295.987	291.75
296.217	279.75
296.448	276.75
296.679	277.75
296.909	283.75
297.14	272.75
297.37	286.75
297.601	282.75
297.831	287.75
298.062	291.75
298.292	301.75
298.523	309.75
298.753	298.75
298.984	295.75
299.214	296.75
299.445	320.75
299.675	309.75
299.905	292.75
300.136	285.75
300.366	304.75
300.597	309.75
300.827	311.75
301.057	311.75
301.288	305.75
301.518	314.75
301.748	317.75
301.979	330.75
302.209	317.75
302.439	318.75
302.669	304.75
302.9	306.75
303.13	297.75
303.36	304.75
303.59	315.75
303.82	303.75
304.051	306.75
304.281	335.75
304.511	316.75
304.741	312.75
304.971	323.75
305.201	314.75
305.431	306.75
305.661	320.75
305.891	313.75
306.121	325.75
306.352	319.75
306.582	315.75
306.812	311.75
307.042	311.75
307.272	337.75
307.502	318.75
307.731	343.75
307.961	313.75
308.191	313.75
308.421	296.75
308.651	331.75
308.881	332.75
309.111	329.75
309.341	326.75
309.571	312.75
309.8	302.75
310.03	322.75
310.26	336.75
310.49	322.75
310.72	317.75
310.949	330.75
311.179	317.75
311.409	322.75
311.639	326.75
311.868	329.75
312.098	334.75
312.328	317.75
312.557	321.75
312.787	326.75
313.017	351.75
313.246	336.75
313.476	336.75
313.706	333.75
313.935	334.75
314.165	349.75
314.394	344.75
314.624	350.75
314.853	325.75
315.083	343.75
315.312	342.75
315.542	348.75
315.771	345.75
316.001	342.75
316.23	342.75
316.46	336.75
316.689	340.75
316.919	333.75
317.148	331.75
317.377	368.75
317.607	359.75
317.836	346.75
318.065	346.75
318.295	346.75
318.524	351.75
318.753	348.75
318.983	330.75
319.212	346.75
319.441	343.75
319.67	346.75
319.9	357.75
320.129	339.75
320.358	350.75
320.587	354.75
320.816	359.75
321.046	367.75
321.275	358.75
321.504	354.75
321.733	355.75
321.962	355.75
322.191	351.75
322.42	358.75
322.649	350.75
322.878	350.75
323.108	360.75
323.337	359.75
323.566	373.75
323.795	348.75
324.024	355.75
324.253	361.75
324.482	356.75
324.71	362.75
324.939	379.75
325.168	363.75
325.397	375.75
325.626	375.75
325.855	373.75
326.084	371.75
326.313	365.75
326.542	374.75
326.77	385.75
326.999	354.75
327.228	364.75
327.457	367.75
327.686	369.75
327.914	379.75
328.143	376.75
328.372	380.75
328.6	386.75
328.829	379.75
329.058	376.75
329.287	375.75
329.515	371.75
329.744	383.75
329.972	384.75
330.201	379.75
330.43	380.75
330.658	390.75
330.887	379.75
331.115	387.75
331.344	396.75
331.572	403.75
331.801	398.75
332.03	367.75
332.258	406.75
332.486	408.75
332.715	407.75
332.943	413.75
333.172	416.75
333.4	430.75
333.629	399.75
333.857	429.75
334.085	426.75
334.314	452.75
334.542	428.75
334.771	430.75
334.999	414.75
335.227	414.75
335.455	435.75
335.684	422.75
335.912	426.75
336.14	430.75
336.369	444.75
336.597	432.75
336.825	426.75
337.053	440.75
337.281	418.75
337.51	404.75
337.738	418.75
337.966	407.75
338.194	414.75
338.422	408.75
338.65	421.75
338.878	413.75
339.106	420.75
339.334	414.75
339.562	418.75
339.79	394.75
340.018	398.75
340.246	403.75
340.474	413.75
340.702	396.75
340.93	419.75
341.158	414.75
341.386	400.75
341.614	401.75
341.842	402.75
342.07	383.75
342.298	403.75
342.526	384.75
342.754	400.75
342.981	406.75
343.209	409.75
343.437	414.75
343.665	418.75
343.893	439.75
344.12	437.75
344.348	453.75
344.576	413.75
344.804	403.75
345.031	410.75
345.259	431.75
345.487	409.75
345.714	402.75
345.942	409.75
346.17	412.75
346.397	405.75
346.625	401.75
346.853	394.75
347.08	394.75
347.308	392.75
347.535	388.75
347.763	395.75
347.99	379.75
348.218	387.75
348.445	395.75
348.673	383.75
348.9	389.75
349.128	394.75
349.355	392.75
349.583	377.75
349.81	400.75
350.037	403.75
350.265	406.75
350.492	384.75
350.72	374.75
350.947	391.75
351.174	390.75
351.402	364.75
351.629	362.75
351.856	386.75
352.083	387.75
352.311	411.75
352.538	380.75
352.765	381.75
352.992	393.75
353.22	382.75
353.447	380.75
353.674	376.75
353.901	378.75
354.128	383.75
354.355	390.75
354.583	376.75
354.81	389.75
355.037	380.75
355.264	376.75
355.491	394.75
355.718	385.75
355.945	389.75
356.172	389.75
356.399	393.75
356.626	385.75
356.853	392.75
357.08	397.75
357.307	388.75
357.534	399.75
357.761	393.75
357.988	381.75
358.215	391.75
358.441	410.75
358.668	396.75
358.895	382.75
359.122	398.75
359.349	401.75
359.576	408.75
359.802	381.75
360.029	379.75
360.256	399.75
360.483	392.75
360.709	374.75
360.936	392.75
361.163	406.75
361.39	397.75
361.616	384.75
361.843	400.75
362.07	379.75
362.296	380.75
362.523	401.75
362.749	386.75
362.976	412.75
363.203	413.75
363.429	391.75
363.656	406.75
363.882	402.75
364.109	415.75
364.335	392.75
364.562	411.75
364.788	394.75
365.015	383.75
365.241	398.75
365.468	403.75
365.694	412.75
365.92	391.75
366.147	421.75
366.373	406.75
366.599	420.75
366.826	391.75
367.052	396.75
367.278	416.75
367.505	398.75
367.731	401.75
367.957	420.75
368.184	418.75
368.41	402.75
368.636	415.75
368.862	404.75
369.089	423.75
369.315	391.75
369.541	418.75
369.767	411.75
369.993	406.75
370.219	425.75
370.445	435.75
370.672	418.75
370.898	418.75
371.124	407.75
371.35	422.75
371.576	414.75
371.802	417.75
372.028	431.75
372.254	422.75
372.48	443.75
372.706	398.75
372.932	434.75
373.158	443.75
373.384	432.75
373.61	445.75
373.835	430.75
374.061	434.75
374.287	431.75
374.513	447.75
374.739	458.75
374.965	445.75
375.191	452.75
375.416	464.75
375.642	451.75
375.868	454.75
376.094	437.75
376.319	409.75
376.545	454.75
376.771	423.75
376.997	461.75
377.222	419.75
377.448	434.75
377.674	434.75
377.899	419.75
378.125	449.75
378.35	418.75
378.576	407.75
378.802	449.75
379.027	436.75
379.253	426.75
379.478	424.75
379.704	414.75
379.929	411.75
380.155	447.75
380.38	431.75
380.606	414.75
380.831	436.75
381.057	418.75
381.282	432.75
381.507	440.75
381.733	438.75
381.958	439.75
382.184	456.75
382.409	445.75
382.634	436.75
382.86	435.75
383.085	465.75
383.31	433.75
383.535	438.75
383.761	422.75
383.986	438.75
384.211	469.75
384.436	470.75
384.662	468.75
384.887	482.75
385.112	456.75
385.337	468.75
385.562	479.75
385.787	483.75
386.013	520.75
386.238	488.75
386.463	477.75
386.688	488.75
386.913	485.75
387.138	479.75
387.363	486.75
387.588	482.75
387.813	513.75
388.038	464.75
388.263	507.75
388.488	500.75
388.713	485.75
388.938	478.75
389.163	478.75
389.387	491.75
389.612	471.75
389.837	480.75
390.062	508.75
390.287	479.75
390.512	480.75
390.736	506.75
390.961	498.75
391.186	516.75
391.411	512.75
391.636	507.75
391.86	522.75
392.085	504.75
392.31	529.75
392.534	521.75
392.759	522.75
392.984	534.75
393.208	545.75
393.433	529.75
393.658	544.75
393.882	510.75
394.107	529.75
394.331	537.75
394.556	521.75
394.78	521.75
395.005	517.75
395.229	522.75
395.454	536.75
395.678	520.75
395.903	550.75
396.127	538.75
396.352	537.75
396.576	500.75
396.801	518.75
397.025	567.75
397.249	561.75
397.474	551.75
397.698	542.75
397.922	541.75
398.147	545.75
398.371	548.75
398.595	555.75
398.82	589.75
399.044	612.75
399.268	619.75
399.492	651.75
399.717	652.75
399.941	674.75
400.165	651.75
400.389	654.75
400.613	620.75
400.837	596.75
401.062	588.75
401.286	574.75
401.51	593.75
401.734	579.75
401.958	596.75
402.182	608.75
402.406	579.75
402.63	596.75
402.854	578.75
403.078	564.75
403.302	601.75
403.526	612.75
403.75	594.75
403.974	614.75
404.198	587.75
404.422	602.75
404.645	591.75
404.869	608.75
405.093	620.75
405.317	585.75
405.541	598.75
405.765	587.75
405.988	619.75
406.212	598.75
406.436	610.75
406.66	638.75
406.883	632.75
407.107	625.75
407.331	647.75
407.555	671.75
407.778	682.75
408.002	656.75
408.226	657.75
408.449	650.75
408.673	638.75
408.896	634.75
409.12	638.75
409.344	636.75
409.567	589.75
409.791	598.75
410.014	628.75
410.238	639.75
410.461	615.75
410.685	634.75
410.908	623.75
411.132	587.75
411.355	593.75
411.578	586.75
411.802	590.75
412.025	600.75
412.249	595.75
412.472	631.75
412.695	571.75
412.919	576.75
413.142	585.75
413.365	585.75
413.589	592.75
413.812	577.75
414.035	568.75
414.258	611.75
414.482	569.75
414.705	591.75
414.928	580.75
415.151	575.75
415.374	568.75
415.597	614.75
415.821	580.75
416.044	576.75
416.267	552.75
416.49	559.75
416.713	585.75
416.936	556.75
417.159	558.75
417.382	557.75
417.605	573.75
417.828	580.75
418.051	570.75
418.274	558.75
418.497	568.75
418.72	558.75
418.943	550.75
419.166	565.75
419.389	629.75
419.611	607.75
419.834	575.75
420.057	595.75
420.28	591.75
420.503	547.75
420.726	552.75
420.948	581.75
421.171	570.75
421.394	550.75
421.617	544.75
421.839	570.75
422.062	576.75
422.285	559.75
422.507	554.75
422.73	587.75
422.953	591.75
423.175	546.75
423.398	551.75
423.621	553.75
423.843	581.75
424.066	583.75
424.288	569.75
424.511	556.75
424.733	563.75
424.956	535.75
425.178	568.75
425.401	558.75
425.623	574.75
425.846	558.75
426.068	567.75
426.291	558.75
426.513	580.75
426.735	552.75
426.958	579.75
427.18	535.75
427.402	543.75
427.625	565.75
427.847	550.75
428.069	557.75
428.292	548.75
428.514	534.75
428.736	521.75
428.958	526.75
429.181	543.75
429.403	529.75
429.625	527.75
429.847	523.75
430.069	529.75
430.292	538.75
430.514	516.75
430.736	519.75
430.958	535.75
431.18	534.75
431.402	532.75
431.624	553.75
431.846	548.75
432.068	541.75
432.29	536.75
432.512	551.75
432.734	525.75
432.956	550.75
433.178	547.75
433.4	530.75
433.622	542.75
433.844	537.75
434.066	547.75
434.287	545.75
434.509	559.75
434.731	575.75
434.953	559.75
435.175	566.75
435.397	560.75
435.618	540.75
435.84	546.75
436.062	524.75
436.284	547.75
436.505	531.75
436.727	541.75
436.949	539.75
437.17	524.75
437.392	515.75
437.614	517.75
437.835	522.75
438.057	520.75
438.278	517.75
438.5	542.75
438.721	528.75
438.943	490.75
439.165	526.75
439.386	512.75
439.608	555.75
439.829	540.75
440.05	554.75
440.272	540.75
440.493	537.75
440.715	532.75
440.936	517.75
441.158	551.75
441.379	542.75
441.6	574.75
441.822	554.75
442.043	549.75
442.264	567.75
442.486	553.75
442.707	533.75
442.928	554.75
443.149	557.75
443.371	540.75
443.592	551.75
443.813	554.75
444.034	571.75
444.255	568.75
444.476	602.75
444.698	584.75
444.919	589.75
445.14	646.75
445.361	597.75
445.582	571.75
445.803	552.75
446.024	534.75
446.245	570.75
446.466	528.75
446.687	526.75
446.908	530.75
447.129	535.75
447.35	539.75
447.571	527.75
447.792	502.75
448.013	503.75
448.234	498.75
448.455	517.75
448.675	504.75
448.896	503.75
449.117	487.75
449.338	470.75
449.559	493.75
449.779	498.75
450	481.75
450.221	492.75
450.442	497.75
450.662	501.75
450.883	499.75
451.104	516.75
451.324	512.75
451.545	483.75
451.766	490.75
451.986	490.75
452.207	487.75
452.428	502.75
452.648	522.75
452.869	468.75
453.089	487.75
453.31	486.75
453.53	471.75
453.751	492.75
453.971	486.75
454.192	483.75
454.412	480.75
454.633	498.75
454.853	498.75
455.073	482.75
455.294	476.75
455.514	456.75
455.734	490.75
455.955	467.75
456.175	474.75
456.395	492.75
456.616	482.75
456.836	467.75
457.056	470.75
457.276	486.75
457.497	484.75
457.717	495.75
457.937	488.75
458.157	492.75
458.377	511.75
458.598	505.75
458.818	492.75
459.038	521.75
459.258	494.75
459.478	535.75
459.698	520.75
459.918	542.75
460.138	528.75
460.358	549.75
460.578	578.75
460.798	570.75
461.018	580.75
461.238	572.75
461.458	573.75
461.678	572.75
461.898	592.75
462.118	587.75
462.338	602.75
462.558	596.75
462.777	620.75
462.997	619.75
463.217	637.75
463.437	676.75
463.657	646.75
463.876	653.75
464.096	652.75
464.316	618.75
464.536	607.75
464.755	606.75
464.975	608.75
465.195	596.75
465.414	581.75
465.634	567.75
465.854	574.75
466.073	550.75
466.293	551.75
466.512	539.75
466.732	531.75
466.951	534.75
467.171	540.75
467.391	532.75
467.61	516.75
467.829	522.75
468.049	516.75
468.268	517.75
468.488	536.75
468.707	526.75
468.927	538.75
469.146	529.75
469.365	539.75
469.585	542.75
469.804	533.75
470.023	554.75
470.243	558.75
470.462	545.75
470.681	515.75
470.901	552.75
471.12	544.75
471.339	536.75
471.558	528.75
471.777	531.75
471.997	534.75
472.216	528.75
472.435	541.75
472.654	521.75
472.873	523.75
473.092	510.75
473.311	546.75
473.53	538.75
473.749	562.75
473.968	534.75
474.187	521.75
474.406	528.75
474.625	543.75
474.844	518.75
475.063	540.75
475.282	520.75
475.501	540.75
475.72	577.75
475.939	549.75
476.158	552.75
476.377	578.75
476.596	560.75
476.814	576.75
477.033	583.75
477.252	572.75
477.471	597.75
477.69	576.75
477.908	602.75
478.127	587.75
478.346	590.75
478.564	596.75
478.783	617.75
479.002	619.75
479.22	618.75
479.439	644.75
479.658	626.75
479.876	617.75
480.095	633.75
480.313	638.75
480.532	614.75
480.751	601.75
480.969	648.75
481.188	642.75
481.406	638.75
481.624	644.75
481.843	608.75
482.061	612.75
482.28	636.75
482.498	631.75
482.717	613.75
482.935	636.75
483.153	628.75
483.372	615.75
483.59	649.75
483.808	631.75
484.027	636.75
484.245	642.75
484.463	650.75
484.681	632.75
484.9	660.75
485.118	636.75
485.336	643.75
485.554	640.75
485.772	663.75
485.99	632.75
486.209	673.75
486.427	654.75
486.645	644.75
486.863	624.75
487.081	639.75
487.299	658.75
487.517	638.75
487.735	663.75
487.953	631.75
488.171	654.75
488.389	641.75
488.607	661.75
488.825	660.75
489.043	636.75
489.261	657.75
489.479	645.75
489.696	666.75
489.914	649.75
490.132	660.75
490.35	677.75
490.568	664.75
490.786	663.75
491.003	654.75
491.221	660.75
491.439	646.75
491.657	658.75
491.874	648.75
492.092	687.75
492.31	669.75
492.527	686.75
492.745	659.75
492.963	704.75
493.18	670.75
493.398	686.75
493.615	664.75
493.833	679.75
494.05	678.75
494.268	688.75
494.485	688.75
494.703	696.75
494.92	696.75
495.138	718.75
495.355	725.75
495.573	724.75
495.79	695.75
496.008	713.75
496.225	719.75
496.442	707.75
496.66	751.75
496.877	725.75
497.094	721.75
497.312	729.75
497.529	747.75
497.746	750.75
497.963	766.75
498.181	785.75
498.398	822.75
498.615	860.75
498.832	828.75
499.049	904.75
499.267	898.75
499.484	927.75
499.701	982.75
499.918	1032.75
500.135	1067.75
500.352	1183.75
500.569	1149.75
500.786	1130.75
501.003	1125.75
501.22	1040.75
501.437	995.75
501.654	956.75
