Data from Fe(NO3)3@0.1M.TitratingCurve.Agarose3%dH2O.NegLispCup.LampEnergy10.LIBS07252019_HRD10591_16-40-31-332.txt Node
Date: Thu Jul 25 16:40:31 EDT 2019
User: cochatt
Spectrometer: HR+D1059
Trigger mode: 1
Integration Time (sec): 1.000000E-1
Scans to average: 1
Electric dark correction enabled: true
Nonlinearity correction enabled: false
Boxcar width: 0
XAxis mode: Wavelengths
Number of Pixels in Spectrum: 2048
>>>>>Begin Spectral Data<<<<<
223.165	-22.81
223.4	-22.81
223.635	-22.81
223.869	-16.81
224.104	-21.81
224.338	-19.81
224.573	-12.81
224.808	-10.81
225.042	-14.81
225.277	4.19
225.511	-12.81
225.746	10.19
225.98	8.19
226.215	18.19
226.449	5.19
226.683	8.19
226.918	34.19
227.152	44.19
227.387	39.19
227.621	37.19
227.856	49.19
228.09	54.19
228.324	38.19
228.559	50.19
228.793	65.19
229.027	94.19
229.262	84.19
229.496	73.19
229.73	78.19
229.964	92.19
230.199	91.19
230.433	107.19
230.667	86.19
230.901	73.19
231.136	99.19
231.37	102.19
231.604	102.19
231.838	103.19
232.072	105.19
232.306	87.19
232.541	107.19
232.775	106.19
233.009	101.19
233.243	113.19
233.477	107.19
233.711	109.19
233.945	108.19
234.179	91.19
234.413	97.19
234.647	105.19
234.881	92.19
235.115	104.19
235.349	113.19
235.583	98.19
235.817	98.19
236.051	107.19
236.285	106.19
236.519	107.19
236.753	103.19
236.987	106.19
237.221	110.19
237.455	94.19
237.689	104.19
237.922	119.19
238.156	117.19
238.39	106.19
238.624	92.19
238.858	94.19
239.091	96.19
239.325	110.19
239.559	99.19
239.793	107.19
240.027	106.19
240.26	113.19
240.494	121.19
240.728	111.19
240.961	104.19
241.195	104.19
241.429	125.19
241.662	119.19
241.896	116.19
242.13	99.19
242.363	115.19
242.597	105.19
242.83	119.19
243.064	115.19
243.298	102.19
243.531	122.19
243.765	107.19
243.998	117.19
244.232	115.19
244.465	135.19
244.699	136.19
244.932	127.19
245.166	120.19
245.399	123.19
245.633	121.19
245.866	130.19
246.099	120.19
246.333	125.19
246.566	117.19
246.8	125.19
247.033	129.19
247.266	129.19
247.5	118.19
247.733	129.19
247.966	148.19
248.2	113.19
248.433	137.19
248.666	126.19
248.899	143.19
249.133	144.19
249.366	132.19
249.599	141.19
249.832	131.19
250.066	133.19
250.299	125.19
250.532	146.19
250.765	127.19
250.998	137.19
251.231	148.19
251.465	149.19
251.698	133.19
251.931	126.19
252.164	129.19
252.397	133.19
252.63	149.19
252.863	144.19
253.096	146.19
253.329	135.19
253.562	145.19
253.795	136.19
254.028	149.19
254.261	146.19
254.494	155.19
254.727	154.19
254.96	137.19
255.193	149.19
255.426	134.19
255.659	140.19
255.892	165.19
256.124	141.19
256.357	154.19
256.59	145.19
256.823	149.19
257.056	150.19
257.289	141.19
257.521	148.19
257.754	143.19
257.987	148.19
258.22	153.19
258.452	143.19
258.685	149.19
258.918	149.19
259.151	154.19
259.383	166.19
259.616	160.19
259.849	154.19
260.081	154.19
260.314	155.19
260.547	173.19
260.779	170.19
261.012	165.19
261.244	167.19
261.477	158.19
261.71	156.19
261.942	159.19
262.175	157.19
262.407	143.19
262.64	158.19
262.872	169.19
263.105	174.19
263.337	163.19
263.57	169.19
263.802	161.19
264.035	148.19
264.267	171.19
264.499	154.19
264.732	155.19
264.964	175.19
265.197	150.19
265.429	157.19
265.661	163.19
265.894	175.19
266.126	182.19
266.358	166.19
266.591	177.19
266.823	165.19
267.055	183.19
267.287	168.19
267.52	166.19
267.752	171.19
267.984	177.19
268.216	170.19
268.448	181.19
268.681	173.19
268.913	179.19
269.145	160.19
269.377	187.19
269.609	167.19
269.841	190.19
270.073	184.19
270.306	199.19
270.538	193.19
270.77	174.19
271.002	186.19
271.234	177.19
271.466	182.19
271.698	162.19
271.93	176.19
272.162	181.19
272.394	166.19
272.626	183.19
272.858	187.19
273.09	183.19
273.322	182.19
273.553	189.19
273.785	185.19
274.017	184.19
274.249	194.19
274.481	201.19
274.713	205.19
274.945	211.19
275.176	198.19
275.408	195.19
275.64	211.19
275.872	190.19
276.104	183.19
276.335	180.19
276.567	178.19
276.799	180.19
277.031	196.19
277.262	201.19
277.494	198.19
277.726	202.19
277.957	194.19
278.189	187.19
278.421	189.19
278.652	199.19
278.884	190.19
279.115	207.19
279.347	189.19
279.579	211.19
279.81	205.19
280.042	196.19
280.273	194.19
280.505	211.19
280.736	213.19
280.968	194.19
281.199	215.19
281.431	211.19
281.662	219.19
281.894	211.19
282.125	201.19
282.356	209.19
282.588	185.19
282.819	203.19
283.051	204.19
283.282	225.19
283.513	190.19
283.745	201.19
283.976	189.19
284.207	207.19
284.439	185.19
284.67	214.19
284.901	216.19
285.132	228.19
285.364	205.19
285.595	227.19
285.826	199.19
286.057	220.19
286.288	213.19
286.52	201.19
286.751	221.19
286.982	223.19
287.213	232.19
287.444	217.19
287.675	221.19
287.906	215.19
288.138	214.19
288.369	231.19
288.6	230.19
288.831	222.19
289.062	223.19
289.293	217.19
289.524	208.19
289.755	227.19
289.986	211.19
290.217	226.19
290.448	228.19
290.679	229.19
290.91	221.19
291.141	226.19
291.371	228.19
291.602	229.19
291.833	242.19
292.064	230.19
292.295	228.19
292.526	222.19
292.757	223.19
292.987	226.19
293.218	234.19
293.449	221.19
293.68	225.19
293.91	220.19
294.141	241.19
294.372	225.19
294.603	231.19
294.833	226.19
295.064	203.19
295.295	227.19
295.525	221.19
295.756	219.19
295.987	229.19
296.217	234.19
296.448	253.19
296.679	245.19
296.909	247.19
297.14	238.19
297.37	252.19
297.601	260.19
297.831	225.19
298.062	245.19
298.292	241.19
298.523	261.19
298.753	243.19
298.984	249.19
299.214	230.19
299.445	257.19
299.675	246.19
299.905	257.19
300.136	244.19
300.366	241.19
300.597	239.19
300.827	251.19
301.057	262.19
301.288	258.19
301.518	253.19
301.748	257.19
301.979	268.19
302.209	266.19
302.439	265.19
302.669	254.19
302.9	257.19
303.13	257.19
303.36	264.19
303.59	243.19
303.82	249.19
304.051	245.19
304.281	237.19
304.511	260.19
304.741	268.19
304.971	256.19
305.201	246.19
305.431	266.19
305.661	275.19
305.891	250.19
306.121	252.19
306.352	269.19
306.582	256.19
306.812	243.19
307.042	262.19
307.272	243.19
307.502	241.19
307.731	259.19
307.961	260.19
308.191	268.19
308.421	254.19
308.651	255.19
308.881	267.19
309.111	242.19
309.341	250.19
309.571	257.19
309.8	250.19
310.03	242.19
310.26	241.19
310.49	245.19
310.72	236.19
310.949	257.19
311.179	281.19
311.409	260.19
311.639	258.19
311.868	286.19
312.098	255.19
312.328	253.19
312.557	252.19
312.787	280.19
313.017	268.19
313.246	262.19
313.476	281.19
313.706	270.19
313.935	261.19
314.165	268.19
314.394	268.19
314.624	265.19
314.853	278.19
315.083	273.19
315.312	285.19
315.542	281.19
315.771	288.19
316.001	265.19
316.23	282.19
316.46	266.19
316.689	257.19
316.919	264.19
317.148	273.19
317.377	249.19
317.607	264.19
317.836	249.19
318.065	259.19
318.295	283.19
318.524	262.19
318.753	271.19
318.983	266.19
319.212	278.19
319.441	264.19
319.67	275.19
319.9	268.19
320.129	272.19
320.358	276.19
320.587	276.19
320.816	269.19
321.046	265.19
321.275	284.19
321.504	275.19
321.733	275.19
321.962	242.19
322.191	262.19
322.42	277.19
322.649	263.19
322.878	267.19
323.108	275.19
323.337	274.19
323.566	282.19
323.795	270.19
324.024	278.19
324.253	259.19
324.482	272.19
324.71	273.19
324.939	277.19
325.168	261.19
325.397	279.19
325.626	303.19
325.855	289.19
326.084	285.19
326.313	285.19
326.542	308.19
326.77	298.19
326.999	268.19
327.228	294.19
327.457	290.19
327.686	300.19
327.914	291.19
328.143	282.19
328.372	282.19
328.6	283.19
328.829	296.19
329.058	298.19
329.287	293.19
329.515	290.19
329.744	288.19
329.972	300.19
330.201	308.19
330.43	305.19
330.658	292.19
330.887	307.19
331.115	310.19
331.344	296.19
331.572	314.19
331.801	321.19
332.03	310.19
332.258	330.19
332.486	338.19
332.715	334.19
332.943	367.19
333.172	337.19
333.4	383.19
333.629	357.19
333.857	362.19
334.085	388.19
334.314	365.19
334.542	360.19
334.771	359.19
334.999	346.19
335.227	349.19
335.455	366.19
335.684	356.19
335.912	340.19
336.14	346.19
336.369	341.19
336.597	335.19
336.825	338.19
337.053	365.19
337.281	338.19
337.51	330.19
337.738	328.19
337.966	322.19
338.194	313.19
338.422	314.19
338.65	329.19
338.878	318.19
339.106	314.19
339.334	313.19
339.562	303.19
339.79	329.19
340.018	302.19
340.246	309.19
340.474	310.19
340.702	306.19
340.93	304.19
341.158	299.19
341.386	300.19
341.614	316.19
341.842	313.19
342.07	321.19
342.298	323.19
342.526	308.19
342.754	325.19
342.981	308.19
343.209	324.19
343.437	326.19
343.665	340.19
343.893	361.19
344.12	375.19
344.348	343.19
344.576	319.19
344.804	319.19
345.031	294.19
345.259	296.19
345.487	324.19
345.714	316.19
345.942	305.19
346.17	299.19
346.397	297.19
346.625	318.19
346.853	293.19
347.08	280.19
347.308	291.19
347.535	306.19
347.763	298.19
347.99	284.19
348.218	290.19
348.445	300.19
348.673	291.19
348.9	294.19
349.128	273.19
349.355	289.19
349.583	288.19
349.81	309.19
350.037	281.19
350.265	308.19
350.492	307.19
350.72	307.19
350.947	277.19
351.174	289.19
351.402	291.19
351.629	291.19
351.856	307.19
352.083	292.19
352.311	296.19
352.538	297.19
352.765	285.19
352.992	303.19
353.22	303.19
353.447	293.19
353.674	278.19
353.901	277.19
354.128	299.19
354.355	272.19
354.583	298.19
354.81	275.19
355.037	272.19
355.264	254.19
355.491	285.19
355.718	289.19
355.945	302.19
356.172	309.19
356.399	286.19
356.626	294.19
356.853	297.19
357.08	289.19
357.307	285.19
357.534	280.19
357.761	297.19
357.988	297.19
358.215	295.19
358.441	297.19
358.668	298.19
358.895	282.19
359.122	287.19
359.349	302.19
359.576	303.19
359.802	285.19
360.029	275.19
360.256	305.19
360.483	297.19
360.709	309.19
360.936	294.19
361.163	308.19
361.39	286.19
361.616	285.19
361.843	291.19
362.07	301.19
362.296	289.19
362.523	305.19
362.749	294.19
362.976	278.19
363.203	291.19
363.429	298.19
363.656	306.19
363.882	293.19
364.109	301.19
364.335	292.19
364.562	284.19
364.788	312.19
365.015	294.19
365.241	297.19
365.468	301.19
365.694	292.19
365.92	286.19
366.147	301.19
366.373	293.19
366.599	263.19
366.826	311.19
367.052	287.19
367.278	285.19
367.505	276.19
367.731	295.19
367.957	305.19
368.184	292.19
368.41	300.19
368.636	313.19
368.862	300.19
369.089	297.19
369.315	320.19
369.541	300.19
369.767	314.19
369.993	324.19
370.219	309.19
370.445	312.19
370.672	318.19
370.898	299.19
371.124	303.19
371.35	315.19
371.576	310.19
371.802	317.19
372.028	323.19
372.254	320.19
372.48	333.19
372.706	331.19
372.932	314.19
373.158	315.19
373.384	315.19
373.61	316.19
373.835	339.19
374.061	313.19
374.287	333.19
374.513	327.19
374.739	335.19
374.965	346.19
375.191	326.19
375.416	352.19
375.642	341.19
375.868	342.19
376.094	343.19
376.319	320.19
376.545	351.19
376.771	323.19
376.997	330.19
377.222	313.19
377.448	316.19
377.674	329.19
377.899	311.19
378.125	313.19
378.35	334.19
378.576	327.19
378.802	315.19
379.027	334.19
379.253	322.19
379.478	310.19
379.704	314.19
379.929	310.19
380.155	319.19
380.38	327.19
380.606	332.19
380.831	305.19
381.057	317.19
381.282	306.19
381.507	325.19
381.733	317.19
381.958	315.19
382.184	322.19
382.409	347.19
382.634	342.19
382.86	313.19
383.085	339.19
383.31	335.19
383.535	357.19
383.761	347.19
383.986	371.19
384.211	366.19
384.436	381.19
384.662	385.19
384.887	376.19
385.112	380.19
385.337	377.19
385.562	369.19
385.787	370.19
386.013	390.19
386.238	370.19
386.463	389.19
386.688	375.19
386.913	349.19
387.138	354.19
387.363	369.19
387.588	355.19
387.813	389.19
388.038	375.19
388.263	355.19
388.488	375.19
388.713	360.19
388.938	365.19
389.163	349.19
389.387	376.19
389.612	382.19
389.837	358.19
390.062	366.19
390.287	362.19
390.512	366.19
390.736	381.19
390.961	364.19
391.186	377.19
391.411	379.19
391.636	404.19
391.86	430.19
392.085	415.19
392.31	414.19
392.534	389.19
392.759	401.19
392.984	396.19
393.208	383.19
393.433	403.19
393.658	398.19
393.882	393.19
394.107	397.19
394.331	420.19
394.556	400.19
394.78	387.19
395.005	403.19
395.229	404.19
395.454	419.19
395.678	442.19
395.903	418.19
396.127	419.19
396.352	404.19
396.576	381.19
396.801	392.19
397.025	387.19
397.249	403.19
397.474	421.19
397.698	402.19
397.922	441.19
398.147	405.19
398.371	423.19
398.595	451.19
398.82	433.19
399.044	457.19
399.268	523.19
399.492	580.19
399.717	653.19
399.941	628.19
400.165	569.19
400.389	523.19
400.613	481.19
400.837	479.19
401.062	478.19
401.286	436.19
401.51	427.19
401.734	461.19
401.958	457.19
402.182	455.19
402.406	472.19
402.63	473.19
402.854	476.19
403.078	482.19
403.302	492.19
403.526	499.19
403.75	515.19
403.974	546.19
404.198	518.19
404.422	510.19
404.645	500.19
404.869	516.19
405.093	502.19
405.317	502.19
405.541	518.19
405.765	483.19
405.988	509.19
406.212	504.19
406.436	478.19
406.66	513.19
406.883	505.19
407.107	537.19
407.331	551.19
407.555	568.19
407.778	567.19
408.002	549.19
408.226	549.19
408.449	525.19
408.673	523.19
408.896	523.19
409.12	514.19
409.344	514.19
409.567	521.19
409.791	519.19
410.014	501.19
410.238	507.19
410.461	498.19
410.685	507.19
410.908	502.19
411.132	492.19
411.355	478.19
411.578	467.19
411.802	476.19
412.025	498.19
412.249	499.19
412.472	466.19
412.695	479.19
412.919	461.19
413.142	464.19
413.365	461.19
413.589	463.19
413.812	482.19
414.035	462.19
414.258	459.19
414.482	470.19
414.705	478.19
414.928	468.19
415.151	462.19
415.374	468.19
415.597	469.19
415.821	453.19
416.044	464.19
416.267	455.19
416.49	456.19
416.713	466.19
416.936	449.19
417.159	469.19
417.382	464.19
417.605	466.19
417.828	461.19
418.051	461.19
418.274	475.19
418.497	462.19
418.72	478.19
418.943	467.19
419.166	500.19
419.389	516.19
419.611	516.19
419.834	491.19
420.057	472.19
420.28	484.19
420.503	461.19
420.726	461.19
420.948	452.19
421.171	443.19
421.394	460.19
421.617	451.19
421.839	452.19
422.062	477.19
422.285	446.19
422.507	474.19
422.73	482.19
422.953	477.19
423.175	488.19
423.398	486.19
423.621	499.19
423.843	491.19
424.066	485.19
424.288	488.19
424.511	474.19
424.733	477.19
424.956	488.19
425.178	446.19
425.401	461.19
425.623	447.19
425.846	459.19
426.068	456.19
426.291	462.19
426.513	467.19
426.735	457.19
426.958	439.19
427.18	425.19
427.402	452.19
427.625	430.19
427.847	435.19
428.069	407.19
428.292	408.19
428.514	427.19
428.736	400.19
428.958	421.19
429.181	406.19
429.403	432.19
429.625	408.19
429.847	423.19
430.069	407.19
430.292	421.19
430.514	401.19
430.736	394.19
430.958	426.19
431.18	406.19
431.402	401.19
431.624	427.19
431.846	422.19
432.068	408.19
432.29	422.19
432.512	425.19
432.734	407.19
432.956	408.19
433.178	413.19
433.4	423.19
433.622	433.19
433.844	419.19
434.066	435.19
434.287	420.19
434.509	435.19
434.731	446.19
434.953	455.19
435.175	476.19
435.397	449.19
435.618	452.19
435.84	432.19
436.062	430.19
436.284	424.19
436.505	430.19
436.727	420.19
436.949	438.19
437.17	443.19
437.392	418.19
437.614	413.19
437.835	414.19
438.057	415.19
438.278	414.19
438.5	396.19
438.721	408.19
438.943	418.19
439.165	409.19
439.386	421.19
439.608	438.19
439.829	437.19
440.05	446.19
440.272	426.19
440.493	418.19
440.715	442.19
440.936	449.19
441.158	443.19
441.379	465.19
441.6	499.19
441.822	469.19
442.043	457.19
442.264	462.19
442.486	463.19
442.707	458.19
442.928	464.19
443.149	468.19
443.371	463.19
443.592	476.19
443.813	487.19
444.034	482.19
444.255	491.19
444.476	527.19
444.698	520.19
444.919	561.19
445.14	638.19
445.361	551.19
445.582	478.19
445.803	472.19
446.024	467.19
446.245	452.19
446.466	448.19
446.687	426.19
446.908	435.19
447.129	441.19
447.35	425.19
447.571	418.19
447.792	417.19
448.013	417.19
448.234	402.19
448.455	393.19
448.675	409.19
448.896	397.19
449.117	397.19
449.338	397.19
449.559	404.19
449.779	409.19
450	406.19
450.221	393.19
450.442	389.19
450.662	413.19
450.883	409.19
451.104	407.19
451.324	403.19
451.545	404.19
451.766	430.19
451.986	403.19
452.207	391.19
452.428	403.19
452.648	405.19
452.869	390.19
453.089	399.19
453.31	395.19
453.53	394.19
453.751	363.19
453.971	370.19
454.192	379.19
454.412	379.19
454.633	379.19
454.853	384.19
455.073	385.19
455.294	378.19
455.514	385.19
455.734	383.19
455.955	389.19
456.175	376.19
456.395	357.19
456.616	377.19
456.836	375.19
457.056	363.19
457.276	379.19
457.497	372.19
457.717	377.19
457.937	375.19
458.157	371.19
458.377	392.19
458.598	371.19
458.818	389.19
459.038	388.19
459.258	411.19
459.478	439.19
459.698	415.19
459.918	446.19
460.138	465.19
460.358	484.19
460.578	484.19
460.798	484.19
461.018	490.19
461.238	477.19
461.458	485.19
461.678	496.19
461.898	473.19
462.118	494.19
462.338	523.19
462.558	521.19
462.777	537.19
462.997	591.19
463.217	643.19
463.437	598.19
463.657	573.19
463.876	555.19
464.096	547.19
464.316	553.19
464.536	553.19
464.755	534.19
464.975	516.19
465.195	498.19
465.414	472.19
465.634	425.19
465.854	421.19
466.073	458.19
466.293	447.19
466.512	423.19
466.732	417.19
466.951	418.19
467.171	412.19
467.391	414.19
467.61	422.19
467.829	408.19
468.049	381.19
468.268	406.19
468.488	406.19
468.707	414.19
468.927	391.19
469.146	394.19
469.365	406.19
469.585	404.19
469.804	415.19
470.023	434.19
470.243	418.19
470.462	430.19
470.681	449.19
470.901	407.19
471.12	415.19
471.339	416.19
471.558	407.19
471.777	409.19
471.997	401.19
472.216	389.19
472.435	381.19
472.654	375.19
472.873	386.19
473.092	388.19
473.311	387.19
473.53	382.19
473.749	374.19
473.968	385.19
474.187	381.19
474.406	393.19
474.625	379.19
474.844	385.19
475.063	381.19
475.282	409.19
475.501	385.19
475.72	391.19
475.939	381.19
476.158	373.19
476.377	393.19
476.596	376.19
476.814	390.19
477.033	405.19
477.252	389.19
477.471	414.19
477.69	427.19
477.908	449.19
478.127	442.19
478.346	450.19
478.564	464.19
478.783	461.19
479.002	446.19
479.22	469.19
479.439	437.19
479.658	438.19
479.876	463.19
480.095	474.19
480.313	483.19
480.532	497.19
480.751	477.19
480.969	459.19
481.188	441.19
481.406	436.19
481.624	445.19
481.843	429.19
482.061	410.19
482.28	412.19
482.498	413.19
482.717	403.19
482.935	421.19
483.153	428.19
483.372	424.19
483.59	412.19
483.808	432.19
484.027	443.19
484.245	420.19
484.463	422.19
484.681	446.19
484.9	425.19
485.118	451.19
485.336	442.19
485.554	431.19
485.772	453.19
485.99	435.19
486.209	414.19
486.427	438.19
486.645	454.19
486.863	434.19
487.081	457.19
487.299	457.19
487.517	447.19
487.735	445.19
487.953	439.19
488.171	457.19
488.389	443.19
488.607	438.19
488.825	403.19
489.043	426.19
489.261	446.19
489.479	439.19
489.696	412.19
489.914	435.19
490.132	449.19
490.35	436.19
490.568	466.19
490.786	432.19
491.003	466.19
491.221	461.19
491.439	453.19
491.657	452.19
491.874	449.19
492.092	458.19
492.31	456.19
492.527	460.19
492.745	460.19
492.963	461.19
493.18	455.19
493.398	463.19
493.615	472.19
493.833	452.19
494.05	458.19
494.268	461.19
494.485	471.19
494.703	478.19
494.92	467.19
495.138	466.19
495.355	468.19
495.573	483.19
495.79	472.19
496.008	446.19
496.225	480.19
496.442	471.19
496.66	470.19
496.877	486.19
497.094	467.19
497.312	513.19
497.529	519.19
497.746	538.19
497.963	546.19
498.181	549.19
498.398	573.19
498.615	622.19
498.832	649.19
499.049	665.19
499.267	708.19
499.484	783.19
499.701	846.19
499.918	946.19
500.135	1043.19
500.352	1170.19
500.569	1233.19
500.786	1220.19
501.003	1110.19
501.22	1016.19
501.437	913.19
501.654	806.19
501.871	725.19
