Data from Fe(NO3)3@0.025M.TitratingCurve.Agarose3%dH2O.NegLispCup.LampEnergy10.LIBS07252019_HRD10591_16-55-27-335.txt Node
Date: Thu Jul 25 16:55:27 EDT 2019
User: cochatt
Spectrometer: HR+D1059
Trigger mode: 1
Integration Time (sec): 1.000000E-1
Scans to average: 1
Electric dark correction enabled: true
Nonlinearity correction enabled: false
Boxcar width: 0
XAxis mode: Wavelengths
Number of Pixels in Spectrum: 2048
>>>>>Begin Spectral Data<<<<<
223.165	-30.06
223.4	-30.06
223.635	-30.06
223.869	-17.06
224.104	-15.06
224.338	-13.06
224.573	-7.06
224.808	-11.06
225.042	-6.06
225.277	-3.06
225.511	-4.06
225.746	2.94
225.98	4.94
226.215	14.94
226.449	15.94
226.683	11.94
226.918	19.94
227.152	35.94
227.387	17.94
227.621	47.94
227.856	44.94
228.09	36.94
228.324	59.94
228.559	46.94
228.793	57.94
229.027	57.94
229.262	60.94
229.496	82.94
229.73	96.94
229.964	89.94
230.199	83.94
230.433	82.94
230.667	91.94
230.901	76.94
231.136	81.94
231.37	82.94
231.604	84.94
231.838	90.94
232.072	90.94
232.306	84.94
232.541	102.94
232.775	82.94
233.009	98.94
233.243	113.94
233.477	94.94
233.711	88.94
233.945	106.94
234.179	101.94
234.413	88.94
234.647	106.94
234.881	102.94
235.115	104.94
235.349	102.94
235.583	88.94
235.817	85.94
236.051	89.94
236.285	87.94
236.519	81.94
236.753	100.94
236.987	97.94
237.221	99.94
237.455	88.94
237.689	89.94
237.922	94.94
238.156	122.94
238.39	96.94
238.624	88.94
238.858	85.94
239.091	89.94
239.325	87.94
239.559	90.94
239.793	88.94
240.027	105.94
240.26	97.94
240.494	89.94
240.728	93.94
240.961	102.94
241.195	102.94
241.429	79.94
241.662	92.94
241.896	99.94
242.13	90.94
242.363	88.94
242.597	101.94
242.83	114.94
243.064	92.94
243.298	99.94
243.531	90.94
243.765	105.94
243.998	96.94
244.232	110.94
244.465	98.94
244.699	95.94
244.932	100.94
245.166	106.94
245.399	97.94
245.633	122.94
245.866	112.94
246.099	105.94
246.333	108.94
246.566	109.94
246.8	117.94
247.033	112.94
247.266	107.94
247.5	118.94
247.733	114.94
247.966	116.94
248.2	107.94
248.433	106.94
248.666	103.94
248.899	120.94
249.133	105.94
249.366	129.94
249.599	126.94
249.832	116.94
250.066	122.94
250.299	109.94
250.532	122.94
250.765	107.94
250.998	116.94
251.231	123.94
251.465	127.94
251.698	114.94
251.931	115.94
252.164	112.94
252.397	131.94
252.63	145.94
252.863	128.94
253.096	122.94
253.329	126.94
253.562	115.94
253.795	123.94
254.028	116.94
254.261	114.94
254.494	115.94
254.727	122.94
254.96	125.94
255.193	106.94
255.426	126.94
255.659	106.94
255.892	119.94
256.124	117.94
256.357	144.94
256.59	130.94
256.823	128.94
257.056	121.94
257.289	112.94
257.521	129.94
257.754	122.94
257.987	122.94
258.22	114.94
258.452	125.94
258.685	121.94
258.918	124.94
259.151	132.94
259.383	126.94
259.616	124.94
259.849	125.94
260.081	150.94
260.314	132.94
260.547	133.94
260.779	139.94
261.012	129.94
261.244	135.94
261.477	126.94
261.71	132.94
261.942	138.94
262.175	124.94
262.407	132.94
262.64	140.94
262.872	138.94
263.105	133.94
263.337	138.94
263.57	131.94
263.802	129.94
264.035	139.94
264.267	105.94
264.499	128.94
264.732	124.94
264.964	139.94
265.197	156.94
265.429	137.94
265.661	137.94
265.894	125.94
266.126	144.94
266.358	133.94
266.591	139.94
266.823	142.94
267.055	118.94
267.287	148.94
267.52	143.94
267.752	145.94
267.984	147.94
268.216	145.94
268.448	148.94
268.681	141.94
268.913	133.94
269.145	141.94
269.377	129.94
269.609	154.94
269.841	145.94
270.073	141.94
270.306	154.94
270.538	146.94
270.77	147.94
271.002	132.94
271.234	141.94
271.466	147.94
271.698	154.94
271.93	142.94
272.162	158.94
272.394	145.94
272.626	152.94
272.858	151.94
273.09	149.94
273.322	154.94
273.553	153.94
273.785	147.94
274.017	151.94
274.249	153.94
274.481	159.94
274.713	151.94
274.945	155.94
275.176	164.94
275.408	162.94
275.64	159.94
275.872	156.94
276.104	141.94
276.335	156.94
276.567	148.94
276.799	148.94
277.031	150.94
277.262	166.94
277.494	169.94
277.726	169.94
277.957	162.94
278.189	158.94
278.421	140.94
278.652	152.94
278.884	166.94
279.115	164.94
279.347	158.94
279.579	169.94
279.81	159.94
280.042	166.94
280.273	158.94
280.505	168.94
280.736	161.94
280.968	173.94
281.199	161.94
281.431	169.94
281.662	173.94
281.894	150.94
282.125	167.94
282.356	163.94
282.588	166.94
282.819	160.94
283.051	160.94
283.282	180.94
283.513	180.94
283.745	173.94
283.976	162.94
284.207	184.94
284.439	162.94
284.67	180.94
284.901	159.94
285.132	169.94
285.364	178.94
285.595	170.94
285.826	173.94
286.057	184.94
286.288	152.94
286.52	176.94
286.751	159.94
286.982	179.94
287.213	169.94
287.444	184.94
287.675	170.94
287.906	205.94
288.138	173.94
288.369	182.94
288.6	191.94
288.831	176.94
289.062	194.94
289.293	190.94
289.524	200.94
289.755	185.94
289.986	182.94
290.217	195.94
290.448	187.94
290.679	191.94
290.91	186.94
291.141	187.94
291.371	191.94
291.602	194.94
291.833	197.94
292.064	186.94
292.295	185.94
292.526	195.94
292.757	190.94
292.987	192.94
293.218	197.94
293.449	201.94
293.68	182.94
293.91	197.94
294.141	205.94
294.372	194.94
294.603	196.94
294.833	187.94
295.064	196.94
295.295	200.94
295.525	194.94
295.756	199.94
295.987	197.94
296.217	204.94
296.448	193.94
296.679	200.94
296.909	205.94
297.14	200.94
297.37	202.94
297.601	196.94
297.831	201.94
298.062	197.94
298.292	195.94
298.523	196.94
298.753	188.94
298.984	199.94
299.214	204.94
299.445	211.94
299.675	212.94
299.905	212.94
300.136	220.94
300.366	214.94
300.597	198.94
300.827	197.94
301.057	204.94
301.288	208.94
301.518	204.94
301.748	210.94
301.979	210.94
302.209	224.94
302.439	220.94
302.669	211.94
302.9	206.94
303.13	222.94
303.36	200.94
303.59	219.94
303.82	218.94
304.051	210.94
304.281	224.94
304.511	213.94
304.741	205.94
304.971	226.94
305.201	232.94
305.431	217.94
305.661	211.94
305.891	204.94
306.121	216.94
306.352	213.94
306.582	202.94
306.812	215.94
307.042	226.94
307.272	219.94
307.502	208.94
307.731	208.94
307.961	226.94
308.191	219.94
308.421	206.94
308.651	218.94
308.881	209.94
309.111	206.94
309.341	219.94
309.571	230.94
309.8	230.94
310.03	221.94
310.26	220.94
310.49	227.94
310.72	220.94
310.949	222.94
311.179	228.94
311.409	214.94
311.639	211.94
311.868	220.94
312.098	244.94
312.328	236.94
312.557	246.94
312.787	221.94
313.017	240.94
313.246	230.94
313.476	224.94
313.706	226.94
313.935	237.94
314.165	237.94
314.394	238.94
314.624	241.94
314.853	219.94
315.083	230.94
315.312	246.94
315.542	241.94
315.771	255.94
316.001	237.94
316.23	226.94
316.46	243.94
316.689	249.94
316.919	236.94
317.148	236.94
317.377	233.94
317.607	251.94
317.836	232.94
318.065	243.94
318.295	244.94
318.524	234.94
318.753	228.94
318.983	237.94
319.212	237.94
319.441	238.94
319.67	241.94
319.9	251.94
320.129	236.94
320.358	234.94
320.587	242.94
320.816	256.94
321.046	225.94
321.275	232.94
321.504	218.94
321.733	249.94
321.962	232.94
322.191	237.94
322.42	233.94
322.649	245.94
322.878	243.94
323.108	256.94
323.337	237.94
323.566	241.94
323.795	235.94
324.024	260.94
324.253	240.94
324.482	246.94
324.71	237.94
324.939	262.94
325.168	248.94
325.397	251.94
325.626	266.94
325.855	246.94
326.084	248.94
326.313	272.94
326.542	255.94
326.77	261.94
326.999	265.94
327.228	265.94
327.457	269.94
327.686	242.94
327.914	248.94
328.143	258.94
328.372	246.94
328.6	244.94
328.829	255.94
329.058	264.94
329.287	270.94
329.515	270.94
329.744	269.94
329.972	274.94
330.201	266.94
330.43	262.94
330.658	257.94
330.887	274.94
331.115	259.94
331.344	270.94
331.572	283.94
331.801	270.94
332.03	280.94
332.258	294.94
332.486	285.94
332.715	289.94
332.943	281.94
333.172	282.94
333.4	309.94
333.629	297.94
333.857	307.94
334.085	318.94
334.314	284.94
334.542	312.94
334.771	321.94
334.999	304.94
335.227	311.94
335.455	293.94
335.684	293.94
335.912	321.94
336.14	307.94
336.369	300.94
336.597	308.94
336.825	292.94
337.053	286.94
337.281	298.94
337.51	306.94
337.738	314.94
337.966	285.94
338.194	295.94
338.422	276.94
338.65	264.94
338.878	288.94
339.106	282.94
339.334	295.94
339.562	261.94
339.79	283.94
340.018	289.94
340.246	280.94
340.474	306.94
340.702	280.94
340.93	283.94
341.158	264.94
341.386	272.94
341.614	293.94
341.842	282.94
342.07	273.94
342.298	278.94
342.526	291.94
342.754	267.94
342.981	294.94
343.209	287.94
343.437	309.94
343.665	302.94
343.893	285.94
344.12	311.94
344.348	309.94
344.576	301.94
344.804	280.94
345.031	281.94
345.259	278.94
345.487	274.94
345.714	298.94
345.942	282.94
346.17	279.94
346.397	284.94
346.625	270.94
346.853	264.94
347.08	277.94
347.308	270.94
347.535	276.94
347.763	277.94
347.99	272.94
348.218	276.94
348.445	250.94
348.673	279.94
348.9	288.94
349.128	274.94
349.355	261.94
349.583	283.94
349.81	288.94
350.037	260.94
350.265	256.94
350.492	275.94
350.72	264.94
350.947	269.94
351.174	274.94
351.402	263.94
351.629	266.94
351.856	257.94
352.083	268.94
352.311	267.94
352.538	258.94
352.765	272.94
352.992	289.94
353.22	264.94
353.447	282.94
353.674	267.94
353.901	274.94
354.128	259.94
354.355	274.94
354.583	276.94
354.81	284.94
355.037	262.94
355.264	265.94
355.491	288.94
355.718	294.94
355.945	288.94
356.172	258.94
356.399	266.94
356.626	276.94
356.853	293.94
357.08	289.94
357.307	276.94
357.534	260.94
357.761	283.94
357.988	261.94
358.215	271.94
358.441	248.94
358.668	266.94
358.895	264.94
359.122	269.94
359.349	271.94
359.576	285.94
359.802	271.94
360.029	268.94
360.256	258.94
360.483	273.94
360.709	276.94
360.936	288.94
361.163	285.94
361.39	274.94
361.616	262.94
361.843	273.94
362.07	258.94
362.296	264.94
362.523	266.94
362.749	292.94
362.976	278.94
363.203	272.94
363.429	273.94
363.656	292.94
363.882	283.94
364.109	262.94
364.335	289.94
364.562	292.94
364.788	280.94
365.015	274.94
365.241	279.94
365.468	276.94
365.694	292.94
365.92	278.94
366.147	277.94
366.373	281.94
366.599	267.94
366.826	279.94
367.052	263.94
367.278	289.94
367.505	281.94
367.731	286.94
367.957	276.94
368.184	270.94
368.41	285.94
368.636	296.94
368.862	293.94
369.089	287.94
369.315	278.94
369.541	306.94
369.767	281.94
369.993	278.94
370.219	297.94
370.445	315.94
370.672	286.94
370.898	282.94
371.124	295.94
371.35	287.94
371.576	292.94
371.802	292.94
372.028	286.94
372.254	304.94
372.48	280.94
372.706	304.94
372.932	309.94
373.158	305.94
373.384	304.94
373.61	292.94
373.835	298.94
374.061	299.94
374.287	308.94
374.513	310.94
374.739	329.94
374.965	333.94
375.191	285.94
375.416	304.94
375.642	316.94
375.868	313.94
376.094	311.94
376.319	312.94
376.545	299.94
376.771	299.94
376.997	305.94
377.222	300.94
377.448	268.94
377.674	307.94
377.899	294.94
378.125	304.94
378.35	294.94
378.576	296.94
378.802	295.94
379.027	292.94
379.253	318.94
379.478	306.94
379.704	276.94
379.929	304.94
380.155	315.94
380.38	307.94
380.606	287.94
380.831	304.94
381.057	306.94
381.282	315.94
381.507	297.94
381.733	296.94
381.958	303.94
382.184	333.94
382.409	316.94
382.634	310.94
382.86	327.94
383.085	293.94
383.31	329.94
383.535	317.94
383.761	317.94
383.986	338.94
384.211	321.94
384.436	339.94
384.662	322.94
384.887	323.94
385.112	338.94
385.337	356.94
385.562	344.94
385.787	337.94
386.013	345.94
386.238	351.94
386.463	332.94
386.688	356.94
386.913	352.94
387.138	338.94
387.363	333.94
387.588	340.94
387.813	342.94
388.038	354.94
388.263	348.94
388.488	359.94
388.713	355.94
388.938	338.94
389.163	357.94
389.387	332.94
389.612	332.94
389.837	353.94
390.062	341.94
390.287	362.94
390.512	357.94
390.736	340.94
390.961	342.94
391.186	345.94
391.411	357.94
391.636	359.94
391.86	338.94
392.085	358.94
392.31	376.94
392.534	374.94
392.759	352.94
392.984	351.94
393.208	377.94
393.433	376.94
393.658	355.94
393.882	365.94
394.107	358.94
394.331	354.94
394.556	363.94
394.78	370.94
395.005	368.94
395.229	372.94
395.454	378.94
395.678	362.94
395.903	359.94
396.127	388.94
396.352	392.94
396.576	371.94
396.801	372.94
397.025	365.94
397.249	378.94
397.474	392.94
397.698	380.94
397.922	382.94
398.147	382.94
398.371	412.94
398.595	403.94
398.82	415.94
399.044	444.94
399.268	465.94
399.492	481.94
399.717	505.94
399.941	498.94
400.165	488.94
400.389	471.94
400.613	464.94
400.837	455.94
401.062	423.94
401.286	418.94
401.51	417.94
401.734	403.94
401.958	397.94
402.182	420.94
402.406	410.94
402.63	420.94
402.854	430.94
403.078	418.94
403.302	409.94
403.526	409.94
403.75	422.94
403.974	436.94
404.198	438.94
404.422	438.94
404.645	434.94
404.869	430.94
405.093	428.94
405.317	428.94
405.541	425.94
405.765	436.94
405.988	432.94
406.212	420.94
406.436	424.94
406.66	440.94
406.883	446.94
407.107	478.94
407.331	494.94
407.555	484.94
407.778	458.94
408.002	476.94
408.226	464.94
408.449	450.94
408.673	456.94
408.896	442.94
409.12	433.94
409.344	452.94
409.567	433.94
409.791	449.94
410.014	468.94
410.238	436.94
410.461	428.94
410.685	418.94
410.908	436.94
411.132	423.94
411.355	418.94
411.578	428.94
411.802	410.94
412.025	428.94
412.249	431.94
412.472	433.94
412.695	434.94
412.919	412.94
413.142	405.94
413.365	399.94
413.589	424.94
413.812	410.94
414.035	408.94
414.258	398.94
414.482	429.94
414.705	402.94
414.928	404.94
415.151	419.94
415.374	398.94
415.597	399.94
415.821	392.94
416.044	402.94
416.267	398.94
416.49	413.94
416.713	393.94
416.936	388.94
417.159	390.94
417.382	380.94
417.605	391.94
417.828	397.94
418.051	406.94
418.274	396.94
418.497	400.94
418.72	415.94
418.943	406.94
419.166	401.94
419.389	416.94
419.611	433.94
419.834	425.94
420.057	426.94
420.28	399.94
420.503	404.94
420.726	399.94
420.948	372.94
421.171	374.94
421.394	399.94
421.617	400.94
421.839	392.94
422.062	407.94
422.285	390.94
422.507	410.94
422.73	379.94
422.953	389.94
423.175	383.94
423.398	415.94
423.621	399.94
423.843	409.94
424.066	419.94
424.288	404.94
424.511	419.94
424.733	410.94
424.956	385.94
425.178	384.94
425.401	412.94
425.623	377.94
425.846	384.94
426.068	380.94
426.291	384.94
426.513	390.94
426.735	388.94
426.958	379.94
427.18	388.94
427.402	368.94
427.625	381.94
427.847	378.94
428.069	369.94
428.292	362.94
428.514	370.94
428.736	370.94
428.958	380.94
429.181	363.94
429.403	372.94
429.625	361.94
429.847	363.94
430.069	369.94
430.292	363.94
430.514	363.94
430.736	372.94
430.958	373.94
431.18	363.94
431.402	374.94
431.624	370.94
431.846	374.94
432.068	370.94
432.29	365.94
432.512	360.94
432.734	379.94
432.956	359.94
433.178	384.94
433.4	373.94
433.622	378.94
433.844	392.94
434.066	376.94
434.287	365.94
434.509	376.94
434.731	391.94
434.953	378.94
435.175	405.94
435.397	386.94
435.618	374.94
435.84	381.94
436.062	376.94
436.284	368.94
436.505	368.94
436.727	377.94
436.949	371.94
437.17	358.94
437.392	363.94
437.614	360.94
437.835	365.94
438.057	340.94
438.278	335.94
438.5	350.94
438.721	347.94
438.943	363.94
439.165	348.94
439.386	346.94
439.608	361.94
439.829	381.94
440.05	373.94
440.272	388.94
440.493	363.94
440.715	374.94
440.936	365.94
441.158	384.94
441.379	392.94
441.6	373.94
441.822	370.94
442.043	379.94
442.264	378.94
442.486	388.94
442.707	376.94
442.928	396.94
443.149	379.94
443.371	364.94
443.592	375.94
443.813	384.94
444.034	389.94
444.255	391.94
444.476	409.94
444.698	404.94
444.919	415.94
445.14	493.94
445.361	461.94
445.582	431.94
445.803	397.94
446.024	378.94
446.245	363.94
446.466	386.94
446.687	366.94
446.908	374.94
447.129	359.94
447.35	359.94
447.571	382.94
447.792	359.94
448.013	340.94
448.234	351.94
448.455	357.94
448.675	333.94
448.896	346.94
449.117	324.94
449.338	341.94
449.559	340.94
449.779	339.94
450	339.94
450.221	355.94
450.442	337.94
450.662	330.94
450.883	333.94
451.104	316.94
451.324	333.94
451.545	340.94
451.766	349.94
451.986	330.94
452.207	330.94
452.428	331.94
452.648	322.94
452.869	350.94
453.089	315.94
453.31	333.94
453.53	318.94
453.751	347.94
453.971	339.94
454.192	328.94
454.412	328.94
454.633	316.94
454.853	343.94
455.073	337.94
455.294	324.94
455.514	332.94
455.734	322.94
455.955	321.94
456.175	332.94
456.395	327.94
456.616	326.94
456.836	326.94
457.056	332.94
457.276	343.94
457.497	332.94
457.717	328.94
457.937	341.94
458.157	316.94
458.377	334.94
458.598	350.94
458.818	347.94
459.038	349.94
459.258	357.94
459.478	380.94
459.698	359.94
459.918	380.94
460.138	386.94
460.358	407.94
460.578	419.94
460.798	425.94
461.018	411.94
461.238	425.94
461.458	408.94
461.678	424.94
461.898	396.94
462.118	424.94
462.338	439.94
462.558	442.94
462.777	450.94
462.997	458.94
463.217	475.94
463.437	484.94
463.657	462.94
463.876	462.94
464.096	457.94
464.316	457.94
464.536	435.94
464.755	457.94
464.975	425.94
465.195	407.94
465.414	378.94
465.634	379.94
465.854	397.94
466.073	371.94
466.293	404.94
466.512	375.94
466.732	355.94
466.951	386.94
467.171	364.94
467.391	364.94
467.61	347.94
467.829	364.94
468.049	371.94
468.268	338.94
468.488	353.94
468.707	354.94
468.927	364.94
469.146	359.94
469.365	365.94
469.585	358.94
469.804	342.94
470.023	370.94
470.243	361.94
470.462	376.94
470.681	356.94
470.901	386.94
471.12	374.94
471.339	356.94
471.558	357.94
471.777	362.94
471.997	364.94
472.216	366.94
472.435	361.94
472.654	345.94
472.873	357.94
473.092	374.94
473.311	346.94
473.53	347.94
473.749	355.94
473.968	357.94
474.187	351.94
474.406	348.94
474.625	357.94
474.844	363.94
475.063	357.94
475.282	369.94
475.501	348.94
475.72	372.94
475.939	350.94
476.158	359.94
476.377	373.94
476.596	369.94
476.814	365.94
477.033	390.94
477.252	390.94
477.471	388.94
477.69	392.94
477.908	374.94
478.127	399.94
478.346	401.94
478.564	413.94
478.783	406.94
479.002	405.94
479.22	413.94
479.439	422.94
479.658	422.94
479.876	433.94
480.095	430.94
480.313	427.94
480.532	442.94
480.751	444.94
480.969	427.94
481.188	395.94
481.406	438.94
481.624	414.94
481.843	410.94
482.061	410.94
482.28	386.94
482.498	395.94
482.717	392.94
482.935	409.94
483.153	392.94
483.372	413.94
483.59	391.94
483.808	409.94
484.027	408.94
484.245	399.94
484.463	400.94
484.681	414.94
484.9	412.94
485.118	395.94
485.336	405.94
485.554	416.94
485.772	406.94
485.99	397.94
486.209	432.94
486.427	432.94
486.645	420.94
486.863	414.94
487.081	377.94
487.299	414.94
487.517	404.94
487.735	409.94
487.953	425.94
488.171	411.94
488.389	427.94
488.607	405.94
488.825	413.94
489.043	408.94
489.261	424.94
489.479	402.94
489.696	413.94
489.914	398.94
490.132	444.94
490.35	407.94
490.568	408.94
490.786	443.94
491.003	406.94
491.221	401.94
491.439	419.94
491.657	414.94
491.874	435.94
492.092	421.94
492.31	441.94
492.527	404.94
492.745	414.94
492.963	437.94
493.18	441.94
493.398	440.94
493.615	428.94
493.833	429.94
494.05	430.94
494.268	448.94
494.485	460.94
494.703	419.94
494.92	441.94
495.138	458.94
495.355	457.94
495.573	463.94
495.79	470.94
496.008	442.94
496.225	469.94
496.442	475.94
496.66	469.94
496.877	481.94
497.094	497.94
497.312	457.94
497.529	507.94
497.746	522.94
497.963	504.94
498.181	552.94
498.398	540.94
498.615	569.94
498.832	595.94
499.049	630.94
499.267	660.94
499.484	693.94
499.701	731.94
499.918	773.94
500.135	818.94
500.352	836.94
500.569	880.94
500.786	850.94
501.003	840.94
501.22	757.94
501.437	734.94
501.654	716.94
501.871	671.94
502.088	625.94
502.305	620.94
