Data from Fe(NO3)3@0.0125M.TitratingCurve.Agarose3%dH2O.NegLispCup.LampEnergy10.LIBS07252019_HRD10591_16-59-54-337.txt Node
Date: Thu Jul 25 16:59:54 EDT 2019
User: cochatt
Spectrometer: HR+D1059
Trigger mode: 1
Integration Time (sec): 1.000000E-1
Scans to average: 1
Electric dark correction enabled: true
Nonlinearity correction enabled: false
Boxcar width: 0
XAxis mode: Wavelengths
Number of Pixels in Spectrum: 2048
>>>>>Begin Spectral Data<<<<<
223.165	-27.62
223.4	-27.62
223.635	-27.62
223.869	-15.62
224.104	-14.62
224.338	-15.62
224.573	-14.62
224.808	-24.62
225.042	12.38
225.277	-9.62
225.511	-6.62
225.746	9.38
225.98	4.38
226.215	13.38
226.449	5.38
226.683	25.38
226.918	27.38
227.152	31.38
227.387	42.38
227.621	42.38
227.856	40.38
228.09	52.38
228.324	49.38
228.559	40.38
228.793	71.38
229.027	80.38
229.262	74.38
229.496	75.38
229.73	84.38
229.964	95.38
230.199	84.38
230.433	75.38
230.667	89.38
230.901	93.38
231.136	83.38
231.37	100.38
231.604	80.38
231.838	88.38
232.072	100.38
232.306	99.38
232.541	88.38
232.775	95.38
233.009	87.38
233.243	94.38
233.477	86.38
233.711	84.38
233.945	84.38
234.179	90.38
234.413	95.38
234.647	107.38
234.881	89.38
235.115	99.38
235.349	112.38
235.583	92.38
235.817	106.38
236.051	98.38
236.285	97.38
236.519	109.38
236.753	80.38
236.987	99.38
237.221	82.38
237.455	107.38
237.689	93.38
237.922	80.38
238.156	88.38
238.39	101.38
238.624	102.38
238.858	105.38
239.091	102.38
239.325	100.38
239.559	100.38
239.793	96.38
240.027	104.38
240.26	98.38
240.494	109.38
240.728	100.38
240.961	102.38
241.195	125.38
241.429	106.38
241.662	92.38
241.896	78.38
242.13	99.38
242.363	102.38
242.597	118.38
242.83	104.38
243.064	93.38
243.298	105.38
243.531	95.38
243.765	96.38
243.998	96.38
244.232	98.38
244.465	105.38
244.699	100.38
244.932	115.38
245.166	91.38
245.399	91.38
245.633	94.38
245.866	99.38
246.099	104.38
246.333	113.38
246.566	81.38
246.8	105.38
247.033	102.38
247.266	108.38
247.5	103.38
247.733	108.38
247.966	106.38
248.2	124.38
248.433	103.38
248.666	102.38
248.899	120.38
249.133	108.38
249.366	111.38
249.599	112.38
249.832	107.38
250.066	114.38
250.299	114.38
250.532	117.38
250.765	117.38
250.998	101.38
251.231	122.38
251.465	114.38
251.698	115.38
251.931	104.38
252.164	119.38
252.397	130.38
252.63	116.38
252.863	107.38
253.096	123.38
253.329	120.38
253.562	113.38
253.795	125.38
254.028	125.38
254.261	118.38
254.494	107.38
254.727	128.38
254.96	122.38
255.193	133.38
255.426	137.38
255.659	124.38
255.892	113.38
256.124	109.38
256.357	120.38
256.59	116.38
256.823	118.38
257.056	116.38
257.289	126.38
257.521	122.38
257.754	126.38
257.987	132.38
258.22	129.38
258.452	120.38
258.685	130.38
258.918	137.38
259.151	123.38
259.383	121.38
259.616	125.38
259.849	153.38
260.081	128.38
260.314	140.38
260.547	148.38
260.779	120.38
261.012	157.38
261.244	148.38
261.477	143.38
261.71	134.38
261.942	128.38
262.175	129.38
262.407	131.38
262.64	136.38
262.872	132.38
263.105	138.38
263.337	134.38
263.57	141.38
263.802	134.38
264.035	144.38
264.267	125.38
264.499	124.38
264.732	152.38
264.964	137.38
265.197	134.38
265.429	124.38
265.661	136.38
265.894	123.38
266.126	130.38
266.358	140.38
266.591	138.38
266.823	132.38
267.055	128.38
267.287	140.38
267.52	126.38
267.752	141.38
267.984	132.38
268.216	138.38
268.448	174.38
268.681	150.38
268.913	152.38
269.145	139.38
269.377	146.38
269.609	157.38
269.841	129.38
270.073	157.38
270.306	138.38
270.538	147.38
270.77	146.38
271.002	142.38
271.234	141.38
271.466	156.38
271.698	125.38
271.93	146.38
272.162	152.38
272.394	156.38
272.626	143.38
272.858	148.38
273.09	151.38
273.322	152.38
273.553	153.38
273.785	152.38
274.017	141.38
274.249	152.38
274.481	164.38
274.713	161.38
274.945	168.38
275.176	177.38
275.408	172.38
275.64	162.38
275.872	173.38
276.104	160.38
276.335	160.38
276.567	156.38
276.799	153.38
277.031	163.38
277.262	176.38
277.494	156.38
277.726	167.38
277.957	165.38
278.189	160.38
278.421	168.38
278.652	169.38
278.884	170.38
279.115	177.38
279.347	165.38
279.579	173.38
279.81	177.38
280.042	180.38
280.273	168.38
280.505	167.38
280.736	140.38
280.968	174.38
281.199	181.38
281.431	177.38
281.662	168.38
281.894	182.38
282.125	158.38
282.356	164.38
282.588	173.38
282.819	177.38
283.051	162.38
283.282	201.38
283.513	193.38
283.745	187.38
283.976	163.38
284.207	183.38
284.439	173.38
284.67	170.38
284.901	185.38
285.132	178.38
285.364	179.38
285.595	182.38
285.826	194.38
286.057	191.38
286.288	200.38
286.52	181.38
286.751	190.38
286.982	187.38
287.213	193.38
287.444	174.38
287.675	197.38
287.906	196.38
288.138	196.38
288.369	194.38
288.6	208.38
288.831	188.38
289.062	202.38
289.293	204.38
289.524	210.38
289.755	200.38
289.986	194.38
290.217	194.38
290.448	197.38
290.679	195.38
290.91	203.38
291.141	204.38
291.371	205.38
291.602	216.38
291.833	197.38
292.064	216.38
292.295	205.38
292.526	208.38
292.757	204.38
292.987	203.38
293.218	212.38
293.449	206.38
293.68	199.38
293.91	201.38
294.141	214.38
294.372	209.38
294.603	216.38
294.833	225.38
295.064	228.38
295.295	220.38
295.525	226.38
295.756	228.38
295.987	216.38
296.217	213.38
296.448	212.38
296.679	241.38
296.909	215.38
297.14	219.38
297.37	249.38
297.601	229.38
297.831	240.38
298.062	229.38
298.292	226.38
298.523	234.38
298.753	221.38
298.984	226.38
299.214	240.38
299.445	231.38
299.675	244.38
299.905	232.38
300.136	232.38
300.366	230.38
300.597	238.38
300.827	240.38
301.057	241.38
301.288	260.38
301.518	252.38
301.748	249.38
301.979	244.38
302.209	245.38
302.439	268.38
302.669	251.38
302.9	233.38
303.13	264.38
303.36	261.38
303.59	264.38
303.82	252.38
304.051	245.38
304.281	235.38
304.511	258.38
304.741	256.38
304.971	257.38
305.201	272.38
305.431	249.38
305.661	262.38
305.891	267.38
306.121	284.38
306.352	258.38
306.582	254.38
306.812	258.38
307.042	267.38
307.272	256.38
307.502	260.38
307.731	265.38
307.961	272.38
308.191	265.38
308.421	284.38
308.651	262.38
308.881	275.38
309.111	276.38
309.341	266.38
309.571	275.38
309.8	270.38
310.03	277.38
310.26	264.38
310.49	272.38
310.72	266.38
310.949	271.38
311.179	280.38
311.409	271.38
311.639	276.38
311.868	267.38
312.098	290.38
312.328	295.38
312.557	290.38
312.787	296.38
313.017	297.38
313.246	291.38
313.476	294.38
313.706	298.38
313.935	302.38
314.165	288.38
314.394	280.38
314.624	294.38
314.853	274.38
315.083	300.38
315.312	285.38
315.542	317.38
315.771	299.38
316.001	302.38
316.23	324.38
316.46	298.38
316.689	294.38
316.919	309.38
317.148	320.38
317.377	308.38
317.607	316.38
317.836	312.38
318.065	311.38
318.295	302.38
318.524	312.38
318.753	308.38
318.983	306.38
319.212	297.38
319.441	323.38
319.67	324.38
319.9	316.38
320.129	315.38
320.358	313.38
320.587	312.38
320.816	317.38
321.046	332.38
321.275	332.38
321.504	309.38
321.733	324.38
321.962	328.38
322.191	335.38
322.42	322.38
322.649	321.38
322.878	330.38
323.108	321.38
323.337	337.38
323.566	334.38
323.795	352.38
324.024	346.38
324.253	314.38
324.482	320.38
324.71	341.38
324.939	331.38
325.168	330.38
325.397	345.38
325.626	368.38
325.855	326.38
326.084	324.38
326.313	345.38
326.542	345.38
326.77	334.38
326.999	348.38
327.228	344.38
327.457	351.38
327.686	339.38
327.914	349.38
328.143	341.38
328.372	337.38
328.6	358.38
328.829	358.38
329.058	354.38
329.287	347.38
329.515	359.38
329.744	353.38
329.972	342.38
330.201	343.38
330.43	349.38
330.658	355.38
330.887	340.38
331.115	359.38
331.344	350.38
331.572	357.38
331.801	347.38
332.03	356.38
332.258	355.38
332.486	353.38
332.715	340.38
332.943	353.38
333.172	349.38
333.4	370.38
333.629	380.38
333.857	361.38
334.085	357.38
334.314	351.38
334.542	382.38
334.771	374.38
334.999	374.38
335.227	380.38
335.455	370.38
335.684	386.38
335.912	386.38
336.14	372.38
336.369	378.38
336.597	380.38
336.825	379.38
337.053	380.38
337.281	363.38
337.51	382.38
337.738	380.38
337.966	394.38
338.194	381.38
338.422	380.38
338.65	376.38
338.878	372.38
339.106	372.38
339.334	387.38
339.562	381.38
339.79	381.38
340.018	386.38
340.246	384.38
340.474	376.38
340.702	393.38
340.93	385.38
341.158	380.38
341.386	378.38
341.614	364.38
341.842	354.38
342.07	378.38
342.298	376.38
342.526	380.38
342.754	381.38
342.981	374.38
343.209	374.38
343.437	373.38
343.665	380.38
343.893	378.38
344.12	389.38
344.348	383.38
344.576	394.38
344.804	388.38
345.031	373.38
345.259	384.38
345.487	413.38
345.714	399.38
345.942	377.38
346.17	393.38
346.397	373.38
346.625	369.38
346.853	377.38
347.08	380.38
347.308	388.38
347.535	382.38
347.763	375.38
347.99	360.38
348.218	380.38
348.445	372.38
348.673	375.38
348.9	376.38
349.128	368.38
349.355	383.38
349.583	394.38
349.81	389.38
350.037	380.38
350.265	361.38
350.492	352.38
350.72	372.38
350.947	370.38
351.174	376.38
351.402	381.38
351.629	374.38
351.856	378.38
352.083	380.38
352.311	384.38
352.538	368.38
352.765	394.38
352.992	381.38
353.22	385.38
353.447	390.38
353.674	386.38
353.901	372.38
354.128	383.38
354.355	377.38
354.583	380.38
354.81	377.38
355.037	378.38
355.264	403.38
355.491	376.38
355.718	378.38
355.945	381.38
356.172	373.38
356.399	377.38
356.626	369.38
356.853	386.38
357.08	386.38
357.307	386.38
357.534	379.38
357.761	374.38
357.988	370.38
358.215	403.38
358.441	385.38
358.668	414.38
358.895	383.38
359.122	380.38
359.349	362.38
359.576	376.38
359.802	399.38
360.029	394.38
360.256	381.38
360.483	404.38
360.709	386.38
360.936	370.38
361.163	370.38
361.39	377.38
361.616	395.38
361.843	385.38
362.07	402.38
362.296	402.38
362.523	385.38
362.749	397.38
362.976	392.38
363.203	393.38
363.429	409.38
363.656	400.38
363.882	398.38
364.109	407.38
364.335	368.38
364.562	389.38
364.788	410.38
365.015	401.38
365.241	392.38
365.468	407.38
365.694	409.38
365.92	406.38
366.147	412.38
366.373	402.38
366.599	410.38
366.826	389.38
367.052	393.38
367.278	413.38
367.505	413.38
367.731	402.38
367.957	399.38
368.184	408.38
368.41	402.38
368.636	401.38
368.862	402.38
369.089	414.38
369.315	436.38
369.541	411.38
369.767	406.38
369.993	425.38
370.219	397.38
370.445	421.38
370.672	412.38
370.898	422.38
371.124	417.38
371.35	423.38
371.576	418.38
371.802	428.38
372.028	439.38
372.254	412.38
372.48	434.38
372.706	414.38
372.932	434.38
373.158	413.38
373.384	423.38
373.61	427.38
373.835	438.38
374.061	425.38
374.287	414.38
374.513	430.38
374.739	435.38
374.965	444.38
375.191	429.38
375.416	432.38
375.642	412.38
375.868	441.38
376.094	434.38
376.319	425.38
376.545	429.38
376.771	419.38
376.997	442.38
377.222	433.38
377.448	427.38
377.674	438.38
377.899	432.38
378.125	426.38
378.35	410.38
378.576	410.38
378.802	404.38
379.027	435.38
379.253	435.38
379.478	429.38
379.704	427.38
379.929	421.38
380.155	439.38
380.38	432.38
380.606	424.38
380.831	440.38
381.057	434.38
381.282	451.38
381.507	439.38
381.733	458.38
381.958	439.38
382.184	455.38
382.409	434.38
382.634	442.38
382.86	455.38
383.085	458.38
383.31	446.38
383.535	457.38
383.761	460.38
383.986	461.38
384.211	452.38
384.436	457.38
384.662	440.38
384.887	469.38
385.112	451.38
385.337	454.38
385.562	469.38
385.787	473.38
386.013	474.38
386.238	479.38
386.463	451.38
386.688	470.38
386.913	450.38
387.138	461.38
387.363	476.38
387.588	463.38
387.813	465.38
388.038	472.38
388.263	481.38
388.488	471.38
388.713	469.38
388.938	498.38
389.163	492.38
389.387	485.38
389.612	469.38
389.837	453.38
390.062	472.38
390.287	483.38
390.512	459.38
390.736	480.38
390.961	480.38
391.186	476.38
391.411	478.38
391.636	467.38
391.86	477.38
392.085	475.38
392.31	474.38
392.534	457.38
392.759	460.38
392.984	492.38
393.208	496.38
393.433	493.38
393.658	483.38
393.882	502.38
394.107	490.38
394.331	491.38
394.556	497.38
394.78	481.38
395.005	500.38
395.229	500.38
395.454	489.38
395.678	504.38
395.903	504.38
396.127	476.38
396.352	487.38
396.576	495.38
396.801	487.38
397.025	511.38
397.249	512.38
397.474	515.38
397.698	521.38
397.922	506.38
398.147	522.38
398.371	515.38
398.595	497.38
398.82	533.38
399.044	518.38
399.268	539.38
399.492	544.38
399.717	528.38
399.941	552.38
400.165	554.38
400.389	577.38
400.613	571.38
400.837	534.38
401.062	546.38
401.286	539.38
401.51	544.38
401.734	557.38
401.958	520.38
402.182	540.38
402.406	521.38
402.63	539.38
402.854	557.38
403.078	543.38
403.302	542.38
403.526	549.38
403.75	530.38
403.974	538.38
404.198	509.38
404.422	550.38
404.645	558.38
404.869	562.38
405.093	541.38
405.317	540.38
405.541	534.38
405.765	527.38
405.988	524.38
406.212	548.38
406.436	545.38
406.66	573.38
406.883	547.38
407.107	554.38
407.331	551.38
407.555	576.38
407.778	577.38
408.002	582.38
408.226	563.38
408.449	576.38
408.673	579.38
408.896	588.38
409.12	576.38
409.344	561.38
409.567	568.38
409.791	547.38
410.014	536.38
410.238	547.38
410.461	557.38
410.685	557.38
410.908	566.38
411.132	552.38
411.355	540.38
411.578	549.38
411.802	551.38
412.025	539.38
412.249	547.38
412.472	563.38
412.695	529.38
412.919	515.38
413.142	529.38
413.365	534.38
413.589	539.38
413.812	529.38
414.035	549.38
414.258	551.38
414.482	539.38
414.705	544.38
414.928	517.38
415.151	537.38
415.374	532.38
415.597	536.38
415.821	522.38
416.044	521.38
416.267	526.38
416.49	541.38
416.713	502.38
416.936	527.38
417.159	513.38
417.382	520.38
417.605	504.38
417.828	523.38
418.051	537.38
418.274	510.38
418.497	502.38
418.72	531.38
418.943	506.38
419.166	536.38
419.389	566.38
419.611	539.38
419.834	536.38
420.057	539.38
420.28	524.38
420.503	499.38
420.726	489.38
420.948	510.38
421.171	526.38
421.394	486.38
421.617	514.38
421.839	499.38
422.062	517.38
422.285	473.38
422.507	512.38
422.73	515.38
422.953	529.38
423.175	499.38
423.398	517.38
423.621	500.38
423.843	517.38
424.066	512.38
424.288	498.38
424.511	513.38
424.733	529.38
424.956	515.38
425.178	528.38
425.401	508.38
425.623	520.38
425.846	514.38
426.068	493.38
426.291	519.38
426.513	510.38
426.735	522.38
426.958	521.38
427.18	527.38
427.402	506.38
427.625	507.38
427.847	502.38
428.069	508.38
428.292	518.38
428.514	518.38
428.736	523.38
428.958	522.38
429.181	499.38
429.403	510.38
429.625	513.38
429.847	500.38
430.069	504.38
430.292	523.38
430.514	493.38
430.736	508.38
430.958	508.38
431.18	517.38
431.402	536.38
431.624	497.38
431.846	517.38
432.068	533.38
432.29	502.38
432.512	506.38
432.734	514.38
432.956	502.38
433.178	527.38
433.4	512.38
433.622	506.38
433.844	518.38
434.066	543.38
434.287	523.38
434.509	514.38
434.731	534.38
434.953	531.38
435.175	501.38
435.397	545.38
435.618	536.38
435.84	529.38
436.062	508.38
436.284	504.38
436.505	516.38
436.727	508.38
436.949	524.38
437.17	541.38
437.392	524.38
437.614	518.38
437.835	527.38
438.057	517.38
438.278	495.38
438.5	520.38
438.721	512.38
438.943	513.38
439.165	510.38
439.386	526.38
439.608	527.38
439.829	492.38
440.05	516.38
440.272	516.38
440.493	499.38
440.715	523.38
440.936	517.38
441.158	519.38
441.379	532.38
441.6	509.38
441.822	500.38
442.043	531.38
442.264	513.38
442.486	516.38
442.707	519.38
442.928	523.38
443.149	537.38
443.371	517.38
443.592	512.38
443.813	507.38
444.034	514.38
444.255	528.38
444.476	531.38
444.698	515.38
444.919	540.38
445.14	613.38
445.361	540.38
445.582	532.38
445.803	510.38
446.024	532.38
446.245	548.38
446.466	517.38
446.687	515.38
446.908	502.38
447.129	505.38
447.35	493.38
447.571	492.38
447.792	484.38
448.013	498.38
448.234	489.38
448.455	492.38
448.675	493.38
448.896	504.38
449.117	489.38
449.338	498.38
449.559	502.38
449.779	483.38
450	481.38
450.221	488.38
450.442	513.38
450.662	487.38
450.883	491.38
451.104	503.38
451.324	469.38
451.545	512.38
451.766	489.38
451.986	459.38
452.207	510.38
452.428	502.38
452.648	483.38
452.869	489.38
453.089	478.38
453.31	482.38
453.53	472.38
453.751	484.38
453.971	478.38
454.192	486.38
454.412	482.38
454.633	483.38
454.853	485.38
455.073	467.38
455.294	493.38
455.514	477.38
455.734	482.38
455.955	491.38
456.175	478.38
456.395	486.38
456.616	486.38
456.836	489.38
457.056	509.38
457.276	481.38
457.497	488.38
457.717	487.38
457.937	498.38
458.157	491.38
458.377	484.38
458.598	485.38
458.818	505.38
459.038	511.38
459.258	481.38
459.478	494.38
459.698	502.38
459.918	518.38
460.138	523.38
460.358	529.38
460.578	536.38
460.798	525.38
461.018	516.38
461.238	532.38
461.458	534.38
461.678	532.38
461.898	540.38
462.118	537.38
462.338	551.38
462.558	547.38
462.777	555.38
462.997	549.38
463.217	551.38
463.437	570.38
463.657	565.38
463.876	549.38
464.096	555.38
464.316	547.38
464.536	555.38
464.755	558.38
464.975	534.38
465.195	551.38
465.414	549.38
465.634	539.38
465.854	530.38
466.073	525.38
466.293	528.38
466.512	514.38
466.732	512.38
466.951	524.38
467.171	526.38
467.391	519.38
467.61	499.38
467.829	517.38
468.049	526.38
468.268	520.38
468.488	514.38
468.707	501.38
468.927	521.38
469.146	512.38
469.365	516.38
469.585	531.38
469.804	531.38
470.023	518.38
470.243	523.38
470.462	527.38
470.681	536.38
470.901	531.38
471.12	524.38
471.339	531.38
471.558	520.38
471.777	544.38
471.997	545.38
472.216	563.38
472.435	571.38
472.654	565.38
472.873	560.38
473.092	551.38
473.311	541.38
473.53	562.38
473.749	540.38
473.968	551.38
474.187	532.38
474.406	550.38
474.625	560.38
474.844	560.38
475.063	566.38
475.282	595.38
475.501	563.38
475.72	578.38
475.939	570.38
476.158	581.38
476.377	567.38
476.596	587.38
476.814	587.38
477.033	588.38
477.252	595.38
477.471	615.38
477.69	601.38
477.908	607.38
478.127	608.38
478.346	625.38
478.564	606.38
478.783	619.38
479.002	628.38
479.22	616.38
479.439	608.38
479.658	626.38
479.876	636.38
480.095	616.38
480.313	620.38
480.532	629.38
480.751	628.38
480.969	668.38
481.188	637.38
481.406	633.38
481.624	645.38
481.843	656.38
482.061	627.38
482.28	648.38
482.498	644.38
482.717	618.38
482.935	635.38
483.153	648.38
483.372	662.38
483.59	644.38
483.808	645.38
484.027	646.38
484.245	654.38
484.463	681.38
484.681	674.38
484.9	672.38
485.118	651.38
485.336	647.38
485.554	689.38
485.772	663.38
485.99	658.38
486.209	677.38
486.427	666.38
486.645	679.38
486.863	654.38
487.081	680.38
487.299	663.38
487.517	684.38
487.735	667.38
487.953	676.38
488.171	699.38
488.389	664.38
488.607	669.38
488.825	676.38
489.043	681.38
489.261	690.38
489.479	662.38
489.696	663.38
489.914	683.38
490.132	696.38
490.35	683.38
490.568	688.38
490.786	664.38
491.003	685.38
491.221	673.38
491.439	685.38
491.657	706.38
491.874	675.38
492.092	677.38
492.31	693.38
492.527	689.38
492.745	728.38
492.963	705.38
493.18	690.38
493.398	732.38
493.615	708.38
493.833	704.38
494.05	690.38
494.268	710.38
494.485	740.38
494.703	728.38
494.92	738.38
495.138	714.38
495.355	736.38
495.573	713.38
495.79	745.38
496.008	733.38
496.225	741.38
496.442	759.38
496.66	738.38
496.877	745.38
497.094	774.38
497.312	739.38
497.529	742.38
497.746	784.38
497.963	753.38
498.181	759.38
498.398	777.38
498.615	791.38
498.832	795.38
499.049	821.38
499.267	804.38
499.484	838.38
499.701	822.38
499.918	864.38
500.135	872.38
500.352	882.38
500.569	853.38
500.786	880.38
501.003	882.38
501.22	868.38
501.437	862.38
501.654	798.38
501.871	833.38
502.088	790.38
502.305	824.38
