Data from Fe(NO3)3@0.1M.TitratingCurve.Agarose3%dH2O.NegLispCup.LampEnergy10.LIBS07252019_HRD10591_16-37-32-331.txt Node
Date: Thu Jul 25 16:37:32 EDT 2019
User: cochatt
Spectrometer: HR+D1059
Trigger mode: 1
Integration Time (sec): 1.000000E-1
Scans to average: 1
Electric dark correction enabled: true
Nonlinearity correction enabled: false
Boxcar width: 0
XAxis mode: Wavelengths
Number of Pixels in Spectrum: 2048
>>>>>Begin Spectral Data<<<<<
223.165	-27.12
223.4	-27.12
223.635	-27.12
223.869	-27.12
224.104	-16.12
224.338	-4.12
224.573	-22.12
224.808	-1.12
225.042	-20.12
225.277	-9.12
225.511	0.88
225.746	2.88
225.98	17.88
226.215	14.88
226.449	10.88
226.683	14.88
226.918	29.88
227.152	34.88
227.387	45.88
227.621	37.88
227.856	47.88
228.09	45.88
228.324	40.88
228.559	57.88
228.793	60.88
229.027	76.88
229.262	80.88
229.496	82.88
229.73	91.88
229.964	77.88
230.199	101.88
230.433	85.88
230.667	85.88
230.901	88.88
231.136	84.88
231.37	93.88
231.604	91.88
231.838	110.88
232.072	91.88
232.306	96.88
232.541	95.88
232.775	87.88
233.009	102.88
233.243	115.88
233.477	97.88
233.711	103.88
233.945	107.88
234.179	96.88
234.413	98.88
234.647	93.88
234.881	101.88
235.115	83.88
235.349	103.88
235.583	94.88
235.817	94.88
236.051	105.88
236.285	102.88
236.519	88.88
236.753	106.88
236.987	97.88
237.221	106.88
237.455	96.88
237.689	109.88
237.922	96.88
238.156	105.88
238.39	106.88
238.624	97.88
238.858	94.88
239.091	117.88
239.325	99.88
239.559	102.88
239.793	95.88
240.027	102.88
240.26	96.88
240.494	101.88
240.728	91.88
240.961	110.88
241.195	110.88
241.429	101.88
241.662	98.88
241.896	115.88
242.13	119.88
242.363	129.88
242.597	110.88
242.83	108.88
243.064	93.88
243.298	116.88
243.531	116.88
243.765	93.88
243.998	100.88
244.232	95.88
244.465	107.88
244.699	116.88
244.932	105.88
245.166	101.88
245.399	112.88
245.633	117.88
245.866	110.88
246.099	108.88
246.333	110.88
246.566	106.88
246.8	117.88
247.033	118.88
247.266	105.88
247.5	122.88
247.733	116.88
247.966	102.88
248.2	110.88
248.433	110.88
248.666	107.88
248.899	109.88
249.133	123.88
249.366	122.88
249.599	120.88
249.832	123.88
250.066	120.88
250.299	112.88
250.532	132.88
250.765	120.88
250.998	126.88
251.231	128.88
251.465	123.88
251.698	112.88
251.931	116.88
252.164	123.88
252.397	122.88
252.63	119.88
252.863	124.88
253.096	142.88
253.329	124.88
253.562	117.88
253.795	127.88
254.028	119.88
254.261	120.88
254.494	120.88
254.727	123.88
254.96	122.88
255.193	120.88
255.426	137.88
255.659	128.88
255.892	118.88
256.124	131.88
256.357	134.88
256.59	143.88
256.823	124.88
257.056	115.88
257.289	140.88
257.521	110.88
257.754	124.88
257.987	132.88
258.22	147.88
258.452	134.88
258.685	127.88
258.918	140.88
259.151	140.88
259.383	141.88
259.616	130.88
259.849	142.88
260.081	130.88
260.314	144.88
260.547	118.88
260.779	127.88
261.012	126.88
261.244	126.88
261.477	139.88
261.71	152.88
261.942	128.88
262.175	130.88
262.407	140.88
262.64	130.88
262.872	143.88
263.105	131.88
263.337	158.88
263.57	140.88
263.802	148.88
264.035	151.88
264.267	138.88
264.499	141.88
264.732	150.88
264.964	139.88
265.197	148.88
265.429	141.88
265.661	159.88
265.894	144.88
266.126	150.88
266.358	140.88
266.591	146.88
266.823	138.88
267.055	150.88
267.287	149.88
267.52	133.88
267.752	146.88
267.984	137.88
268.216	159.88
268.448	152.88
268.681	152.88
268.913	141.88
269.145	141.88
269.377	152.88
269.609	151.88
269.841	144.88
270.073	144.88
270.306	155.88
270.538	155.88
270.77	143.88
271.002	151.88
271.234	155.88
271.466	149.88
271.698	152.88
271.93	141.88
272.162	138.88
272.394	149.88
272.626	154.88
272.858	166.88
273.09	167.88
273.322	168.88
273.553	159.88
273.785	148.88
274.017	159.88
274.249	163.88
274.481	178.88
274.713	156.88
274.945	186.88
275.176	167.88
275.408	138.88
275.64	150.88
275.872	157.88
276.104	180.88
276.335	157.88
276.567	146.88
276.799	167.88
277.031	180.88
277.262	168.88
277.494	160.88
277.726	143.88
277.957	167.88
278.189	170.88
278.421	149.88
278.652	160.88
278.884	160.88
279.115	160.88
279.347	152.88
279.579	165.88
279.81	165.88
280.042	171.88
280.273	168.88
280.505	155.88
280.736	178.88
280.968	169.88
281.199	169.88
281.431	177.88
281.662	175.88
281.894	174.88
282.125	176.88
282.356	172.88
282.588	166.88
282.819	169.88
283.051	181.88
283.282	167.88
283.513	191.88
283.745	187.88
283.976	185.88
284.207	166.88
284.439	164.88
284.67	179.88
284.901	167.88
285.132	182.88
285.364	180.88
285.595	175.88
285.826	182.88
286.057	170.88
286.288	173.88
286.52	170.88
286.751	171.88
286.982	163.88
287.213	185.88
287.444	169.88
287.675	187.88
287.906	185.88
288.138	178.88
288.369	187.88
288.6	187.88
288.831	182.88
289.062	171.88
289.293	159.88
289.524	191.88
289.755	194.88
289.986	192.88
290.217	191.88
290.448	172.88
290.679	173.88
290.91	175.88
291.141	183.88
291.371	197.88
291.602	181.88
291.833	198.88
292.064	174.88
292.295	174.88
292.526	192.88
292.757	193.88
292.987	174.88
293.218	182.88
293.449	187.88
293.68	183.88
293.91	185.88
294.141	186.88
294.372	185.88
294.603	208.88
294.833	192.88
295.064	185.88
295.295	198.88
295.525	174.88
295.756	183.88
295.987	196.88
296.217	185.88
296.448	183.88
296.679	186.88
296.909	202.88
297.14	201.88
297.37	196.88
297.601	206.88
297.831	204.88
298.062	187.88
298.292	191.88
298.523	198.88
298.753	198.88
298.984	189.88
299.214	190.88
299.445	210.88
299.675	204.88
299.905	190.88
300.136	175.88
300.366	206.88
300.597	186.88
300.827	199.88
301.057	195.88
301.288	185.88
301.518	206.88
301.748	194.88
301.979	210.88
302.209	212.88
302.439	206.88
302.669	207.88
302.9	202.88
303.13	190.88
303.36	186.88
303.59	194.88
303.82	205.88
304.051	216.88
304.281	210.88
304.511	206.88
304.741	213.88
304.971	194.88
305.201	209.88
305.431	200.88
305.661	197.88
305.891	211.88
306.121	217.88
306.352	209.88
306.582	206.88
306.812	194.88
307.042	207.88
307.272	197.88
307.502	199.88
307.731	216.88
307.961	187.88
308.191	203.88
308.421	200.88
308.651	197.88
308.881	197.88
309.111	199.88
309.341	189.88
309.571	196.88
309.8	194.88
310.03	199.88
310.26	195.88
310.49	197.88
310.72	197.88
310.949	199.88
311.179	203.88
311.409	204.88
311.639	220.88
311.868	207.88
312.098	212.88
312.328	207.88
312.557	207.88
312.787	210.88
313.017	210.88
313.246	204.88
313.476	225.88
313.706	224.88
313.935	221.88
314.165	230.88
314.394	202.88
314.624	219.88
314.853	226.88
315.083	203.88
315.312	206.88
315.542	206.88
315.771	204.88
316.001	216.88
316.23	213.88
316.46	209.88
316.689	208.88
316.919	210.88
317.148	217.88
317.377	219.88
317.607	208.88
317.836	209.88
318.065	203.88
318.295	216.88
318.524	198.88
318.753	233.88
318.983	210.88
319.212	207.88
319.441	206.88
319.67	206.88
319.9	213.88
320.129	216.88
320.358	203.88
320.587	214.88
320.816	205.88
321.046	217.88
321.275	227.88
321.504	213.88
321.733	208.88
321.962	198.88
322.191	202.88
322.42	213.88
322.649	219.88
322.878	207.88
323.108	212.88
323.337	214.88
323.566	215.88
323.795	195.88
324.024	219.88
324.253	221.88
324.482	217.88
324.71	225.88
324.939	233.88
325.168	232.88
325.397	210.88
325.626	216.88
325.855	211.88
326.084	212.88
326.313	212.88
326.542	227.88
326.77	216.88
326.999	218.88
327.228	234.88
327.457	232.88
327.686	224.88
327.914	222.88
328.143	221.88
328.372	223.88
328.6	237.88
328.829	224.88
329.058	245.88
329.287	232.88
329.515	235.88
329.744	236.88
329.972	233.88
330.201	228.88
330.43	249.88
330.658	218.88
330.887	224.88
331.115	238.88
331.344	228.88
331.572	230.88
331.801	231.88
332.03	240.88
332.258	245.88
332.486	264.88
332.715	270.88
332.943	265.88
333.172	260.88
333.4	295.88
333.629	286.88
333.857	284.88
334.085	276.88
334.314	271.88
334.542	263.88
334.771	278.88
334.999	271.88
335.227	263.88
335.455	258.88
335.684	268.88
335.912	270.88
336.14	263.88
336.369	246.88
336.597	284.88
336.825	256.88
337.053	254.88
337.281	244.88
337.51	236.88
337.738	260.88
337.966	255.88
338.194	231.88
338.422	233.88
338.65	233.88
338.878	243.88
339.106	233.88
339.334	244.88
339.562	252.88
339.79	239.88
340.018	236.88
340.246	238.88
340.474	245.88
340.702	240.88
340.93	227.88
341.158	231.88
341.386	228.88
341.614	235.88
341.842	237.88
342.07	228.88
342.298	227.88
342.526	233.88
342.754	251.88
342.981	226.88
343.209	258.88
343.437	246.88
343.665	253.88
343.893	283.88
344.12	271.88
344.348	251.88
344.576	272.88
344.804	262.88
345.031	256.88
345.259	240.88
345.487	228.88
345.714	237.88
345.942	229.88
346.17	224.88
346.397	227.88
346.625	212.88
346.853	236.88
347.08	215.88
347.308	230.88
347.535	223.88
347.763	232.88
347.99	223.88
348.218	228.88
348.445	225.88
348.673	223.88
348.9	238.88
349.128	232.88
349.355	218.88
349.583	228.88
349.81	229.88
350.037	237.88
350.265	235.88
350.492	217.88
350.72	236.88
350.947	217.88
351.174	226.88
351.402	221.88
351.629	219.88
351.856	223.88
352.083	216.88
352.311	211.88
352.538	223.88
352.765	210.88
352.992	226.88
353.22	215.88
353.447	226.88
353.674	210.88
353.901	218.88
354.128	207.88
354.355	234.88
354.583	228.88
354.81	217.88
355.037	222.88
355.264	234.88
355.491	230.88
355.718	208.88
355.945	226.88
356.172	233.88
356.399	239.88
356.626	234.88
356.853	227.88
357.08	225.88
357.307	236.88
357.534	229.88
357.761	224.88
357.988	227.88
358.215	230.88
358.441	235.88
358.668	230.88
358.895	230.88
359.122	232.88
359.349	222.88
359.576	216.88
359.802	232.88
360.029	226.88
360.256	237.88
360.483	236.88
360.709	233.88
360.936	240.88
361.163	214.88
361.39	226.88
361.616	231.88
361.843	223.88
362.07	219.88
362.296	228.88
362.523	220.88
362.749	222.88
362.976	210.88
363.203	234.88
363.429	228.88
363.656	228.88
363.882	222.88
364.109	210.88
364.335	246.88
364.562	221.88
364.788	218.88
365.015	220.88
365.241	242.88
365.468	237.88
365.694	227.88
365.92	216.88
366.147	220.88
366.373	233.88
366.599	220.88
366.826	226.88
367.052	234.88
367.278	248.88
367.505	230.88
367.731	227.88
367.957	219.88
368.184	210.88
368.41	236.88
368.636	230.88
368.862	230.88
369.089	230.88
369.315	234.88
369.541	248.88
369.767	236.88
369.993	234.88
370.219	248.88
370.445	262.88
370.672	231.88
370.898	226.88
371.124	233.88
371.35	244.88
371.576	233.88
371.802	233.88
372.028	249.88
372.254	254.88
372.48	265.88
372.706	286.88
372.932	253.88
373.158	263.88
373.384	258.88
373.61	280.88
373.835	257.88
374.061	266.88
374.287	258.88
374.513	264.88
374.739	272.88
374.965	276.88
375.191	278.88
375.416	262.88
375.642	281.88
375.868	269.88
376.094	258.88
376.319	278.88
376.545	260.88
376.771	250.88
376.997	252.88
377.222	250.88
377.448	244.88
377.674	264.88
377.899	254.88
378.125	261.88
378.35	242.88
378.576	252.88
378.802	261.88
379.027	261.88
379.253	241.88
379.478	263.88
379.704	255.88
379.929	249.88
380.155	266.88
380.38	253.88
380.606	263.88
380.831	248.88
381.057	274.88
381.282	254.88
381.507	247.88
381.733	250.88
381.958	266.88
382.184	253.88
382.409	271.88
382.634	270.88
382.86	271.88
383.085	252.88
383.31	280.88
383.535	284.88
383.761	277.88
383.986	284.88
384.211	306.88
384.436	306.88
384.662	292.88
384.887	298.88
385.112	314.88
385.337	310.88
385.562	298.88
385.787	294.88
386.013	319.88
386.238	308.88
386.463	295.88
386.688	300.88
386.913	292.88
387.138	302.88
387.363	293.88
387.588	301.88
387.813	297.88
388.038	302.88
388.263	316.88
388.488	308.88
388.713	307.88
388.938	296.88
389.163	297.88
389.387	306.88
389.612	310.88
389.837	304.88
390.062	296.88
390.287	284.88
390.512	314.88
390.736	329.88
390.961	312.88
391.186	323.88
391.411	334.88
391.636	326.88
391.86	331.88
392.085	338.88
392.31	344.88
392.534	344.88
392.759	310.88
392.984	322.88
393.208	331.88
393.433	330.88
393.658	321.88
393.882	333.88
394.107	343.88
394.331	341.88
394.556	335.88
394.78	349.88
395.005	333.88
395.229	339.88
395.454	358.88
395.678	341.88
395.903	339.88
396.127	346.88
396.352	320.88
396.576	317.88
396.801	343.88
397.025	329.88
397.249	342.88
397.474	362.88
397.698	336.88
397.922	352.88
398.147	352.88
398.371	372.88
398.595	366.88
398.82	378.88
399.044	414.88
399.268	432.88
399.492	491.88
399.717	533.88
399.941	509.88
400.165	480.88
400.389	434.88
400.613	418.88
400.837	396.88
401.062	393.88
401.286	364.88
401.51	382.88
401.734	363.88
401.958	376.88
402.182	394.88
402.406	389.88
402.63	365.88
402.854	420.88
403.078	417.88
403.302	427.88
403.526	421.88
403.75	426.88
403.974	435.88
404.198	426.88
404.422	450.88
404.645	431.88
404.869	423.88
405.093	410.88
405.317	431.88
405.541	408.88
405.765	409.88
405.988	418.88
406.212	410.88
406.436	412.88
406.66	426.88
406.883	431.88
407.107	442.88
407.331	475.88
407.555	486.88
407.778	486.88
408.002	460.88
408.226	469.88
408.449	452.88
408.673	450.88
408.896	427.88
409.12	432.88
409.344	447.88
409.567	439.88
409.791	437.88
410.014	438.88
410.238	418.88
410.461	438.88
410.685	416.88
410.908	412.88
411.132	404.88
411.355	374.88
411.578	407.88
411.802	403.88
412.025	399.88
412.249	419.88
412.472	416.88
412.695	418.88
412.919	380.88
413.142	404.88
413.365	392.88
413.589	413.88
413.812	393.88
414.035	390.88
414.258	385.88
414.482	402.88
414.705	397.88
414.928	396.88
415.151	380.88
415.374	396.88
415.597	399.88
415.821	395.88
416.044	396.88
416.267	360.88
416.49	402.88
416.713	390.88
416.936	373.88
417.159	394.88
417.382	390.88
417.605	390.88
417.828	388.88
418.051	410.88
418.274	396.88
418.497	400.88
418.72	390.88
418.943	390.88
419.166	427.88
419.389	431.88
419.611	410.88
419.834	403.88
420.057	405.88
420.28	400.88
420.503	379.88
420.726	400.88
420.948	398.88
421.171	406.88
421.394	388.88
421.617	390.88
421.839	397.88
422.062	386.88
422.285	382.88
422.507	395.88
422.73	388.88
422.953	421.88
423.175	428.88
423.398	384.88
423.621	392.88
423.843	395.88
424.066	408.88
424.288	398.88
424.511	402.88
424.733	410.88
424.956	390.88
425.178	401.88
425.401	383.88
425.623	386.88
425.846	386.88
426.068	390.88
426.291	377.88
426.513	381.88
426.735	380.88
426.958	384.88
427.18	373.88
427.402	379.88
427.625	366.88
427.847	374.88
428.069	370.88
428.292	379.88
428.514	360.88
428.736	357.88
428.958	380.88
429.181	340.88
429.403	334.88
429.625	342.88
429.847	353.88
430.069	349.88
430.292	346.88
430.514	360.88
430.736	337.88
430.958	357.88
431.18	354.88
431.402	364.88
431.624	367.88
431.846	371.88
432.068	350.88
432.29	366.88
432.512	368.88
432.734	371.88
432.956	346.88
433.178	351.88
433.4	351.88
433.622	355.88
433.844	352.88
434.066	383.88
434.287	367.88
434.509	370.88
434.731	396.88
434.953	380.88
435.175	395.88
435.397	384.88
435.618	379.88
435.84	351.88
436.062	342.88
436.284	365.88
436.505	340.88
436.727	374.88
436.949	345.88
437.17	357.88
437.392	343.88
437.614	363.88
437.835	333.88
438.057	373.88
438.278	339.88
438.5	349.88
438.721	350.88
438.943	339.88
439.165	348.88
439.386	361.88
439.608	356.88
439.829	363.88
440.05	347.88
440.272	367.88
440.493	340.88
440.715	375.88
440.936	376.88
441.158	381.88
441.379	381.88
441.6	387.88
441.822	399.88
442.043	415.88
442.264	392.88
442.486	372.88
442.707	377.88
442.928	397.88
443.149	381.88
443.371	403.88
443.592	407.88
443.813	378.88
444.034	394.88
444.255	428.88
444.476	438.88
444.698	447.88
444.919	448.88
445.14	581.88
445.361	476.88
445.582	416.88
445.803	375.88
446.024	371.88
446.245	364.88
446.466	359.88
446.687	375.88
446.908	355.88
447.129	351.88
447.35	371.88
447.571	360.88
447.792	353.88
448.013	335.88
448.234	346.88
448.455	335.88
448.675	340.88
448.896	330.88
449.117	348.88
449.338	349.88
449.559	345.88
449.779	338.88
450	348.88
450.221	335.88
450.442	348.88
450.662	335.88
450.883	326.88
451.104	352.88
451.324	341.88
451.545	350.88
451.766	340.88
451.986	342.88
452.207	355.88
452.428	330.88
452.648	332.88
452.869	325.88
453.089	322.88
453.31	324.88
453.53	320.88
453.751	316.88
453.971	310.88
454.192	324.88
454.412	337.88
454.633	315.88
454.853	336.88
455.073	316.88
455.294	326.88
455.514	334.88
455.734	317.88
455.955	311.88
456.175	311.88
456.395	300.88
456.616	313.88
456.836	310.88
457.056	310.88
457.276	311.88
457.497	321.88
457.717	314.88
457.937	311.88
458.157	311.88
458.377	318.88
458.598	324.88
458.818	334.88
459.038	330.88
459.258	370.88
459.478	366.88
459.698	366.88
459.918	373.88
460.138	387.88
460.358	404.88
460.578	398.88
460.798	415.88
461.018	408.88
461.238	418.88
461.458	418.88
461.678	403.88
461.898	401.88
462.118	404.88
462.338	438.88
462.558	448.88
462.777	449.88
462.997	482.88
463.217	550.88
463.437	519.88
463.657	486.88
463.876	461.88
464.096	502.88
464.316	457.88
464.536	471.88
464.755	454.88
464.975	429.88
465.195	423.88
465.414	387.88
465.634	396.88
465.854	393.88
466.073	367.88
466.293	358.88
466.512	357.88
466.732	352.88
466.951	364.88
467.171	355.88
467.391	355.88
467.61	362.88
467.829	350.88
468.049	356.88
468.268	335.88
468.488	343.88
468.707	327.88
468.927	334.88
469.146	335.88
469.365	349.88
469.585	354.88
469.804	331.88
470.023	361.88
470.243	357.88
470.462	364.88
470.681	353.88
470.901	371.88
471.12	352.88
471.339	354.88
471.558	355.88
471.777	332.88
471.997	361.88
472.216	340.88
472.435	316.88
472.654	321.88
472.873	330.88
473.092	314.88
473.311	340.88
473.53	322.88
473.749	324.88
473.968	341.88
474.187	316.88
474.406	319.88
474.625	343.88
474.844	333.88
475.063	356.88
475.282	331.88
475.501	330.88
475.72	331.88
475.939	332.88
476.158	338.88
476.377	338.88
476.596	338.88
476.814	356.88
477.033	331.88
477.252	369.88
477.471	366.88
477.69	350.88
477.908	353.88
478.127	384.88
478.346	390.88
478.564	382.88
478.783	392.88
479.002	404.88
479.22	387.88
479.439	403.88
479.658	370.88
479.876	379.88
480.095	404.88
480.313	425.88
480.532	423.88
480.751	415.88
480.969	414.88
481.188	404.88
481.406	370.88
481.624	383.88
481.843	364.88
482.061	378.88
482.28	366.88
482.498	360.88
482.717	370.88
482.935	378.88
483.153	372.88
483.372	382.88
483.59	356.88
483.808	369.88
484.027	372.88
484.245	380.88
484.463	391.88
484.681	393.88
484.9	383.88
485.118	392.88
485.336	385.88
485.554	381.88
485.772	384.88
485.99	391.88
486.209	380.88
486.427	371.88
486.645	392.88
486.863	387.88
487.081	387.88
487.299	367.88
487.517	389.88
487.735	390.88
487.953	394.88
488.171	379.88
488.389	398.88
488.607	386.88
488.825	406.88
489.043	399.88
489.261	379.88
489.479	367.88
489.696	395.88
489.914	382.88
490.132	382.88
490.35	388.88
490.568	389.88
490.786	379.88
491.003	408.88
491.221	388.88
491.439	403.88
491.657	402.88
491.874	407.88
492.092	387.88
492.31	403.88
492.527	395.88
492.745	415.88
492.963	415.88
493.18	404.88
493.398	406.88
493.615	413.88
493.833	412.88
494.05	423.88
494.268	412.88
494.485	417.88
494.703	414.88
494.92	417.88
495.138	416.88
495.355	416.88
495.573	400.88
495.79	420.88
496.008	427.88
496.225	420.88
496.442	401.88
496.66	442.88
496.877	423.88
497.094	455.88
497.312	441.88
497.529	455.88
497.746	440.88
497.963	454.88
498.181	477.88
498.398	508.88
498.615	528.88
498.832	545.88
499.049	577.88
499.267	642.88
499.484	654.88
499.701	737.88
499.918	823.88
500.135	893.88
500.352	1002.88
500.569	1047.88
500.786	1008.88
501.003	948.88
501.22	866.88
501.437	797.88
501.654	697.88
501.871	651.88
502.088	607.88
