Data from Fe(NO3)3@0.1M.TitratingCurve.Agarose3%dH2O.NegLispCup.LampEnergy10.LIBS07252019_HRD10591_16-37-57-332.txt Node
Date: Thu Jul 25 16:37:57 EDT 2019
User: cochatt
Spectrometer: HR+D1059
Trigger mode: 1
Integration Time (sec): 1.000000E-1
Scans to average: 1
Electric dark correction enabled: true
Nonlinearity correction enabled: false
Boxcar width: 0
XAxis mode: Wavelengths
Number of Pixels in Spectrum: 2048
>>>>>Begin Spectral Data<<<<<
223.165	-16.38
223.4	-16.38
223.635	-16.38
223.869	-14.38
224.104	-20.38
224.338	-20.38
224.573	-9.38
224.808	-14.38
225.042	0.62
225.277	-11.38
225.511	3.62
225.746	-10.38
225.98	3.62
226.215	20.62
226.449	3.62
226.683	23.62
226.918	32.62
227.152	28.62
227.387	52.62
227.621	34.62
227.856	41.62
228.09	41.62
228.324	37.62
228.559	52.62
228.793	63.62
229.027	70.62
229.262	67.62
229.496	83.62
229.73	74.62
229.964	68.62
230.199	70.62
230.433	87.62
230.667	84.62
230.901	87.62
231.136	88.62
231.37	86.62
231.604	101.62
231.838	78.62
232.072	75.62
232.306	89.62
232.541	92.62
232.775	85.62
233.009	82.62
233.243	85.62
233.477	101.62
233.711	90.62
233.945	98.62
234.179	82.62
234.413	89.62
234.647	101.62
234.881	89.62
235.115	84.62
235.349	97.62
235.583	87.62
235.817	93.62
236.051	104.62
236.285	92.62
236.519	79.62
236.753	94.62
236.987	93.62
237.221	95.62
237.455	91.62
237.689	108.62
237.922	84.62
238.156	71.62
238.39	95.62
238.624	75.62
238.858	87.62
239.091	77.62
239.325	91.62
239.559	87.62
239.793	89.62
240.027	88.62
240.26	98.62
240.494	82.62
240.728	83.62
240.961	87.62
241.195	98.62
241.429	97.62
241.662	100.62
241.896	98.62
242.13	84.62
242.363	103.62
242.597	100.62
242.83	98.62
243.064	90.62
243.298	117.62
243.531	91.62
243.765	103.62
243.998	82.62
244.232	83.62
244.465	106.62
244.699	107.62
244.932	102.62
245.166	98.62
245.399	93.62
245.633	97.62
245.866	94.62
246.099	87.62
246.333	93.62
246.566	105.62
246.8	98.62
247.033	85.62
247.266	108.62
247.5	90.62
247.733	107.62
247.966	100.62
248.2	103.62
248.433	92.62
248.666	87.62
248.899	103.62
249.133	104.62
249.366	100.62
249.599	93.62
249.832	90.62
250.066	96.62
250.299	87.62
250.532	90.62
250.765	98.62
250.998	90.62
251.231	91.62
251.465	111.62
251.698	111.62
251.931	111.62
252.164	99.62
252.397	103.62
252.63	100.62
252.863	90.62
253.096	104.62
253.329	103.62
253.562	102.62
253.795	85.62
254.028	116.62
254.261	105.62
254.494	108.62
254.727	106.62
254.96	91.62
255.193	104.62
255.426	78.62
255.659	104.62
255.892	108.62
256.124	114.62
256.357	105.62
256.59	101.62
256.823	112.62
257.056	108.62
257.289	97.62
257.521	101.62
257.754	114.62
257.987	114.62
258.22	107.62
258.452	118.62
258.685	111.62
258.918	127.62
259.151	113.62
259.383	112.62
259.616	117.62
259.849	101.62
260.081	123.62
260.314	129.62
260.547	111.62
260.779	104.62
261.012	115.62
261.244	97.62
261.477	106.62
261.71	119.62
261.942	107.62
262.175	108.62
262.407	108.62
262.64	113.62
262.872	119.62
263.105	106.62
263.337	112.62
263.57	105.62
263.802	119.62
264.035	116.62
264.267	109.62
264.499	127.62
264.732	108.62
264.964	115.62
265.197	101.62
265.429	124.62
265.661	122.62
265.894	123.62
266.126	111.62
266.358	103.62
266.591	107.62
266.823	121.62
267.055	132.62
267.287	129.62
267.52	130.62
267.752	124.62
267.984	124.62
268.216	133.62
268.448	123.62
268.681	124.62
268.913	116.62
269.145	116.62
269.377	133.62
269.609	109.62
269.841	120.62
270.073	119.62
270.306	118.62
270.538	123.62
270.77	118.62
271.002	121.62
271.234	140.62
271.466	118.62
271.698	129.62
271.93	123.62
272.162	124.62
272.394	129.62
272.626	123.62
272.858	117.62
273.09	129.62
273.322	119.62
273.553	121.62
273.785	118.62
274.017	137.62
274.249	134.62
274.481	133.62
274.713	133.62
274.945	147.62
275.176	119.62
275.408	132.62
275.64	143.62
275.872	145.62
276.104	139.62
276.335	140.62
276.567	114.62
276.799	131.62
277.031	106.62
277.262	124.62
277.494	138.62
277.726	133.62
277.957	129.62
278.189	123.62
278.421	131.62
278.652	132.62
278.884	143.62
279.115	125.62
279.347	124.62
279.579	116.62
279.81	128.62
280.042	130.62
280.273	138.62
280.505	132.62
280.736	123.62
280.968	137.62
281.199	123.62
281.431	139.62
281.662	123.62
281.894	140.62
282.125	125.62
282.356	137.62
282.588	123.62
282.819	135.62
283.051	145.62
283.282	135.62
283.513	137.62
283.745	137.62
283.976	128.62
284.207	124.62
284.439	135.62
284.67	141.62
284.901	133.62
285.132	145.62
285.364	138.62
285.595	142.62
285.826	133.62
286.057	148.62
286.288	146.62
286.52	135.62
286.751	142.62
286.982	127.62
287.213	127.62
287.444	135.62
287.675	140.62
287.906	159.62
288.138	135.62
288.369	148.62
288.6	149.62
288.831	146.62
289.062	140.62
289.293	149.62
289.524	137.62
289.755	147.62
289.986	127.62
290.217	138.62
290.448	144.62
290.679	147.62
290.91	145.62
291.141	147.62
291.371	150.62
291.602	153.62
291.833	145.62
292.064	149.62
292.295	136.62
292.526	153.62
292.757	155.62
292.987	142.62
293.218	157.62
293.449	136.62
293.68	137.62
293.91	143.62
294.141	144.62
294.372	133.62
294.603	163.62
294.833	168.62
295.064	152.62
295.295	147.62
295.525	149.62
295.756	144.62
295.987	159.62
296.217	133.62
296.448	154.62
296.679	149.62
296.909	157.62
297.14	157.62
297.37	151.62
297.601	165.62
297.831	157.62
298.062	145.62
298.292	153.62
298.523	154.62
298.753	148.62
298.984	162.62
299.214	149.62
299.445	143.62
299.675	144.62
299.905	172.62
300.136	160.62
300.366	147.62
300.597	157.62
300.827	165.62
301.057	158.62
301.288	154.62
301.518	150.62
301.748	153.62
301.979	160.62
302.209	144.62
302.439	149.62
302.669	152.62
302.9	172.62
303.13	161.62
303.36	151.62
303.59	151.62
303.82	147.62
304.051	133.62
304.281	170.62
304.511	151.62
304.741	145.62
304.971	160.62
305.201	152.62
305.431	153.62
305.661	161.62
305.891	164.62
306.121	155.62
306.352	141.62
306.582	160.62
306.812	139.62
307.042	159.62
307.272	147.62
307.502	154.62
307.731	170.62
307.961	157.62
308.191	154.62
308.421	170.62
308.651	139.62
308.881	134.62
309.111	161.62
309.341	155.62
309.571	149.62
309.8	157.62
310.03	162.62
310.26	144.62
310.49	146.62
310.72	155.62
310.949	157.62
311.179	155.62
311.409	160.62
311.639	147.62
311.868	148.62
312.098	167.62
312.328	155.62
312.557	152.62
312.787	166.62
313.017	165.62
313.246	161.62
313.476	153.62
313.706	163.62
313.935	178.62
314.165	179.62
314.394	174.62
314.624	175.62
314.853	172.62
315.083	172.62
315.312	158.62
315.542	163.62
315.771	158.62
316.001	149.62
316.23	173.62
316.46	180.62
316.689	171.62
316.919	166.62
317.148	170.62
317.377	159.62
317.607	159.62
317.836	154.62
318.065	162.62
318.295	168.62
318.524	149.62
318.753	158.62
318.983	175.62
319.212	177.62
319.441	163.62
319.67	163.62
319.9	155.62
320.129	166.62
320.358	160.62
320.587	156.62
320.816	163.62
321.046	159.62
321.275	167.62
321.504	157.62
321.733	154.62
321.962	155.62
322.191	162.62
322.42	166.62
322.649	166.62
322.878	153.62
323.108	158.62
323.337	171.62
323.566	169.62
323.795	176.62
324.024	170.62
324.253	170.62
324.482	165.62
324.71	161.62
324.939	159.62
325.168	168.62
325.397	157.62
325.626	168.62
325.855	183.62
326.084	168.62
326.313	193.62
326.542	183.62
326.77	167.62
326.999	177.62
327.228	189.62
327.457	167.62
327.686	179.62
327.914	169.62
328.143	171.62
328.372	154.62
328.6	193.62
328.829	175.62
329.058	186.62
329.287	178.62
329.515	157.62
329.744	168.62
329.972	171.62
330.201	176.62
330.43	164.62
330.658	168.62
330.887	169.62
331.115	172.62
331.344	168.62
331.572	184.62
331.801	168.62
332.03	199.62
332.258	168.62
332.486	194.62
332.715	185.62
332.943	187.62
333.172	185.62
333.4	208.62
333.629	200.62
333.857	200.62
334.085	215.62
334.314	213.62
334.542	209.62
334.771	189.62
334.999	199.62
335.227	215.62
335.455	210.62
335.684	199.62
335.912	218.62
336.14	210.62
336.369	199.62
336.597	187.62
336.825	192.62
337.053	199.62
337.281	204.62
337.51	189.62
337.738	182.62
337.966	191.62
338.194	191.62
338.422	183.62
338.65	194.62
338.878	183.62
339.106	196.62
339.334	193.62
339.562	183.62
339.79	193.62
340.018	185.62
340.246	178.62
340.474	185.62
340.702	193.62
340.93	179.62
341.158	194.62
341.386	181.62
341.614	177.62
341.842	201.62
342.07	171.62
342.298	155.62
342.526	176.62
342.754	187.62
342.981	190.62
343.209	175.62
343.437	168.62
343.665	197.62
343.893	199.62
344.12	199.62
344.348	195.62
344.576	190.62
344.804	204.62
345.031	195.62
345.259	186.62
345.487	178.62
345.714	180.62
345.942	164.62
346.17	163.62
346.397	179.62
346.625	181.62
346.853	180.62
347.08	172.62
347.308	181.62
347.535	166.62
347.763	179.62
347.99	172.62
348.218	169.62
348.445	170.62
348.673	179.62
348.9	201.62
349.128	170.62
349.355	174.62
349.583	193.62
349.81	176.62
350.037	194.62
350.265	168.62
350.492	183.62
350.72	172.62
350.947	171.62
351.174	176.62
351.402	165.62
351.629	165.62
351.856	169.62
352.083	169.62
352.311	172.62
352.538	174.62
352.765	176.62
352.992	179.62
353.22	194.62
353.447	176.62
353.674	171.62
353.901	179.62
354.128	187.62
354.355	168.62
354.583	164.62
354.81	165.62
355.037	175.62
355.264	181.62
355.491	177.62
355.718	175.62
355.945	147.62
356.172	170.62
356.399	162.62
356.626	163.62
356.853	170.62
357.08	179.62
357.307	186.62
357.534	162.62
357.761	181.62
357.988	179.62
358.215	186.62
358.441	173.62
358.668	171.62
358.895	190.62
359.122	164.62
359.349	187.62
359.576	159.62
359.802	179.62
360.029	170.62
360.256	163.62
360.483	176.62
360.709	183.62
360.936	183.62
361.163	166.62
361.39	169.62
361.616	175.62
361.843	187.62
362.07	189.62
362.296	186.62
362.523	173.62
362.749	165.62
362.976	180.62
363.203	184.62
363.429	153.62
363.656	182.62
363.882	166.62
364.109	160.62
364.335	178.62
364.562	175.62
364.788	168.62
365.015	168.62
365.241	172.62
365.468	170.62
365.694	176.62
365.92	183.62
366.147	162.62
366.373	181.62
366.599	163.62
366.826	172.62
367.052	175.62
367.278	181.62
367.505	181.62
367.731	189.62
367.957	187.62
368.184	181.62
368.41	179.62
368.636	169.62
368.862	185.62
369.089	176.62
369.315	185.62
369.541	176.62
369.767	185.62
369.993	177.62
370.219	188.62
370.445	173.62
370.672	168.62
370.898	188.62
371.124	195.62
371.35	196.62
371.576	201.62
371.802	197.62
372.028	193.62
372.254	191.62
372.48	194.62
372.706	202.62
372.932	196.62
373.158	199.62
373.384	205.62
373.61	203.62
373.835	188.62
374.061	193.62
374.287	191.62
374.513	200.62
374.739	205.62
374.965	225.62
375.191	193.62
375.416	192.62
375.642	203.62
375.868	200.62
376.094	192.62
376.319	197.62
376.545	206.62
376.771	204.62
376.997	205.62
377.222	197.62
377.448	196.62
377.674	197.62
377.899	193.62
378.125	193.62
378.35	196.62
378.576	183.62
378.802	200.62
379.027	189.62
379.253	196.62
379.478	201.62
379.704	187.62
379.929	182.62
380.155	180.62
380.38	203.62
380.606	197.62
380.831	194.62
381.057	183.62
381.282	189.62
381.507	201.62
381.733	193.62
381.958	193.62
382.184	188.62
382.409	192.62
382.634	196.62
382.86	224.62
383.085	201.62
383.31	200.62
383.535	203.62
383.761	207.62
383.986	213.62
384.211	218.62
384.436	225.62
384.662	204.62
384.887	223.62
385.112	216.62
385.337	225.62
385.562	232.62
385.787	209.62
386.013	231.62
386.238	229.62
386.463	213.62
386.688	225.62
386.913	226.62
387.138	227.62
387.363	216.62
387.588	224.62
387.813	224.62
388.038	221.62
388.263	231.62
388.488	224.62
388.713	230.62
388.938	210.62
389.163	213.62
389.387	231.62
389.612	216.62
389.837	209.62
390.062	212.62
390.287	234.62
390.512	211.62
390.736	211.62
390.961	243.62
391.186	222.62
391.411	221.62
391.636	225.62
391.86	245.62
392.085	255.62
392.31	239.62
392.534	232.62
392.759	240.62
392.984	229.62
393.208	251.62
393.433	248.62
393.658	233.62
393.882	239.62
394.107	236.62
394.331	232.62
394.556	231.62
394.78	239.62
395.005	261.62
395.229	247.62
395.454	242.62
395.678	251.62
395.903	251.62
396.127	258.62
396.352	241.62
396.576	232.62
396.801	232.62
397.025	227.62
397.249	242.62
397.474	255.62
397.698	246.62
397.922	261.62
398.147	265.62
398.371	253.62
398.595	258.62
398.82	280.62
399.044	277.62
399.268	310.62
399.492	312.62
399.717	346.62
399.941	360.62
400.165	344.62
400.389	317.62
400.613	303.62
400.837	281.62
401.062	273.62
401.286	269.62
401.51	285.62
401.734	256.62
401.958	259.62
402.182	270.62
402.406	267.62
402.63	290.62
402.854	277.62
403.078	288.62
403.302	305.62
403.526	304.62
403.75	295.62
403.974	298.62
404.198	295.62
404.422	293.62
404.645	296.62
404.869	298.62
405.093	307.62
405.317	296.62
405.541	301.62
405.765	286.62
405.988	281.62
406.212	292.62
406.436	297.62
406.66	310.62
406.883	299.62
407.107	316.62
407.331	316.62
407.555	345.62
407.778	335.62
408.002	323.62
408.226	314.62
408.449	307.62
408.673	300.62
408.896	317.62
409.12	318.62
409.344	324.62
409.567	293.62
409.791	308.62
410.014	292.62
410.238	310.62
410.461	308.62
410.685	311.62
410.908	279.62
411.132	283.62
411.355	287.62
411.578	292.62
411.802	287.62
412.025	274.62
412.249	292.62
412.472	293.62
412.695	275.62
412.919	291.62
413.142	280.62
413.365	282.62
413.589	297.62
413.812	291.62
414.035	271.62
414.258	282.62
414.482	283.62
414.705	276.62
414.928	285.62
415.151	292.62
415.374	290.62
415.597	268.62
415.821	281.62
416.044	266.62
416.267	271.62
416.49	275.62
416.713	268.62
416.936	300.62
417.159	263.62
417.382	270.62
417.605	257.62
417.828	266.62
418.051	278.62
418.274	275.62
418.497	289.62
418.72	283.62
418.943	289.62
419.166	296.62
419.389	322.62
419.611	297.62
419.834	284.62
420.057	300.62
420.28	290.62
420.503	272.62
420.726	282.62
420.948	275.62
421.171	274.62
421.394	284.62
421.617	288.62
421.839	271.62
422.062	283.62
422.285	285.62
422.507	274.62
422.73	285.62
422.953	290.62
423.175	272.62
423.398	263.62
423.621	296.62
423.843	277.62
424.066	294.62
424.288	284.62
424.511	278.62
424.733	273.62
424.956	275.62
425.178	281.62
425.401	291.62
425.623	274.62
425.846	265.62
426.068	267.62
426.291	267.62
426.513	269.62
426.735	281.62
426.958	277.62
427.18	261.62
427.402	281.62
427.625	253.62
427.847	260.62
428.069	271.62
428.292	264.62
428.514	252.62
428.736	249.62
428.958	249.62
429.181	257.62
429.403	243.62
429.625	251.62
429.847	239.62
430.069	243.62
430.292	245.62
430.514	242.62
430.736	248.62
430.958	249.62
431.18	241.62
431.402	268.62
431.624	259.62
431.846	269.62
432.068	254.62
432.29	245.62
432.512	255.62
432.734	256.62
432.956	256.62
433.178	266.62
433.4	278.62
433.622	273.62
433.844	266.62
434.066	243.62
434.287	259.62
434.509	276.62
434.731	267.62
434.953	280.62
435.175	280.62
435.397	269.62
435.618	277.62
435.84	261.62
436.062	268.62
436.284	256.62
436.505	266.62
436.727	264.62
436.949	257.62
437.17	268.62
437.392	264.62
437.614	251.62
437.835	255.62
438.057	247.62
438.278	253.62
438.5	261.62
438.721	250.62
438.943	244.62
439.165	265.62
439.386	254.62
439.608	275.62
439.829	271.62
440.05	270.62
440.272	268.62
440.493	266.62
440.715	267.62
440.936	283.62
441.158	265.62
441.379	265.62
441.6	284.62
441.822	283.62
442.043	299.62
442.264	275.62
442.486	273.62
442.707	279.62
442.928	277.62
443.149	283.62
443.371	281.62
443.592	276.62
443.813	271.62
444.034	270.62
444.255	301.62
444.476	296.62
444.698	308.62
444.919	325.62
445.14	432.62
445.361	346.62
445.582	280.62
445.803	279.62
446.024	261.62
446.245	273.62
446.466	263.62
446.687	277.62
446.908	263.62
447.129	255.62
447.35	256.62
447.571	255.62
447.792	251.62
448.013	261.62
448.234	240.62
448.455	237.62
448.675	229.62
448.896	254.62
449.117	242.62
449.338	242.62
449.559	265.62
449.779	251.62
450	237.62
450.221	230.62
450.442	251.62
450.662	244.62
450.883	240.62
451.104	235.62
451.324	257.62
451.545	245.62
451.766	236.62
451.986	244.62
452.207	255.62
452.428	245.62
452.648	259.62
452.869	235.62
453.089	239.62
453.31	253.62
453.53	256.62
453.751	244.62
453.971	248.62
454.192	234.62
454.412	229.62
454.633	226.62
454.853	216.62
455.073	245.62
455.294	235.62
455.514	247.62
455.734	217.62
455.955	224.62
456.175	239.62
456.395	237.62
456.616	230.62
456.836	245.62
457.056	243.62
457.276	235.62
457.497	234.62
457.717	220.62
457.937	235.62
458.157	234.62
458.377	243.62
458.598	253.62
458.818	240.62
459.038	245.62
459.258	255.62
459.478	259.62
459.698	258.62
459.918	274.62
460.138	267.62
460.358	279.62
460.578	292.62
460.798	307.62
461.018	287.62
461.238	295.62
461.458	297.62
461.678	294.62
461.898	290.62
462.118	284.62
462.338	311.62
462.558	326.62
462.777	330.62
462.997	345.62
463.217	363.62
463.437	359.62
463.657	329.62
463.876	326.62
464.096	345.62
464.316	332.62
464.536	319.62
464.755	326.62
464.975	314.62
465.195	293.62
465.414	298.62
465.634	296.62
465.854	242.62
466.073	275.62
466.293	242.62
466.512	268.62
466.732	262.62
466.951	258.62
467.171	266.62
467.391	263.62
467.61	253.62
467.829	249.62
468.049	261.62
468.268	247.62
468.488	250.62
468.707	256.62
468.927	243.62
469.146	238.62
469.365	265.62
469.585	250.62
469.804	228.62
470.023	247.62
470.243	253.62
470.462	265.62
470.681	274.62
470.901	245.62
471.12	260.62
471.339	269.62
471.558	264.62
471.777	261.62
471.997	264.62
472.216	248.62
472.435	240.62
472.654	237.62
472.873	241.62
473.092	236.62
473.311	251.62
473.53	240.62
473.749	246.62
473.968	250.62
474.187	251.62
474.406	251.62
474.625	240.62
474.844	241.62
475.063	243.62
475.282	241.62
475.501	258.62
475.72	237.62
475.939	256.62
476.158	230.62
476.377	239.62
476.596	245.62
476.814	256.62
477.033	266.62
477.252	243.62
477.471	265.62
477.69	252.62
477.908	257.62
478.127	266.62
478.346	260.62
478.564	289.62
478.783	281.62
479.002	303.62
479.22	298.62
479.439	294.62
479.658	297.62
479.876	280.62
480.095	293.62
480.313	281.62
480.532	308.62
480.751	293.62
480.969	283.62
481.188	303.62
481.406	280.62
481.624	281.62
481.843	276.62
482.061	249.62
482.28	260.62
482.498	275.62
482.717	287.62
482.935	283.62
483.153	278.62
483.372	277.62
483.59	287.62
483.808	275.62
484.027	292.62
484.245	285.62
484.463	281.62
484.681	277.62
484.9	285.62
485.118	275.62
485.336	280.62
485.554	282.62
485.772	285.62
485.99	287.62
486.209	289.62
486.427	294.62
486.645	281.62
486.863	276.62
487.081	297.62
487.299	290.62
487.517	292.62
487.735	301.62
487.953	296.62
488.171	288.62
488.389	297.62
488.607	295.62
488.825	259.62
489.043	263.62
489.261	277.62
489.479	292.62
489.696	273.62
489.914	281.62
490.132	297.62
490.35	309.62
490.568	283.62
490.786	275.62
491.003	300.62
491.221	278.62
491.439	268.62
491.657	284.62
491.874	312.62
492.092	297.62
492.31	298.62
492.527	293.62
492.745	297.62
492.963	316.62
493.18	296.62
493.398	272.62
493.615	303.62
493.833	302.62
494.05	293.62
494.268	293.62
494.485	287.62
494.703	294.62
494.92	299.62
495.138	321.62
495.355	300.62
495.573	299.62
495.79	302.62
496.008	313.62
496.225	293.62
496.442	309.62
496.66	326.62
496.877	325.62
497.094	322.62
497.312	310.62
497.529	346.62
497.746	330.62
497.963	329.62
498.181	349.62
498.398	350.62
498.615	356.62
498.832	380.62
499.049	395.62
499.267	424.62
499.484	467.62
499.701	489.62
499.918	516.62
500.135	604.62
500.352	673.62
500.569	699.62
500.786	657.62
501.003	644.62
501.22	571.62
501.437	541.62
501.654	490.62
501.871	455.62
502.088	437.62
502.305	401.62
502.522	398.62
502.739	368.62
