Data from Fe(NO3)3@0.05M.TitratingCurve.Agarose3%dH2O.NegLispCup.LampEnergy10.LIBS07252019_HRD10591_16-48-44-334.txt Node
Date: Thu Jul 25 16:48:44 EDT 2019
User: cochatt
Spectrometer: HR+D1059
Trigger mode: 1
Integration Time (sec): 1.000000E-1
Scans to average: 1
Electric dark correction enabled: true
Nonlinearity correction enabled: false
Boxcar width: 0
XAxis mode: Wavelengths
Number of Pixels in Spectrum: 2048
>>>>>Begin Spectral Data<<<<<
223.165	-18.75
223.4	-18.75
223.635	-18.75
223.869	-15.75
224.104	-24.75
224.338	-27.75
224.573	0.25
224.808	-12.75
225.042	3.25
225.277	-3.75
225.511	-6.75
225.746	-2.75
225.98	10.25
226.215	6.25
226.449	16.25
226.683	32.25
226.918	19.25
227.152	25.25
227.387	34.25
227.621	39.25
227.856	42.25
228.09	54.25
228.324	41.25
228.559	59.25
228.793	51.25
229.027	68.25
229.262	73.25
229.496	98.25
229.73	65.25
229.964	86.25
230.199	99.25
230.433	88.25
230.667	100.25
230.901	98.25
231.136	91.25
231.37	113.25
231.604	109.25
231.838	98.25
232.072	110.25
232.306	97.25
232.541	107.25
232.775	111.25
233.009	89.25
233.243	99.25
233.477	112.25
233.711	94.25
233.945	107.25
234.179	100.25
234.413	99.25
234.647	111.25
234.881	106.25
235.115	109.25
235.349	96.25
235.583	112.25
235.817	115.25
236.051	105.25
236.285	121.25
236.519	109.25
236.753	113.25
236.987	93.25
237.221	110.25
237.455	101.25
237.689	88.25
237.922	97.25
238.156	86.25
238.39	105.25
238.624	100.25
238.858	113.25
239.091	111.25
239.325	119.25
239.559	104.25
239.793	99.25
240.027	107.25
240.26	115.25
240.494	114.25
240.728	116.25
240.961	108.25
241.195	104.25
241.429	103.25
241.662	103.25
241.896	125.25
242.13	103.25
242.363	108.25
242.597	112.25
242.83	106.25
243.064	124.25
243.298	130.25
243.531	118.25
243.765	124.25
243.998	131.25
244.232	119.25
244.465	135.25
244.699	126.25
244.932	135.25
245.166	131.25
245.399	111.25
245.633	122.25
245.866	113.25
246.099	124.25
246.333	125.25
246.566	131.25
246.8	117.25
247.033	136.25
247.266	132.25
247.5	120.25
247.733	121.25
247.966	131.25
248.2	135.25
248.433	123.25
248.666	140.25
248.899	140.25
249.133	136.25
249.366	131.25
249.599	125.25
249.832	151.25
250.066	125.25
250.299	131.25
250.532	143.25
250.765	134.25
250.998	122.25
251.231	127.25
251.465	133.25
251.698	142.25
251.931	148.25
252.164	145.25
252.397	149.25
252.63	152.25
252.863	136.25
253.096	127.25
253.329	147.25
253.562	147.25
253.795	137.25
254.028	135.25
254.261	142.25
254.494	147.25
254.727	150.25
254.96	160.25
255.193	149.25
255.426	131.25
255.659	163.25
255.892	147.25
256.124	150.25
256.357	157.25
256.59	151.25
256.823	158.25
257.056	155.25
257.289	136.25
257.521	146.25
257.754	155.25
257.987	143.25
258.22	152.25
258.452	158.25
258.685	150.25
258.918	165.25
259.151	153.25
259.383	171.25
259.616	133.25
259.849	162.25
260.081	152.25
260.314	170.25
260.547	170.25
260.779	150.25
261.012	159.25
261.244	161.25
261.477	169.25
261.71	172.25
261.942	150.25
262.175	172.25
262.407	164.25
262.64	153.25
262.872	180.25
263.105	157.25
263.337	171.25
263.57	177.25
263.802	176.25
264.035	162.25
264.267	154.25
264.499	169.25
264.732	177.25
264.964	173.25
265.197	174.25
265.429	165.25
265.661	169.25
265.894	165.25
266.126	173.25
266.358	151.25
266.591	175.25
266.823	175.25
267.055	170.25
267.287	164.25
267.52	171.25
267.752	193.25
267.984	170.25
268.216	172.25
268.448	171.25
268.681	180.25
268.913	191.25
269.145	181.25
269.377	173.25
269.609	163.25
269.841	170.25
270.073	174.25
270.306	179.25
270.538	183.25
270.77	170.25
271.002	185.25
271.234	185.25
271.466	181.25
271.698	181.25
271.93	185.25
272.162	191.25
272.394	176.25
272.626	188.25
272.858	196.25
273.09	191.25
273.322	191.25
273.553	186.25
273.785	181.25
274.017	192.25
274.249	201.25
274.481	183.25
274.713	188.25
274.945	195.25
275.176	195.25
275.408	204.25
275.64	169.25
275.872	185.25
276.104	192.25
276.335	199.25
276.567	186.25
276.799	203.25
277.031	213.25
277.262	206.25
277.494	194.25
277.726	210.25
277.957	185.25
278.189	199.25
278.421	201.25
278.652	198.25
278.884	210.25
279.115	196.25
279.347	189.25
279.579	204.25
279.81	192.25
280.042	202.25
280.273	215.25
280.505	196.25
280.736	211.25
280.968	210.25
281.199	232.25
281.431	219.25
281.662	225.25
281.894	236.25
282.125	211.25
282.356	215.25
282.588	225.25
282.819	220.25
283.051	215.25
283.282	218.25
283.513	211.25
283.745	229.25
283.976	239.25
284.207	207.25
284.439	235.25
284.67	247.25
284.901	215.25
285.132	221.25
285.364	227.25
285.595	220.25
285.826	205.25
286.057	218.25
286.288	221.25
286.52	231.25
286.751	231.25
286.982	232.25
287.213	227.25
287.444	221.25
287.675	240.25
287.906	239.25
288.138	237.25
288.369	227.25
288.6	225.25
288.831	231.25
289.062	229.25
289.293	246.25
289.524	227.25
289.755	236.25
289.986	229.25
290.217	251.25
290.448	231.25
290.679	226.25
290.91	250.25
291.141	227.25
291.371	241.25
291.602	241.25
291.833	245.25
292.064	227.25
292.295	241.25
292.526	220.25
292.757	231.25
292.987	222.25
293.218	241.25
293.449	260.25
293.68	230.25
293.91	224.25
294.141	227.25
294.372	248.25
294.603	231.25
294.833	220.25
295.064	229.25
295.295	240.25
295.525	253.25
295.756	264.25
295.987	243.25
296.217	236.25
296.448	242.25
296.679	239.25
296.909	246.25
297.14	253.25
297.37	252.25
297.601	254.25
297.831	252.25
298.062	255.25
298.292	249.25
298.523	264.25
298.753	246.25
298.984	239.25
299.214	263.25
299.445	268.25
299.675	237.25
299.905	242.25
300.136	233.25
300.366	234.25
300.597	257.25
300.827	246.25
301.057	261.25
301.288	267.25
301.518	250.25
301.748	255.25
301.979	272.25
302.209	262.25
302.439	270.25
302.669	267.25
302.9	273.25
303.13	258.25
303.36	262.25
303.59	263.25
303.82	267.25
304.051	258.25
304.281	265.25
304.511	245.25
304.741	255.25
304.971	281.25
305.201	259.25
305.431	250.25
305.661	251.25
305.891	255.25
306.121	248.25
306.352	257.25
306.582	266.25
306.812	254.25
307.042	250.25
307.272	251.25
307.502	248.25
307.731	262.25
307.961	273.25
308.191	259.25
308.421	269.25
308.651	261.25
308.881	281.25
309.111	255.25
309.341	261.25
309.571	259.25
309.8	264.25
310.03	251.25
310.26	272.25
310.49	264.25
310.72	264.25
310.949	251.25
311.179	278.25
311.409	271.25
311.639	256.25
311.868	255.25
312.098	274.25
312.328	259.25
312.557	271.25
312.787	275.25
313.017	280.25
313.246	269.25
313.476	273.25
313.706	271.25
313.935	291.25
314.165	273.25
314.394	267.25
314.624	291.25
314.853	273.25
315.083	289.25
315.312	289.25
315.542	286.25
315.771	290.25
316.001	277.25
316.23	279.25
316.46	268.25
316.689	267.25
316.919	264.25
317.148	273.25
317.377	285.25
317.607	282.25
317.836	275.25
318.065	273.25
318.295	262.25
318.524	281.25
318.753	282.25
318.983	260.25
319.212	262.25
319.441	264.25
319.67	275.25
319.9	275.25
320.129	284.25
320.358	264.25
320.587	270.25
320.816	268.25
321.046	257.25
321.275	252.25
321.504	269.25
321.733	278.25
321.962	277.25
322.191	298.25
322.42	272.25
322.649	282.25
322.878	289.25
323.108	272.25
323.337	307.25
323.566	283.25
323.795	271.25
324.024	278.25
324.253	284.25
324.482	285.25
324.71	287.25
324.939	292.25
325.168	300.25
325.397	278.25
325.626	303.25
325.855	289.25
326.084	307.25
326.313	292.25
326.542	287.25
326.77	311.25
326.999	305.25
327.228	296.25
327.457	299.25
327.686	307.25
327.914	315.25
328.143	306.25
328.372	303.25
328.6	311.25
328.829	296.25
329.058	293.25
329.287	307.25
329.515	299.25
329.744	308.25
329.972	311.25
330.201	303.25
330.43	297.25
330.658	289.25
330.887	301.25
331.115	326.25
331.344	323.25
331.572	322.25
331.801	327.25
332.03	329.25
332.258	331.25
332.486	317.25
332.715	343.25
332.943	353.25
333.172	357.25
333.4	368.25
333.629	373.25
333.857	377.25
334.085	375.25
334.314	375.25
334.542	361.25
334.771	375.25
334.999	364.25
335.227	358.25
335.455	349.25
335.684	367.25
335.912	375.25
336.14	362.25
336.369	359.25
336.597	352.25
336.825	344.25
337.053	332.25
337.281	360.25
337.51	343.25
337.738	330.25
337.966	334.25
338.194	323.25
338.422	340.25
338.65	330.25
338.878	349.25
339.106	327.25
339.334	328.25
339.562	342.25
339.79	325.25
340.018	327.25
340.246	326.25
340.474	312.25
340.702	307.25
340.93	301.25
341.158	292.25
341.386	299.25
341.614	315.25
341.842	315.25
342.07	302.25
342.298	307.25
342.526	305.25
342.754	319.25
342.981	322.25
343.209	322.25
343.437	341.25
343.665	351.25
343.893	363.25
344.12	346.25
344.348	356.25
344.576	351.25
344.804	336.25
345.031	310.25
345.259	333.25
345.487	318.25
345.714	307.25
345.942	305.25
346.17	327.25
346.397	299.25
346.625	310.25
346.853	315.25
347.08	305.25
347.308	305.25
347.535	306.25
347.763	313.25
347.99	327.25
348.218	312.25
348.445	313.25
348.673	307.25
348.9	291.25
349.128	294.25
349.355	287.25
349.583	288.25
349.81	293.25
350.037	303.25
350.265	303.25
350.492	280.25
350.72	295.25
350.947	298.25
351.174	316.25
351.402	293.25
351.629	315.25
351.856	282.25
352.083	301.25
352.311	295.25
352.538	284.25
352.765	303.25
352.992	286.25
353.22	306.25
353.447	297.25
353.674	292.25
353.901	292.25
354.128	289.25
354.355	289.25
354.583	276.25
354.81	286.25
355.037	297.25
355.264	309.25
355.491	301.25
355.718	293.25
355.945	298.25
356.172	301.25
356.399	303.25
356.626	300.25
356.853	307.25
357.08	302.25
357.307	295.25
357.534	296.25
357.761	307.25
357.988	300.25
358.215	312.25
358.441	271.25
358.668	282.25
358.895	306.25
359.122	303.25
359.349	307.25
359.576	294.25
359.802	301.25
360.029	301.25
360.256	308.25
360.483	277.25
360.709	280.25
360.936	301.25
361.163	287.25
361.39	299.25
361.616	288.25
361.843	303.25
362.07	301.25
362.296	297.25
362.523	310.25
362.749	300.25
362.976	308.25
363.203	299.25
363.429	293.25
363.656	308.25
363.882	288.25
364.109	305.25
364.335	309.25
364.562	298.25
364.788	297.25
365.015	314.25
365.241	303.25
365.468	301.25
365.694	295.25
365.92	301.25
366.147	294.25
366.373	297.25
366.599	288.25
366.826	307.25
367.052	290.25
367.278	307.25
367.505	304.25
367.731	307.25
367.957	307.25
368.184	292.25
368.41	314.25
368.636	303.25
368.862	326.25
369.089	324.25
369.315	295.25
369.541	321.25
369.767	301.25
369.993	324.25
370.219	317.25
370.445	330.25
370.672	334.25
370.898	317.25
371.124	330.25
371.35	338.25
371.576	329.25
371.802	344.25
372.028	328.25
372.254	328.25
372.48	325.25
372.706	324.25
372.932	340.25
373.158	332.25
373.384	339.25
373.61	328.25
373.835	333.25
374.061	337.25
374.287	328.25
374.513	340.25
374.739	343.25
374.965	354.25
375.191	355.25
375.416	347.25
375.642	363.25
375.868	346.25
376.094	352.25
376.319	345.25
376.545	323.25
376.771	349.25
376.997	338.25
377.222	333.25
377.448	329.25
377.674	321.25
377.899	326.25
378.125	306.25
378.35	327.25
378.576	318.25
378.802	340.25
379.027	327.25
379.253	321.25
379.478	349.25
379.704	340.25
379.929	334.25
380.155	329.25
380.38	332.25
380.606	325.25
380.831	322.25
381.057	328.25
381.282	323.25
381.507	344.25
381.733	340.25
381.958	329.25
382.184	338.25
382.409	351.25
382.634	352.25
382.86	347.25
383.085	346.25
383.31	355.25
383.535	372.25
383.761	332.25
383.986	358.25
384.211	376.25
384.436	387.25
384.662	381.25
384.887	375.25
385.112	378.25
385.337	402.25
385.562	388.25
385.787	379.25
386.013	389.25
386.238	394.25
386.463	394.25
386.688	393.25
386.913	405.25
387.138	387.25
387.363	381.25
387.588	379.25
387.813	390.25
388.038	411.25
388.263	387.25
388.488	380.25
388.713	393.25
388.938	386.25
389.163	385.25
389.387	376.25
389.612	395.25
389.837	395.25
390.062	400.25
390.287	399.25
390.512	387.25
390.736	401.25
390.961	381.25
391.186	387.25
391.411	395.25
391.636	412.25
391.86	431.25
392.085	405.25
392.31	416.25
392.534	428.25
392.759	411.25
392.984	418.25
393.208	429.25
393.433	408.25
393.658	407.25
393.882	410.25
394.107	433.25
394.331	416.25
394.556	409.25
394.78	414.25
395.005	446.25
395.229	427.25
395.454	445.25
395.678	444.25
395.903	438.25
396.127	411.25
396.352	422.25
396.576	415.25
396.801	411.25
397.025	402.25
397.249	429.25
397.474	448.25
397.698	443.25
397.922	439.25
398.147	436.25
398.371	450.25
398.595	465.25
398.82	481.25
399.044	504.25
399.268	553.25
399.492	596.25
399.717	649.25
399.941	639.25
400.165	593.25
400.389	563.25
400.613	545.25
400.837	515.25
401.062	513.25
401.286	521.25
401.51	501.25
401.734	471.25
401.958	503.25
402.182	504.25
402.406	484.25
402.63	500.25
402.854	513.25
403.078	521.25
403.302	528.25
403.526	511.25
403.75	537.25
403.974	531.25
404.198	544.25
404.422	527.25
404.645	555.25
404.869	551.25
405.093	538.25
405.317	531.25
405.541	520.25
405.765	537.25
405.988	526.25
406.212	531.25
406.436	516.25
406.66	540.25
406.883	560.25
407.107	567.25
407.331	607.25
407.555	598.25
407.778	625.25
408.002	606.25
408.226	583.25
408.449	582.25
408.673	568.25
408.896	550.25
409.12	542.25
409.344	533.25
409.567	546.25
409.791	561.25
410.014	540.25
410.238	543.25
410.461	547.25
410.685	555.25
410.908	545.25
411.132	513.25
411.355	538.25
411.578	518.25
411.802	531.25
412.025	516.25
412.249	506.25
412.472	508.25
412.695	526.25
412.919	503.25
413.142	520.25
413.365	497.25
413.589	520.25
413.812	511.25
414.035	499.25
414.258	500.25
414.482	504.25
414.705	504.25
414.928	526.25
415.151	516.25
415.374	500.25
415.597	505.25
415.821	499.25
416.044	517.25
416.267	502.25
416.49	502.25
416.713	500.25
416.936	489.25
417.159	460.25
417.382	498.25
417.605	463.25
417.828	492.25
418.051	491.25
418.274	521.25
418.497	487.25
418.72	503.25
418.943	515.25
419.166	530.25
419.389	566.25
419.611	541.25
419.834	535.25
420.057	524.25
420.28	467.25
420.503	483.25
420.726	476.25
420.948	518.25
421.171	490.25
421.394	503.25
421.617	479.25
421.839	485.25
422.062	489.25
422.285	476.25
422.507	505.25
422.73	521.25
422.953	492.25
423.175	492.25
423.398	498.25
423.621	495.25
423.843	526.25
424.066	512.25
424.288	503.25
424.511	495.25
424.733	488.25
424.956	507.25
425.178	488.25
425.401	465.25
425.623	473.25
425.846	484.25
426.068	468.25
426.291	472.25
426.513	487.25
426.735	478.25
426.958	486.25
427.18	464.25
427.402	462.25
427.625	453.25
427.847	459.25
428.069	475.25
428.292	447.25
428.514	445.25
428.736	434.25
428.958	456.25
429.181	441.25
429.403	452.25
429.625	451.25
429.847	434.25
430.069	456.25
430.292	442.25
430.514	459.25
430.736	446.25
430.958	445.25
431.18	461.25
431.402	468.25
431.624	445.25
431.846	455.25
432.068	450.25
432.29	433.25
432.512	457.25
432.734	462.25
432.956	462.25
433.178	458.25
433.4	459.25
433.622	442.25
433.844	468.25
434.066	455.25
434.287	458.25
434.509	479.25
434.731	483.25
434.953	480.25
435.175	517.25
435.397	499.25
435.618	470.25
435.84	447.25
436.062	451.25
436.284	473.25
436.505	451.25
436.727	474.25
436.949	463.25
437.17	458.25
437.392	451.25
437.614	432.25
437.835	431.25
438.057	445.25
438.278	444.25
438.5	467.25
438.721	450.25
438.943	464.25
439.165	436.25
439.386	467.25
439.608	459.25
439.829	465.25
440.05	474.25
440.272	460.25
440.493	462.25
440.715	471.25
440.936	484.25
441.158	466.25
441.379	491.25
441.6	501.25
441.822	492.25
442.043	493.25
442.264	497.25
442.486	483.25
442.707	492.25
442.928	474.25
443.149	497.25
443.371	472.25
443.592	496.25
443.813	508.25
444.034	521.25
444.255	534.25
444.476	531.25
444.698	571.25
444.919	576.25
445.14	652.25
445.361	568.25
445.582	519.25
445.803	485.25
446.024	506.25
446.245	483.25
446.466	487.25
446.687	478.25
446.908	461.25
447.129	455.25
447.35	463.25
447.571	461.25
447.792	460.25
448.013	447.25
448.234	434.25
448.455	446.25
448.675	437.25
448.896	412.25
449.117	450.25
449.338	443.25
449.559	428.25
449.779	433.25
450	437.25
450.221	425.25
450.442	416.25
450.662	413.25
450.883	410.25
451.104	431.25
451.324	424.25
451.545	445.25
451.766	435.25
451.986	441.25
452.207	437.25
452.428	420.25
452.648	445.25
452.869	419.25
453.089	420.25
453.31	413.25
453.53	423.25
453.751	405.25
453.971	432.25
454.192	405.25
454.412	397.25
454.633	398.25
454.853	399.25
455.073	389.25
455.294	409.25
455.514	405.25
455.734	401.25
455.955	404.25
456.175	382.25
456.395	399.25
456.616	399.25
456.836	388.25
457.056	431.25
457.276	403.25
457.497	412.25
457.717	403.25
457.937	404.25
458.157	403.25
458.377	395.25
458.598	422.25
458.818	419.25
459.038	432.25
459.258	456.25
459.478	441.25
459.698	479.25
459.918	481.25
460.138	501.25
460.358	494.25
460.578	517.25
460.798	525.25
461.018	522.25
461.238	517.25
461.458	518.25
461.678	507.25
461.898	528.25
462.118	515.25
462.338	545.25
462.558	560.25
462.777	590.25
462.997	629.25
463.217	650.25
463.437	641.25
463.657	600.25
463.876	610.25
464.096	572.25
464.316	590.25
464.536	605.25
464.755	595.25
464.975	580.25
465.195	532.25
465.414	532.25
465.634	476.25
465.854	473.25
466.073	473.25
466.293	448.25
466.512	439.25
466.732	452.25
466.951	461.25
467.171	458.25
467.391	440.25
467.61	438.25
467.829	451.25
468.049	447.25
468.268	439.25
468.488	429.25
468.707	422.25
468.927	447.25
469.146	425.25
469.365	411.25
469.585	410.25
469.804	431.25
470.023	458.25
470.243	452.25
470.462	456.25
470.681	455.25
470.901	456.25
471.12	443.25
471.339	437.25
471.558	438.25
471.777	458.25
471.997	442.25
472.216	438.25
472.435	443.25
472.654	411.25
472.873	410.25
473.092	410.25
473.311	421.25
473.53	411.25
473.749	417.25
473.968	424.25
474.187	410.25
474.406	403.25
474.625	410.25
474.844	413.25
475.063	416.25
475.282	411.25
475.501	443.25
475.72	433.25
475.939	426.25
476.158	433.25
476.377	421.25
476.596	433.25
476.814	449.25
477.033	425.25
477.252	439.25
477.471	436.25
477.69	464.25
477.908	463.25
478.127	469.25
478.346	470.25
478.564	485.25
478.783	511.25
479.002	500.25
479.22	490.25
479.439	500.25
479.658	493.25
479.876	507.25
480.095	500.25
480.313	507.25
480.532	528.25
480.751	511.25
480.969	498.25
481.188	479.25
481.406	477.25
481.624	466.25
481.843	455.25
482.061	474.25
482.28	464.25
482.498	461.25
482.717	438.25
482.935	453.25
483.153	475.25
483.372	483.25
483.59	473.25
483.808	482.25
484.027	459.25
484.245	476.25
484.463	448.25
484.681	485.25
484.9	474.25
485.118	468.25
485.336	472.25
485.554	472.25
485.772	493.25
485.99	490.25
486.209	476.25
486.427	492.25
486.645	481.25
486.863	471.25
487.081	480.25
487.299	480.25
487.517	465.25
487.735	505.25
487.953	513.25
488.171	505.25
488.389	491.25
488.607	465.25
488.825	464.25
489.043	483.25
489.261	476.25
489.479	465.25
489.696	470.25
489.914	465.25
490.132	488.25
490.35	497.25
490.568	497.25
490.786	505.25
491.003	512.25
491.221	476.25
491.439	484.25
491.657	508.25
491.874	516.25
492.092	515.25
492.31	522.25
492.527	515.25
492.745	509.25
492.963	511.25
493.18	490.25
493.398	495.25
493.615	514.25
493.833	467.25
494.05	533.25
494.268	516.25
494.485	524.25
494.703	536.25
494.92	507.25
495.138	532.25
495.355	517.25
495.573	523.25
495.79	539.25
496.008	533.25
496.225	534.25
496.442	559.25
496.66	536.25
496.877	563.25
497.094	579.25
497.312	569.25
497.529	568.25
497.746	593.25
497.963	588.25
498.181	632.25
498.398	633.25
498.615	659.25
498.832	688.25
499.049	753.25
499.267	790.25
499.484	855.25
499.701	919.25
499.918	980.25
500.135	1094.25
500.352	1184.25
500.569	1195.25
500.786	1224.25
501.003	1171.25
501.22	1066.25
501.437	935.25
501.654	868.25
501.871	821.25
