Data from Fe(NO3)3@0.025M.TitratingCurve.Agarose3%dH2O.NegLispCup.LampEnergy10.LIBS07252019_HRD10591_16-55-58-336.txt Node
Date: Thu Jul 25 16:55:58 EDT 2019
User: cochatt
Spectrometer: HR+D1059
Trigger mode: 1
Integration Time (sec): 1.000000E-1
Scans to average: 1
Electric dark correction enabled: true
Nonlinearity correction enabled: false
Boxcar width: 0
XAxis mode: Wavelengths
Number of Pixels in Spectrum: 2048
>>>>>Begin Spectral Data<<<<<
223.165	-21.94
223.4	-21.94
223.635	-21.94
223.869	-23.94
224.104	-10.94
224.338	-26.94
224.573	-9.94
224.808	1.06
225.042	-3.94
225.277	-19.94
225.511	-4.94
225.746	-0.94
225.98	-2.94
226.215	20.06
226.449	21.06
226.683	23.06
226.918	15.06
227.152	46.06
227.387	31.06
227.621	43.06
227.856	47.06
228.09	40.06
228.324	41.06
228.559	47.06
228.793	86.06
229.027	75.06
229.262	79.06
229.496	84.06
229.73	73.06
229.964	94.06
230.199	81.06
230.433	93.06
230.667	100.06
230.901	95.06
231.136	114.06
231.37	91.06
231.604	82.06
231.838	108.06
232.072	91.06
232.306	90.06
232.541	89.06
232.775	102.06
233.009	101.06
233.243	106.06
233.477	97.06
233.711	110.06
233.945	94.06
234.179	94.06
234.413	98.06
234.647	99.06
234.881	108.06
235.115	103.06
235.349	98.06
235.583	103.06
235.817	83.06
236.051	95.06
236.285	99.06
236.519	102.06
236.753	95.06
236.987	93.06
237.221	101.06
237.455	91.06
237.689	94.06
237.922	90.06
238.156	100.06
238.39	100.06
238.624	94.06
238.858	107.06
239.091	104.06
239.325	98.06
239.559	101.06
239.793	102.06
240.027	110.06
240.26	85.06
240.494	99.06
240.728	108.06
240.961	108.06
241.195	112.06
241.429	100.06
241.662	97.06
241.896	102.06
242.13	109.06
242.363	107.06
242.597	86.06
242.83	115.06
243.064	104.06
243.298	111.06
243.531	110.06
243.765	115.06
243.998	103.06
244.232	111.06
244.465	114.06
244.699	115.06
244.932	103.06
245.166	99.06
245.399	111.06
245.633	113.06
245.866	102.06
246.099	89.06
246.333	102.06
246.566	97.06
246.8	105.06
247.033	107.06
247.266	106.06
247.5	103.06
247.733	97.06
247.966	102.06
248.2	115.06
248.433	109.06
248.666	97.06
248.899	107.06
249.133	111.06
249.366	105.06
249.599	119.06
249.832	124.06
250.066	127.06
250.299	121.06
250.532	119.06
250.765	120.06
250.998	111.06
251.231	121.06
251.465	124.06
251.698	106.06
251.931	119.06
252.164	127.06
252.397	117.06
252.63	114.06
252.863	110.06
253.096	120.06
253.329	115.06
253.562	130.06
253.795	124.06
254.028	120.06
254.261	106.06
254.494	122.06
254.727	114.06
254.96	133.06
255.193	123.06
255.426	122.06
255.659	119.06
255.892	129.06
256.124	126.06
256.357	123.06
256.59	125.06
256.823	123.06
257.056	131.06
257.289	124.06
257.521	140.06
257.754	129.06
257.987	109.06
258.22	108.06
258.452	126.06
258.685	129.06
258.918	126.06
259.151	131.06
259.383	130.06
259.616	139.06
259.849	134.06
260.081	140.06
260.314	132.06
260.547	133.06
260.779	126.06
261.012	129.06
261.244	139.06
261.477	147.06
261.71	132.06
261.942	141.06
262.175	145.06
262.407	140.06
262.64	122.06
262.872	137.06
263.105	141.06
263.337	138.06
263.57	142.06
263.802	134.06
264.035	139.06
264.267	130.06
264.499	135.06
264.732	142.06
264.964	147.06
265.197	149.06
265.429	138.06
265.661	161.06
265.894	149.06
266.126	144.06
266.358	130.06
266.591	141.06
266.823	142.06
267.055	141.06
267.287	149.06
267.52	143.06
267.752	137.06
267.984	155.06
268.216	156.06
268.448	138.06
268.681	137.06
268.913	152.06
269.145	150.06
269.377	153.06
269.609	131.06
269.841	144.06
270.073	132.06
270.306	155.06
270.538	155.06
270.77	153.06
271.002	147.06
271.234	158.06
271.466	138.06
271.698	142.06
271.93	158.06
272.162	154.06
272.394	148.06
272.626	140.06
272.858	152.06
273.09	160.06
273.322	142.06
273.553	152.06
273.785	167.06
274.017	154.06
274.249	161.06
274.481	162.06
274.713	151.06
274.945	173.06
275.176	169.06
275.408	166.06
275.64	160.06
275.872	164.06
276.104	156.06
276.335	177.06
276.567	172.06
276.799	158.06
277.031	174.06
277.262	174.06
277.494	172.06
277.726	155.06
277.957	173.06
278.189	155.06
278.421	165.06
278.652	163.06
278.884	165.06
279.115	179.06
279.347	173.06
279.579	171.06
279.81	183.06
280.042	173.06
280.273	179.06
280.505	175.06
280.736	167.06
280.968	158.06
281.199	173.06
281.431	174.06
281.662	165.06
281.894	165.06
282.125	181.06
282.356	185.06
282.588	170.06
282.819	163.06
283.051	174.06
283.282	164.06
283.513	170.06
283.745	179.06
283.976	166.06
284.207	187.06
284.439	181.06
284.67	182.06
284.901	185.06
285.132	173.06
285.364	168.06
285.595	172.06
285.826	172.06
286.057	195.06
286.288	185.06
286.52	177.06
286.751	202.06
286.982	181.06
287.213	192.06
287.444	177.06
287.675	185.06
287.906	186.06
288.138	178.06
288.369	180.06
288.6	202.06
288.831	196.06
289.062	185.06
289.293	187.06
289.524	195.06
289.755	197.06
289.986	200.06
290.217	191.06
290.448	204.06
290.679	185.06
290.91	194.06
291.141	186.06
291.371	191.06
291.602	184.06
291.833	193.06
292.064	202.06
292.295	198.06
292.526	194.06
292.757	194.06
292.987	207.06
293.218	204.06
293.449	202.06
293.68	199.06
293.91	184.06
294.141	198.06
294.372	188.06
294.603	206.06
294.833	194.06
295.064	190.06
295.295	181.06
295.525	202.06
295.756	206.06
295.987	196.06
296.217	211.06
296.448	189.06
296.679	193.06
296.909	196.06
297.14	203.06
297.37	206.06
297.601	193.06
297.831	199.06
298.062	200.06
298.292	214.06
298.523	236.06
298.753	212.06
298.984	219.06
299.214	187.06
299.445	197.06
299.675	204.06
299.905	205.06
300.136	202.06
300.366	211.06
300.597	213.06
300.827	197.06
301.057	210.06
301.288	212.06
301.518	228.06
301.748	217.06
301.979	207.06
302.209	218.06
302.439	234.06
302.669	204.06
302.9	218.06
303.13	212.06
303.36	212.06
303.59	234.06
303.82	226.06
304.051	228.06
304.281	222.06
304.511	221.06
304.741	206.06
304.971	212.06
305.201	217.06
305.431	230.06
305.661	241.06
305.891	234.06
306.121	217.06
306.352	226.06
306.582	219.06
306.812	205.06
307.042	215.06
307.272	219.06
307.502	200.06
307.731	227.06
307.961	224.06
308.191	225.06
308.421	201.06
308.651	212.06
308.881	230.06
309.111	229.06
309.341	245.06
309.571	224.06
309.8	230.06
310.03	220.06
310.26	229.06
310.49	214.06
310.72	225.06
310.949	241.06
311.179	235.06
311.409	217.06
311.639	239.06
311.868	249.06
312.098	231.06
312.328	225.06
312.557	228.06
312.787	236.06
313.017	226.06
313.246	236.06
313.476	242.06
313.706	222.06
313.935	238.06
314.165	235.06
314.394	241.06
314.624	251.06
314.853	229.06
315.083	231.06
315.312	250.06
315.542	254.06
315.771	246.06
316.001	241.06
316.23	233.06
316.46	268.06
316.689	246.06
316.919	244.06
317.148	243.06
317.377	239.06
317.607	237.06
317.836	235.06
318.065	238.06
318.295	247.06
318.524	246.06
318.753	244.06
318.983	241.06
319.212	245.06
319.441	237.06
319.67	229.06
319.9	249.06
320.129	241.06
320.358	259.06
320.587	242.06
320.816	245.06
321.046	262.06
321.275	237.06
321.504	226.06
321.733	259.06
321.962	262.06
322.191	247.06
322.42	246.06
322.649	231.06
322.878	235.06
323.108	268.06
323.337	234.06
323.566	249.06
323.795	260.06
324.024	230.06
324.253	245.06
324.482	246.06
324.71	265.06
324.939	248.06
325.168	238.06
325.397	245.06
325.626	244.06
325.855	272.06
326.084	270.06
326.313	263.06
326.542	267.06
326.77	250.06
326.999	269.06
327.228	262.06
327.457	252.06
327.686	246.06
327.914	263.06
328.143	268.06
328.372	251.06
328.6	271.06
328.829	261.06
329.058	270.06
329.287	267.06
329.515	247.06
329.744	276.06
329.972	257.06
330.201	257.06
330.43	265.06
330.658	266.06
330.887	265.06
331.115	249.06
331.344	276.06
331.572	307.06
331.801	294.06
332.03	286.06
332.258	296.06
332.486	279.06
332.715	293.06
332.943	287.06
333.172	306.06
333.4	312.06
333.629	301.06
333.857	316.06
334.085	332.06
334.314	307.06
334.542	314.06
334.771	325.06
334.999	303.06
335.227	301.06
335.455	300.06
335.684	334.06
335.912	317.06
336.14	315.06
336.369	301.06
336.597	289.06
336.825	299.06
337.053	306.06
337.281	306.06
337.51	291.06
337.738	297.06
337.966	276.06
338.194	289.06
338.422	284.06
338.65	303.06
338.878	303.06
339.106	291.06
339.334	301.06
339.562	296.06
339.79	290.06
340.018	285.06
340.246	277.06
340.474	287.06
340.702	274.06
340.93	272.06
341.158	294.06
341.386	293.06
341.614	281.06
341.842	287.06
342.07	285.06
342.298	285.06
342.526	278.06
342.754	281.06
342.981	281.06
343.209	300.06
343.437	294.06
343.665	292.06
343.893	322.06
344.12	305.06
344.348	310.06
344.576	300.06
344.804	315.06
345.031	283.06
345.259	296.06
345.487	266.06
345.714	275.06
345.942	298.06
346.17	286.06
346.397	265.06
346.625	279.06
346.853	279.06
347.08	278.06
347.308	293.06
347.535	274.06
347.763	275.06
347.99	266.06
348.218	277.06
348.445	285.06
348.673	284.06
348.9	276.06
349.128	289.06
349.355	284.06
349.583	283.06
349.81	278.06
350.037	269.06
350.265	286.06
350.492	279.06
350.72	283.06
350.947	266.06
351.174	277.06
351.402	290.06
351.629	291.06
351.856	284.06
352.083	275.06
352.311	261.06
352.538	264.06
352.765	280.06
352.992	281.06
353.22	268.06
353.447	275.06
353.674	275.06
353.901	258.06
354.128	281.06
354.355	263.06
354.583	283.06
354.81	281.06
355.037	284.06
355.264	305.06
355.491	304.06
355.718	283.06
355.945	271.06
356.172	278.06
356.399	262.06
356.626	270.06
356.853	288.06
357.08	279.06
357.307	275.06
357.534	282.06
357.761	279.06
357.988	286.06
358.215	275.06
358.441	273.06
358.668	266.06
358.895	288.06
359.122	279.06
359.349	288.06
359.576	285.06
359.802	283.06
360.029	273.06
360.256	276.06
360.483	290.06
360.709	271.06
360.936	289.06
361.163	300.06
361.39	297.06
361.616	278.06
361.843	293.06
362.07	281.06
362.296	267.06
362.523	280.06
362.749	289.06
362.976	275.06
363.203	269.06
363.429	283.06
363.656	282.06
363.882	261.06
364.109	263.06
364.335	271.06
364.562	298.06
364.788	269.06
365.015	269.06
365.241	298.06
365.468	294.06
365.694	270.06
365.92	294.06
366.147	288.06
366.373	290.06
366.599	288.06
366.826	281.06
367.052	274.06
367.278	297.06
367.505	300.06
367.731	287.06
367.957	304.06
368.184	295.06
368.41	285.06
368.636	280.06
368.862	284.06
369.089	266.06
369.315	276.06
369.541	299.06
369.767	287.06
369.993	284.06
370.219	274.06
370.445	302.06
370.672	298.06
370.898	302.06
371.124	272.06
371.35	302.06
371.576	308.06
371.802	290.06
372.028	311.06
372.254	312.06
372.48	302.06
372.706	309.06
372.932	308.06
373.158	297.06
373.384	326.06
373.61	293.06
373.835	309.06
374.061	309.06
374.287	294.06
374.513	313.06
374.739	329.06
374.965	337.06
375.191	314.06
375.416	329.06
375.642	313.06
375.868	298.06
376.094	309.06
376.319	302.06
376.545	318.06
376.771	312.06
376.997	319.06
377.222	309.06
377.448	272.06
377.674	291.06
377.899	304.06
378.125	293.06
378.35	296.06
378.576	297.06
378.802	312.06
379.027	298.06
379.253	299.06
379.478	294.06
379.704	300.06
379.929	296.06
380.155	317.06
380.38	313.06
380.606	303.06
380.831	313.06
381.057	309.06
381.282	319.06
381.507	307.06
381.733	285.06
381.958	309.06
382.184	298.06
382.409	315.06
382.634	313.06
382.86	322.06
383.085	320.06
383.31	327.06
383.535	334.06
383.761	321.06
383.986	340.06
384.211	342.06
384.436	342.06
384.662	338.06
384.887	355.06
385.112	338.06
385.337	333.06
385.562	333.06
385.787	357.06
386.013	343.06
386.238	350.06
386.463	350.06
386.688	357.06
386.913	346.06
387.138	349.06
387.363	350.06
387.588	336.06
387.813	351.06
388.038	342.06
388.263	342.06
388.488	350.06
388.713	353.06
388.938	345.06
389.163	352.06
389.387	338.06
389.612	339.06
389.837	341.06
390.062	357.06
390.287	338.06
390.512	357.06
390.736	361.06
390.961	362.06
391.186	353.06
391.411	352.06
391.636	353.06
391.86	380.06
392.085	374.06
392.31	366.06
392.534	366.06
392.759	354.06
392.984	353.06
393.208	358.06
393.433	360.06
393.658	345.06
393.882	377.06
394.107	366.06
394.331	365.06
394.556	357.06
394.78	374.06
395.005	386.06
395.229	389.06
395.454	376.06
395.678	380.06
395.903	388.06
396.127	392.06
396.352	366.06
396.576	367.06
396.801	387.06
397.025	369.06
397.249	397.06
397.474	413.06
397.698	390.06
397.922	400.06
398.147	407.06
398.371	408.06
398.595	425.06
398.82	414.06
399.044	458.06
399.268	457.06
399.492	469.06
399.717	507.06
399.941	498.06
400.165	477.06
400.389	485.06
400.613	437.06
400.837	436.06
401.062	414.06
401.286	445.06
401.51	426.06
401.734	417.06
401.958	407.06
402.182	427.06
402.406	435.06
402.63	423.06
402.854	430.06
403.078	426.06
403.302	418.06
403.526	420.06
403.75	426.06
403.974	436.06
404.198	446.06
404.422	435.06
404.645	420.06
404.869	428.06
405.093	445.06
405.317	453.06
405.541	436.06
405.765	434.06
405.988	444.06
406.212	425.06
406.436	427.06
406.66	450.06
406.883	445.06
407.107	461.06
407.331	482.06
407.555	487.06
407.778	461.06
408.002	494.06
408.226	470.06
408.449	467.06
408.673	468.06
408.896	467.06
409.12	443.06
409.344	457.06
409.567	436.06
409.791	425.06
410.014	445.06
410.238	424.06
410.461	428.06
410.685	425.06
410.908	434.06
411.132	415.06
411.355	410.06
411.578	417.06
411.802	437.06
412.025	430.06
412.249	442.06
412.472	443.06
412.695	440.06
412.919	439.06
413.142	426.06
413.365	415.06
413.589	415.06
413.812	428.06
414.035	414.06
414.258	419.06
414.482	413.06
414.705	428.06
414.928	399.06
415.151	405.06
415.374	419.06
415.597	411.06
415.821	408.06
416.044	403.06
416.267	381.06
416.49	408.06
416.713	418.06
416.936	399.06
417.159	400.06
417.382	410.06
417.605	392.06
417.828	388.06
418.051	405.06
418.274	398.06
418.497	401.06
418.72	400.06
418.943	404.06
419.166	425.06
419.389	439.06
419.611	433.06
419.834	427.06
420.057	417.06
420.28	399.06
420.503	385.06
420.726	387.06
420.948	408.06
421.171	401.06
421.394	430.06
421.617	397.06
421.839	404.06
422.062	397.06
422.285	383.06
422.507	392.06
422.73	417.06
422.953	406.06
423.175	388.06
423.398	400.06
423.621	385.06
423.843	415.06
424.066	373.06
424.288	411.06
424.511	409.06
424.733	410.06
424.956	394.06
425.178	362.06
425.401	385.06
425.623	391.06
425.846	399.06
426.068	375.06
426.291	374.06
426.513	383.06
426.735	386.06
426.958	373.06
427.18	393.06
427.402	369.06
427.625	370.06
427.847	373.06
428.069	377.06
428.292	384.06
428.514	390.06
428.736	387.06
428.958	365.06
429.181	381.06
429.403	338.06
429.625	362.06
429.847	349.06
430.069	363.06
430.292	379.06
430.514	366.06
430.736	364.06
430.958	366.06
431.18	353.06
431.402	339.06
431.624	359.06
431.846	356.06
432.068	356.06
432.29	361.06
432.512	384.06
432.734	388.06
432.956	364.06
433.178	370.06
433.4	351.06
433.622	371.06
433.844	369.06
434.066	369.06
434.287	374.06
434.509	381.06
434.731	384.06
434.953	392.06
435.175	393.06
435.397	395.06
435.618	390.06
435.84	381.06
436.062	379.06
436.284	373.06
436.505	386.06
436.727	376.06
436.949	379.06
437.17	372.06
437.392	349.06
437.614	357.06
437.835	373.06
438.057	366.06
438.278	366.06
438.5	366.06
438.721	352.06
438.943	370.06
439.165	362.06
439.386	362.06
439.608	370.06
439.829	381.06
440.05	370.06
440.272	361.06
440.493	373.06
440.715	377.06
440.936	375.06
441.158	389.06
441.379	398.06
441.6	402.06
441.822	382.06
442.043	385.06
442.264	376.06
442.486	385.06
442.707	392.06
442.928	377.06
443.149	367.06
443.371	385.06
443.592	387.06
443.813	386.06
444.034	396.06
444.255	386.06
444.476	400.06
444.698	423.06
444.919	386.06
445.14	491.06
445.361	453.06
445.582	385.06
445.803	375.06
446.024	390.06
446.245	385.06
446.466	366.06
446.687	364.06
446.908	368.06
447.129	335.06
447.35	351.06
447.571	345.06
447.792	356.06
448.013	364.06
448.234	374.06
448.455	327.06
448.675	333.06
448.896	351.06
449.117	342.06
449.338	345.06
449.559	342.06
449.779	337.06
450	332.06
450.221	339.06
450.442	338.06
450.662	332.06
450.883	325.06
451.104	333.06
451.324	342.06
451.545	348.06
451.766	334.06
451.986	344.06
452.207	343.06
452.428	332.06
452.648	317.06
452.869	343.06
453.089	326.06
453.31	337.06
453.53	335.06
453.751	334.06
453.971	335.06
454.192	335.06
454.412	334.06
454.633	357.06
454.853	307.06
455.073	323.06
455.294	324.06
455.514	324.06
455.734	331.06
455.955	328.06
456.175	330.06
456.395	326.06
456.616	332.06
456.836	343.06
457.056	331.06
457.276	318.06
457.497	344.06
457.717	318.06
457.937	342.06
458.157	334.06
458.377	330.06
458.598	349.06
458.818	332.06
459.038	359.06
459.258	351.06
459.478	356.06
459.698	363.06
459.918	379.06
460.138	382.06
460.358	419.06
460.578	400.06
460.798	405.06
461.018	388.06
461.238	424.06
461.458	390.06
461.678	402.06
461.898	416.06
462.118	410.06
462.338	449.06
462.558	457.06
462.777	428.06
462.997	468.06
463.217	476.06
463.437	484.06
463.657	456.06
463.876	461.06
464.096	471.06
464.316	461.06
464.536	457.06
464.755	426.06
464.975	420.06
465.195	423.06
465.414	394.06
465.634	394.06
465.854	390.06
466.073	378.06
466.293	371.06
466.512	362.06
466.732	348.06
466.951	376.06
467.171	359.06
467.391	359.06
467.61	346.06
467.829	353.06
468.049	355.06
468.268	336.06
468.488	347.06
468.707	352.06
468.927	342.06
469.146	342.06
469.365	354.06
469.585	360.06
469.804	375.06
470.023	372.06
470.243	355.06
470.462	368.06
470.681	377.06
470.901	361.06
471.12	364.06
471.339	375.06
471.558	366.06
471.777	360.06
471.997	349.06
472.216	373.06
472.435	363.06
472.654	353.06
472.873	346.06
473.092	340.06
473.311	358.06
473.53	359.06
473.749	346.06
473.968	331.06
474.187	354.06
474.406	345.06
474.625	340.06
474.844	366.06
475.063	357.06
475.282	350.06
475.501	350.06
475.72	359.06
475.939	363.06
476.158	372.06
476.377	381.06
476.596	364.06
476.814	366.06
477.033	367.06
477.252	385.06
477.471	408.06
477.69	411.06
477.908	402.06
478.127	405.06
478.346	413.06
478.564	401.06
478.783	399.06
479.002	425.06
479.22	405.06
479.439	415.06
479.658	416.06
479.876	425.06
480.095	420.06
480.313	421.06
480.532	435.06
480.751	424.06
480.969	422.06
481.188	424.06
481.406	434.06
481.624	414.06
481.843	411.06
482.061	403.06
482.28	421.06
482.498	407.06
482.717	400.06
482.935	417.06
483.153	395.06
483.372	380.06
483.59	395.06
483.808	382.06
484.027	386.06
484.245	402.06
484.463	403.06
484.681	421.06
484.9	407.06
485.118	418.06
485.336	398.06
485.554	411.06
485.772	407.06
485.99	415.06
486.209	417.06
486.427	411.06
486.645	407.06
486.863	423.06
487.081	410.06
487.299	413.06
487.517	397.06
487.735	413.06
487.953	426.06
488.171	437.06
488.389	415.06
488.607	418.06
488.825	408.06
489.043	409.06
489.261	429.06
489.479	401.06
489.696	424.06
489.914	409.06
490.132	427.06
490.35	410.06
490.568	414.06
490.786	416.06
491.003	423.06
491.221	415.06
491.439	434.06
491.657	442.06
491.874	449.06
492.092	417.06
492.31	426.06
492.527	426.06
492.745	442.06
492.963	429.06
493.18	451.06
493.398	422.06
493.615	419.06
493.833	421.06
494.05	451.06
494.268	439.06
494.485	444.06
494.703	441.06
494.92	431.06
495.138	442.06
495.355	454.06
495.573	467.06
495.79	463.06
496.008	442.06
496.225	451.06
496.442	471.06
496.66	485.06
496.877	449.06
497.094	509.06
497.312	485.06
497.529	487.06
497.746	519.06
497.963	518.06
498.181	535.06
498.398	542.06
498.615	567.06
498.832	583.06
499.049	628.06
499.267	650.06
499.484	683.06
499.701	712.06
499.918	756.06
500.135	813.06
500.352	857.06
500.569	851.06
500.786	814.06
501.003	831.06
501.22	759.06
501.437	738.06
501.654	702.06
501.871	671.06
502.088	632.06
