Data from Fe(NO3)3@0.05M.TitratingCurve.Agarose3%dH2O.NegLispCup.LampEnergy10.LIBS07252019_HRD10591_16-47-32-333.txt Node
Date: Thu Jul 25 16:47:32 EDT 2019
User: cochatt
Spectrometer: HR+D1059
Trigger mode: 1
Integration Time (sec): 1.000000E-1
Scans to average: 1
Electric dark correction enabled: true
Nonlinearity correction enabled: false
Boxcar width: 0
XAxis mode: Wavelengths
Number of Pixels in Spectrum: 2048
>>>>>Begin Spectral Data<<<<<
223.165	-25.12
223.4	-25.12
223.635	-25.12
223.869	-3.12
224.104	-18.12
224.338	-8.12
224.573	-17.12
224.808	-20.12
225.042	-5.12
225.277	-5.12
225.511	-8.12
225.746	5.88
225.98	-0.12
226.215	14.88
226.449	20.88
226.683	19.88
226.918	29.88
227.152	18.88
227.387	35.88
227.621	43.88
227.856	37.88
228.09	41.88
228.324	60.88
228.559	52.88
228.793	56.88
229.027	74.88
229.262	79.88
229.496	89.88
229.73	108.88
229.964	115.88
230.199	106.88
230.433	97.88
230.667	110.88
230.901	102.88
231.136	113.88
231.37	105.88
231.604	107.88
231.838	116.88
232.072	104.88
232.306	101.88
232.541	106.88
232.775	112.88
233.009	110.88
233.243	113.88
233.477	108.88
233.711	136.88
233.945	114.88
234.179	116.88
234.413	114.88
234.647	121.88
234.881	115.88
235.115	124.88
235.349	132.88
235.583	118.88
235.817	99.88
236.051	110.88
236.285	114.88
236.519	123.88
236.753	126.88
236.987	124.88
237.221	134.88
237.455	132.88
237.689	118.88
237.922	112.88
238.156	119.88
238.39	127.88
238.624	132.88
238.858	136.88
239.091	119.88
239.325	109.88
239.559	126.88
239.793	124.88
240.027	153.88
240.26	132.88
240.494	138.88
240.728	125.88
240.961	108.88
241.195	136.88
241.429	135.88
241.662	136.88
241.896	130.88
242.13	106.88
242.363	126.88
242.597	138.88
242.83	126.88
243.064	142.88
243.298	137.88
243.531	126.88
243.765	145.88
243.998	144.88
244.232	151.88
244.465	132.88
244.699	142.88
244.932	136.88
245.166	133.88
245.399	157.88
245.633	138.88
245.866	154.88
246.099	152.88
246.333	144.88
246.566	144.88
246.8	148.88
247.033	154.88
247.266	157.88
247.5	154.88
247.733	143.88
247.966	146.88
248.2	138.88
248.433	148.88
248.666	154.88
248.899	145.88
249.133	170.88
249.366	162.88
249.599	172.88
249.832	152.88
250.066	156.88
250.299	160.88
250.532	150.88
250.765	155.88
250.998	166.88
251.231	170.88
251.465	154.88
251.698	162.88
251.931	146.88
252.164	150.88
252.397	159.88
252.63	173.88
252.863	185.88
253.096	184.88
253.329	179.88
253.562	160.88
253.795	173.88
254.028	188.88
254.261	166.88
254.494	181.88
254.727	178.88
254.96	182.88
255.193	168.88
255.426	172.88
255.659	192.88
255.892	194.88
256.124	190.88
256.357	199.88
256.59	183.88
256.823	177.88
257.056	168.88
257.289	178.88
257.521	197.88
257.754	186.88
257.987	197.88
258.22	187.88
258.452	204.88
258.685	196.88
258.918	194.88
259.151	192.88
259.383	186.88
259.616	197.88
259.849	208.88
260.081	206.88
260.314	219.88
260.547	194.88
260.779	193.88
261.012	198.88
261.244	190.88
261.477	200.88
261.71	192.88
261.942	194.88
262.175	227.88
262.407	185.88
262.64	196.88
262.872	210.88
263.105	187.88
263.337	203.88
263.57	200.88
263.802	202.88
264.035	202.88
264.267	203.88
264.499	200.88
264.732	197.88
264.964	209.88
265.197	200.88
265.429	204.88
265.661	215.88
265.894	206.88
266.126	206.88
266.358	215.88
266.591	220.88
266.823	209.88
267.055	213.88
267.287	220.88
267.52	210.88
267.752	216.88
267.984	197.88
268.216	212.88
268.448	232.88
268.681	217.88
268.913	189.88
269.145	226.88
269.377	228.88
269.609	211.88
269.841	212.88
270.073	215.88
270.306	216.88
270.538	219.88
270.77	224.88
271.002	241.88
271.234	235.88
271.466	216.88
271.698	231.88
271.93	236.88
272.162	215.88
272.394	227.88
272.626	241.88
272.858	224.88
273.09	228.88
273.322	239.88
273.553	233.88
273.785	236.88
274.017	233.88
274.249	244.88
274.481	254.88
274.713	270.88
274.945	252.88
275.176	275.88
275.408	268.88
275.64	266.88
275.872	253.88
276.104	269.88
276.335	245.88
276.567	248.88
276.799	245.88
277.031	232.88
277.262	245.88
277.494	235.88
277.726	231.88
277.957	256.88
278.189	240.88
278.421	257.88
278.652	255.88
278.884	268.88
279.115	258.88
279.347	249.88
279.579	275.88
279.81	248.88
280.042	262.88
280.273	268.88
280.505	237.88
280.736	259.88
280.968	240.88
281.199	277.88
281.431	264.88
281.662	272.88
281.894	262.88
282.125	268.88
282.356	264.88
282.588	282.88
282.819	264.88
283.051	272.88
283.282	256.88
283.513	264.88
283.745	264.88
283.976	274.88
284.207	278.88
284.439	278.88
284.67	285.88
284.901	269.88
285.132	275.88
285.364	268.88
285.595	267.88
285.826	266.88
286.057	280.88
286.288	266.88
286.52	286.88
286.751	299.88
286.982	281.88
287.213	279.88
287.444	302.88
287.675	290.88
287.906	280.88
288.138	301.88
288.369	296.88
288.6	267.88
288.831	281.88
289.062	292.88
289.293	284.88
289.524	285.88
289.755	295.88
289.986	291.88
290.217	290.88
290.448	262.88
290.679	303.88
290.91	301.88
291.141	292.88
291.371	285.88
291.602	291.88
291.833	294.88
292.064	270.88
292.295	275.88
292.526	317.88
292.757	260.88
292.987	268.88
293.218	295.88
293.449	284.88
293.68	305.88
293.91	314.88
294.141	290.88
294.372	299.88
294.603	295.88
294.833	314.88
295.064	286.88
295.295	300.88
295.525	303.88
295.756	302.88
295.987	293.88
296.217	293.88
296.448	301.88
296.679	310.88
296.909	297.88
297.14	306.88
297.37	314.88
297.601	325.88
297.831	315.88
298.062	325.88
298.292	311.88
298.523	296.88
298.753	322.88
298.984	308.88
299.214	332.88
299.445	343.88
299.675	326.88
299.905	333.88
300.136	319.88
300.366	325.88
300.597	311.88
300.827	308.88
301.057	319.88
301.288	315.88
301.518	334.88
301.748	345.88
301.979	324.88
302.209	336.88
302.439	340.88
302.669	324.88
302.9	333.88
303.13	350.88
303.36	342.88
303.59	338.88
303.82	323.88
304.051	338.88
304.281	339.88
304.511	326.88
304.741	325.88
304.971	330.88
305.201	328.88
305.431	349.88
305.661	316.88
305.891	326.88
306.121	328.88
306.352	335.88
306.582	324.88
306.812	339.88
307.042	318.88
307.272	331.88
307.502	333.88
307.731	330.88
307.961	314.88
308.191	314.88
308.421	317.88
308.651	304.88
308.881	322.88
309.111	352.88
309.341	327.88
309.571	319.88
309.8	329.88
310.03	325.88
310.26	322.88
310.49	319.88
310.72	316.88
310.949	334.88
311.179	327.88
311.409	356.88
311.639	339.88
311.868	330.88
312.098	315.88
312.328	326.88
312.557	342.88
312.787	345.88
313.017	338.88
313.246	343.88
313.476	346.88
313.706	357.88
313.935	353.88
314.165	340.88
314.394	342.88
314.624	348.88
314.853	341.88
315.083	350.88
315.312	348.88
315.542	366.88
315.771	352.88
316.001	356.88
316.23	338.88
316.46	341.88
316.689	347.88
316.919	350.88
317.148	359.88
317.377	349.88
317.607	344.88
317.836	350.88
318.065	369.88
318.295	354.88
318.524	339.88
318.753	349.88
318.983	330.88
319.212	341.88
319.441	347.88
319.67	349.88
319.9	367.88
320.129	341.88
320.358	350.88
320.587	323.88
320.816	350.88
321.046	332.88
321.275	349.88
321.504	372.88
321.733	332.88
321.962	355.88
322.191	352.88
322.42	356.88
322.649	359.88
322.878	336.88
323.108	363.88
323.337	374.88
323.566	362.88
323.795	336.88
324.024	369.88
324.253	372.88
324.482	356.88
324.71	358.88
324.939	375.88
325.168	357.88
325.397	364.88
325.626	353.88
325.855	381.88
326.084	372.88
326.313	363.88
326.542	370.88
326.77	374.88
326.999	380.88
327.228	374.88
327.457	385.88
327.686	391.88
327.914	380.88
328.143	392.88
328.372	380.88
328.6	377.88
328.829	386.88
329.058	375.88
329.287	374.88
329.515	391.88
329.744	382.88
329.972	395.88
330.201	385.88
330.43	382.88
330.658	387.88
330.887	386.88
331.115	395.88
331.344	407.88
331.572	396.88
331.801	421.88
332.03	419.88
332.258	409.88
332.486	450.88
332.715	425.88
332.943	427.88
333.172	448.88
333.4	464.88
333.629	476.88
333.857	498.88
334.085	488.88
334.314	468.88
334.542	460.88
334.771	476.88
334.999	471.88
335.227	471.88
335.455	486.88
335.684	471.88
335.912	444.88
336.14	450.88
336.369	462.88
336.597	440.88
336.825	453.88
337.053	449.88
337.281	442.88
337.51	438.88
337.738	435.88
337.966	418.88
338.194	416.88
338.422	406.88
338.65	406.88
338.878	417.88
339.106	395.88
339.334	417.88
339.562	417.88
339.79	399.88
340.018	398.88
340.246	398.88
340.474	390.88
340.702	403.88
340.93	410.88
341.158	413.88
341.386	415.88
341.614	398.88
341.842	381.88
342.07	408.88
342.298	404.88
342.526	393.88
342.754	412.88
342.981	413.88
343.209	406.88
343.437	424.88
343.665	457.88
343.893	460.88
344.12	483.88
344.348	453.88
344.576	450.88
344.804	427.88
345.031	410.88
345.259	408.88
345.487	404.88
345.714	400.88
345.942	390.88
346.17	409.88
346.397	376.88
346.625	373.88
346.853	374.88
347.08	382.88
347.308	394.88
347.535	403.88
347.763	388.88
347.99	401.88
348.218	392.88
348.445	400.88
348.673	379.88
348.9	406.88
349.128	409.88
349.355	391.88
349.583	401.88
349.81	378.88
350.037	373.88
350.265	380.88
350.492	381.88
350.72	375.88
350.947	362.88
351.174	374.88
351.402	396.88
351.629	374.88
351.856	384.88
352.083	373.88
352.311	368.88
352.538	369.88
352.765	382.88
352.992	376.88
353.22	388.88
353.447	357.88
353.674	380.88
353.901	384.88
354.128	381.88
354.355	374.88
354.583	385.88
354.81	380.88
355.037	391.88
355.264	380.88
355.491	388.88
355.718	389.88
355.945	401.88
356.172	382.88
356.399	417.88
356.626	405.88
356.853	391.88
357.08	394.88
357.307	378.88
357.534	388.88
357.761	382.88
357.988	400.88
358.215	397.88
358.441	392.88
358.668	388.88
358.895	363.88
359.122	388.88
359.349	374.88
359.576	380.88
359.802	380.88
360.029	371.88
360.256	378.88
360.483	406.88
360.709	382.88
360.936	378.88
361.163	384.88
361.39	368.88
361.616	385.88
361.843	378.88
362.07	396.88
362.296	389.88
362.523	378.88
362.749	396.88
362.976	371.88
363.203	395.88
363.429	361.88
363.656	376.88
363.882	408.88
364.109	393.88
364.335	381.88
364.562	396.88
364.788	386.88
365.015	385.88
365.241	391.88
365.468	397.88
365.694	391.88
365.92	392.88
366.147	398.88
366.373	383.88
366.599	385.88
366.826	378.88
367.052	391.88
367.278	408.88
367.505	391.88
367.731	386.88
367.957	399.88
368.184	404.88
368.41	389.88
368.636	389.88
368.862	392.88
369.089	399.88
369.315	388.88
369.541	410.88
369.767	388.88
369.993	396.88
370.219	397.88
370.445	396.88
370.672	416.88
370.898	420.88
371.124	427.88
371.35	421.88
371.576	413.88
371.802	414.88
372.028	438.88
372.254	440.88
372.48	428.88
372.706	427.88
372.932	434.88
373.158	427.88
373.384	435.88
373.61	466.88
373.835	434.88
374.061	416.88
374.287	438.88
374.513	449.88
374.739	452.88
374.965	456.88
375.191	468.88
375.416	471.88
375.642	474.88
375.868	462.88
376.094	450.88
376.319	448.88
376.545	450.88
376.771	443.88
376.997	423.88
377.222	430.88
377.448	421.88
377.674	417.88
377.899	421.88
378.125	405.88
378.35	408.88
378.576	410.88
378.802	398.88
379.027	421.88
379.253	425.88
379.478	442.88
379.704	436.88
379.929	441.88
380.155	423.88
380.38	439.88
380.606	446.88
380.831	408.88
381.057	441.88
381.282	440.88
381.507	455.88
381.733	442.88
381.958	426.88
382.184	471.88
382.409	450.88
382.634	466.88
382.86	451.88
383.085	454.88
383.31	468.88
383.535	464.88
383.761	469.88
383.986	483.88
384.211	468.88
384.436	480.88
384.662	486.88
384.887	476.88
385.112	500.88
385.337	488.88
385.562	508.88
385.787	529.88
386.013	532.88
386.238	540.88
386.463	503.88
386.688	505.88
386.913	506.88
387.138	520.88
387.363	505.88
387.588	518.88
387.813	486.88
388.038	506.88
388.263	497.88
388.488	525.88
388.713	512.88
388.938	512.88
389.163	521.88
389.387	532.88
389.612	530.88
389.837	506.88
390.062	500.88
390.287	516.88
390.512	508.88
390.736	530.88
390.961	518.88
391.186	541.88
391.411	532.88
391.636	556.88
391.86	578.88
392.085	590.88
392.31	589.88
392.534	550.88
392.759	572.88
392.984	555.88
393.208	548.88
393.433	549.88
393.658	564.88
393.882	530.88
394.107	552.88
394.331	569.88
394.556	554.88
394.78	557.88
395.005	538.88
395.229	548.88
395.454	568.88
395.678	576.88
395.903	583.88
396.127	579.88
396.352	573.88
396.576	562.88
396.801	562.88
397.025	572.88
397.249	569.88
397.474	590.88
397.698	576.88
397.922	598.88
398.147	596.88
398.371	581.88
398.595	621.88
398.82	610.88
399.044	645.88
399.268	698.88
399.492	797.88
399.717	858.88
399.941	867.88
400.165	802.88
400.389	747.88
400.613	710.88
400.837	672.88
401.062	652.88
401.286	652.88
401.51	659.88
401.734	624.88
401.958	643.88
402.182	635.88
402.406	653.88
402.63	630.88
402.854	670.88
403.078	637.88
403.302	669.88
403.526	683.88
403.75	716.88
403.974	702.88
404.198	691.88
404.422	688.88
404.645	708.88
404.869	690.88
405.093	676.88
405.317	666.88
405.541	685.88
405.765	710.88
405.988	706.88
406.212	718.88
406.436	701.88
406.66	685.88
406.883	707.88
407.107	740.88
407.331	779.88
407.555	803.88
407.778	773.88
408.002	761.88
408.226	761.88
408.449	762.88
408.673	753.88
408.896	734.88
409.12	718.88
409.344	711.88
409.567	711.88
409.791	708.88
410.014	691.88
410.238	713.88
410.461	700.88
410.685	706.88
410.908	677.88
411.132	704.88
411.355	670.88
411.578	717.88
411.802	673.88
412.025	664.88
412.249	688.88
412.472	705.88
412.695	661.88
412.919	662.88
413.142	657.88
413.365	637.88
413.589	656.88
413.812	638.88
414.035	660.88
414.258	672.88
414.482	647.88
414.705	649.88
414.928	668.88
415.151	638.88
415.374	636.88
415.597	635.88
415.821	619.88
416.044	603.88
416.267	647.88
416.49	665.88
416.713	646.88
416.936	668.88
417.159	636.88
417.382	637.88
417.605	619.88
417.828	642.88
418.051	638.88
418.274	645.88
418.497	621.88
418.72	663.88
418.943	678.88
419.166	674.88
419.389	710.88
419.611	699.88
419.834	684.88
420.057	657.88
420.28	640.88
420.503	633.88
420.726	603.88
420.948	642.88
421.171	644.88
421.394	662.88
421.617	646.88
421.839	636.88
422.062	640.88
422.285	627.88
422.507	634.88
422.73	645.88
422.953	639.88
423.175	665.88
423.398	648.88
423.621	667.88
423.843	648.88
424.066	660.88
424.288	636.88
424.511	677.88
424.733	668.88
424.956	653.88
425.178	653.88
425.401	654.88
425.623	643.88
425.846	586.88
426.068	632.88
426.291	642.88
426.513	625.88
426.735	616.88
426.958	606.88
427.18	597.88
427.402	614.88
427.625	599.88
427.847	584.88
428.069	574.88
428.292	595.88
428.514	589.88
428.736	572.88
428.958	589.88
429.181	587.88
429.403	555.88
429.625	580.88
429.847	575.88
430.069	586.88
430.292	588.88
430.514	574.88
430.736	588.88
430.958	596.88
431.18	574.88
431.402	578.88
431.624	594.88
431.846	586.88
432.068	609.88
432.29	603.88
432.512	591.88
432.734	567.88
432.956	589.88
433.178	577.88
433.4	614.88
433.622	616.88
433.844	616.88
434.066	607.88
434.287	601.88
434.509	634.88
434.731	636.88
434.953	635.88
435.175	655.88
435.397	634.88
435.618	621.88
435.84	588.88
436.062	601.88
436.284	605.88
436.505	595.88
436.727	594.88
436.949	595.88
437.17	605.88
437.392	580.88
437.614	588.88
437.835	571.88
438.057	574.88
438.278	572.88
438.5	574.88
438.721	586.88
438.943	594.88
439.165	574.88
439.386	594.88
439.608	614.88
439.829	609.88
440.05	587.88
440.272	598.88
440.493	601.88
440.715	608.88
440.936	619.88
441.158	602.88
441.379	608.88
441.6	630.88
441.822	637.88
442.043	652.88
442.264	655.88
442.486	632.88
442.707	617.88
442.928	644.88
443.149	645.88
443.371	624.88
443.592	632.88
443.813	647.88
444.034	672.88
444.255	660.88
444.476	666.88
444.698	709.88
444.919	711.88
445.14	805.88
445.361	712.88
445.582	685.88
445.803	646.88
446.024	614.88
446.245	612.88
446.466	621.88
446.687	611.88
446.908	634.88
447.129	616.88
447.35	594.88
447.571	584.88
447.792	567.88
448.013	560.88
448.234	545.88
448.455	562.88
448.675	553.88
448.896	557.88
449.117	560.88
449.338	570.88
449.559	542.88
449.779	550.88
450	554.88
450.221	573.88
450.442	560.88
450.662	533.88
450.883	574.88
451.104	544.88
451.324	548.88
451.545	560.88
451.766	564.88
451.986	542.88
452.207	529.88
452.428	552.88
452.648	552.88
452.869	549.88
453.089	520.88
453.31	521.88
453.53	514.88
453.751	533.88
453.971	503.88
454.192	537.88
454.412	534.88
454.633	496.88
454.853	518.88
455.073	537.88
455.294	536.88
455.514	526.88
455.734	506.88
455.955	510.88
456.175	504.88
456.395	510.88
456.616	528.88
456.836	540.88
457.056	527.88
457.276	517.88
457.497	506.88
457.717	526.88
457.937	566.88
458.157	522.88
458.377	512.88
458.598	546.88
458.818	525.88
459.038	548.88
459.258	572.88
459.478	584.88
459.698	614.88
459.918	640.88
460.138	646.88
460.358	648.88
460.578	664.88
460.798	700.88
461.018	681.88
461.238	662.88
461.458	678.88
461.678	664.88
461.898	682.88
462.118	697.88
462.338	694.88
462.558	723.88
462.777	755.88
462.997	799.88
463.217	813.88
463.437	839.88
463.657	820.88
463.876	772.88
464.096	766.88
464.316	754.88
464.536	768.88
464.755	749.88
464.975	712.88
465.195	698.88
465.414	646.88
465.634	631.88
465.854	640.88
466.073	614.88
466.293	601.88
466.512	611.88
466.732	601.88
466.951	593.88
467.171	571.88
467.391	568.88
467.61	587.88
467.829	565.88
468.049	594.88
468.268	578.88
468.488	576.88
468.707	566.88
468.927	579.88
469.146	580.88
469.365	571.88
469.585	578.88
469.804	580.88
470.023	576.88
470.243	582.88
470.462	600.88
470.681	601.88
470.901	606.88
471.12	614.88
471.339	583.88
471.558	584.88
471.777	582.88
471.997	570.88
472.216	567.88
472.435	572.88
472.654	546.88
472.873	560.88
473.092	544.88
473.311	555.88
473.53	538.88
473.749	551.88
473.968	559.88
474.187	534.88
474.406	556.88
474.625	561.88
474.844	570.88
475.063	555.88
475.282	555.88
475.501	552.88
475.72	568.88
475.939	543.88
476.158	571.88
476.377	577.88
476.596	570.88
476.814	589.88
477.033	592.88
477.252	587.88
477.471	597.88
477.69	613.88
477.908	628.88
478.127	628.88
478.346	627.88
478.564	634.88
478.783	636.88
479.002	664.88
479.22	649.88
479.439	654.88
479.658	667.88
479.876	674.88
480.095	669.88
480.313	680.88
480.532	681.88
480.751	679.88
480.969	685.88
481.188	666.88
481.406	631.88
481.624	639.88
481.843	632.88
482.061	614.88
482.28	618.88
482.498	618.88
482.717	608.88
482.935	631.88
483.153	610.88
483.372	630.88
483.59	646.88
483.808	641.88
484.027	614.88
484.245	651.88
484.463	592.88
484.681	650.88
484.9	634.88
485.118	639.88
485.336	630.88
485.554	640.88
485.772	629.88
485.99	640.88
486.209	636.88
486.427	661.88
486.645	651.88
486.863	667.88
487.081	656.88
487.299	634.88
487.517	657.88
487.735	638.88
487.953	638.88
488.171	641.88
488.389	626.88
488.607	642.88
488.825	631.88
489.043	626.88
489.261	652.88
489.479	661.88
489.696	646.88
489.914	661.88
490.132	658.88
490.35	656.88
490.568	646.88
490.786	660.88
491.003	642.88
491.221	665.88
491.439	650.88
491.657	634.88
491.874	672.88
492.092	655.88
492.31	699.88
492.527	699.88
492.745	668.88
492.963	663.88
493.18	654.88
493.398	692.88
493.615	668.88
493.833	670.88
494.05	685.88
494.268	688.88
494.485	674.88
494.703	690.88
494.92	698.88
495.138	675.88
495.355	685.88
495.573	691.88
495.79	677.88
496.008	713.88
496.225	704.88
496.442	696.88
496.66	753.88
496.877	713.88
497.094	737.88
497.312	768.88
497.529	768.88
497.746	800.88
497.963	793.88
498.181	839.88
498.398	829.88
498.615	911.88
498.832	924.88
499.049	994.88
499.267	1046.88
499.484	1113.88
499.701	1228.88
499.918	1307.88
500.135	1429.88
500.352	1573.88
500.569	1621.88
500.786	1623.88
501.003	1524.88
501.22	1409.88
501.437	1272.88
