Data from Fe(NO3)3@0.05M.TitratingCurve.Agarose3%dH2O.NegLispCup.LampEnergy10.LIBS07252019_HRD10591_16-46-53-334.txt Node
Date: Thu Jul 25 16:46:53 EDT 2019
User: cochatt
Spectrometer: HR+D1059
Trigger mode: 1
Integration Time (sec): 1.000000E-1
Scans to average: 1
Electric dark correction enabled: true
Nonlinearity correction enabled: false
Boxcar width: 0
XAxis mode: Wavelengths
Number of Pixels in Spectrum: 2048
>>>>>Begin Spectral Data<<<<<
223.165	-14.06
223.4	-14.06
223.635	-14.06
223.869	-12.06
224.104	-24.06
224.338	-18.06
224.573	-0.06
224.808	-4.06
225.042	-3.06
225.277	-5.06
225.511	5.94
225.746	-4.06
225.98	9.94
226.215	8.94
226.449	7.94
226.683	4.94
226.918	16.94
227.152	29.94
227.387	29.94
227.621	28.94
227.856	31.94
228.09	53.94
228.324	59.94
228.559	49.94
228.793	77.94
229.027	114.94
229.262	115.94
229.496	112.94
229.73	126.94
229.964	142.94
230.199	128.94
230.433	142.94
230.667	139.94
230.901	142.94
231.136	148.94
231.37	152.94
231.604	137.94
231.838	174.94
232.072	144.94
232.306	153.94
232.541	155.94
232.775	139.94
233.009	153.94
233.243	167.94
233.477	163.94
233.711	157.94
233.945	171.94
234.179	158.94
234.413	160.94
234.647	179.94
234.881	175.94
235.115	163.94
235.349	175.94
235.583	165.94
235.817	172.94
236.051	180.94
236.285	186.94
236.519	176.94
236.753	179.94
236.987	189.94
237.221	188.94
237.455	178.94
237.689	208.94
237.922	193.94
238.156	202.94
238.39	193.94
238.624	207.94
238.858	207.94
239.091	201.94
239.325	193.94
239.559	207.94
239.793	205.94
240.027	235.94
240.26	215.94
240.494	208.94
240.728	212.94
240.961	211.94
241.195	229.94
241.429	231.94
241.662	226.94
241.896	216.94
242.13	218.94
242.363	216.94
242.597	224.94
242.83	239.94
243.064	230.94
243.298	220.94
243.531	234.94
243.765	247.94
243.998	227.94
244.232	238.94
244.465	241.94
244.699	249.94
244.932	259.94
245.166	248.94
245.399	253.94
245.633	243.94
245.866	246.94
246.099	250.94
246.333	266.94
246.566	289.94
246.8	276.94
247.033	248.94
247.266	256.94
247.5	261.94
247.733	263.94
247.966	279.94
248.2	288.94
248.433	272.94
248.666	274.94
248.899	264.94
249.133	281.94
249.366	297.94
249.599	317.94
249.832	288.94
250.066	295.94
250.299	292.94
250.532	308.94
250.765	294.94
250.998	298.94
251.231	295.94
251.465	296.94
251.698	301.94
251.931	312.94
252.164	315.94
252.397	321.94
252.63	319.94
252.863	326.94
253.096	347.94
253.329	336.94
253.562	343.94
253.795	354.94
254.028	357.94
254.261	337.94
254.494	338.94
254.727	346.94
254.96	349.94
255.193	352.94
255.426	343.94
255.659	346.94
255.892	337.94
256.124	347.94
256.357	344.94
256.59	339.94
256.823	363.94
257.056	335.94
257.289	344.94
257.521	343.94
257.754	356.94
257.987	337.94
258.22	358.94
258.452	365.94
258.685	378.94
258.918	407.94
259.151	364.94
259.383	364.94
259.616	368.94
259.849	403.94
260.081	443.94
260.314	454.94
260.547	412.94
260.779	381.94
261.012	399.94
261.244	395.94
261.477	394.94
261.71	425.94
261.942	406.94
262.175	388.94
262.407	402.94
262.64	408.94
262.872	431.94
263.105	444.94
263.337	455.94
263.57	417.94
263.802	406.94
264.035	392.94
264.267	412.94
264.499	390.94
264.732	407.94
264.964	412.94
265.197	419.94
265.429	398.94
265.661	395.94
265.894	388.94
266.126	395.94
266.358	397.94
266.591	428.94
266.823	443.94
267.055	427.94
267.287	413.94
267.52	441.94
267.752	437.94
267.984	421.94
268.216	421.94
268.448	443.94
268.681	423.94
268.913	451.94
269.145	438.94
269.377	444.94
269.609	433.94
269.841	435.94
270.073	460.94
270.306	452.94
270.538	437.94
270.77	462.94
271.002	467.94
271.234	471.94
271.466	471.94
271.698	466.94
271.93	490.94
272.162	472.94
272.394	461.94
272.626	471.94
272.858	486.94
273.09	474.94
273.322	484.94
273.553	481.94
273.785	493.94
274.017	520.94
274.249	541.94
274.481	520.94
274.713	553.94
274.945	589.94
275.176	616.94
275.408	566.94
275.64	587.94
275.872	552.94
276.104	530.94
276.335	511.94
276.567	519.94
276.799	511.94
277.031	526.94
277.262	519.94
277.494	503.94
277.726	520.94
277.957	505.94
278.189	520.94
278.421	508.94
278.652	539.94
278.884	531.94
279.115	542.94
279.347	529.94
279.579	516.94
279.81	501.94
280.042	502.94
280.273	538.94
280.505	556.94
280.736	536.94
280.968	516.94
281.199	551.94
281.431	525.94
281.662	557.94
281.894	544.94
282.125	540.94
282.356	553.94
282.588	553.94
282.819	550.94
283.051	543.94
283.282	547.94
283.513	578.94
283.745	565.94
283.976	551.94
284.207	566.94
284.439	563.94
284.67	563.94
284.901	570.94
285.132	570.94
285.364	564.94
285.595	604.94
285.826	591.94
286.057	615.94
286.288	570.94
286.52	578.94
286.751	591.94
286.982	593.94
287.213	586.94
287.444	627.94
287.675	606.94
287.906	582.94
288.138	592.94
288.369	607.94
288.6	586.94
288.831	616.94
289.062	631.94
289.293	608.94
289.524	596.94
289.755	604.94
289.986	597.94
290.217	611.94
290.448	597.94
290.679	622.94
290.91	598.94
291.141	603.94
291.371	625.94
291.602	642.94
291.833	599.94
292.064	593.94
292.295	607.94
292.526	595.94
292.757	620.94
292.987	593.94
293.218	599.94
293.449	592.94
293.68	615.94
293.91	608.94
294.141	622.94
294.372	616.94
294.603	626.94
294.833	641.94
295.064	627.94
295.295	621.94
295.525	630.94
295.756	629.94
295.987	601.94
296.217	630.94
296.448	634.94
296.679	648.94
296.909	639.94
297.14	622.94
297.37	680.94
297.601	667.94
297.831	658.94
298.062	665.94
298.292	658.94
298.523	658.94
298.753	667.94
298.984	676.94
299.214	685.94
299.445	651.94
299.675	655.94
299.905	669.94
300.136	677.94
300.366	677.94
300.597	652.94
300.827	672.94
301.057	678.94
301.288	689.94
301.518	661.94
301.748	672.94
301.979	703.94
302.209	707.94
302.439	715.94
302.669	737.94
302.9	694.94
303.13	710.94
303.36	706.94
303.59	695.94
303.82	706.94
304.051	701.94
304.281	727.94
304.511	719.94
304.741	694.94
304.971	702.94
305.201	693.94
305.431	726.94
305.661	714.94
305.891	694.94
306.121	692.94
306.352	695.94
306.582	745.94
306.812	685.94
307.042	721.94
307.272	690.94
307.502	700.94
307.731	704.94
307.961	720.94
308.191	705.94
308.421	713.94
308.651	721.94
308.881	691.94
309.111	721.94
309.341	696.94
309.571	725.94
309.8	734.94
310.03	745.94
310.26	715.94
310.49	709.94
310.72	707.94
310.949	724.94
311.179	728.94
311.409	728.94
311.639	704.94
311.868	721.94
312.098	743.94
312.328	735.94
312.557	732.94
312.787	743.94
313.017	761.94
313.246	759.94
313.476	747.94
313.706	741.94
313.935	767.94
314.165	742.94
314.394	760.94
314.624	775.94
314.853	769.94
315.083	754.94
315.312	771.94
315.542	775.94
315.771	766.94
316.001	764.94
316.23	768.94
316.46	754.94
316.689	759.94
316.919	767.94
317.148	767.94
317.377	788.94
317.607	778.94
317.836	777.94
318.065	785.94
318.295	767.94
318.524	791.94
318.753	804.94
318.983	794.94
319.212	767.94
319.441	776.94
319.67	781.94
319.9	776.94
320.129	767.94
320.358	799.94
320.587	790.94
320.816	804.94
321.046	812.94
321.275	789.94
321.504	795.94
321.733	796.94
321.962	802.94
322.191	804.94
322.42	798.94
322.649	797.94
322.878	833.94
323.108	766.94
323.337	820.94
323.566	820.94
323.795	816.94
324.024	800.94
324.253	808.94
324.482	816.94
324.71	815.94
324.939	840.94
325.168	830.94
325.397	818.94
325.626	828.94
325.855	829.94
326.084	867.94
326.313	849.94
326.542	823.94
326.77	844.94
326.999	837.94
327.228	860.94
327.457	835.94
327.686	849.94
327.914	849.94
328.143	855.94
328.372	852.94
328.6	870.94
328.829	863.94
329.058	884.94
329.287	856.94
329.515	907.94
329.744	879.94
329.972	884.94
330.201	835.94
330.43	879.94
330.658	861.94
330.887	897.94
331.115	869.94
331.344	896.94
331.572	888.94
331.801	904.94
332.03	918.94
332.258	903.94
332.486	917.94
332.715	953.94
332.943	963.94
333.172	976.94
333.4	998.94
333.629	976.94
333.857	1022.94
334.085	992.94
334.314	1011.94
334.542	994.94
334.771	1037.94
334.999	998.94
335.227	1015.94
335.455	1028.94
335.684	1011.94
335.912	1009.94
336.14	996.94
336.369	1002.94
336.597	991.94
336.825	987.94
337.053	1005.94
337.281	966.94
337.51	935.94
337.738	955.94
337.966	930.94
338.194	964.94
338.422	939.94
338.65	927.94
338.878	948.94
339.106	909.94
339.334	951.94
339.562	926.94
339.79	926.94
340.018	930.94
340.246	929.94
340.474	895.94
340.702	910.94
340.93	942.94
341.158	931.94
341.386	895.94
341.614	922.94
341.842	926.94
342.07	916.94
342.298	893.94
342.526	924.94
342.754	935.94
342.981	905.94
343.209	940.94
343.437	926.94
343.665	950.94
343.893	993.94
344.12	1008.94
344.348	1029.94
344.576	990.94
344.804	976.94
345.031	976.94
345.259	918.94
345.487	933.94
345.714	919.94
345.942	925.94
346.17	911.94
346.397	911.94
346.625	895.94
346.853	871.94
347.08	877.94
347.308	881.94
347.535	894.94
347.763	897.94
347.99	872.94
348.218	867.94
348.445	891.94
348.673	878.94
348.9	890.94
349.128	858.94
349.355	891.94
349.583	889.94
349.81	871.94
350.037	860.94
350.265	867.94
350.492	869.94
350.72	880.94
350.947	863.94
351.174	877.94
351.402	901.94
351.629	880.94
351.856	864.94
352.083	847.94
352.311	864.94
352.538	867.94
352.765	846.94
352.992	838.94
353.22	856.94
353.447	870.94
353.674	840.94
353.901	870.94
354.128	839.94
354.355	890.94
354.583	859.94
354.81	853.94
355.037	861.94
355.264	845.94
355.491	866.94
355.718	870.94
355.945	859.94
356.172	904.94
356.399	879.94
356.626	868.94
356.853	865.94
357.08	904.94
357.307	891.94
357.534	886.94
357.761	890.94
357.988	916.94
358.215	926.94
358.441	881.94
358.668	898.94
358.895	899.94
359.122	883.94
359.349	881.94
359.576	867.94
359.802	874.94
360.029	866.94
360.256	899.94
360.483	900.94
360.709	887.94
360.936	915.94
361.163	879.94
361.39	871.94
361.616	869.94
361.843	893.94
362.07	889.94
362.296	895.94
362.523	897.94
362.749	884.94
362.976	884.94
363.203	894.94
363.429	895.94
363.656	895.94
363.882	889.94
364.109	911.94
364.335	887.94
364.562	882.94
364.788	911.94
365.015	923.94
365.241	892.94
365.468	881.94
365.694	892.94
365.92	908.94
366.147	905.94
366.373	899.94
366.599	863.94
366.826	901.94
367.052	899.94
367.278	877.94
367.505	916.94
367.731	909.94
367.957	939.94
368.184	913.94
368.41	927.94
368.636	910.94
368.862	940.94
369.089	930.94
369.315	932.94
369.541	923.94
369.767	955.94
369.993	905.94
370.219	936.94
370.445	935.94
370.672	929.94
370.898	951.94
371.124	952.94
371.35	934.94
371.576	962.94
371.802	972.94
372.028	976.94
372.254	970.94
372.48	978.94
372.706	1007.94
372.932	945.94
373.158	994.94
373.384	978.94
373.61	1031.94
373.835	1058.94
374.061	995.94
374.287	973.94
374.513	1006.94
374.739	1012.94
374.965	1035.94
375.191	1045.94
375.416	1049.94
375.642	993.94
375.868	987.94
376.094	1022.94
376.319	1015.94
376.545	1015.94
376.771	992.94
376.997	986.94
377.222	987.94
377.448	950.94
377.674	960.94
377.899	984.94
378.125	952.94
378.35	961.94
378.576	971.94
378.802	953.94
379.027	971.94
379.253	981.94
379.478	952.94
379.704	956.94
379.929	959.94
380.155	979.94
380.38	963.94
380.606	963.94
380.831	959.94
381.057	982.94
381.282	952.94
381.507	986.94
381.733	1022.94
381.958	1036.94
382.184	1044.94
382.409	1026.94
382.634	1057.94
382.86	1060.94
383.085	1019.94
383.31	1043.94
383.535	1045.94
383.761	1057.94
383.986	1087.94
384.211	1068.94
384.436	1053.94
384.662	1083.94
384.887	1084.94
385.112	1102.94
385.337	1097.94
385.562	1094.94
385.787	1122.94
386.013	1144.94
386.238	1159.94
386.463	1152.94
386.688	1116.94
386.913	1097.94
387.138	1144.94
387.363	1155.94
387.588	1141.94
387.813	1157.94
388.038	1145.94
388.263	1112.94
388.488	1115.94
388.713	1152.94
388.938	1166.94
389.163	1123.94
389.387	1160.94
389.612	1132.94
389.837	1144.94
390.062	1151.94
390.287	1155.94
390.512	1137.94
390.736	1155.94
390.961	1185.94
391.186	1153.94
391.411	1192.94
391.636	1196.94
391.86	1231.94
392.085	1220.94
392.31	1237.94
392.534	1234.94
392.759	1246.94
392.984	1219.94
393.208	1197.94
393.433	1236.94
393.658	1246.94
393.882	1240.94
394.107	1207.94
394.331	1241.94
394.556	1212.94
394.78	1251.94
395.005	1197.94
395.229	1228.94
395.454	1259.94
395.678	1258.94
395.903	1281.94
396.127	1253.94
396.352	1248.94
396.576	1262.94
396.801	1247.94
397.025	1205.94
397.249	1327.94
397.474	1300.94
397.698	1297.94
397.922	1273.94
398.147	1306.94
398.371	1309.94
398.595	1379.94
398.82	1408.94
399.044	1483.94
399.268	1494.94
399.492	1577.94
399.717	1657.94
399.941	1696.94
400.165	1666.94
400.389	1602.94
400.613	1520.94
400.837	1487.94
401.062	1451.94
401.286	1410.94
401.51	1435.94
401.734	1399.94
401.958	1412.94
402.182	1421.94
402.406	1423.94
402.63	1388.94
402.854	1403.94
403.078	1385.94
403.302	1391.94
403.526	1417.94
403.75	1442.94
403.974	1429.94
404.198	1455.94
404.422	1444.94
404.645	1435.94
404.869	1442.94
405.093	1470.94
405.317	1436.94
405.541	1456.94
405.765	1456.94
405.988	1474.94
406.212	1501.94
406.436	1529.94
406.66	1523.94
406.883	1507.94
407.107	1604.94
407.331	1584.94
407.555	1605.94
407.778	1636.94
408.002	1623.94
408.226	1604.94
408.449	1632.94
408.673	1582.94
408.896	1529.94
409.12	1544.94
409.344	1537.94
409.567	1481.94
409.791	1491.94
410.014	1472.94
410.238	1478.94
410.461	1501.94
410.685	1485.94
410.908	1484.94
411.132	1460.94
411.355	1442.94
411.578	1460.94
411.802	1448.94
412.025	1473.94
412.249	1459.94
412.472	1432.94
412.695	1436.94
412.919	1423.94
413.142	1451.94
413.365	1451.94
413.589	1432.94
413.812	1443.94
414.035	1387.94
414.258	1361.94
414.482	1441.94
414.705	1413.94
414.928	1382.94
415.151	1380.94
415.374	1372.94
415.597	1381.94
415.821	1352.94
416.044	1363.94
416.267	1363.94
416.49	1348.94
416.713	1325.94
416.936	1320.94
417.159	1350.94
417.382	1335.94
417.605	1343.94
417.828	1380.94
418.051	1348.94
418.274	1342.94
418.497	1345.94
418.72	1366.94
418.943	1327.94
419.166	1427.94
419.389	1531.94
419.611	1503.94
419.834	1439.94
420.057	1399.94
420.28	1398.94
420.503	1343.94
420.726	1346.94
420.948	1309.94
421.171	1340.94
421.394	1349.94
421.617	1300.94
421.839	1375.94
422.062	1355.94
422.285	1302.94
422.507	1314.94
422.73	1336.94
422.953	1323.94
423.175	1306.94
423.398	1355.94
423.621	1346.94
423.843	1347.94
424.066	1355.94
424.288	1341.94
424.511	1336.94
424.733	1363.94
424.956	1335.94
425.178	1346.94
425.401	1365.94
425.623	1338.94
425.846	1314.94
426.068	1320.94
426.291	1306.94
426.513	1292.94
426.735	1297.94
426.958	1287.94
427.18	1279.94
427.402	1272.94
427.625	1303.94
427.847	1255.94
428.069	1249.94
428.292	1272.94
428.514	1256.94
428.736	1244.94
428.958	1294.94
429.181	1283.94
429.403	1246.94
429.625	1248.94
429.847	1238.94
430.069	1230.94
430.292	1268.94
430.514	1281.94
430.736	1269.94
430.958	1288.94
431.18	1285.94
431.402	1239.94
431.624	1259.94
431.846	1240.94
432.068	1275.94
432.29	1299.94
432.512	1282.94
432.734	1300.94
432.956	1270.94
433.178	1271.94
433.4	1263.94
433.622	1294.94
433.844	1302.94
434.066	1298.94
434.287	1294.94
434.509	1310.94
434.731	1355.94
434.953	1339.94
435.175	1321.94
435.397	1350.94
435.618	1335.94
435.84	1335.94
436.062	1271.94
436.284	1268.94
436.505	1265.94
436.727	1297.94
436.949	1287.94
437.17	1257.94
437.392	1257.94
437.614	1235.94
437.835	1226.94
438.057	1240.94
438.278	1235.94
438.5	1250.94
438.721	1208.94
438.943	1275.94
439.165	1216.94
439.386	1220.94
439.608	1247.94
439.829	1243.94
440.05	1258.94
440.272	1269.94
440.493	1277.94
440.715	1267.94
440.936	1264.94
441.158	1233.94
441.379	1296.94
441.6	1328.94
441.822	1336.94
442.043	1331.94
442.264	1343.94
442.486	1307.94
442.707	1312.94
442.928	1309.94
443.149	1358.94
443.371	1290.94
443.592	1337.94
443.813	1314.94
444.034	1353.94
444.255	1344.94
444.476	1378.94
444.698	1421.94
444.919	1448.94
445.14	1483.94
445.361	1439.94
445.582	1380.94
445.803	1363.94
446.024	1287.94
446.245	1314.94
446.466	1304.94
446.687	1276.94
446.908	1261.94
447.129	1260.94
447.35	1255.94
447.571	1249.94
447.792	1200.94
448.013	1216.94
448.234	1204.94
448.455	1145.94
448.675	1212.94
448.896	1152.94
449.117	1199.94
449.338	1181.94
449.559	1154.94
449.779	1149.94
450	1151.94
450.221	1177.94
450.442	1161.94
450.662	1147.94
450.883	1167.94
451.104	1179.94
451.324	1167.94
451.545	1143.94
451.766	1141.94
451.986	1158.94
452.207	1150.94
452.428	1167.94
452.648	1145.94
452.869	1138.94
453.089	1102.94
453.31	1124.94
453.53	1167.94
453.751	1112.94
453.971	1117.94
454.192	1120.94
454.412	1103.94
454.633	1116.94
454.853	1105.94
455.073	1107.94
455.294	1164.94
455.514	1103.94
455.734	1121.94
455.955	1098.94
456.175	1102.94
456.395	1140.94
456.616	1107.94
456.836	1102.94
457.056	1089.94
457.276	1080.94
457.497	1131.94
457.717	1150.94
457.937	1113.94
458.157	1143.94
458.377	1141.94
458.598	1162.94
458.818	1207.94
459.038	1225.94
459.258	1229.94
459.478	1256.94
459.698	1271.94
459.918	1277.94
460.138	1342.94
460.358	1352.94
460.578	1365.94
460.798	1367.94
461.018	1398.94
461.238	1357.94
461.458	1423.94
461.678	1392.94
461.898	1411.94
462.118	1396.94
462.338	1452.94
462.558	1534.94
462.777	1517.94
462.997	1522.94
463.217	1609.94
463.437	1604.94
463.657	1570.94
463.876	1536.94
464.096	1521.94
464.316	1499.94
464.536	1497.94
464.755	1499.94
464.975	1437.94
465.195	1440.94
465.414	1362.94
465.634	1342.94
465.854	1331.94
466.073	1299.94
466.293	1292.94
466.512	1284.94
466.732	1251.94
466.951	1264.94
467.171	1256.94
467.391	1245.94
467.61	1232.94
467.829	1197.94
468.049	1233.94
468.268	1183.94
468.488	1185.94
468.707	1191.94
468.927	1176.94
469.146	1207.94
469.365	1212.94
469.585	1188.94
469.804	1197.94
470.023	1220.94
470.243	1211.94
470.462	1230.94
470.681	1227.94
470.901	1232.94
471.12	1263.94
471.339	1246.94
471.558	1219.94
471.777	1205.94
471.997	1230.94
472.216	1235.94
472.435	1255.94
472.654	1207.94
472.873	1221.94
473.092	1199.94
473.311	1209.94
473.53	1216.94
473.749	1211.94
473.968	1236.94
474.187	1204.94
474.406	1185.94
474.625	1209.94
474.844	1213.94
475.063	1226.94
475.282	1231.94
475.501	1221.94
475.72	1245.94
475.939	1259.94
476.158	1250.94
476.377	1269.94
476.596	1327.94
476.814	1341.94
477.033	1337.94
477.252	1275.94
477.471	1323.94
477.69	1351.94
477.908	1340.94
478.127	1381.94
478.346	1384.94
478.564	1410.94
478.783	1401.94
479.002	1469.94
479.22	1442.94
479.439	1487.94
479.658	1448.94
479.876	1438.94
480.095	1459.94
480.313	1477.94
480.532	1496.94
480.751	1498.94
480.969	1487.94
481.188	1493.94
481.406	1496.94
481.624	1451.94
481.843	1413.94
482.061	1437.94
482.28	1420.94
482.498	1431.94
482.717	1465.94
482.935	1412.94
483.153	1389.94
483.372	1416.94
483.59	1415.94
483.808	1460.94
484.027	1406.94
484.245	1433.94
484.463	1459.94
484.681	1471.94
484.9	1436.94
485.118	1471.94
485.336	1411.94
485.554	1431.94
485.772	1439.94
485.99	1444.94
486.209	1467.94
486.427	1508.94
486.645	1455.94
486.863	1479.94
487.081	1451.94
487.299	1455.94
487.517	1416.94
487.735	1488.94
487.953	1475.94
488.171	1467.94
488.389	1491.94
488.607	1468.94
488.825	1475.94
489.043	1478.94
489.261	1468.94
489.479	1487.94
489.696	1500.94
489.914	1467.94
490.132	1452.94
490.35	1476.94
490.568	1484.94
490.786	1489.94
491.003	1510.94
491.221	1515.94
491.439	1471.94
491.657	1500.94
491.874	1503.94
492.092	1502.94
492.31	1548.94
492.527	1559.94
492.745	1521.94
492.963	1543.94
493.18	1523.94
493.398	1492.94
493.615	1535.94
493.833	1527.94
494.05	1536.94
494.268	1535.94
