Data from Fe(NO3)3@0.025M.TitratingCurve.Agarose3%dH2O.NegLispCup.LampEnergy10.LIBS07252019_HRD10591_16-53-51-335.txt Node
Date: Thu Jul 25 16:53:51 EDT 2019
User: cochatt
Spectrometer: HR+D1059
Trigger mode: 1
Integration Time (sec): 1.000000E-1
Scans to average: 1
Electric dark correction enabled: true
Nonlinearity correction enabled: false
Boxcar width: 0
XAxis mode: Wavelengths
Number of Pixels in Spectrum: 2048
>>>>>Begin Spectral Data<<<<<
223.165	-7.81
223.4	-7.81
223.635	-7.81
223.869	-17.81
224.104	-22.81
224.338	-8.81
224.573	-28.81
224.808	-14.81
225.042	-3.81
225.277	7.19
225.511	-3.81
225.746	-0.81
225.98	5.19
226.215	10.19
226.449	17.19
226.683	24.19
226.918	24.19
227.152	21.19
227.387	17.19
227.621	55.19
227.856	30.19
228.09	48.19
228.324	65.19
228.559	47.19
228.793	55.19
229.027	79.19
229.262	91.19
229.496	92.19
229.73	89.19
229.964	90.19
230.199	101.19
230.433	89.19
230.667	98.19
230.901	104.19
231.136	104.19
231.37	99.19
231.604	106.19
231.838	113.19
232.072	107.19
232.306	101.19
232.541	113.19
232.775	116.19
233.009	120.19
233.243	115.19
233.477	133.19
233.711	112.19
233.945	99.19
234.179	117.19
234.413	122.19
234.647	104.19
234.881	88.19
235.115	105.19
235.349	99.19
235.583	111.19
235.817	119.19
236.051	95.19
236.285	123.19
236.519	112.19
236.753	118.19
236.987	117.19
237.221	114.19
237.455	111.19
237.689	103.19
237.922	117.19
238.156	119.19
238.39	100.19
238.624	122.19
238.858	109.19
239.091	105.19
239.325	112.19
239.559	122.19
239.793	115.19
240.027	107.19
240.26	103.19
240.494	132.19
240.728	115.19
240.961	127.19
241.195	123.19
241.429	117.19
241.662	117.19
241.896	124.19
242.13	127.19
242.363	124.19
242.597	136.19
242.83	121.19
243.064	112.19
243.298	131.19
243.531	118.19
243.765	135.19
243.998	121.19
244.232	119.19
244.465	136.19
244.699	145.19
244.932	144.19
245.166	135.19
245.399	147.19
245.633	132.19
245.866	130.19
246.099	120.19
246.333	128.19
246.566	126.19
246.8	127.19
247.033	129.19
247.266	142.19
247.5	142.19
247.733	154.19
247.966	137.19
248.2	133.19
248.433	147.19
248.666	136.19
248.899	146.19
249.133	147.19
249.366	148.19
249.599	148.19
249.832	166.19
250.066	139.19
250.299	140.19
250.532	155.19
250.765	153.19
250.998	151.19
251.231	142.19
251.465	144.19
251.698	151.19
251.931	159.19
252.164	170.19
252.397	157.19
252.63	139.19
252.863	161.19
253.096	149.19
253.329	156.19
253.562	156.19
253.795	171.19
254.028	178.19
254.261	163.19
254.494	156.19
254.727	147.19
254.96	172.19
255.193	155.19
255.426	171.19
255.659	171.19
255.892	169.19
256.124	165.19
256.357	176.19
256.59	176.19
256.823	166.19
257.056	189.19
257.289	177.19
257.521	172.19
257.754	184.19
257.987	170.19
258.22	184.19
258.452	167.19
258.685	176.19
258.918	181.19
259.151	171.19
259.383	199.19
259.616	172.19
259.849	196.19
260.081	186.19
260.314	190.19
260.547	189.19
260.779	193.19
261.012	180.19
261.244	178.19
261.477	193.19
261.71	189.19
261.942	183.19
262.175	169.19
262.407	178.19
262.64	180.19
262.872	174.19
263.105	195.19
263.337	204.19
263.57	177.19
263.802	189.19
264.035	200.19
264.267	190.19
264.499	186.19
264.732	194.19
264.964	198.19
265.197	198.19
265.429	185.19
265.661	188.19
265.894	199.19
266.126	206.19
266.358	197.19
266.591	209.19
266.823	184.19
267.055	183.19
267.287	212.19
267.52	191.19
267.752	197.19
267.984	210.19
268.216	217.19
268.448	208.19
268.681	211.19
268.913	192.19
269.145	216.19
269.377	194.19
269.609	201.19
269.841	193.19
270.073	204.19
270.306	213.19
270.538	231.19
270.77	223.19
271.002	206.19
271.234	216.19
271.466	204.19
271.698	194.19
271.93	216.19
272.162	217.19
272.394	225.19
272.626	210.19
272.858	231.19
273.09	206.19
273.322	224.19
273.553	232.19
273.785	232.19
274.017	223.19
274.249	229.19
274.481	229.19
274.713	233.19
274.945	232.19
275.176	222.19
275.408	245.19
275.64	232.19
275.872	213.19
276.104	239.19
276.335	236.19
276.567	225.19
276.799	227.19
277.031	235.19
277.262	242.19
277.494	227.19
277.726	227.19
277.957	220.19
278.189	225.19
278.421	228.19
278.652	236.19
278.884	241.19
279.115	236.19
279.347	247.19
279.579	248.19
279.81	229.19
280.042	242.19
280.273	239.19
280.505	239.19
280.736	252.19
280.968	237.19
281.199	243.19
281.431	238.19
281.662	239.19
281.894	248.19
282.125	230.19
282.356	246.19
282.588	243.19
282.819	265.19
283.051	240.19
283.282	252.19
283.513	244.19
283.745	243.19
283.976	256.19
284.207	250.19
284.439	266.19
284.67	258.19
284.901	251.19
285.132	245.19
285.364	258.19
285.595	260.19
285.826	262.19
286.057	265.19
286.288	260.19
286.52	244.19
286.751	273.19
286.982	249.19
287.213	246.19
287.444	269.19
287.675	260.19
287.906	272.19
288.138	289.19
288.369	275.19
288.6	262.19
288.831	273.19
289.062	268.19
289.293	253.19
289.524	247.19
289.755	283.19
289.986	261.19
290.217	264.19
290.448	284.19
290.679	300.19
290.91	289.19
291.141	291.19
291.371	268.19
291.602	270.19
291.833	252.19
292.064	265.19
292.295	275.19
292.526	267.19
292.757	279.19
292.987	288.19
293.218	274.19
293.449	278.19
293.68	293.19
293.91	289.19
294.141	278.19
294.372	274.19
294.603	286.19
294.833	274.19
295.064	279.19
295.295	300.19
295.525	281.19
295.756	282.19
295.987	277.19
296.217	279.19
296.448	281.19
296.679	288.19
296.909	276.19
297.14	297.19
297.37	301.19
297.601	293.19
297.831	303.19
298.062	294.19
298.292	288.19
298.523	293.19
298.753	293.19
298.984	296.19
299.214	279.19
299.445	303.19
299.675	301.19
299.905	311.19
300.136	297.19
300.366	293.19
300.597	305.19
300.827	303.19
301.057	296.19
301.288	313.19
301.518	311.19
301.748	316.19
301.979	304.19
302.209	301.19
302.439	311.19
302.669	304.19
302.9	315.19
303.13	312.19
303.36	299.19
303.59	314.19
303.82	303.19
304.051	327.19
304.281	312.19
304.511	313.19
304.741	301.19
304.971	310.19
305.201	324.19
305.431	310.19
305.661	338.19
305.891	330.19
306.121	317.19
306.352	323.19
306.582	306.19
306.812	317.19
307.042	322.19
307.272	319.19
307.502	315.19
307.731	323.19
307.961	327.19
308.191	309.19
308.421	324.19
308.651	299.19
308.881	315.19
309.111	312.19
309.341	325.19
309.571	337.19
309.8	324.19
310.03	319.19
310.26	346.19
310.49	308.19
310.72	332.19
310.949	318.19
311.179	347.19
311.409	330.19
311.639	319.19
311.868	334.19
312.098	324.19
312.328	328.19
312.557	329.19
312.787	330.19
313.017	331.19
313.246	339.19
313.476	343.19
313.706	336.19
313.935	337.19
314.165	335.19
314.394	330.19
314.624	343.19
314.853	343.19
315.083	363.19
315.312	360.19
315.542	360.19
315.771	344.19
316.001	340.19
316.23	357.19
316.46	351.19
316.689	333.19
316.919	352.19
317.148	355.19
317.377	331.19
317.607	340.19
317.836	353.19
318.065	330.19
318.295	352.19
318.524	342.19
318.753	345.19
318.983	347.19
319.212	344.19
319.441	340.19
319.67	358.19
319.9	341.19
320.129	326.19
320.358	351.19
320.587	362.19
320.816	338.19
321.046	356.19
321.275	335.19
321.504	337.19
321.733	337.19
321.962	339.19
322.191	341.19
322.42	368.19
322.649	372.19
322.878	357.19
323.108	386.19
323.337	355.19
323.566	364.19
323.795	344.19
324.024	349.19
324.253	351.19
324.482	373.19
324.71	378.19
324.939	346.19
325.168	352.19
325.397	357.19
325.626	351.19
325.855	354.19
326.084	372.19
326.313	383.19
326.542	365.19
326.77	383.19
326.999	375.19
327.228	367.19
327.457	377.19
327.686	384.19
327.914	371.19
328.143	380.19
328.372	367.19
328.6	375.19
328.829	372.19
329.058	366.19
329.287	378.19
329.515	392.19
329.744	357.19
329.972	380.19
330.201	391.19
330.43	401.19
330.658	387.19
330.887	390.19
331.115	376.19
331.344	400.19
331.572	432.19
331.801	409.19
332.03	406.19
332.258	402.19
332.486	413.19
332.715	405.19
332.943	408.19
333.172	402.19
333.4	435.19
333.629	417.19
333.857	405.19
334.085	425.19
334.314	437.19
334.542	423.19
334.771	461.19
334.999	419.19
335.227	451.19
335.455	451.19
335.684	424.19
335.912	435.19
336.14	413.19
336.369	409.19
336.597	420.19
336.825	428.19
337.053	418.19
337.281	415.19
337.51	415.19
337.738	412.19
337.966	408.19
338.194	408.19
338.422	405.19
338.65	411.19
338.878	407.19
339.106	396.19
339.334	442.19
339.562	402.19
339.79	392.19
340.018	404.19
340.246	404.19
340.474	407.19
340.702	398.19
340.93	403.19
341.158	416.19
341.386	412.19
341.614	402.19
341.842	389.19
342.07	399.19
342.298	409.19
342.526	395.19
342.754	413.19
342.981	400.19
343.209	408.19
343.437	423.19
343.665	428.19
343.893	428.19
344.12	442.19
344.348	436.19
344.576	420.19
344.804	403.19
345.031	425.19
345.259	403.19
345.487	410.19
345.714	387.19
345.942	397.19
346.17	409.19
346.397	392.19
346.625	406.19
346.853	385.19
347.08	401.19
347.308	380.19
347.535	387.19
347.763	396.19
347.99	406.19
348.218	402.19
348.445	408.19
348.673	397.19
348.9	406.19
349.128	374.19
349.355	381.19
349.583	381.19
349.81	395.19
350.037	388.19
350.265	385.19
350.492	395.19
350.72	408.19
350.947	385.19
351.174	389.19
351.402	365.19
351.629	394.19
351.856	389.19
352.083	344.19
352.311	378.19
352.538	383.19
352.765	371.19
352.992	397.19
353.22	388.19
353.447	373.19
353.674	383.19
353.901	396.19
354.128	378.19
354.355	388.19
354.583	387.19
354.81	364.19
355.037	379.19
355.264	389.19
355.491	383.19
355.718	379.19
355.945	389.19
356.172	387.19
356.399	367.19
356.626	376.19
356.853	395.19
357.08	401.19
357.307	369.19
357.534	372.19
357.761	383.19
357.988	383.19
358.215	388.19
358.441	361.19
358.668	387.19
358.895	393.19
359.122	386.19
359.349	395.19
359.576	381.19
359.802	373.19
360.029	401.19
360.256	387.19
360.483	370.19
360.709	387.19
360.936	399.19
361.163	403.19
361.39	368.19
361.616	392.19
361.843	391.19
362.07	398.19
362.296	383.19
362.523	392.19
362.749	393.19
362.976	389.19
363.203	403.19
363.429	381.19
363.656	409.19
363.882	393.19
364.109	380.19
364.335	397.19
364.562	401.19
364.788	388.19
365.015	395.19
365.241	398.19
365.468	393.19
365.694	399.19
365.92	398.19
366.147	389.19
366.373	406.19
366.599	396.19
366.826	377.19
367.052	389.19
367.278	385.19
367.505	394.19
367.731	412.19
367.957	406.19
368.184	400.19
368.41	393.19
368.636	420.19
368.862	419.19
369.089	402.19
369.315	397.19
369.541	411.19
369.767	406.19
369.993	399.19
370.219	424.19
370.445	410.19
370.672	402.19
370.898	410.19
371.124	410.19
371.35	453.19
371.576	423.19
371.802	419.19
372.028	417.19
372.254	421.19
372.48	408.19
372.706	423.19
372.932	423.19
373.158	423.19
373.384	427.19
373.61	442.19
373.835	439.19
374.061	418.19
374.287	436.19
374.513	393.19
374.739	437.19
374.965	438.19
375.191	445.19
375.416	447.19
375.642	437.19
375.868	447.19
376.094	433.19
376.319	430.19
376.545	442.19
376.771	422.19
376.997	424.19
377.222	419.19
377.448	416.19
377.674	427.19
377.899	412.19
378.125	404.19
378.35	395.19
378.576	409.19
378.802	413.19
379.027	416.19
379.253	415.19
379.478	424.19
379.704	405.19
379.929	405.19
380.155	432.19
380.38	419.19
380.606	433.19
380.831	419.19
381.057	416.19
381.282	417.19
381.507	439.19
381.733	437.19
381.958	411.19
382.184	423.19
382.409	439.19
382.634	436.19
382.86	447.19
383.085	447.19
383.31	446.19
383.535	454.19
383.761	442.19
383.986	450.19
384.211	457.19
384.436	467.19
384.662	427.19
384.887	464.19
385.112	457.19
385.337	456.19
385.562	458.19
385.787	435.19
386.013	485.19
386.238	456.19
386.463	463.19
386.688	471.19
386.913	482.19
387.138	474.19
387.363	492.19
387.588	484.19
387.813	472.19
388.038	475.19
388.263	482.19
388.488	498.19
388.713	481.19
388.938	482.19
389.163	497.19
389.387	481.19
389.612	488.19
389.837	483.19
390.062	498.19
390.287	511.19
390.512	501.19
390.736	470.19
390.961	490.19
391.186	492.19
391.411	488.19
391.636	497.19
391.86	509.19
392.085	499.19
392.31	515.19
392.534	506.19
392.759	500.19
392.984	501.19
393.208	500.19
393.433	523.19
393.658	541.19
393.882	510.19
394.107	492.19
394.331	511.19
394.556	492.19
394.78	497.19
395.005	492.19
395.229	536.19
395.454	522.19
395.678	519.19
395.903	525.19
396.127	526.19
396.352	506.19
396.576	515.19
396.801	505.19
397.025	514.19
397.249	535.19
397.474	552.19
397.698	516.19
397.922	543.19
398.147	535.19
398.371	534.19
398.595	549.19
398.82	574.19
399.044	582.19
399.268	569.19
399.492	628.19
399.717	673.19
399.941	668.19
400.165	618.19
400.389	615.19
400.613	600.19
400.837	597.19
401.062	576.19
401.286	576.19
401.51	578.19
401.734	572.19
401.958	577.19
402.182	587.19
402.406	568.19
402.63	571.19
402.854	568.19
403.078	561.19
403.302	604.19
403.526	591.19
403.75	583.19
403.974	590.19
404.198	595.19
404.422	583.19
404.645	583.19
404.869	591.19
405.093	585.19
405.317	576.19
405.541	586.19
405.765	573.19
405.988	585.19
406.212	615.19
406.436	598.19
406.66	620.19
406.883	624.19
407.107	633.19
407.331	644.19
407.555	665.19
407.778	635.19
408.002	636.19
408.226	633.19
408.449	648.19
408.673	612.19
408.896	607.19
409.12	624.19
409.344	641.19
409.567	596.19
409.791	631.19
410.014	623.19
410.238	589.19
410.461	599.19
410.685	610.19
410.908	594.19
411.132	573.19
411.355	584.19
411.578	587.19
411.802	579.19
412.025	577.19
412.249	613.19
412.472	590.19
412.695	587.19
412.919	575.19
413.142	579.19
413.365	573.19
413.589	600.19
413.812	567.19
414.035	576.19
414.258	553.19
414.482	596.19
414.705	569.19
414.928	588.19
415.151	555.19
415.374	565.19
415.597	555.19
415.821	552.19
416.044	568.19
416.267	540.19
416.49	548.19
416.713	562.19
416.936	562.19
417.159	532.19
417.382	542.19
417.605	539.19
417.828	542.19
418.051	543.19
418.274	559.19
418.497	553.19
418.72	552.19
418.943	551.19
419.166	576.19
419.389	596.19
419.611	599.19
419.834	576.19
420.057	566.19
420.28	550.19
420.503	520.19
420.726	516.19
420.948	530.19
421.171	557.19
421.394	521.19
421.617	523.19
421.839	532.19
422.062	538.19
422.285	516.19
422.507	528.19
422.73	542.19
422.953	560.19
423.175	537.19
423.398	560.19
423.621	536.19
423.843	549.19
424.066	551.19
424.288	538.19
424.511	543.19
424.733	529.19
424.956	531.19
425.178	528.19
425.401	525.19
425.623	539.19
425.846	548.19
426.068	539.19
426.291	534.19
426.513	549.19
426.735	527.19
426.958	525.19
427.18	517.19
427.402	531.19
427.625	533.19
427.847	518.19
428.069	521.19
428.292	529.19
428.514	505.19
428.736	508.19
428.958	521.19
429.181	523.19
429.403	481.19
429.625	498.19
429.847	484.19
430.069	495.19
430.292	525.19
430.514	495.19
430.736	529.19
430.958	515.19
431.18	505.19
431.402	513.19
431.624	503.19
431.846	506.19
432.068	537.19
432.29	533.19
432.512	511.19
432.734	515.19
432.956	520.19
433.178	506.19
433.4	512.19
433.622	520.19
433.844	500.19
434.066	509.19
434.287	517.19
434.509	539.19
434.731	545.19
434.953	531.19
435.175	539.19
435.397	536.19
435.618	547.19
435.84	505.19
436.062	518.19
436.284	493.19
436.505	520.19
436.727	497.19
436.949	515.19
437.17	484.19
437.392	487.19
437.614	511.19
437.835	490.19
438.057	497.19
438.278	465.19
438.5	490.19
438.721	512.19
438.943	515.19
439.165	502.19
439.386	505.19
439.608	508.19
439.829	510.19
440.05	516.19
440.272	514.19
440.493	505.19
440.715	525.19
440.936	520.19
441.158	512.19
441.379	516.19
441.6	523.19
441.822	528.19
442.043	539.19
442.264	525.19
442.486	539.19
442.707	523.19
442.928	552.19
443.149	542.19
443.371	526.19
443.592	514.19
443.813	540.19
444.034	535.19
444.255	544.19
444.476	528.19
444.698	563.19
444.919	555.19
445.14	667.19
445.361	615.19
445.582	547.19
445.803	540.19
446.024	510.19
446.245	500.19
446.466	508.19
446.687	503.19
446.908	490.19
447.129	490.19
447.35	490.19
447.571	498.19
447.792	481.19
448.013	481.19
448.234	487.19
448.455	481.19
448.675	485.19
448.896	465.19
449.117	464.19
449.338	460.19
449.559	459.19
449.779	461.19
450	462.19
450.221	461.19
450.442	464.19
450.662	468.19
450.883	467.19
451.104	477.19
451.324	477.19
451.545	488.19
451.766	482.19
451.986	479.19
452.207	461.19
452.428	465.19
452.648	467.19
452.869	454.19
453.089	451.19
453.31	466.19
453.53	450.19
453.751	444.19
453.971	448.19
454.192	449.19
454.412	428.19
454.633	435.19
454.853	459.19
455.073	459.19
455.294	474.19
455.514	456.19
455.734	467.19
455.955	455.19
456.175	447.19
456.395	426.19
456.616	465.19
456.836	464.19
457.056	463.19
457.276	449.19
457.497	477.19
457.717	450.19
457.937	471.19
458.157	474.19
458.377	467.19
458.598	452.19
458.818	480.19
459.038	476.19
459.258	462.19
459.478	485.19
459.698	507.19
459.918	516.19
460.138	515.19
460.358	521.19
460.578	527.19
460.798	540.19
461.018	538.19
461.238	546.19
461.458	533.19
461.678	557.19
461.898	556.19
462.118	537.19
462.338	547.19
462.558	577.19
462.777	579.19
462.997	610.19
463.217	625.19
463.437	627.19
463.657	613.19
463.876	604.19
464.096	580.19
464.316	594.19
464.536	566.19
464.755	577.19
464.975	557.19
465.195	539.19
465.414	526.19
465.634	530.19
465.854	534.19
466.073	531.19
466.293	503.19
466.512	521.19
466.732	478.19
466.951	503.19
467.171	487.19
467.391	471.19
467.61	502.19
467.829	495.19
468.049	498.19
468.268	484.19
468.488	502.19
468.707	492.19
468.927	478.19
469.146	487.19
469.365	492.19
469.585	481.19
469.804	513.19
470.023	513.19
470.243	493.19
470.462	475.19
470.681	488.19
470.901	483.19
471.12	492.19
471.339	499.19
471.558	488.19
471.777	509.19
471.997	476.19
472.216	481.19
472.435	485.19
472.654	485.19
472.873	482.19
473.092	482.19
473.311	491.19
473.53	487.19
473.749	489.19
473.968	469.19
474.187	484.19
474.406	495.19
474.625	485.19
474.844	484.19
475.063	480.19
475.282	499.19
475.501	489.19
475.72	490.19
475.939	512.19
476.158	521.19
476.377	504.19
476.596	513.19
476.814	530.19
477.033	521.19
477.252	525.19
477.471	519.19
477.69	506.19
477.908	539.19
478.127	531.19
478.346	539.19
478.564	538.19
478.783	539.19
479.002	559.19
479.22	566.19
479.439	547.19
479.658	567.19
479.876	544.19
480.095	541.19
480.313	567.19
480.532	576.19
480.751	607.19
480.969	595.19
481.188	575.19
481.406	560.19
481.624	578.19
481.843	563.19
482.061	556.19
482.28	571.19
482.498	556.19
482.717	543.19
482.935	577.19
483.153	563.19
483.372	554.19
483.59	555.19
483.808	570.19
484.027	568.19
484.245	573.19
484.463	562.19
484.681	572.19
484.9	592.19
485.118	580.19
485.336	580.19
485.554	584.19
485.772	583.19
485.99	580.19
486.209	581.19
486.427	575.19
486.645	573.19
486.863	561.19
487.081	581.19
487.299	576.19
487.517	585.19
487.735	587.19
487.953	584.19
488.171	603.19
488.389	563.19
488.607	592.19
488.825	602.19
489.043	577.19
489.261	575.19
489.479	579.19
489.696	564.19
489.914	589.19
490.132	580.19
490.35	592.19
490.568	600.19
490.786	585.19
491.003	575.19
491.221	591.19
491.439	600.19
491.657	601.19
491.874	611.19
492.092	596.19
492.31	607.19
492.527	605.19
492.745	595.19
492.963	608.19
493.18	610.19
493.398	596.19
493.615	623.19
493.833	596.19
494.05	591.19
494.268	587.19
494.485	626.19
494.703	615.19
494.92	624.19
495.138	616.19
495.355	606.19
495.573	610.19
495.79	634.19
496.008	616.19
496.225	633.19
496.442	664.19
496.66	657.19
496.877	651.19
497.094	652.19
497.312	662.19
497.529	679.19
497.746	704.19
497.963	714.19
498.181	715.19
498.398	711.19
498.615	751.19
498.832	769.19
499.049	807.19
499.267	819.19
499.484	851.19
499.701	870.19
499.918	899.19
500.135	967.19
500.352	1036.19
500.569	1013.19
500.786	1015.19
501.003	1029.19
501.22	1004.19
501.437	956.19
501.654	903.19
