Data from Fe(NO3)3@0.025M.TitratingCurve.Agarose3%dH2O.NegLispCup.LampEnergy10.LIBS07252019_HRD10591_16-56-04-335.txt Node
Date: Thu Jul 25 16:56:04 EDT 2019
User: cochatt
Spectrometer: HR+D1059
Trigger mode: 1
Integration Time (sec): 1.000000E-1
Scans to average: 1
Electric dark correction enabled: true
Nonlinearity correction enabled: false
Boxcar width: 0
XAxis mode: Wavelengths
Number of Pixels in Spectrum: 2048
>>>>>Begin Spectral Data<<<<<
223.165	-19
223.4	-19
223.635	-19
223.869	-21
224.104	-20
224.338	-27
224.573	-13
224.808	-6
225.042	-12
225.277	4
225.511	4
225.746	14
225.98	6
226.215	8
226.449	9
226.683	21
226.918	26
227.152	26
227.387	29
227.621	34
227.856	37
228.09	48
228.324	51
228.559	57
228.793	60
229.027	73
229.262	75
229.496	67
229.73	77
229.964	92
230.199	88
230.433	88
230.667	96
230.901	88
231.136	97
231.37	92
231.604	86
231.838	98
232.072	107
232.306	90
232.541	88
232.775	99
233.009	97
233.243	101
233.477	92
233.711	96
233.945	96
234.179	89
234.413	102
234.647	103
234.881	91
235.115	96
235.349	98
235.583	104
235.817	102
236.051	105
236.285	83
236.519	103
236.753	94
236.987	106
237.221	95
237.455	84
237.689	92
237.922	101
238.156	84
238.39	99
238.624	88
238.858	110
239.091	82
239.325	86
239.559	94
239.793	98
240.027	114
240.26	112
240.494	83
240.728	104
240.961	85
241.195	103
241.429	104
241.662	97
241.896	101
242.13	101
242.363	100
242.597	97
242.83	104
243.064	90
243.298	107
243.531	98
243.765	99
243.998	114
244.232	105
244.465	97
244.699	95
244.932	112
245.166	108
245.399	113
245.633	123
245.866	131
246.099	116
246.333	117
246.566	115
246.8	100
247.033	113
247.266	113
247.5	116
247.733	100
247.966	103
248.2	108
248.433	108
248.666	111
248.899	105
249.133	117
249.366	117
249.599	115
249.832	111
250.066	138
250.299	126
250.532	126
250.765	99
250.998	119
251.231	126
251.465	127
251.698	123
251.931	131
252.164	109
252.397	129
252.63	117
252.863	124
253.096	113
253.329	112
253.562	114
253.795	119
254.028	110
254.261	118
254.494	127
254.727	114
254.96	127
255.193	124
255.426	127
255.659	125
255.892	131
256.124	122
256.357	119
256.59	112
256.823	129
257.056	130
257.289	130
257.521	112
257.754	123
257.987	135
258.22	130
258.452	119
258.685	141
258.918	129
259.151	132
259.383	134
259.616	132
259.849	137
260.081	141
260.314	135
260.547	133
260.779	122
261.012	143
261.244	138
261.477	131
261.71	133
261.942	134
262.175	143
262.407	132
262.64	136
262.872	141
263.105	124
263.337	131
263.57	148
263.802	132
264.035	145
264.267	151
264.499	147
264.732	145
264.964	161
265.197	125
265.429	148
265.661	147
265.894	125
266.126	136
266.358	149
266.591	153
266.823	139
267.055	145
267.287	138
267.52	144
267.752	146
267.984	149
268.216	141
268.448	155
268.681	150
268.913	153
269.145	145
269.377	141
269.609	153
269.841	150
270.073	163
270.306	158
270.538	160
270.77	151
271.002	151
271.234	134
271.466	163
271.698	155
271.93	152
272.162	149
272.394	159
272.626	156
272.858	152
273.09	147
273.322	159
273.553	140
273.785	150
274.017	144
274.249	162
274.481	159
274.713	159
274.945	163
275.176	171
275.408	168
275.64	156
275.872	166
276.104	164
276.335	166
276.567	157
276.799	170
277.031	154
277.262	155
277.494	163
277.726	159
277.957	162
278.189	166
278.421	169
278.652	181
278.884	159
279.115	177
279.347	152
279.579	155
279.81	168
280.042	157
280.273	170
280.505	171
280.736	170
280.968	169
281.199	185
281.431	155
281.662	172
281.894	176
282.125	188
282.356	188
282.588	184
282.819	180
283.051	179
283.282	178
283.513	160
283.745	176
283.976	188
284.207	171
284.439	172
284.67	186
284.901	203
285.132	177
285.364	170
285.595	175
285.826	165
286.057	196
286.288	197
286.52	196
286.751	188
286.982	198
287.213	192
287.444	186
287.675	195
287.906	184
288.138	210
288.369	195
288.6	203
288.831	186
289.062	189
289.293	180
289.524	183
289.755	192
289.986	212
290.217	187
290.448	181
290.679	187
290.91	187
291.141	196
291.371	177
291.602	178
291.833	189
292.064	210
292.295	216
292.526	206
292.757	199
292.987	201
293.218	187
293.449	187
293.68	192
293.91	196
294.141	185
294.372	192
294.603	191
294.833	212
295.064	209
295.295	194
295.525	219
295.756	220
295.987	192
296.217	208
296.448	199
296.679	199
296.909	217
297.14	198
297.37	206
297.601	195
297.831	213
298.062	209
298.292	204
298.523	202
298.753	205
298.984	207
299.214	225
299.445	228
299.675	202
299.905	212
300.136	210
300.366	209
300.597	227
300.827	211
301.057	212
301.288	219
301.518	217
301.748	205
301.979	215
302.209	218
302.439	199
302.669	220
302.9	203
303.13	221
303.36	216
303.59	228
303.82	206
304.051	210
304.281	222
304.511	228
304.741	220
304.971	228
305.201	222
305.431	232
305.661	216
305.891	220
306.121	217
306.352	224
306.582	226
306.812	221
307.042	204
307.272	223
307.502	251
307.731	224
307.961	209
308.191	217
308.421	225
308.651	221
308.881	223
309.111	224
309.341	234
309.571	213
309.8	235
310.03	224
310.26	229
310.49	230
310.72	231
310.949	225
311.179	236
311.409	226
311.639	224
311.868	229
312.098	240
312.328	236
312.557	231
312.787	244
313.017	238
313.246	251
313.476	245
313.706	231
313.935	248
314.165	239
314.394	241
314.624	252
314.853	237
315.083	227
315.312	236
315.542	249
315.771	240
316.001	242
316.23	233
316.46	220
316.689	233
316.919	245
317.148	237
317.377	263
317.607	246
317.836	250
318.065	241
318.295	252
318.524	259
318.753	253
318.983	243
319.212	228
319.441	243
319.67	244
319.9	244
320.129	248
320.358	228
320.587	243
320.816	259
321.046	255
321.275	247
321.504	247
321.733	233
321.962	248
322.191	236
322.42	233
322.649	258
322.878	275
323.108	257
323.337	260
323.566	247
323.795	280
324.024	253
324.253	267
324.482	263
324.71	242
324.939	242
325.168	267
325.397	261
325.626	275
325.855	284
326.084	272
326.313	271
326.542	261
326.77	269
326.999	258
327.228	255
327.457	273
327.686	277
327.914	272
328.143	266
328.372	279
328.6	281
328.829	272
329.058	283
329.287	268
329.515	256
329.744	281
329.972	267
330.201	284
330.43	277
330.658	276
330.887	282
331.115	290
331.344	276
331.572	279
331.801	285
332.03	275
332.258	291
332.486	311
332.715	305
332.943	296
333.172	290
333.4	305
333.629	303
333.857	331
334.085	330
334.314	319
334.542	320
334.771	304
334.999	307
335.227	331
335.455	313
335.684	319
335.912	308
336.14	321
336.369	306
336.597	316
336.825	313
337.053	318
337.281	306
337.51	289
337.738	315
337.966	291
338.194	301
338.422	314
338.65	293
338.878	308
339.106	311
339.334	304
339.562	311
339.79	290
340.018	305
340.246	303
340.474	275
340.702	278
340.93	295
341.158	279
341.386	285
341.614	292
341.842	295
342.07	279
342.298	287
342.526	279
342.754	283
342.981	289
343.209	289
343.437	293
343.665	308
343.893	307
344.12	308
344.348	306
344.576	300
344.804	299
345.031	296
345.259	293
345.487	288
345.714	306
345.942	276
346.17	286
346.397	287
346.625	266
346.853	275
347.08	280
347.308	277
347.535	284
347.763	283
347.99	285
348.218	273
348.445	270
348.673	274
348.9	263
349.128	279
349.355	268
349.583	273
349.81	272
350.037	281
350.265	285
350.492	278
350.72	272
350.947	265
351.174	275
351.402	281
351.629	279
351.856	258
352.083	268
352.311	276
352.538	288
352.765	282
352.992	277
353.22	270
353.447	273
353.674	282
353.901	277
354.128	278
354.355	273
354.583	280
354.81	272
355.037	284
355.264	258
355.491	274
355.718	306
355.945	284
356.172	277
356.399	264
356.626	276
356.853	293
357.08	286
357.307	280
357.534	262
357.761	283
357.988	283
358.215	277
358.441	295
358.668	292
358.895	284
359.122	271
359.349	281
359.576	278
359.802	281
360.029	266
360.256	287
360.483	273
360.709	278
360.936	285
361.163	272
361.39	284
361.616	291
361.843	285
362.07	281
362.296	277
362.523	287
362.749	281
362.976	267
363.203	292
363.429	283
363.656	276
363.882	275
364.109	277
364.335	292
364.562	269
364.788	277
365.015	265
365.241	287
365.468	296
365.694	272
365.92	294
366.147	291
366.373	285
366.599	284
366.826	280
367.052	268
367.278	279
367.505	286
367.731	283
367.957	294
368.184	280
368.41	295
368.636	291
368.862	296
369.089	294
369.315	308
369.541	297
369.767	305
369.993	303
370.219	274
370.445	307
370.672	319
370.898	299
371.124	305
371.35	298
371.576	319
371.802	311
372.028	298
372.254	306
372.48	319
372.706	297
372.932	305
373.158	327
373.384	321
373.61	308
373.835	307
374.061	315
374.287	288
374.513	336
374.739	318
374.965	337
375.191	341
375.416	328
375.642	312
375.868	306
376.094	324
376.319	308
376.545	300
376.771	309
376.997	307
377.222	303
377.448	296
377.674	298
377.899	300
378.125	322
378.35	319
378.576	291
378.802	291
379.027	310
379.253	305
379.478	305
379.704	301
379.929	309
380.155	301
380.38	313
380.606	309
380.831	292
381.057	304
381.282	313
381.507	310
381.733	311
381.958	306
382.184	317
382.409	313
382.634	312
382.86	291
383.085	333
383.31	319
383.535	340
383.761	345
383.986	341
384.211	336
384.436	336
384.662	340
384.887	336
385.112	353
385.337	341
385.562	337
385.787	337
386.013	361
386.238	344
386.463	343
386.688	351
386.913	347
387.138	340
387.363	333
387.588	355
387.813	336
388.038	343
388.263	344
388.488	371
388.713	347
388.938	355
389.163	333
389.387	349
389.612	354
389.837	359
390.062	368
390.287	360
390.512	345
390.736	333
390.961	367
391.186	341
391.411	361
391.636	409
391.86	366
392.085	364
392.31	363
392.534	382
392.759	383
392.984	379
393.208	353
393.433	355
393.658	381
393.882	375
394.107	375
394.331	370
394.556	383
394.78	392
395.005	375
395.229	362
395.454	399
395.678	378
395.903	380
396.127	393
396.352	395
396.576	363
396.801	409
397.025	375
397.249	405
397.474	385
397.698	384
397.922	410
398.147	398
398.371	407
398.595	420
398.82	415
399.044	460
399.268	476
399.492	517
399.717	528
399.941	527
400.165	506
400.389	474
400.613	455
400.837	433
401.062	439
401.286	444
401.51	402
401.734	418
401.958	431
402.182	431
402.406	428
402.63	436
402.854	409
403.078	434
403.302	443
403.526	450
403.75	429
403.974	432
404.198	446
404.422	435
404.645	423
404.869	426
405.093	442
405.317	441
405.541	449
405.765	444
405.988	434
406.212	461
406.436	461
406.66	476
406.883	469
407.107	480
407.331	484
407.555	485
407.778	496
408.002	497
408.226	494
408.449	466
408.673	459
408.896	469
409.12	478
409.344	451
409.567	465
409.791	450
410.014	447
410.238	448
410.461	442
410.685	442
410.908	443
411.132	417
411.355	428
411.578	426
411.802	450
412.025	429
412.249	434
412.472	435
412.695	420
412.919	433
413.142	413
413.365	419
413.589	433
413.812	420
414.035	420
414.258	406
414.482	403
414.705	413
414.928	429
415.151	428
415.374	415
415.597	410
415.821	405
416.044	398
416.267	409
416.49	418
416.713	402
416.936	429
417.159	416
417.382	395
417.605	400
417.828	403
418.051	407
418.274	417
418.497	411
418.72	405
418.943	435
419.166	418
419.389	437
419.611	446
419.834	427
420.057	421
420.28	412
420.503	401
420.726	411
420.948	399
421.171	402
421.394	419
421.617	401
421.839	424
422.062	412
422.285	419
422.507	394
422.73	401
422.953	397
423.175	407
423.398	421
423.621	412
423.843	421
424.066	402
424.288	414
424.511	406
424.733	416
424.956	408
425.178	395
425.401	390
425.623	414
425.846	389
426.068	387
426.291	395
426.513	392
426.735	390
426.958	382
427.18	373
427.402	380
427.625	383
427.847	381
428.069	375
428.292	379
428.514	376
428.736	364
428.958	385
429.181	357
429.403	375
429.625	365
429.847	375
430.069	351
430.292	375
430.514	364
430.736	379
430.958	376
431.18	371
431.402	380
431.624	373
431.846	391
432.068	377
432.29	362
432.512	357
432.734	382
432.956	383
433.178	379
433.4	375
433.622	385
433.844	387
434.066	369
434.287	376
434.509	403
434.731	395
434.953	410
435.175	404
435.397	404
435.618	381
435.84	389
436.062	385
436.284	379
436.505	364
436.727	381
436.949	381
437.17	378
437.392	379
437.614	362
437.835	350
438.057	369
438.278	345
438.5	345
438.721	362
438.943	375
439.165	361
439.386	355
439.608	369
439.829	379
440.05	377
440.272	381
440.493	363
440.715	376
440.936	395
441.158	375
441.379	408
441.6	389
441.822	408
442.043	396
442.264	391
442.486	383
442.707	399
442.928	409
443.149	393
443.371	393
443.592	421
443.813	416
444.034	389
444.255	409
444.476	425
444.698	431
444.919	427
445.14	511
445.361	443
445.582	411
445.803	385
446.024	391
446.245	380
446.466	380
446.687	396
446.908	352
447.129	379
447.35	376
447.571	355
447.792	358
448.013	370
448.234	368
448.455	352
448.675	361
448.896	351
449.117	347
449.338	353
449.559	338
449.779	340
450	361
450.221	351
450.442	362
450.662	348
450.883	345
451.104	336
451.324	345
451.545	328
451.766	340
451.986	329
452.207	332
452.428	341
452.648	334
452.869	340
453.089	331
453.31	329
453.53	345
453.751	345
453.971	325
454.192	325
454.412	342
454.633	329
454.853	332
455.073	318
455.294	316
455.514	318
455.734	328
455.955	329
456.175	333
456.395	323
456.616	327
456.836	320
457.056	345
457.276	317
457.497	336
457.717	352
457.937	330
458.157	322
458.377	331
458.598	345
458.818	368
459.038	379
459.258	358
459.478	370
459.698	387
459.918	388
460.138	404
460.358	409
460.578	418
460.798	397
461.018	435
461.238	411
461.458	427
461.678	397
461.898	423
462.118	401
462.338	448
462.558	443
462.777	456
462.997	496
463.217	491
463.437	490
463.657	476
463.876	459
464.096	435
464.316	473
464.536	475
464.755	448
464.975	433
465.195	435
465.414	389
465.634	411
465.854	375
466.073	383
466.293	378
466.512	374
466.732	358
466.951	375
467.171	362
467.391	363
467.61	370
467.829	370
468.049	349
468.268	373
468.488	335
468.707	340
468.927	353
469.146	356
469.365	362
469.585	361
469.804	360
470.023	359
470.243	363
470.462	385
470.681	387
470.901	370
471.12	374
471.339	360
471.558	383
471.777	377
471.997	370
472.216	378
472.435	373
472.654	339
472.873	348
473.092	359
473.311	344
473.53	365
473.749	372
473.968	364
474.187	359
474.406	351
474.625	357
474.844	367
475.063	375
475.282	353
475.501	358
475.72	368
475.939	367
476.158	361
476.377	403
476.596	378
476.814	371
477.033	377
477.252	393
477.471	409
477.69	393
477.908	399
478.127	412
478.346	397
478.564	397
478.783	416
479.002	425
479.22	417
479.439	436
479.658	412
479.876	428
480.095	447
480.313	447
480.532	419
480.751	427
480.969	435
481.188	411
481.406	419
481.624	431
481.843	407
482.061	419
482.28	415
482.498	410
482.717	397
482.935	426
483.153	401
483.372	381
483.59	404
483.808	391
484.027	406
484.245	418
484.463	404
484.681	412
484.9	425
485.118	431
485.336	415
485.554	431
485.772	445
485.99	438
486.209	425
486.427	444
486.645	428
486.863	431
487.081	418
487.299	417
487.517	419
487.735	421
487.953	435
488.171	427
488.389	415
488.607	424
488.825	420
489.043	426
489.261	411
489.479	432
489.696	407
489.914	416
490.132	422
490.35	410
490.568	426
490.786	425
491.003	444
491.221	427
491.439	408
491.657	444
491.874	455
492.092	443
492.31	442
492.527	432
492.745	422
492.963	437
493.18	449
493.398	458
493.615	431
493.833	433
494.05	446
494.268	462
494.485	438
494.703	438
494.92	471
495.138	442
495.355	435
495.573	462
495.79	441
496.008	460
496.225	460
496.442	450
496.66	484
496.877	469
497.094	491
497.312	507
497.529	510
497.746	510
497.963	520
498.181	538
498.398	535
498.615	579
498.832	590
499.049	625
499.267	653
499.484	716
499.701	735
499.918	745
500.135	821
500.352	872
500.569	885
500.786	884
501.003	852
501.22	807
501.437	749
501.654	703
501.871	656
502.088	657
502.305	610
502.522	600
502.739	573
502.956	554
503.172	564
503.389	509
503.606	500
503.823	502
504.04	501
504.256	505
504.473	511
504.69	487
504.907	466
505.123	473
505.34	437
505.557	434
505.773	442
505.99	426
506.207	428
506.423	417
506.64	398
506.856	414
507.073	430
507.289	412
507.506	407
507.722	393
507.939	387
508.155	400
508.372	385
508.588	376
508.805	393
509.021	364
509.238	381
509.454	371
509.67	384
509.887	376
510.103	377
510.319	381
510.536	381
510.752	372
510.968	381
511.184	362
511.401	354
511.617	364
511.833	371
512.049	369
512.265	357
512.481	383
512.698	362
512.914	371
513.13	373
513.346	364
513.562	381
513.778	367
513.994	369
514.21	365
514.426	370
514.642	385
514.858	385
515.074	377
515.29	373
515.506	392
515.721	387
515.937	403
516.153	386
516.369	405
516.585	386
516.801	412
517.016	400
517.232	421
517.448	428
517.664	449
517.879	437
518.095	441
518.311	441
518.527	428
518.742	409
518.958	427
519.173	415
519.389	396
519.605	399
519.82	393
520.036	379
520.251	385
520.467	364
520.682	365
520.898	369
521.113	371
521.329	368
521.544	369
521.76	362
521.975	387
522.19	354
522.406	338
522.621	364
522.836	355
523.052	343
523.267	344
523.482	337
523.698	361
523.913	345
524.128	362
524.343	346
524.559	345
524.774	376
524.989	331
525.204	348
525.419	328
525.634	329
525.849	330
526.064	334
526.28	335
526.495	336
526.71	341
526.925	327
527.14	341
527.355	329
527.57	327
527.785	329
527.999	331
528.214	336
528.429	339
528.644	341
528.859	337
529.074	343
529.289	327
529.503	341
529.718	336
529.933	343
530.148	335
530.363	341
530.577	321
530.792	333
531.007	326
531.221	334
531.436	316
531.651	332
531.865	347
532.08	331
532.295	334
532.509	335
532.724	333
532.938	335
533.153	321
533.367	344
533.582	325
533.796	336
534.011	333
534.225	327
534.44	355
534.654	327
534.868	341
535.083	315
535.297	322
535.511	316
535.726	338
535.94	338
536.154	300
536.369	328
536.583	315
536.797	322
537.011	327
537.225	314
537.44	332
537.654	318
537.868	314
538.082	326
538.296	323
538.51	294
538.724	338
538.938	319
539.153	306
539.367	308
539.581	313
539.795	313
540.009	308
540.222	323
540.436	314
540.65	315
540.864	310
541.078	320
541.292	306
541.506	323
541.72	314
541.934	293
542.147	311
542.361	314
542.575	306
542.789	309
543.002	296
543.216	313
543.43	321
543.644	295
543.857	313
544.071	327
544.285	301
544.498	305
544.712	299
544.925	318
545.139	325
545.352	315
545.566	323
545.779	312
545.993	297
546.206	339
546.42	305
546.633	299
546.847	338
547.06	309
547.274	303
547.487	319
547.7	324
547.914	312
548.127	336
548.34	325
548.554	329
548.767	321
548.98	305
549.193	305
549.407	319
549.62	316
549.833	296
550.046	305
550.259	321
550.473	316
550.686	303
550.899	323
551.112	305
551.325	313
551.538	307
551.751	294
551.964	331
552.177	301
552.39	320
552.603	332
552.816	332
553.029	330
553.242	322
553.455	310
553.667	323
553.88	325
554.093	313
554.306	328
554.519	285
554.732	322
554.944	319
555.157	303
555.37	295
555.583	297
555.795	297
556.008	280
556.221	280
556.433	277
556.646	281
556.859	288
557.071	293
557.284	292
557.496	286
557.709	290
557.921	276
558.134	288
558.346	282
558.559	277
558.771	278
558.984	289
559.196	280
559.409	280
559.621	276
559.833	278
560.046	283
560.258	269
560.47	266
560.683	273
560.895	263
561.107	277
561.32	277
561.532	284
561.744	284
561.956	287
562.168	287
562.381	271
562.593	279
562.805	269
563.017	301
563.229	268
563.441	274
563.653	280
563.865	283
