Data from Fe(NO3)3@0.05M.TitratingCurve.Agarose3%dH2O.NegLispCup.LampEnergy10.LIBS07252019_HRD10591_16-48-55-334.txt Node
Date: Thu Jul 25 16:48:55 EDT 2019
User: cochatt
Spectrometer: HR+D1059
Trigger mode: 1
Integration Time (sec): 1.000000E-1
Scans to average: 1
Electric dark correction enabled: true
Nonlinearity correction enabled: false
Boxcar width: 0
XAxis mode: Wavelengths
Number of Pixels in Spectrum: 2048
>>>>>Begin Spectral Data<<<<<
223.165	-15.12
223.4	-15.12
223.635	-15.12
223.869	-24.12
224.104	-23.12
224.338	-4.12
224.573	-12.12
224.808	-7.12
225.042	-12.12
225.277	1.88
225.511	-10.12
225.746	-0.12
225.98	11.88
226.215	19.88
226.449	16.88
226.683	16.88
226.918	20.88
227.152	19.88
227.387	25.88
227.621	35.88
227.856	37.88
228.09	37.88
228.324	61.88
228.559	54.88
228.793	69.88
229.027	67.88
229.262	79.88
229.496	72.88
229.73	72.88
229.964	68.88
230.199	90.88
230.433	77.88
230.667	66.88
230.901	90.88
231.136	78.88
231.37	78.88
231.604	79.88
231.838	87.88
232.072	96.88
232.306	94.88
232.541	90.88
232.775	90.88
233.009	91.88
233.243	88.88
233.477	77.88
233.711	82.88
233.945	73.88
234.179	91.88
234.413	75.88
234.647	82.88
234.881	86.88
235.115	84.88
235.349	95.88
235.583	85.88
235.817	93.88
236.051	91.88
236.285	85.88
236.519	81.88
236.753	90.88
236.987	85.88
237.221	79.88
237.455	89.88
237.689	81.88
237.922	78.88
238.156	81.88
238.39	80.88
238.624	78.88
238.858	90.88
239.091	81.88
239.325	76.88
239.559	86.88
239.793	84.88
240.027	76.88
240.26	78.88
240.494	83.88
240.728	91.88
240.961	79.88
241.195	81.88
241.429	74.88
241.662	84.88
241.896	86.88
242.13	78.88
242.363	91.88
242.597	80.88
242.83	86.88
243.064	75.88
243.298	78.88
243.531	79.88
243.765	77.88
243.998	79.88
244.232	92.88
244.465	93.88
244.699	84.88
244.932	68.88
245.166	90.88
245.399	94.88
245.633	85.88
245.866	85.88
246.099	94.88
246.333	85.88
246.566	92.88
246.8	73.88
247.033	91.88
247.266	84.88
247.5	84.88
247.733	96.88
247.966	76.88
248.2	78.88
248.433	95.88
248.666	87.88
248.899	91.88
249.133	97.88
249.366	87.88
249.599	99.88
249.832	101.88
250.066	85.88
250.299	90.88
250.532	84.88
250.765	98.88
250.998	103.88
251.231	83.88
251.465	74.88
251.698	89.88
251.931	81.88
252.164	93.88
252.397	93.88
252.63	87.88
252.863	100.88
253.096	84.88
253.329	87.88
253.562	96.88
253.795	107.88
254.028	81.88
254.261	89.88
254.494	108.88
254.727	102.88
254.96	80.88
255.193	75.88
255.426	91.88
255.659	95.88
255.892	82.88
256.124	94.88
256.357	84.88
256.59	94.88
256.823	89.88
257.056	94.88
257.289	91.88
257.521	90.88
257.754	86.88
257.987	102.88
258.22	94.88
258.452	96.88
258.685	107.88
258.918	103.88
259.151	95.88
259.383	96.88
259.616	90.88
259.849	100.88
260.081	102.88
260.314	99.88
260.547	96.88
260.779	114.88
261.012	94.88
261.244	100.88
261.477	92.88
261.71	88.88
261.942	93.88
262.175	105.88
262.407	115.88
262.64	93.88
262.872	97.88
263.105	103.88
263.337	111.88
263.57	84.88
263.802	99.88
264.035	97.88
264.267	92.88
264.499	105.88
264.732	98.88
264.964	89.88
265.197	94.88
265.429	92.88
265.661	101.88
265.894	85.88
266.126	97.88
266.358	98.88
266.591	93.88
266.823	88.88
267.055	99.88
267.287	110.88
267.52	119.88
267.752	97.88
267.984	97.88
268.216	99.88
268.448	99.88
268.681	103.88
268.913	90.88
269.145	94.88
269.377	100.88
269.609	85.88
269.841	99.88
270.073	116.88
270.306	104.88
270.538	102.88
270.77	100.88
271.002	97.88
271.234	91.88
271.466	110.88
271.698	119.88
271.93	99.88
272.162	103.88
272.394	103.88
272.626	101.88
272.858	96.88
273.09	110.88
273.322	106.88
273.553	107.88
273.785	108.88
274.017	117.88
274.249	122.88
274.481	109.88
274.713	107.88
274.945	112.88
275.176	111.88
275.408	115.88
275.64	109.88
275.872	117.88
276.104	98.88
276.335	100.88
276.567	94.88
276.799	108.88
277.031	98.88
277.262	92.88
277.494	108.88
277.726	104.88
277.957	85.88
278.189	94.88
278.421	98.88
278.652	101.88
278.884	93.88
279.115	97.88
279.347	118.88
279.579	104.88
279.81	99.88
280.042	106.88
280.273	106.88
280.505	123.88
280.736	104.88
280.968	104.88
281.199	110.88
281.431	106.88
281.662	102.88
281.894	109.88
282.125	97.88
282.356	116.88
282.588	102.88
282.819	95.88
283.051	111.88
283.282	101.88
283.513	121.88
283.745	107.88
283.976	90.88
284.207	111.88
284.439	109.88
284.67	107.88
284.901	107.88
285.132	105.88
285.364	101.88
285.595	103.88
285.826	123.88
286.057	115.88
286.288	103.88
286.52	106.88
286.751	89.88
286.982	106.88
287.213	120.88
287.444	115.88
287.675	117.88
287.906	129.88
288.138	104.88
288.369	98.88
288.6	107.88
288.831	115.88
289.062	115.88
289.293	121.88
289.524	105.88
289.755	107.88
289.986	101.88
290.217	81.88
290.448	108.88
290.679	105.88
290.91	111.88
291.141	110.88
291.371	117.88
291.602	115.88
291.833	116.88
292.064	109.88
292.295	95.88
292.526	106.88
292.757	102.88
292.987	102.88
293.218	99.88
293.449	108.88
293.68	114.88
293.91	105.88
294.141	107.88
294.372	117.88
294.603	113.88
294.833	103.88
295.064	113.88
295.295	115.88
295.525	98.88
295.756	117.88
295.987	104.88
296.217	121.88
296.448	103.88
296.679	105.88
296.909	125.88
297.14	129.88
297.37	96.88
297.601	113.88
297.831	99.88
298.062	120.88
298.292	125.88
298.523	114.88
298.753	114.88
298.984	108.88
299.214	125.88
299.445	123.88
299.675	115.88
299.905	126.88
300.136	125.88
300.366	126.88
300.597	111.88
300.827	113.88
301.057	106.88
301.288	104.88
301.518	98.88
301.748	115.88
301.979	116.88
302.209	120.88
302.439	133.88
302.669	119.88
302.9	118.88
303.13	125.88
303.36	128.88
303.59	113.88
303.82	130.88
304.051	102.88
304.281	108.88
304.511	114.88
304.741	108.88
304.971	121.88
305.201	118.88
305.431	123.88
305.661	121.88
305.891	113.88
306.121	97.88
306.352	108.88
306.582	123.88
306.812	129.88
307.042	113.88
307.272	113.88
307.502	117.88
307.731	132.88
307.961	117.88
308.191	118.88
308.421	130.88
308.651	115.88
308.881	122.88
309.111	114.88
309.341	114.88
309.571	102.88
309.8	117.88
310.03	111.88
310.26	120.88
310.49	125.88
310.72	107.88
310.949	125.88
311.179	117.88
311.409	121.88
311.639	117.88
311.868	118.88
312.098	116.88
312.328	119.88
312.557	124.88
312.787	121.88
313.017	120.88
313.246	124.88
313.476	122.88
313.706	114.88
313.935	125.88
314.165	121.88
314.394	117.88
314.624	136.88
314.853	105.88
315.083	108.88
315.312	115.88
315.542	127.88
315.771	126.88
316.001	137.88
316.23	108.88
316.46	119.88
316.689	117.88
316.919	117.88
317.148	114.88
317.377	117.88
317.607	113.88
317.836	127.88
318.065	123.88
318.295	120.88
318.524	120.88
318.753	124.88
318.983	123.88
319.212	111.88
319.441	119.88
319.67	125.88
319.9	129.88
320.129	126.88
320.358	121.88
320.587	121.88
320.816	118.88
321.046	122.88
321.275	130.88
321.504	115.88
321.733	129.88
321.962	125.88
322.191	133.88
322.42	108.88
322.649	125.88
322.878	121.88
323.108	128.88
323.337	113.88
323.566	110.88
323.795	125.88
324.024	125.88
324.253	124.88
324.482	113.88
324.71	121.88
324.939	142.88
325.168	115.88
325.397	130.88
325.626	131.88
325.855	109.88
326.084	113.88
326.313	127.88
326.542	117.88
326.77	122.88
326.999	115.88
327.228	115.88
327.457	120.88
327.686	108.88
327.914	129.88
328.143	117.88
328.372	124.88
328.6	120.88
328.829	120.88
329.058	132.88
329.287	137.88
329.515	110.88
329.744	111.88
329.972	120.88
330.201	114.88
330.43	123.88
330.658	133.88
330.887	127.88
331.115	138.88
331.344	113.88
331.572	127.88
331.801	129.88
332.03	139.88
332.258	129.88
332.486	129.88
332.715	147.88
332.943	115.88
333.172	139.88
333.4	141.88
333.629	136.88
333.857	139.88
334.085	135.88
334.314	130.88
334.542	132.88
334.771	143.88
334.999	122.88
335.227	126.88
335.455	137.88
335.684	137.88
335.912	144.88
336.14	141.88
336.369	138.88
336.597	131.88
336.825	125.88
337.053	128.88
337.281	140.88
337.51	123.88
337.738	133.88
337.966	141.88
338.194	131.88
338.422	124.88
338.65	132.88
338.878	130.88
339.106	135.88
339.334	127.88
339.562	118.88
339.79	121.88
340.018	127.88
340.246	129.88
340.474	129.88
340.702	123.88
340.93	134.88
341.158	137.88
341.386	129.88
341.614	110.88
341.842	129.88
342.07	125.88
342.298	133.88
342.526	135.88
342.754	108.88
342.981	117.88
343.209	124.88
343.437	127.88
343.665	140.88
343.893	139.88
344.12	134.88
344.348	123.88
344.576	141.88
344.804	118.88
345.031	116.88
345.259	126.88
345.487	133.88
345.714	121.88
345.942	120.88
346.17	124.88
346.397	125.88
346.625	131.88
346.853	121.88
347.08	137.88
347.308	131.88
347.535	121.88
347.763	133.88
347.99	131.88
348.218	135.88
348.445	119.88
348.673	121.88
348.9	127.88
349.128	123.88
349.355	127.88
349.583	128.88
349.81	129.88
350.037	120.88
350.265	132.88
350.492	119.88
350.72	125.88
350.947	126.88
351.174	126.88
351.402	109.88
351.629	115.88
351.856	110.88
352.083	128.88
352.311	129.88
352.538	122.88
352.765	126.88
352.992	121.88
353.22	121.88
353.447	108.88
353.674	121.88
353.901	113.88
354.128	125.88
354.355	137.88
354.583	116.88
354.81	137.88
355.037	129.88
355.264	122.88
355.491	135.88
355.718	125.88
355.945	126.88
356.172	134.88
356.399	117.88
356.626	122.88
356.853	125.88
357.08	119.88
357.307	129.88
357.534	122.88
357.761	119.88
357.988	110.88
358.215	129.88
358.441	122.88
358.668	119.88
358.895	132.88
359.122	129.88
359.349	136.88
359.576	126.88
359.802	132.88
360.029	110.88
360.256	123.88
360.483	131.88
360.709	122.88
360.936	131.88
361.163	142.88
361.39	137.88
361.616	129.88
361.843	143.88
362.07	121.88
362.296	133.88
362.523	122.88
362.749	128.88
362.976	114.88
363.203	138.88
363.429	118.88
363.656	128.88
363.882	135.88
364.109	130.88
364.335	127.88
364.562	123.88
364.788	121.88
365.015	139.88
365.241	121.88
365.468	136.88
365.694	127.88
365.92	125.88
366.147	119.88
366.373	110.88
366.599	125.88
366.826	125.88
367.052	124.88
367.278	125.88
367.505	149.88
367.731	123.88
367.957	117.88
368.184	120.88
368.41	133.88
368.636	129.88
368.862	130.88
369.089	132.88
369.315	137.88
369.541	134.88
369.767	146.88
369.993	130.88
370.219	136.88
370.445	131.88
370.672	129.88
370.898	126.88
371.124	133.88
371.35	142.88
371.576	137.88
371.802	127.88
372.028	136.88
372.254	130.88
372.48	133.88
372.706	135.88
372.932	133.88
373.158	140.88
373.384	128.88
373.61	133.88
373.835	149.88
374.061	134.88
374.287	148.88
374.513	139.88
374.739	155.88
374.965	146.88
375.191	135.88
375.416	150.88
375.642	156.88
375.868	137.88
376.094	133.88
376.319	136.88
376.545	134.88
376.771	133.88
376.997	141.88
377.222	135.88
377.448	138.88
377.674	131.88
377.899	137.88
378.125	126.88
378.35	133.88
378.576	156.88
378.802	125.88
379.027	132.88
379.253	134.88
379.478	139.88
379.704	130.88
379.929	144.88
380.155	143.88
380.38	142.88
380.606	133.88
380.831	143.88
381.057	150.88
381.282	143.88
381.507	139.88
381.733	141.88
381.958	147.88
382.184	139.88
382.409	148.88
382.634	158.88
382.86	141.88
383.085	152.88
383.31	146.88
383.535	143.88
383.761	143.88
383.986	149.88
384.211	146.88
384.436	150.88
384.662	150.88
384.887	159.88
385.112	152.88
385.337	165.88
385.562	161.88
385.787	158.88
386.013	188.88
386.238	157.88
386.463	147.88
386.688	166.88
386.913	178.88
387.138	158.88
387.363	173.88
387.588	167.88
387.813	156.88
388.038	147.88
388.263	154.88
388.488	169.88
388.713	146.88
388.938	153.88
389.163	162.88
389.387	173.88
389.612	159.88
389.837	175.88
390.062	159.88
390.287	182.88
390.512	164.88
390.736	153.88
390.961	157.88
391.186	160.88
391.411	158.88
391.636	181.88
391.86	175.88
392.085	158.88
392.31	164.88
392.534	169.88
392.759	161.88
392.984	169.88
393.208	167.88
393.433	188.88
393.658	154.88
393.882	169.88
394.107	173.88
394.331	171.88
394.556	180.88
394.78	177.88
395.005	175.88
395.229	146.88
395.454	179.88
395.678	169.88
395.903	173.88
396.127	173.88
396.352	160.88
396.576	165.88
396.801	179.88
397.025	185.88
397.249	171.88
397.474	199.88
397.698	176.88
397.922	191.88
398.147	162.88
398.371	167.88
398.595	190.88
398.82	180.88
399.044	202.88
399.268	203.88
399.492	226.88
399.717	246.88
399.941	233.88
400.165	238.88
400.389	207.88
400.613	183.88
400.837	187.88
401.062	182.88
401.286	200.88
401.51	197.88
401.734	180.88
401.958	198.88
402.182	191.88
402.406	185.88
402.63	194.88
402.854	205.88
403.078	185.88
403.302	190.88
403.526	203.88
403.75	197.88
403.974	210.88
404.198	203.88
404.422	204.88
404.645	202.88
404.869	206.88
405.093	211.88
405.317	201.88
405.541	199.88
405.765	203.88
405.988	216.88
406.212	208.88
406.436	213.88
406.66	203.88
406.883	218.88
407.107	213.88
407.331	214.88
407.555	225.88
407.778	232.88
408.002	219.88
408.226	202.88
408.449	228.88
408.673	214.88
408.896	237.88
409.12	238.88
409.344	218.88
409.567	208.88
409.791	213.88
410.014	203.88
410.238	218.88
410.461	206.88
410.685	216.88
410.908	224.88
411.132	223.88
411.355	203.88
411.578	197.88
411.802	218.88
412.025	189.88
412.249	195.88
412.472	210.88
412.695	197.88
412.919	191.88
413.142	201.88
413.365	214.88
413.589	214.88
413.812	210.88
414.035	202.88
414.258	204.88
414.482	204.88
414.705	201.88
414.928	213.88
415.151	227.88
415.374	213.88
415.597	214.88
415.821	193.88
416.044	181.88
416.267	199.88
416.49	202.88
416.713	202.88
416.936	190.88
417.159	213.88
417.382	198.88
417.605	201.88
417.828	207.88
418.051	204.88
418.274	200.88
418.497	206.88
418.72	231.88
418.943	215.88
419.166	214.88
419.389	224.88
419.611	219.88
419.834	217.88
420.057	230.88
420.28	211.88
420.503	207.88
420.726	192.88
420.948	194.88
421.171	202.88
421.394	202.88
421.617	207.88
421.839	215.88
422.062	195.88
422.285	213.88
422.507	223.88
422.73	218.88
422.953	215.88
423.175	223.88
423.398	211.88
423.621	202.88
423.843	218.88
424.066	231.88
424.288	214.88
424.511	227.88
424.733	215.88
424.956	214.88
425.178	196.88
425.401	201.88
425.623	198.88
425.846	227.88
426.068	191.88
426.291	225.88
426.513	207.88
426.735	214.88
426.958	199.88
427.18	200.88
427.402	211.88
427.625	207.88
427.847	206.88
428.069	194.88
428.292	190.88
428.514	205.88
428.736	210.88
428.958	187.88
429.181	198.88
429.403	185.88
429.625	209.88
429.847	186.88
430.069	204.88
430.292	202.88
430.514	206.88
430.736	207.88
430.958	200.88
431.18	214.88
431.402	207.88
431.624	196.88
431.846	189.88
432.068	191.88
432.29	188.88
432.512	203.88
432.734	208.88
432.956	199.88
433.178	209.88
433.4	202.88
433.622	196.88
433.844	215.88
434.066	209.88
434.287	203.88
434.509	201.88
434.731	198.88
434.953	203.88
435.175	222.88
435.397	225.88
435.618	217.88
435.84	203.88
436.062	205.88
436.284	217.88
436.505	202.88
436.727	201.88
436.949	204.88
437.17	207.88
437.392	211.88
437.614	214.88
437.835	211.88
438.057	200.88
438.278	211.88
438.5	207.88
438.721	197.88
438.943	207.88
439.165	212.88
439.386	225.88
439.608	217.88
439.829	211.88
440.05	216.88
440.272	219.88
440.493	219.88
440.715	222.88
440.936	231.88
441.158	222.88
441.379	214.88
441.6	224.88
441.822	244.88
442.043	219.88
442.264	215.88
442.486	217.88
442.707	238.88
442.928	214.88
443.149	210.88
443.371	222.88
443.592	226.88
443.813	220.88
444.034	224.88
444.255	244.88
444.476	222.88
444.698	236.88
444.919	242.88
445.14	370.88
445.361	302.88
445.582	247.88
445.803	222.88
446.024	230.88
446.245	231.88
446.466	241.88
446.687	227.88
446.908	221.88
447.129	230.88
447.35	217.88
447.571	213.88
447.792	198.88
448.013	218.88
448.234	217.88
448.455	211.88
448.675	215.88
448.896	217.88
449.117	202.88
449.338	215.88
449.559	223.88
449.779	204.88
450	201.88
450.221	198.88
450.442	204.88
450.662	208.88
450.883	212.88
451.104	214.88
451.324	200.88
451.545	209.88
451.766	207.88
451.986	205.88
452.207	200.88
452.428	212.88
452.648	218.88
452.869	201.88
453.089	195.88
453.31	193.88
453.53	193.88
453.751	181.88
453.971	184.88
454.192	197.88
454.412	191.88
454.633	202.88
454.853	184.88
455.073	202.88
455.294	174.88
455.514	199.88
455.734	177.88
455.955	210.88
456.175	193.88
456.395	199.88
456.616	194.88
456.836	203.88
457.056	213.88
457.276	202.88
457.497	205.88
457.717	179.88
457.937	194.88
458.157	189.88
458.377	212.88
458.598	190.88
458.818	194.88
459.038	192.88
459.258	192.88
459.478	189.88
459.698	219.88
459.918	214.88
460.138	216.88
460.358	227.88
460.578	231.88
460.798	234.88
461.018	215.88
461.238	222.88
461.458	231.88
461.678	225.88
461.898	225.88
462.118	227.88
462.338	261.88
462.558	251.88
462.777	243.88
462.997	262.88
463.217	277.88
463.437	281.88
463.657	260.88
463.876	253.88
464.096	248.88
464.316	258.88
464.536	248.88
464.755	260.88
464.975	261.88
465.195	243.88
465.414	229.88
465.634	221.88
465.854	225.88
466.073	213.88
466.293	224.88
466.512	229.88
466.732	208.88
466.951	208.88
467.171	215.88
467.391	202.88
467.61	211.88
467.829	230.88
468.049	206.88
468.268	204.88
468.488	207.88
468.707	211.88
468.927	212.88
469.146	204.88
469.365	198.88
469.585	207.88
469.804	222.88
470.023	228.88
470.243	207.88
470.462	218.88
470.681	218.88
470.901	229.88
471.12	217.88
471.339	215.88
471.558	209.88
471.777	214.88
471.997	219.88
472.216	215.88
472.435	195.88
472.654	205.88
472.873	190.88
473.092	213.88
473.311	190.88
473.53	199.88
473.749	210.88
473.968	206.88
474.187	201.88
474.406	198.88
474.625	238.88
474.844	204.88
475.063	209.88
475.282	202.88
475.501	204.88
475.72	207.88
475.939	212.88
476.158	231.88
476.377	217.88
476.596	197.88
476.814	217.88
477.033	188.88
477.252	220.88
477.471	213.88
477.69	230.88
477.908	223.88
478.127	239.88
478.346	221.88
478.564	239.88
478.783	239.88
479.002	235.88
479.22	221.88
479.439	226.88
479.658	245.88
479.876	242.88
480.095	245.88
480.313	247.88
480.532	250.88
480.751	229.88
480.969	222.88
481.188	217.88
481.406	234.88
481.624	216.88
481.843	202.88
482.061	218.88
482.28	211.88
482.498	219.88
482.717	206.88
482.935	220.88
483.153	221.88
483.372	227.88
483.59	232.88
483.808	222.88
484.027	223.88
484.245	228.88
484.463	215.88
484.681	229.88
484.9	229.88
485.118	228.88
485.336	227.88
485.554	242.88
485.772	213.88
485.99	220.88
486.209	229.88
486.427	226.88
486.645	212.88
486.863	230.88
487.081	238.88
487.299	242.88
487.517	226.88
487.735	230.88
487.953	238.88
488.171	258.88
488.389	236.88
488.607	230.88
488.825	230.88
489.043	229.88
489.261	225.88
489.479	236.88
489.696	224.88
489.914	230.88
490.132	228.88
490.35	245.88
490.568	221.88
490.786	250.88
491.003	241.88
491.221	233.88
491.439	267.88
491.657	242.88
491.874	241.88
492.092	252.88
492.31	272.88
492.527	247.88
492.745	266.88
492.963	246.88
493.18	246.88
493.398	258.88
493.615	241.88
493.833	233.88
494.05	235.88
494.268	253.88
494.485	239.88
494.703	259.88
494.92	244.88
495.138	253.88
495.355	253.88
495.573	268.88
495.79	238.88
496.008	233.88
496.225	243.88
496.442	225.88
496.66	241.88
496.877	257.88
497.094	285.88
497.312	264.88
497.529	266.88
497.746	261.88
497.963	255.88
498.181	258.88
498.398	281.88
498.615	289.88
498.832	292.88
499.049	308.88
499.267	318.88
499.484	319.88
499.701	345.88
499.918	393.88
500.135	419.88
500.352	464.88
500.569	451.88
500.786	452.88
501.003	427.88
501.22	409.88
501.437	370.88
501.654	345.88
501.871	330.88
502.088	309.88
502.305	291.88
502.522	295.88
502.739	291.88
502.956	256.88
503.172	247.88
503.389	287.88
503.606	265.88
503.823	259.88
504.04	274.88
