Data from Fe(NO3)3@0.1M.TitratingCurve.Agarose3%dH2O.NegLispCup.LampEnergy10.LIBS07252019_HRD10591_16-40-08-355.txt Node
Date: Thu Jul 25 16:40:08 EDT 2019
User: cochatt
Spectrometer: HR+D1059
Trigger mode: 1
Integration Time (sec): 1.000000E-1
Scans to average: 1
Electric dark correction enabled: true
Nonlinearity correction enabled: false
Boxcar width: 0
XAxis mode: Wavelengths
Number of Pixels in Spectrum: 2048
>>>>>Begin Spectral Data<<<<<
223.165	-20
223.4	-20
223.635	-20
223.869	-19
224.104	-14
224.338	-15
224.573	-15
224.808	-16
225.042	-9
225.277	4
225.511	-18
225.746	-8
225.98	9
226.215	21
226.449	8
226.683	16
226.918	45
227.152	31
227.387	38
227.621	44
227.856	43
228.09	42
228.324	49
228.559	62
228.793	59
229.027	79
229.262	85
229.496	88
229.73	104
229.964	102
230.199	98
230.433	117
230.667	107
230.901	118
231.136	98
231.37	120
231.604	114
231.838	90
232.072	126
232.306	106
232.541	108
232.775	126
233.009	120
233.243	118
233.477	133
233.711	120
233.945	119
234.179	122
234.413	121
234.647	100
234.881	119
235.115	125
235.349	112
235.583	122
235.817	127
236.051	122
236.285	124
236.519	129
236.753	120
236.987	117
237.221	126
237.455	110
237.689	120
237.922	124
238.156	132
238.39	123
238.624	128
238.858	128
239.091	123
239.325	125
239.559	130
239.793	133
240.027	129
240.26	135
240.494	131
240.728	121
240.961	134
241.195	136
241.429	147
241.662	129
241.896	152
242.13	142
242.363	134
242.597	128
242.83	154
243.064	143
243.298	128
243.531	135
243.765	152
243.998	146
244.232	163
244.465	148
244.699	150
244.932	164
245.166	163
245.399	177
245.633	153
245.866	148
246.099	160
246.333	156
246.566	149
246.8	163
247.033	154
247.266	143
247.5	151
247.733	161
247.966	156
248.2	170
248.433	155
248.666	172
248.899	168
249.133	165
249.366	160
249.599	184
249.832	172
250.066	181
250.299	164
250.532	186
250.765	175
250.998	170
251.231	164
251.465	184
251.698	188
251.931	181
252.164	182
252.397	185
252.63	189
252.863	176
253.096	196
253.329	185
253.562	176
253.795	196
254.028	197
254.261	193
254.494	190
254.727	187
254.96	187
255.193	184
255.426	176
255.659	168
255.892	189
256.124	188
256.357	188
256.59	205
256.823	189
257.056	184
257.289	195
257.521	205
257.754	206
257.987	211
258.22	213
258.452	196
258.685	209
258.918	210
259.151	202
259.383	214
259.616	201
259.849	209
260.081	192
260.314	232
260.547	219
260.779	207
261.012	216
261.244	220
261.477	217
261.71	224
261.942	226
262.175	217
262.407	231
262.64	217
262.872	205
263.105	233
263.337	233
263.57	233
263.802	258
264.035	234
264.267	237
264.499	232
264.732	220
264.964	228
265.197	216
265.429	219
265.661	225
265.894	223
266.126	240
266.358	226
266.591	238
266.823	240
267.055	235
267.287	243
267.52	230
267.752	246
267.984	231
268.216	222
268.448	254
268.681	232
268.913	246
269.145	244
269.377	242
269.609	230
269.841	237
270.073	245
270.306	236
270.538	240
270.77	261
271.002	238
271.234	268
271.466	244
271.698	245
271.93	259
272.162	256
272.394	263
272.626	261
272.858	256
273.09	255
273.322	241
273.553	252
273.785	250
274.017	268
274.249	283
274.481	262
274.713	265
274.945	278
275.176	286
275.408	297
275.64	271
275.872	276
276.104	271
276.335	249
276.567	270
276.799	248
277.031	289
277.262	278
277.494	277
277.726	261
277.957	284
278.189	284
278.421	267
278.652	280
278.884	282
279.115	278
279.347	294
279.579	280
279.81	293
280.042	290
280.273	293
280.505	294
280.736	284
280.968	283
281.199	295
281.431	287
281.662	312
281.894	291
282.125	304
282.356	289
282.588	305
282.819	302
283.051	304
283.282	286
283.513	306
283.745	288
283.976	295
284.207	306
284.439	308
284.67	304
284.901	308
285.132	311
285.364	296
285.595	310
285.826	294
286.057	334
286.288	312
286.52	287
286.751	319
286.982	316
287.213	313
287.444	312
287.675	344
287.906	312
288.138	309
288.369	316
288.6	312
288.831	326
289.062	304
289.293	316
289.524	330
289.755	320
289.986	325
290.217	333
290.448	325
290.679	318
290.91	323
291.141	319
291.371	327
291.602	357
291.833	338
292.064	331
292.295	324
292.526	345
292.757	326
292.987	324
293.218	325
293.449	318
293.68	339
293.91	339
294.141	329
294.372	328
294.603	348
294.833	335
295.064	336
295.295	325
295.525	338
295.756	334
295.987	316
296.217	339
296.448	334
296.679	348
296.909	340
297.14	345
297.37	339
297.601	345
297.831	350
298.062	354
298.292	356
298.523	349
298.753	353
298.984	334
299.214	330
299.445	353
299.675	359
299.905	339
300.136	365
300.366	342
300.597	373
300.827	362
301.057	368
301.288	350
301.518	374
301.748	370
301.979	350
302.209	376
302.439	356
302.669	376
302.9	363
303.13	384
303.36	370
303.59	371
303.82	373
304.051	386
304.281	360
304.511	378
304.741	372
304.971	381
305.201	368
305.431	378
305.661	366
305.891	388
306.121	368
306.352	357
306.582	368
306.812	349
307.042	379
307.272	383
307.502	369
307.731	348
307.961	376
308.191	358
308.421	388
308.651	362
308.881	362
309.111	358
309.341	346
309.571	373
309.8	363
310.03	368
310.26	380
310.49	376
310.72	376
310.949	360
311.179	368
311.409	372
311.639	374
311.868	358
312.098	388
312.328	385
312.557	378
312.787	379
313.017	376
313.246	404
313.476	397
313.706	381
313.935	387
314.165	400
314.394	387
314.624	404
314.853	405
315.083	379
315.312	377
315.542	390
315.771	376
316.001	400
316.23	385
316.46	371
316.689	379
316.919	390
317.148	381
317.377	377
317.607	364
317.836	392
318.065	394
318.295	390
318.524	407
318.753	368
318.983	382
319.212	378
319.441	387
319.67	404
319.9	392
320.129	389
320.358	387
320.587	398
320.816	410
321.046	392
321.275	388
321.504	395
321.733	388
321.962	379
322.191	401
322.42	399
322.649	394
322.878	400
323.108	394
323.337	412
323.566	411
323.795	399
324.024	392
324.253	404
324.482	430
324.71	423
324.939	410
325.168	423
325.397	418
325.626	425
325.855	413
326.084	415
326.313	402
326.542	432
326.77	440
326.999	436
327.228	412
327.457	439
327.686	422
327.914	418
328.143	428
328.372	440
328.6	426
328.829	444
329.058	429
329.287	421
329.515	423
329.744	424
329.972	436
330.201	437
330.43	433
330.658	432
330.887	454
331.115	430
331.344	442
331.572	449
331.801	454
332.03	462
332.258	459
332.486	460
332.715	460
332.943	499
333.172	525
333.4	518
333.629	547
333.857	545
334.085	564
334.314	542
334.542	546
334.771	548
334.999	548
335.227	538
335.455	539
335.684	531
335.912	524
336.14	541
336.369	516
336.597	494
336.825	496
337.053	504
337.281	504
337.51	482
337.738	499
337.966	464
338.194	471
338.422	461
338.65	465
338.878	460
339.106	476
339.334	472
339.562	463
339.79	457
340.018	432
340.246	470
340.474	453
340.702	430
340.93	459
341.158	449
341.386	441
341.614	446
341.842	458
342.07	440
342.298	448
342.526	452
342.754	458
342.981	453
343.209	449
343.437	454
343.665	490
343.893	547
344.12	523
344.348	517
344.576	500
344.804	466
345.031	464
345.259	471
345.487	445
345.714	449
345.942	460
346.17	447
346.397	447
346.625	414
346.853	442
347.08	430
347.308	444
347.535	448
347.763	424
347.99	445
348.218	432
348.445	432
348.673	436
348.9	414
349.128	409
349.355	442
349.583	432
349.81	448
350.037	428
350.265	428
350.492	437
350.72	440
350.947	435
351.174	410
351.402	440
351.629	436
351.856	429
352.083	415
352.311	412
352.538	406
352.765	421
352.992	434
353.22	416
353.447	414
353.674	406
353.901	430
354.128	410
354.355	440
354.583	440
354.81	416
355.037	412
355.264	420
355.491	446
355.718	446
355.945	425
356.172	430
356.399	429
356.626	426
356.853	422
357.08	432
357.307	414
357.534	414
357.761	433
357.988	436
358.215	426
358.441	430
358.668	427
358.895	432
359.122	434
359.349	437
359.576	405
359.802	433
360.029	417
360.256	433
360.483	406
360.709	416
360.936	429
361.163	424
361.39	426
361.616	398
361.843	435
362.07	433
362.296	428
362.523	431
362.749	429
362.976	439
363.203	435
363.429	409
363.656	404
363.882	420
364.109	437
364.335	418
364.562	427
364.788	436
365.015	442
365.241	428
365.468	417
365.694	422
365.92	441
366.147	406
366.373	423
366.599	425
366.826	436
367.052	425
367.278	434
367.505	422
367.731	445
367.957	451
368.184	439
368.41	432
368.636	456
368.862	447
369.089	443
369.315	426
369.541	443
369.767	445
369.993	442
370.219	443
370.445	453
370.672	464
370.898	467
371.124	463
371.35	477
371.576	468
371.802	454
372.028	457
372.254	465
372.48	470
372.706	487
372.932	486
373.158	489
373.384	487
373.61	473
373.835	477
374.061	485
374.287	485
374.513	474
374.739	501
374.965	512
375.191	502
375.416	512
375.642	498
375.868	484
376.094	466
376.319	499
376.545	492
376.771	489
376.997	485
377.222	466
377.448	455
377.674	496
377.899	470
378.125	468
378.35	470
378.576	461
378.802	490
379.027	491
379.253	465
379.478	474
379.704	478
379.929	476
380.155	476
380.38	468
380.606	485
380.831	467
381.057	487
381.282	471
381.507	475
381.733	488
381.958	464
382.184	481
382.409	498
382.634	498
382.86	491
383.085	503
383.31	489
383.535	513
383.761	523
383.986	518
384.211	535
384.436	524
384.662	543
384.887	550
385.112	546
385.337	566
385.562	580
385.787	560
386.013	569
386.238	564
386.463	556
386.688	562
386.913	544
387.138	564
387.363	580
387.588	555
387.813	556
388.038	555
388.263	557
388.488	551
388.713	545
388.938	565
389.163	546
389.387	554
389.612	576
389.837	558
390.062	560
390.287	535
390.512	545
390.736	582
390.961	566
391.186	596
391.411	596
391.636	574
391.86	603
392.085	634
392.31	631
392.534	591
392.759	606
392.984	619
393.208	586
393.433	584
393.658	593
393.882	616
394.107	596
394.331	599
394.556	578
394.78	586
395.005	598
395.229	604
395.454	617
395.678	621
395.903	635
396.127	628
396.352	613
396.576	613
396.801	608
397.025	620
397.249	603
397.474	643
397.698	613
397.922	629
398.147	654
398.371	656
398.595	651
398.82	704
399.044	713
399.268	737
399.492	811
399.717	893
399.941	941
400.165	870
400.389	824
400.613	782
400.837	732
401.062	742
401.286	696
401.51	696
401.734	710
401.958	709
402.182	702
402.406	706
402.63	701
402.854	709
403.078	718
403.302	741
403.526	735
403.75	739
403.974	761
404.198	755
404.422	753
404.645	752
404.869	753
405.093	733
405.317	735
405.541	749
405.765	738
405.988	752
406.212	744
406.436	757
406.66	761
406.883	780
407.107	798
407.331	842
407.555	871
407.778	867
408.002	822
408.226	847
408.449	827
408.673	811
408.896	803
409.12	789
409.344	811
409.567	772
409.791	773
410.014	751
410.238	774
410.461	784
410.685	788
410.908	759
411.132	760
411.355	737
411.578	752
411.802	746
412.025	748
412.249	744
412.472	752
412.695	708
412.919	716
413.142	702
413.365	723
413.589	725
413.812	675
414.035	706
414.258	726
414.482	718
414.705	708
414.928	713
415.151	722
415.374	737
415.597	725
415.821	693
416.044	691
416.267	702
416.49	669
416.713	695
416.936	710
417.159	671
417.382	668
417.605	701
417.828	697
418.051	683
418.274	700
418.497	678
418.72	692
418.943	710
419.166	745
419.389	774
419.611	756
419.834	714
420.057	715
420.28	709
420.503	683
420.726	683
420.948	685
421.171	690
421.394	668
421.617	686
421.839	709
422.062	691
422.285	681
422.507	692
422.73	718
422.953	704
423.175	694
423.398	737
423.621	694
423.843	701
424.066	714
424.288	728
424.511	718
424.733	744
424.956	690
425.178	699
425.401	682
425.623	696
425.846	662
426.068	677
426.291	706
426.513	666
426.735	661
426.958	641
427.18	633
427.402	644
427.625	658
427.847	638
428.069	638
428.292	638
428.514	620
428.736	621
428.958	639
429.181	625
429.403	611
429.625	650
429.847	618
430.069	634
430.292	640
430.514	638
430.736	624
430.958	621
431.18	633
431.402	634
431.624	608
431.846	626
432.068	638
432.29	642
432.512	647
432.734	635
432.956	628
433.178	643
433.4	642
433.622	660
433.844	652
434.066	655
434.287	642
434.509	641
434.731	682
434.953	678
435.175	690
435.397	714
435.618	677
435.84	658
436.062	641
436.284	650
436.505	633
436.727	654
436.949	660
437.17	625
437.392	646
437.614	636
437.835	614
438.057	630
438.278	618
438.5	603
438.721	593
438.943	646
439.165	625
439.386	608
439.608	628
439.829	641
440.05	654
440.272	630
440.493	657
440.715	665
440.936	650
441.158	667
441.379	679
441.6	698
441.822	692
442.043	718
442.264	706
442.486	682
442.707	672
442.928	678
443.149	667
443.371	698
443.592	701
443.813	708
444.034	710
444.255	747
444.476	741
444.698	790
444.919	769
445.14	867
445.361	796
445.582	726
445.803	686
446.024	692
446.245	667
446.466	672
446.687	647
446.908	679
447.129	643
447.35	622
447.571	624
447.792	633
448.013	620
448.234	602
448.455	612
448.675	601
448.896	594
449.117	591
449.338	587
449.559	601
449.779	585
450	608
450.221	613
450.442	594
450.662	601
450.883	580
451.104	599
451.324	595
451.545	634
451.766	592
451.986	604
452.207	596
452.428	610
452.648	608
452.869	578
453.089	578
453.31	580
453.53	567
453.751	577
453.971	576
454.192	584
454.412	562
454.633	564
454.853	546
455.073	548
455.294	551
455.514	557
455.734	539
455.955	553
456.175	557
456.395	570
456.616	562
456.836	564
457.056	565
457.276	566
457.497	569
457.717	567
457.937	587
458.157	589
458.377	588
458.598	587
458.818	617
459.038	610
459.258	625
459.478	637
459.698	630
459.918	660
460.138	676
460.358	701
460.578	720
460.798	704
461.018	697
461.238	720
461.458	726
461.678	723
461.898	749
462.118	729
462.338	756
462.558	769
462.777	793
462.997	838
463.217	872
463.437	900
463.657	872
463.876	830
464.096	832
464.316	813
464.536	813
464.755	797
464.975	765
465.195	746
465.414	711
465.634	706
465.854	690
466.073	649
466.293	646
466.512	642
466.732	638
466.951	611
467.171	630
467.391	633
467.61	630
467.829	613
468.049	604
468.268	606
468.488	587
468.707	598
468.927	596
469.146	598
469.365	593
469.585	591
469.804	610
470.023	626
470.243	631
470.462	622
470.681	619
470.901	615
471.12	630
471.339	606
471.558	615
471.777	595
471.997	596
472.216	576
472.435	588
472.654	601
472.873	586
473.092	585
473.311	596
473.53	580
473.749	567
473.968	567
474.187	574
474.406	588
474.625	598
474.844	593
475.063	584
475.282	589
475.501	598
475.72	584
475.939	604
476.158	601
476.377	631
476.596	610
476.814	580
477.033	594
477.252	596
477.471	613
477.69	634
477.908	654
478.127	676
478.346	656
478.564	700
478.783	677
479.002	706
479.22	719
479.439	701
479.658	699
479.876	701
480.095	694
480.313	731
480.532	731
480.751	741
480.969	696
481.188	702
481.406	667
481.624	661
481.843	651
482.061	663
482.28	640
482.498	636
482.717	646
482.935	646
483.153	658
483.372	654
483.59	628
483.808	637
484.027	668
484.245	682
484.463	673
484.681	690
484.9	655
485.118	667
485.336	658
485.554	683
485.772	683
485.99	680
486.209	684
486.427	667
486.645	689
486.863	695
487.081	668
487.299	706
487.517	694
487.735	706
487.953	700
488.171	697
488.389	690
488.607	677
488.825	656
489.043	674
489.261	661
489.479	665
489.696	686
489.914	663
490.132	674
490.35	668
490.568	696
490.786	672
491.003	681
491.221	700
491.439	681
491.657	682
491.874	705
492.092	716
492.31	725
492.527	706
492.745	717
492.963	704
493.18	680
493.398	705
493.615	720
493.833	670
494.05	708
494.268	727
494.485	720
494.703	710
494.92	716
495.138	700
495.355	727
495.573	738
495.79	734
496.008	714
496.225	746
496.442	738
496.66	730
496.877	762
497.094	757
497.312	785
497.529	804
497.746	813
497.963	843
498.181	883
498.398	908
498.615	920
498.832	995
499.049	1062
499.267	1118
499.484	1202
499.701	1276
499.918	1399
500.135	1540
500.352	1675
500.569	1715
500.786	1709
501.003	1623
501.22	1513
501.437	1402
501.654	1288
501.871	1155
502.088	1099
502.305	1044
502.522	964
502.739	970
502.956	920
503.172	862
503.389	846
503.606	841
503.823	834
504.04	790
504.256	802
504.473	805
504.69	826
504.907	820
505.123	754
505.34	733
505.557	718
505.773	716
505.99	688
506.207	694
506.423	679
506.64	666
506.856	630
507.073	668
507.289	643
507.506	642
507.722	634
507.939	634
508.155	641
508.372	620
508.588	635
508.805	626
509.021	621
509.238	615
509.454	608
509.67	606
509.887	605
510.103	613
510.319	609
510.536	607
510.752	590
510.968	580
511.184	564
511.401	603
511.617	578
511.833	568
512.049	577
512.265	569
512.481	586
512.698	578
512.914	599
513.13	589
513.346	582
513.562	621
513.778	589
513.994	579
514.21	619
514.426	621
514.642	603
514.858	603
515.074	616
515.29	601
515.506	594
515.721	596
515.937	625
516.153	628
516.369	629
516.585	645
516.801	677
517.016	679
517.232	717
517.448	736
517.664	768
517.879	740
518.095	775
518.311	728
518.527	711
518.742	704
518.958	666
519.173	664
519.389	649
519.605	626
519.82	630
520.036	632
520.251	613
520.467	601
520.682	592
520.898	591
521.113	599
521.329	594
521.544	576
521.76	557
521.975	572
522.19	546
522.406	569
522.621	566
522.836	550
523.052	558
523.267	539
523.482	546
523.698	545
523.913	532
524.128	550
524.343	543
524.559	524
524.774	531
524.989	529
525.204	551
525.419	544
525.634	535
525.849	540
526.064	526
526.28	521
526.495	531
526.71	521
526.925	516
527.14	521
527.355	533
527.57	532
527.785	513
527.999	520
528.214	540
528.429	560
528.644	537
528.859	525
529.074	544
529.289	529
529.503	536
529.718	539
529.933	523
530.148	542
530.363	546
530.577	536
530.792	506
531.007	529
531.221	508
531.436	554
531.651	526
531.865	510
532.08	530
532.295	530
532.509	525
532.724	532
532.938	541
533.153	510
533.367	512
533.582	521
533.796	530
534.011	527
534.225	544
534.44	514
534.654	521
534.868	523
535.083	498
535.297	518
535.511	503
535.726	514
535.94	515
536.154	492
536.369	494
536.583	460
536.797	494
537.011	510
537.225	492
537.44	492
537.654	483
537.868	497
538.082	485
538.296	477
538.51	492
538.724	489
538.938	475
539.153	491
539.367	458
539.581	475
539.795	470
540.009	489
540.222	454
540.436	472
540.65	470
540.864	456
541.078	464
541.292	506
541.506	500
541.72	459
541.934	470
542.147	492
542.361	481
542.575	478
542.789	470
543.002	460
543.216	466
543.43	452
543.644	477
543.857	475
544.071	474
544.285	488
544.498	469
544.712	475
544.925	477
545.139	484
545.352	490
545.566	485
545.779	467
545.993	472
546.206	490
546.42	495
546.633	489
546.847	486
547.06	479
547.274	478
547.487	472
547.7	465
547.914	458
548.127	509
548.34	461
548.554	470
548.767	490
548.98	475
549.193	488
549.407	482
549.62	500
549.833	489
550.046	498
550.259	478
550.473	483
550.686	496
550.899	476
551.112	492
551.325	470
551.538	481
551.751	485
551.964	496
552.177	486
552.39	512
552.603	510
552.816	500
553.029	516
553.242	512
553.455	496
553.667	532
553.88	496
554.093	487
554.306	477
554.519	476
554.732	481
554.944	474
555.157	492
555.37	472
555.583	474
555.795	434
556.008	455
556.221	452
556.433	446
556.646	433
556.859	421
557.071	460
557.284	444
557.496	449
557.709	428
557.921	413
558.134	428
558.346	411
558.559	437
558.771	420
558.984	410
559.196	416
559.409	402
559.621	388
559.833	414
560.046	399
560.258	406
560.47	408
560.683	414
560.895	403
561.107	393
561.32	394
561.532	404
561.744	411
561.956	442
562.168	434
562.381	403
562.593	412
562.805	404
563.017	433
