Data from Fe(NO3)3@0.1M.TitratingCurve.Agarose3%dH2O.NegLispCup.LampEnergy10.LIBS07252019_HRD10591_16-38-00-332.txt Node
Date: Thu Jul 25 16:38:00 EDT 2019
User: cochatt
Spectrometer: HR+D1059
Trigger mode: 1
Integration Time (sec): 1.000000E-1
Scans to average: 1
Electric dark correction enabled: true
Nonlinearity correction enabled: false
Boxcar width: 0
XAxis mode: Wavelengths
Number of Pixels in Spectrum: 2048
>>>>>Begin Spectral Data<<<<<
223.165	-10.75
223.4	-10.75
223.635	-10.75
223.869	-19.75
224.104	-14.75
224.338	-12.75
224.573	-16.75
224.808	-12.75
225.042	-15.75
225.277	-12.75
225.511	1.25
225.746	18.25
225.98	9.25
226.215	14.25
226.449	13.25
226.683	18.25
226.918	17.25
227.152	24.25
227.387	35.25
227.621	43.25
227.856	56.25
228.09	37.25
228.324	55.25
228.559	59.25
228.793	54.25
229.027	61.25
229.262	72.25
229.496	65.25
229.73	77.25
229.964	98.25
230.199	90.25
230.433	84.25
230.667	87.25
230.901	90.25
231.136	88.25
231.37	87.25
231.604	88.25
231.838	90.25
232.072	92.25
232.306	96.25
232.541	98.25
232.775	94.25
233.009	95.25
233.243	93.25
233.477	104.25
233.711	104.25
233.945	107.25
234.179	111.25
234.413	84.25
234.647	102.25
234.881	89.25
235.115	81.25
235.349	97.25
235.583	93.25
235.817	91.25
236.051	92.25
236.285	89.25
236.519	90.25
236.753	89.25
236.987	93.25
237.221	84.25
237.455	95.25
237.689	90.25
237.922	92.25
238.156	104.25
238.39	100.25
238.624	106.25
238.858	95.25
239.091	101.25
239.325	85.25
239.559	86.25
239.793	98.25
240.027	104.25
240.26	90.25
240.494	98.25
240.728	95.25
240.961	91.25
241.195	99.25
241.429	103.25
241.662	84.25
241.896	100.25
242.13	109.25
242.363	106.25
242.597	105.25
242.83	105.25
243.064	86.25
243.298	107.25
243.531	89.25
243.765	102.25
243.998	83.25
244.232	108.25
244.465	107.25
244.699	86.25
244.932	93.25
245.166	108.25
245.399	108.25
245.633	96.25
245.866	94.25
246.099	104.25
246.333	115.25
246.566	113.25
246.8	113.25
247.033	107.25
247.266	111.25
247.5	108.25
247.733	102.25
247.966	104.25
248.2	116.25
248.433	107.25
248.666	112.25
248.899	119.25
249.133	106.25
249.366	119.25
249.599	100.25
249.832	105.25
250.066	112.25
250.299	100.25
250.532	111.25
250.765	113.25
250.998	116.25
251.231	119.25
251.465	121.25
251.698	101.25
251.931	113.25
252.164	113.25
252.397	135.25
252.63	113.25
252.863	126.25
253.096	100.25
253.329	99.25
253.562	115.25
253.795	128.25
254.028	131.25
254.261	123.25
254.494	127.25
254.727	112.25
254.96	122.25
255.193	117.25
255.426	128.25
255.659	131.25
255.892	128.25
256.124	121.25
256.357	118.25
256.59	135.25
256.823	115.25
257.056	112.25
257.289	123.25
257.521	127.25
257.754	105.25
257.987	112.25
258.22	131.25
258.452	111.25
258.685	135.25
258.918	119.25
259.151	127.25
259.383	131.25
259.616	126.25
259.849	107.25
260.081	139.25
260.314	133.25
260.547	137.25
260.779	128.25
261.012	124.25
261.244	122.25
261.477	149.25
261.71	127.25
261.942	131.25
262.175	118.25
262.407	141.25
262.64	131.25
262.872	120.25
263.105	142.25
263.337	135.25
263.57	124.25
263.802	130.25
264.035	119.25
264.267	130.25
264.499	135.25
264.732	127.25
264.964	132.25
265.197	127.25
265.429	137.25
265.661	129.25
265.894	134.25
266.126	131.25
266.358	135.25
266.591	131.25
266.823	132.25
267.055	138.25
267.287	139.25
267.52	132.25
267.752	131.25
267.984	143.25
268.216	125.25
268.448	139.25
268.681	135.25
268.913	147.25
269.145	151.25
269.377	142.25
269.609	136.25
269.841	134.25
270.073	134.25
270.306	138.25
270.538	141.25
270.77	139.25
271.002	156.25
271.234	144.25
271.466	139.25
271.698	149.25
271.93	122.25
272.162	131.25
272.394	143.25
272.626	147.25
272.858	160.25
273.09	155.25
273.322	141.25
273.553	159.25
273.785	147.25
274.017	140.25
274.249	142.25
274.481	137.25
274.713	134.25
274.945	154.25
275.176	140.25
275.408	165.25
275.64	140.25
275.872	154.25
276.104	131.25
276.335	149.25
276.567	153.25
276.799	151.25
277.031	143.25
277.262	168.25
277.494	161.25
277.726	157.25
277.957	154.25
278.189	150.25
278.421	156.25
278.652	166.25
278.884	155.25
279.115	165.25
279.347	160.25
279.579	155.25
279.81	155.25
280.042	134.25
280.273	162.25
280.505	158.25
280.736	165.25
280.968	162.25
281.199	174.25
281.431	176.25
281.662	159.25
281.894	164.25
282.125	149.25
282.356	180.25
282.588	165.25
282.819	169.25
283.051	160.25
283.282	166.25
283.513	157.25
283.745	162.25
283.976	182.25
284.207	147.25
284.439	183.25
284.67	173.25
284.901	160.25
285.132	155.25
285.364	180.25
285.595	149.25
285.826	183.25
286.057	179.25
286.288	169.25
286.52	166.25
286.751	173.25
286.982	164.25
287.213	185.25
287.444	179.25
287.675	167.25
287.906	167.25
288.138	173.25
288.369	171.25
288.6	195.25
288.831	180.25
289.062	182.25
289.293	175.25
289.524	201.25
289.755	161.25
289.986	161.25
290.217	174.25
290.448	174.25
290.679	176.25
290.91	184.25
291.141	161.25
291.371	176.25
291.602	194.25
291.833	177.25
292.064	162.25
292.295	169.25
292.526	187.25
292.757	163.25
292.987	175.25
293.218	184.25
293.449	184.25
293.68	169.25
293.91	174.25
294.141	193.25
294.372	178.25
294.603	192.25
294.833	187.25
295.064	165.25
295.295	189.25
295.525	191.25
295.756	174.25
295.987	183.25
296.217	176.25
296.448	182.25
296.679	188.25
296.909	171.25
297.14	186.25
297.37	203.25
297.601	181.25
297.831	177.25
298.062	189.25
298.292	193.25
298.523	191.25
298.753	176.25
298.984	181.25
299.214	200.25
299.445	193.25
299.675	180.25
299.905	178.25
300.136	195.25
300.366	191.25
300.597	192.25
300.827	188.25
301.057	187.25
301.288	188.25
301.518	183.25
301.748	189.25
301.979	200.25
302.209	220.25
302.439	186.25
302.669	201.25
302.9	200.25
303.13	188.25
303.36	183.25
303.59	183.25
303.82	195.25
304.051	180.25
304.281	183.25
304.511	195.25
304.741	194.25
304.971	192.25
305.201	201.25
305.431	180.25
305.661	176.25
305.891	208.25
306.121	202.25
306.352	200.25
306.582	201.25
306.812	178.25
307.042	199.25
307.272	202.25
307.502	194.25
307.731	187.25
307.961	188.25
308.191	191.25
308.421	204.25
308.651	194.25
308.881	170.25
309.111	192.25
309.341	185.25
309.571	187.25
309.8	186.25
310.03	208.25
310.26	195.25
310.49	210.25
310.72	199.25
310.949	171.25
311.179	189.25
311.409	186.25
311.639	185.25
311.868	197.25
312.098	219.25
312.328	204.25
312.557	198.25
312.787	197.25
313.017	198.25
313.246	209.25
313.476	201.25
313.706	203.25
313.935	211.25
314.165	207.25
314.394	204.25
314.624	209.25
314.853	199.25
315.083	188.25
315.312	197.25
315.542	189.25
315.771	224.25
316.001	210.25
316.23	201.25
316.46	204.25
316.689	205.25
316.919	202.25
317.148	203.25
317.377	201.25
317.607	200.25
317.836	199.25
318.065	208.25
318.295	210.25
318.524	209.25
318.753	219.25
318.983	192.25
319.212	197.25
319.441	205.25
319.67	187.25
319.9	216.25
320.129	211.25
320.358	197.25
320.587	206.25
320.816	204.25
321.046	210.25
321.275	203.25
321.504	202.25
321.733	217.25
321.962	209.25
322.191	193.25
322.42	208.25
322.649	204.25
322.878	209.25
323.108	193.25
323.337	206.25
323.566	206.25
323.795	218.25
324.024	196.25
324.253	207.25
324.482	211.25
324.71	202.25
324.939	231.25
325.168	211.25
325.397	214.25
325.626	212.25
325.855	219.25
326.084	217.25
326.313	216.25
326.542	230.25
326.77	218.25
326.999	203.25
327.228	208.25
327.457	228.25
327.686	207.25
327.914	212.25
328.143	226.25
328.372	225.25
328.6	217.25
328.829	219.25
329.058	228.25
329.287	221.25
329.515	208.25
329.744	228.25
329.972	235.25
330.201	219.25
330.43	224.25
330.658	225.25
330.887	221.25
331.115	235.25
331.344	243.25
331.572	245.25
331.801	239.25
332.03	239.25
332.258	226.25
332.486	240.25
332.715	266.25
332.943	248.25
333.172	279.25
333.4	275.25
333.629	246.25
333.857	277.25
334.085	273.25
334.314	263.25
334.542	277.25
334.771	253.25
334.999	261.25
335.227	247.25
335.455	279.25
335.684	248.25
335.912	244.25
336.14	244.25
336.369	264.25
336.597	247.25
336.825	252.25
337.053	242.25
337.281	257.25
337.51	249.25
337.738	247.25
337.966	259.25
338.194	232.25
338.422	226.25
338.65	225.25
338.878	226.25
339.106	237.25
339.334	248.25
339.562	235.25
339.79	236.25
340.018	242.25
340.246	219.25
340.474	220.25
340.702	214.25
340.93	234.25
341.158	248.25
341.386	235.25
341.614	229.25
341.842	241.25
342.07	235.25
342.298	224.25
342.526	241.25
342.754	241.25
342.981	220.25
343.209	239.25
343.437	247.25
343.665	268.25
343.893	267.25
344.12	265.25
344.348	275.25
344.576	271.25
344.804	272.25
345.031	251.25
345.259	254.25
345.487	237.25
345.714	223.25
345.942	225.25
346.17	227.25
346.397	239.25
346.625	226.25
346.853	217.25
347.08	222.25
347.308	224.25
347.535	224.25
347.763	231.25
347.99	224.25
348.218	219.25
348.445	234.25
348.673	215.25
348.9	215.25
349.128	213.25
349.355	212.25
349.583	217.25
349.81	213.25
350.037	217.25
350.265	211.25
350.492	218.25
350.72	221.25
350.947	207.25
351.174	216.25
351.402	213.25
351.629	208.25
351.856	220.25
352.083	221.25
352.311	213.25
352.538	209.25
352.765	236.25
352.992	218.25
353.22	223.25
353.447	219.25
353.674	213.25
353.901	213.25
354.128	224.25
354.355	223.25
354.583	210.25
354.81	232.25
355.037	211.25
355.264	219.25
355.491	220.25
355.718	220.25
355.945	220.25
356.172	217.25
356.399	209.25
356.626	216.25
356.853	230.25
357.08	226.25
357.307	223.25
357.534	217.25
357.761	210.25
357.988	229.25
358.215	224.25
358.441	209.25
358.668	228.25
358.895	212.25
359.122	224.25
359.349	219.25
359.576	207.25
359.802	225.25
360.029	203.25
360.256	217.25
360.483	218.25
360.709	223.25
360.936	224.25
361.163	210.25
361.39	229.25
361.616	241.25
361.843	209.25
362.07	225.25
362.296	214.25
362.523	225.25
362.749	212.25
362.976	232.25
363.203	220.25
363.429	217.25
363.656	217.25
363.882	219.25
364.109	205.25
364.335	217.25
364.562	204.25
364.788	209.25
365.015	223.25
365.241	228.25
365.468	214.25
365.694	224.25
365.92	216.25
366.147	219.25
366.373	236.25
366.599	218.25
366.826	229.25
367.052	226.25
367.278	218.25
367.505	219.25
367.731	230.25
367.957	232.25
368.184	227.25
368.41	220.25
368.636	214.25
368.862	239.25
369.089	237.25
369.315	226.25
369.541	220.25
369.767	250.25
369.993	247.25
370.219	220.25
370.445	237.25
370.672	236.25
370.898	231.25
371.124	236.25
371.35	247.25
371.576	235.25
371.802	240.25
372.028	227.25
372.254	244.25
372.48	239.25
372.706	237.25
372.932	242.25
373.158	239.25
373.384	251.25
373.61	233.25
373.835	241.25
374.061	228.25
374.287	252.25
374.513	250.25
374.739	275.25
374.965	262.25
375.191	245.25
375.416	275.25
375.642	258.25
375.868	243.25
376.094	244.25
376.319	258.25
376.545	238.25
376.771	237.25
376.997	233.25
377.222	249.25
377.448	241.25
377.674	241.25
377.899	258.25
378.125	221.25
378.35	247.25
378.576	233.25
378.802	237.25
379.027	237.25
379.253	262.25
379.478	255.25
379.704	226.25
379.929	236.25
380.155	253.25
380.38	230.25
380.606	249.25
380.831	257.25
381.057	243.25
381.282	230.25
381.507	242.25
381.733	225.25
381.958	233.25
382.184	243.25
382.409	276.25
382.634	243.25
382.86	256.25
383.085	249.25
383.31	242.25
383.535	228.25
383.761	259.25
383.986	266.25
384.211	268.25
384.436	277.25
384.662	267.25
384.887	283.25
385.112	286.25
385.337	264.25
385.562	272.25
385.787	275.25
386.013	292.25
386.238	281.25
386.463	274.25
386.688	283.25
386.913	285.25
387.138	274.25
387.363	272.25
387.588	287.25
387.813	284.25
388.038	290.25
388.263	280.25
388.488	267.25
388.713	280.25
388.938	283.25
389.163	292.25
389.387	258.25
389.612	280.25
389.837	283.25
390.062	280.25
390.287	268.25
390.512	295.25
390.736	273.25
390.961	273.25
391.186	288.25
391.411	303.25
391.636	301.25
391.86	328.25
392.085	312.25
392.31	309.25
392.534	319.25
392.759	315.25
392.984	320.25
393.208	312.25
393.433	287.25
393.658	303.25
393.882	299.25
394.107	305.25
394.331	321.25
394.556	319.25
394.78	298.25
395.005	321.25
395.229	314.25
395.454	316.25
395.678	321.25
395.903	298.25
396.127	308.25
396.352	295.25
396.576	309.25
396.801	305.25
397.025	322.25
397.249	313.25
397.474	319.25
397.698	298.25
397.922	323.25
398.147	335.25
398.371	320.25
398.595	337.25
398.82	352.25
399.044	349.25
399.268	403.25
399.492	458.25
399.717	495.25
399.941	470.25
400.165	425.25
400.389	386.25
400.613	378.25
400.837	362.25
401.062	346.25
401.286	339.25
401.51	367.25
401.734	359.25
401.958	348.25
402.182	346.25
402.406	360.25
402.63	361.25
402.854	352.25
403.078	363.25
403.302	397.25
403.526	401.25
403.75	395.25
403.974	387.25
404.198	389.25
404.422	405.25
404.645	376.25
404.869	386.25
405.093	391.25
405.317	380.25
405.541	376.25
405.765	380.25
405.988	387.25
406.212	367.25
406.436	398.25
406.66	392.25
406.883	387.25
407.107	410.25
407.331	426.25
407.555	461.25
407.778	448.25
408.002	435.25
408.226	414.25
408.449	399.25
408.673	392.25
408.896	388.25
409.12	379.25
409.344	395.25
409.567	378.25
409.791	388.25
410.014	391.25
410.238	393.25
410.461	401.25
410.685	375.25
410.908	395.25
411.132	383.25
411.355	378.25
411.578	360.25
411.802	358.25
412.025	364.25
412.249	360.25
412.472	373.25
412.695	356.25
412.919	353.25
413.142	354.25
413.365	341.25
413.589	362.25
413.812	345.25
414.035	374.25
414.258	358.25
414.482	342.25
414.705	342.25
414.928	341.25
415.151	345.25
415.374	345.25
415.597	353.25
415.821	359.25
416.044	355.25
416.267	338.25
416.49	331.25
416.713	361.25
416.936	348.25
417.159	354.25
417.382	358.25
417.605	352.25
417.828	344.25
418.051	371.25
418.274	375.25
418.497	351.25
418.72	360.25
418.943	355.25
419.166	353.25
419.389	395.25
419.611	399.25
419.834	379.25
420.057	380.25
420.28	352.25
420.503	337.25
420.726	358.25
420.948	361.25
421.171	350.25
421.394	349.25
421.617	351.25
421.839	365.25
422.062	345.25
422.285	360.25
422.507	361.25
422.73	359.25
422.953	351.25
423.175	369.25
423.398	367.25
423.621	368.25
423.843	373.25
424.066	374.25
424.288	382.25
424.511	372.25
424.733	371.25
424.956	346.25
425.178	323.25
425.401	347.25
425.623	380.25
425.846	338.25
426.068	348.25
426.291	359.25
426.513	343.25
426.735	331.25
426.958	328.25
427.18	325.25
427.402	340.25
427.625	327.25
427.847	328.25
428.069	333.25
428.292	323.25
428.514	327.25
428.736	317.25
428.958	327.25
429.181	313.25
429.403	307.25
429.625	320.25
429.847	313.25
430.069	308.25
430.292	327.25
430.514	296.25
430.736	325.25
430.958	350.25
431.18	317.25
431.402	313.25
431.624	300.25
431.846	311.25
432.068	319.25
432.29	313.25
432.512	331.25
432.734	331.25
432.956	322.25
433.178	336.25
433.4	335.25
433.622	325.25
433.844	333.25
434.066	338.25
434.287	331.25
434.509	315.25
434.731	342.25
434.953	340.25
435.175	359.25
435.397	365.25
435.618	332.25
435.84	307.25
436.062	332.25
436.284	333.25
436.505	329.25
436.727	325.25
436.949	323.25
437.17	337.25
437.392	321.25
437.614	320.25
437.835	312.25
438.057	322.25
438.278	315.25
438.5	317.25
438.721	316.25
438.943	336.25
439.165	334.25
439.386	311.25
439.608	318.25
439.829	341.25
440.05	326.25
440.272	326.25
440.493	314.25
440.715	300.25
440.936	322.25
441.158	348.25
441.379	350.25
441.6	353.25
441.822	367.25
442.043	360.25
442.264	371.25
442.486	343.25
442.707	324.25
442.928	348.25
443.149	347.25
443.371	360.25
443.592	337.25
443.813	369.25
444.034	356.25
444.255	364.25
444.476	386.25
444.698	402.25
444.919	416.25
445.14	529.25
445.361	413.25
445.582	373.25
445.803	364.25
446.024	344.25
446.245	343.25
446.466	323.25
446.687	319.25
446.908	312.25
447.129	314.25
447.35	304.25
447.571	324.25
447.792	312.25
448.013	315.25
448.234	318.25
448.455	303.25
448.675	307.25
448.896	318.25
449.117	313.25
449.338	300.25
449.559	294.25
449.779	297.25
450	307.25
450.221	307.25
450.442	295.25
450.662	291.25
450.883	320.25
451.104	311.25
451.324	306.25
451.545	303.25
451.766	311.25
451.986	311.25
452.207	311.25
452.428	299.25
452.648	311.25
452.869	308.25
453.089	294.25
453.31	313.25
453.53	285.25
453.751	299.25
453.971	290.25
454.192	295.25
454.412	277.25
454.633	291.25
454.853	290.25
455.073	282.25
455.294	306.25
455.514	293.25
455.734	285.25
455.955	282.25
456.175	280.25
456.395	283.25
456.616	284.25
456.836	267.25
457.056	290.25
457.276	277.25
457.497	279.25
457.717	265.25
457.937	287.25
458.157	282.25
458.377	298.25
458.598	298.25
458.818	307.25
459.038	287.25
459.258	330.25
459.478	322.25
459.698	323.25
459.918	340.25
460.138	337.25
460.358	374.25
460.578	343.25
460.798	372.25
461.018	383.25
461.238	372.25
461.458	372.25
461.678	363.25
461.898	364.25
462.118	360.25
462.338	414.25
462.558	413.25
462.777	420.25
462.997	442.25
463.217	459.25
463.437	455.25
463.657	430.25
463.876	416.25
464.096	412.25
464.316	435.25
464.536	415.25
464.755	399.25
464.975	381.25
465.195	379.25
465.414	362.25
465.634	337.25
465.854	347.25
466.073	328.25
466.293	337.25
466.512	329.25
466.732	314.25
466.951	311.25
467.171	327.25
467.391	311.25
467.61	319.25
467.829	297.25
468.049	303.25
468.268	307.25
468.488	312.25
468.707	294.25
468.927	304.25
469.146	312.25
469.365	310.25
469.585	312.25
469.804	319.25
470.023	309.25
470.243	315.25
470.462	324.25
470.681	325.25
470.901	320.25
471.12	324.25
471.339	294.25
471.558	307.25
471.777	302.25
471.997	307.25
472.216	305.25
472.435	323.25
472.654	322.25
472.873	294.25
473.092	309.25
473.311	293.25
473.53	296.25
473.749	296.25
473.968	293.25
474.187	311.25
474.406	303.25
474.625	289.25
474.844	313.25
475.063	308.25
475.282	306.25
475.501	310.25
475.72	309.25
475.939	285.25
476.158	294.25
476.377	307.25
476.596	290.25
476.814	327.25
477.033	296.25
477.252	310.25
477.471	332.25
477.69	345.25
477.908	313.25
478.127	357.25
478.346	356.25
478.564	354.25
478.783	362.25
479.002	356.25
479.22	357.25
479.439	361.25
479.658	361.25
479.876	358.25
480.095	374.25
480.313	383.25
480.532	369.25
480.751	381.25
480.969	370.25
481.188	358.25
481.406	361.25
481.624	342.25
481.843	333.25
482.061	326.25
482.28	332.25
482.498	327.25
482.717	339.25
482.935	342.25
483.153	339.25
483.372	328.25
483.59	330.25
483.808	344.25
484.027	345.25
484.245	346.25
484.463	348.25
484.681	349.25
484.9	349.25
485.118	330.25
485.336	345.25
485.554	355.25
485.772	351.25
485.99	340.25
486.209	349.25
486.427	356.25
486.645	362.25
486.863	335.25
487.081	335.25
487.299	338.25
487.517	340.25
487.735	358.25
487.953	353.25
488.171	337.25
488.389	363.25
488.607	344.25
488.825	365.25
489.043	352.25
489.261	340.25
489.479	343.25
489.696	375.25
489.914	341.25
490.132	357.25
490.35	358.25
490.568	340.25
490.786	334.25
491.003	345.25
491.221	360.25
491.439	350.25
491.657	360.25
491.874	357.25
492.092	353.25
492.31	352.25
492.527	359.25
492.745	356.25
492.963	373.25
493.18	370.25
493.398	385.25
493.615	360.25
493.833	351.25
494.05	371.25
494.268	345.25
494.485	374.25
494.703	382.25
494.92	381.25
495.138	379.25
495.355	352.25
495.573	362.25
495.79	366.25
496.008	371.25
496.225	369.25
496.442	381.25
496.66	384.25
496.877	377.25
497.094	395.25
497.312	380.25
497.529	400.25
497.746	414.25
497.963	424.25
498.181	439.25
498.398	443.25
498.615	459.25
498.832	505.25
499.049	501.25
499.267	563.25
499.484	634.25
499.701	669.25
499.918	721.25
500.135	833.25
500.352	899.25
500.569	900.25
500.786	889.25
501.003	812.25
501.22	762.25
501.437	664.25
501.654	613.25
501.871	569.25
502.088	543.25
502.305	527.25
