Data from Fe(NO3)3@0.025M.TitratingCurve.Agarose3%dH2O.NegLispCup.LampEnergy10.LIBS07252019_HRD10591_16-54-56-335.txt Node
Date: Thu Jul 25 16:54:56 EDT 2019
User: cochatt
Spectrometer: HR+D1059
Trigger mode: 1
Integration Time (sec): 1.000000E-1
Scans to average: 1
Electric dark correction enabled: true
Nonlinearity correction enabled: false
Boxcar width: 0
XAxis mode: Wavelengths
Number of Pixels in Spectrum: 2048
>>>>>Begin Spectral Data<<<<<
223.165	-0.5
223.4	-0.5
223.635	-0.5
223.869	-14.5
224.104	-28.5
224.338	-16.5
224.573	-24.5
224.808	-22.5
225.042	-2.5
225.277	-8.5
225.511	-4.5
225.746	-2.5
225.98	14.5
226.215	22.5
226.449	14.5
226.683	27.5
226.918	22.5
227.152	23.5
227.387	29.5
227.621	49.5
227.856	50.5
228.09	48.5
228.324	54.5
228.559	69.5
228.793	60.5
229.027	70.5
229.262	69.5
229.496	76.5
229.73	77.5
229.964	74.5
230.199	83.5
230.433	102.5
230.667	107.5
230.901	95.5
231.136	96.5
231.37	95.5
231.604	82.5
231.838	99.5
232.072	93.5
232.306	103.5
232.541	93.5
232.775	117.5
233.009	101.5
233.243	103.5
233.477	91.5
233.711	92.5
233.945	94.5
234.179	99.5
234.413	105.5
234.647	111.5
234.881	88.5
235.115	104.5
235.349	78.5
235.583	100.5
235.817	104.5
236.051	103.5
236.285	95.5
236.519	85.5
236.753	92.5
236.987	130.5
237.221	105.5
237.455	96.5
237.689	88.5
237.922	90.5
238.156	76.5
238.39	101.5
238.624	90.5
238.858	91.5
239.091	109.5
239.325	104.5
239.559	109.5
239.793	107.5
240.027	98.5
240.26	126.5
240.494	122.5
240.728	97.5
240.961	96.5
241.195	108.5
241.429	124.5
241.662	103.5
241.896	104.5
242.13	99.5
242.363	99.5
242.597	103.5
242.83	122.5
243.064	91.5
243.298	116.5
243.531	96.5
243.765	102.5
243.998	116.5
244.232	112.5
244.465	99.5
244.699	115.5
244.932	118.5
245.166	120.5
245.399	112.5
245.633	104.5
245.866	118.5
246.099	101.5
246.333	114.5
246.566	128.5
246.8	108.5
247.033	114.5
247.266	119.5
247.5	122.5
247.733	103.5
247.966	122.5
248.2	104.5
248.433	123.5
248.666	114.5
248.899	125.5
249.133	124.5
249.366	130.5
249.599	130.5
249.832	109.5
250.066	134.5
250.299	115.5
250.532	132.5
250.765	123.5
250.998	117.5
251.231	126.5
251.465	122.5
251.698	118.5
251.931	128.5
252.164	124.5
252.397	136.5
252.63	124.5
252.863	126.5
253.096	121.5
253.329	127.5
253.562	136.5
253.795	133.5
254.028	140.5
254.261	133.5
254.494	128.5
254.727	130.5
254.96	129.5
255.193	132.5
255.426	138.5
255.659	137.5
255.892	131.5
256.124	146.5
256.357	143.5
256.59	128.5
256.823	132.5
257.056	136.5
257.289	121.5
257.521	138.5
257.754	122.5
257.987	148.5
258.22	145.5
258.452	129.5
258.685	130.5
258.918	132.5
259.151	132.5
259.383	125.5
259.616	142.5
259.849	135.5
260.081	141.5
260.314	149.5
260.547	143.5
260.779	151.5
261.012	134.5
261.244	150.5
261.477	137.5
261.71	132.5
261.942	138.5
262.175	122.5
262.407	135.5
262.64	133.5
262.872	133.5
263.105	139.5
263.337	139.5
263.57	149.5
263.802	146.5
264.035	138.5
264.267	151.5
264.499	144.5
264.732	153.5
264.964	141.5
265.197	151.5
265.429	140.5
265.661	147.5
265.894	153.5
266.126	158.5
266.358	151.5
266.591	142.5
266.823	158.5
267.055	152.5
267.287	142.5
267.52	153.5
267.752	146.5
267.984	148.5
268.216	161.5
268.448	161.5
268.681	164.5
268.913	156.5
269.145	146.5
269.377	153.5
269.609	157.5
269.841	153.5
270.073	161.5
270.306	169.5
270.538	171.5
270.77	144.5
271.002	160.5
271.234	147.5
271.466	160.5
271.698	156.5
271.93	147.5
272.162	168.5
272.394	150.5
272.626	150.5
272.858	150.5
273.09	161.5
273.322	157.5
273.553	149.5
273.785	156.5
274.017	177.5
274.249	173.5
274.481	183.5
274.713	134.5
274.945	180.5
275.176	169.5
275.408	168.5
275.64	178.5
275.872	169.5
276.104	192.5
276.335	178.5
276.567	170.5
276.799	179.5
277.031	158.5
277.262	171.5
277.494	176.5
277.726	186.5
277.957	162.5
278.189	184.5
278.421	178.5
278.652	170.5
278.884	174.5
279.115	177.5
279.347	171.5
279.579	176.5
279.81	184.5
280.042	182.5
280.273	171.5
280.505	177.5
280.736	196.5
280.968	189.5
281.199	173.5
281.431	167.5
281.662	172.5
281.894	194.5
282.125	192.5
282.356	171.5
282.588	178.5
282.819	180.5
283.051	189.5
283.282	191.5
283.513	174.5
283.745	181.5
283.976	189.5
284.207	205.5
284.439	183.5
284.67	184.5
284.901	186.5
285.132	180.5
285.364	181.5
285.595	197.5
285.826	184.5
286.057	180.5
286.288	200.5
286.52	201.5
286.751	185.5
286.982	191.5
287.213	193.5
287.444	197.5
287.675	209.5
287.906	192.5
288.138	207.5
288.369	200.5
288.6	184.5
288.831	205.5
289.062	199.5
289.293	205.5
289.524	194.5
289.755	207.5
289.986	195.5
290.217	206.5
290.448	213.5
290.679	200.5
290.91	202.5
291.141	202.5
291.371	208.5
291.602	184.5
291.833	194.5
292.064	210.5
292.295	212.5
292.526	217.5
292.757	199.5
292.987	200.5
293.218	201.5
293.449	193.5
293.68	200.5
293.91	205.5
294.141	190.5
294.372	205.5
294.603	188.5
294.833	201.5
295.064	212.5
295.295	205.5
295.525	183.5
295.756	209.5
295.987	213.5
296.217	214.5
296.448	209.5
296.679	195.5
296.909	205.5
297.14	219.5
297.37	214.5
297.601	219.5
297.831	218.5
298.062	204.5
298.292	224.5
298.523	225.5
298.753	238.5
298.984	203.5
299.214	230.5
299.445	222.5
299.675	228.5
299.905	219.5
300.136	242.5
300.366	244.5
300.597	210.5
300.827	229.5
301.057	230.5
301.288	224.5
301.518	231.5
301.748	246.5
301.979	218.5
302.209	243.5
302.439	240.5
302.669	240.5
302.9	227.5
303.13	229.5
303.36	228.5
303.59	240.5
303.82	232.5
304.051	234.5
304.281	249.5
304.511	231.5
304.741	219.5
304.971	214.5
305.201	234.5
305.431	231.5
305.661	228.5
305.891	229.5
306.121	233.5
306.352	240.5
306.582	226.5
306.812	230.5
307.042	236.5
307.272	237.5
307.502	245.5
307.731	220.5
307.961	228.5
308.191	243.5
308.421	228.5
308.651	252.5
308.881	218.5
309.111	230.5
309.341	233.5
309.571	235.5
309.8	228.5
310.03	231.5
310.26	247.5
310.49	235.5
310.72	240.5
310.949	242.5
311.179	260.5
311.409	238.5
311.639	240.5
311.868	234.5
312.098	240.5
312.328	260.5
312.557	252.5
312.787	230.5
313.017	256.5
313.246	240.5
313.476	228.5
313.706	246.5
313.935	248.5
314.165	263.5
314.394	244.5
314.624	241.5
314.853	242.5
315.083	233.5
315.312	232.5
315.542	228.5
315.771	258.5
316.001	244.5
316.23	248.5
316.46	232.5
316.689	267.5
316.919	247.5
317.148	247.5
317.377	245.5
317.607	261.5
317.836	247.5
318.065	228.5
318.295	232.5
318.524	244.5
318.753	246.5
318.983	245.5
319.212	251.5
319.441	243.5
319.67	248.5
319.9	250.5
320.129	242.5
320.358	255.5
320.587	248.5
320.816	240.5
321.046	231.5
321.275	266.5
321.504	229.5
321.733	246.5
321.962	248.5
322.191	249.5
322.42	253.5
322.649	268.5
322.878	251.5
323.108	248.5
323.337	262.5
323.566	245.5
323.795	262.5
324.024	255.5
324.253	256.5
324.482	254.5
324.71	259.5
324.939	260.5
325.168	268.5
325.397	263.5
325.626	267.5
325.855	257.5
326.084	256.5
326.313	265.5
326.542	262.5
326.77	249.5
326.999	267.5
327.228	276.5
327.457	280.5
327.686	259.5
327.914	264.5
328.143	259.5
328.372	275.5
328.6	271.5
328.829	273.5
329.058	263.5
329.287	272.5
329.515	252.5
329.744	269.5
329.972	278.5
330.201	281.5
330.43	281.5
330.658	275.5
330.887	274.5
331.115	295.5
331.344	294.5
331.572	305.5
331.801	293.5
332.03	296.5
332.258	304.5
332.486	314.5
332.715	311.5
332.943	305.5
333.172	330.5
333.4	325.5
333.629	339.5
333.857	329.5
334.085	324.5
334.314	331.5
334.542	331.5
334.771	321.5
334.999	316.5
335.227	346.5
335.455	312.5
335.684	326.5
335.912	319.5
336.14	320.5
336.369	301.5
336.597	326.5
336.825	321.5
337.053	323.5
337.281	306.5
337.51	296.5
337.738	314.5
337.966	299.5
338.194	279.5
338.422	284.5
338.65	293.5
338.878	304.5
339.106	298.5
339.334	290.5
339.562	283.5
339.79	278.5
340.018	272.5
340.246	274.5
340.474	285.5
340.702	280.5
340.93	272.5
341.158	266.5
341.386	300.5
341.614	289.5
341.842	282.5
342.07	293.5
342.298	282.5
342.526	300.5
342.754	293.5
342.981	290.5
343.209	294.5
343.437	310.5
343.665	326.5
343.893	323.5
344.12	328.5
344.348	313.5
344.576	297.5
344.804	297.5
345.031	311.5
345.259	301.5
345.487	301.5
345.714	287.5
345.942	297.5
346.17	276.5
346.397	268.5
346.625	273.5
346.853	274.5
347.08	276.5
347.308	267.5
347.535	280.5
347.763	276.5
347.99	278.5
348.218	276.5
348.445	274.5
348.673	294.5
348.9	276.5
349.128	292.5
349.355	268.5
349.583	308.5
349.81	299.5
350.037	283.5
350.265	266.5
350.492	284.5
350.72	272.5
350.947	262.5
351.174	259.5
351.402	273.5
351.629	266.5
351.856	257.5
352.083	286.5
352.311	268.5
352.538	263.5
352.765	261.5
352.992	270.5
353.22	283.5
353.447	276.5
353.674	273.5
353.901	292.5
354.128	261.5
354.355	254.5
354.583	267.5
354.81	293.5
355.037	296.5
355.264	282.5
355.491	256.5
355.718	280.5
355.945	259.5
356.172	268.5
356.399	278.5
356.626	262.5
356.853	278.5
357.08	281.5
357.307	282.5
357.534	288.5
357.761	281.5
357.988	276.5
358.215	269.5
358.441	268.5
358.668	280.5
358.895	289.5
359.122	274.5
359.349	281.5
359.576	270.5
359.802	283.5
360.029	268.5
360.256	292.5
360.483	264.5
360.709	280.5
360.936	296.5
361.163	279.5
361.39	294.5
361.616	266.5
361.843	269.5
362.07	267.5
362.296	270.5
362.523	284.5
362.749	291.5
362.976	299.5
363.203	293.5
363.429	273.5
363.656	272.5
363.882	282.5
364.109	280.5
364.335	290.5
364.562	277.5
364.788	269.5
365.015	280.5
365.241	272.5
365.468	291.5
365.694	276.5
365.92	277.5
366.147	270.5
366.373	269.5
366.599	280.5
366.826	281.5
367.052	298.5
367.278	273.5
367.505	297.5
367.731	301.5
367.957	297.5
368.184	311.5
368.41	290.5
368.636	288.5
368.862	292.5
369.089	292.5
369.315	298.5
369.541	292.5
369.767	278.5
369.993	290.5
370.219	306.5
370.445	290.5
370.672	293.5
370.898	291.5
371.124	305.5
371.35	312.5
371.576	308.5
371.802	307.5
372.028	301.5
372.254	289.5
372.48	306.5
372.706	294.5
372.932	300.5
373.158	299.5
373.384	298.5
373.61	316.5
373.835	312.5
374.061	306.5
374.287	317.5
374.513	312.5
374.739	338.5
374.965	319.5
375.191	328.5
375.416	316.5
375.642	316.5
375.868	312.5
376.094	312.5
376.319	311.5
376.545	306.5
376.771	313.5
376.997	297.5
377.222	300.5
377.448	312.5
377.674	297.5
377.899	308.5
378.125	312.5
378.35	306.5
378.576	314.5
378.802	295.5
379.027	312.5
379.253	300.5
379.478	294.5
379.704	284.5
379.929	289.5
380.155	304.5
380.38	297.5
380.606	310.5
380.831	328.5
381.057	317.5
381.282	309.5
381.507	292.5
381.733	308.5
381.958	276.5
382.184	300.5
382.409	311.5
382.634	311.5
382.86	313.5
383.085	309.5
383.31	327.5
383.535	352.5
383.761	349.5
383.986	340.5
384.211	338.5
384.436	334.5
384.662	346.5
384.887	355.5
385.112	363.5
385.337	352.5
385.562	341.5
385.787	355.5
386.013	347.5
386.238	353.5
386.463	345.5
386.688	364.5
386.913	352.5
387.138	348.5
387.363	349.5
387.588	335.5
387.813	336.5
388.038	342.5
388.263	331.5
388.488	363.5
388.713	358.5
388.938	350.5
389.163	347.5
389.387	336.5
389.612	337.5
389.837	345.5
390.062	346.5
390.287	349.5
390.512	344.5
390.736	338.5
390.961	359.5
391.186	355.5
391.411	368.5
391.636	376.5
391.86	384.5
392.085	383.5
392.31	387.5
392.534	390.5
392.759	368.5
392.984	374.5
393.208	366.5
393.433	374.5
393.658	364.5
393.882	380.5
394.107	377.5
394.331	369.5
394.556	368.5
394.78	368.5
395.005	389.5
395.229	366.5
395.454	393.5
395.678	392.5
395.903	403.5
396.127	390.5
396.352	376.5
396.576	361.5
396.801	363.5
397.025	387.5
397.249	406.5
397.474	411.5
397.698	412.5
397.922	371.5
398.147	393.5
398.371	404.5
398.595	406.5
398.82	442.5
399.044	442.5
399.268	474.5
399.492	530.5
399.717	568.5
399.941	562.5
400.165	531.5
400.389	490.5
400.613	440.5
400.837	440.5
401.062	421.5
401.286	454.5
401.51	402.5
401.734	422.5
401.958	433.5
402.182	421.5
402.406	435.5
402.63	456.5
402.854	444.5
403.078	454.5
403.302	449.5
403.526	453.5
403.75	482.5
403.974	469.5
404.198	458.5
404.422	450.5
404.645	457.5
404.869	460.5
405.093	474.5
405.317	422.5
405.541	439.5
405.765	448.5
405.988	464.5
406.212	459.5
406.436	449.5
406.66	484.5
406.883	471.5
407.107	469.5
407.331	521.5
407.555	522.5
407.778	547.5
408.002	516.5
408.226	506.5
408.449	466.5
408.673	481.5
408.896	470.5
409.12	484.5
409.344	482.5
409.567	472.5
409.791	468.5
410.014	450.5
410.238	441.5
410.461	457.5
410.685	450.5
410.908	471.5
411.132	448.5
411.355	438.5
411.578	440.5
411.802	438.5
412.025	424.5
412.249	446.5
412.472	452.5
412.695	437.5
412.919	430.5
413.142	426.5
413.365	426.5
413.589	439.5
413.812	429.5
414.035	437.5
414.258	434.5
414.482	443.5
414.705	432.5
414.928	405.5
415.151	413.5
415.374	429.5
415.597	404.5
415.821	406.5
416.044	426.5
416.267	426.5
416.49	411.5
416.713	416.5
416.936	418.5
417.159	414.5
417.382	408.5
417.605	410.5
417.828	404.5
418.051	408.5
418.274	434.5
418.497	408.5
418.72	441.5
418.943	425.5
419.166	446.5
419.389	461.5
419.611	445.5
419.834	443.5
420.057	420.5
420.28	442.5
420.503	406.5
420.726	399.5
420.948	422.5
421.171	419.5
421.394	402.5
421.617	420.5
421.839	429.5
422.062	418.5
422.285	409.5
422.507	421.5
422.73	401.5
422.953	409.5
423.175	406.5
423.398	453.5
423.621	407.5
423.843	430.5
424.066	433.5
424.288	436.5
424.511	416.5
424.733	409.5
424.956	420.5
425.178	405.5
425.401	441.5
425.623	429.5
425.846	402.5
426.068	414.5
426.291	410.5
426.513	406.5
426.735	391.5
426.958	384.5
427.18	406.5
427.402	374.5
427.625	365.5
427.847	370.5
428.069	376.5
428.292	381.5
428.514	379.5
428.736	380.5
428.958	362.5
429.181	375.5
429.403	387.5
429.625	393.5
429.847	384.5
430.069	365.5
430.292	372.5
430.514	360.5
430.736	378.5
430.958	372.5
431.18	375.5
431.402	361.5
431.624	366.5
431.846	381.5
432.068	394.5
432.29	392.5
432.512	369.5
432.734	385.5
432.956	373.5
433.178	392.5
433.4	399.5
433.622	380.5
433.844	400.5
434.066	394.5
434.287	380.5
434.509	387.5
434.731	419.5
434.953	398.5
435.175	418.5
435.397	415.5
435.618	409.5
435.84	387.5
436.062	362.5
436.284	376.5
436.505	360.5
436.727	398.5
436.949	392.5
437.17	382.5
437.392	359.5
437.614	371.5
437.835	348.5
438.057	361.5
438.278	368.5
438.5	358.5
438.721	369.5
438.943	390.5
439.165	355.5
439.386	380.5
439.608	382.5
439.829	362.5
440.05	390.5
440.272	362.5
440.493	379.5
440.715	387.5
440.936	387.5
441.158	391.5
441.379	416.5
441.6	405.5
441.822	428.5
442.043	401.5
442.264	396.5
442.486	386.5
442.707	410.5
442.928	413.5
443.149	408.5
443.371	416.5
443.592	407.5
443.813	416.5
444.034	423.5
444.255	438.5
444.476	443.5
444.698	463.5
444.919	460.5
445.14	534.5
445.361	458.5
445.582	399.5
445.803	384.5
446.024	406.5
446.245	402.5
446.466	398.5
446.687	379.5
446.908	380.5
447.129	368.5
447.35	357.5
447.571	371.5
447.792	365.5
448.013	362.5
448.234	353.5
448.455	338.5
448.675	345.5
448.896	333.5
449.117	337.5
449.338	347.5
449.559	344.5
449.779	333.5
450	360.5
450.221	365.5
450.442	360.5
450.662	358.5
450.883	367.5
451.104	373.5
451.324	369.5
451.545	356.5
451.766	350.5
451.986	330.5
452.207	347.5
452.428	352.5
452.648	353.5
452.869	331.5
453.089	337.5
453.31	356.5
453.53	338.5
453.751	332.5
453.971	331.5
454.192	361.5
454.412	328.5
454.633	332.5
454.853	352.5
455.073	356.5
455.294	326.5
455.514	346.5
455.734	318.5
455.955	325.5
456.175	338.5
456.395	320.5
456.616	339.5
456.836	337.5
457.056	328.5
457.276	340.5
457.497	330.5
457.717	345.5
457.937	354.5
458.157	338.5
458.377	328.5
458.598	339.5
458.818	349.5
459.038	357.5
459.258	378.5
459.478	378.5
459.698	388.5
459.918	390.5
460.138	397.5
460.358	410.5
460.578	437.5
460.798	434.5
461.018	393.5
461.238	435.5
461.458	434.5
461.678	435.5
461.898	422.5
462.118	427.5
462.338	464.5
462.558	468.5
462.777	485.5
462.997	488.5
463.217	518.5
463.437	528.5
463.657	498.5
463.876	490.5
464.096	492.5
464.316	481.5
464.536	469.5
464.755	460.5
464.975	433.5
465.195	437.5
465.414	415.5
465.634	412.5
465.854	398.5
466.073	401.5
466.293	388.5
466.512	378.5
466.732	374.5
466.951	374.5
467.171	375.5
467.391	357.5
467.61	365.5
467.829	357.5
468.049	351.5
468.268	365.5
468.488	355.5
468.707	358.5
468.927	337.5
469.146	349.5
469.365	349.5
469.585	364.5
469.804	362.5
470.023	383.5
470.243	384.5
470.462	373.5
470.681	388.5
470.901	365.5
471.12	371.5
471.339	376.5
471.558	368.5
471.777	370.5
471.997	349.5
472.216	385.5
472.435	342.5
472.654	363.5
472.873	359.5
473.092	354.5
473.311	336.5
473.53	354.5
473.749	356.5
473.968	350.5
474.187	339.5
474.406	360.5
474.625	345.5
474.844	360.5
475.063	346.5
475.282	360.5
475.501	357.5
475.72	379.5
475.939	360.5
476.158	363.5
476.377	352.5
476.596	360.5
476.814	382.5
477.033	385.5
477.252	387.5
477.471	388.5
477.69	387.5
477.908	422.5
478.127	385.5
478.346	398.5
478.564	409.5
478.783	400.5
479.002	422.5
479.22	425.5
479.439	423.5
479.658	407.5
479.876	395.5
480.095	421.5
480.313	438.5
480.532	437.5
480.751	428.5
480.969	425.5
481.188	428.5
481.406	412.5
481.624	403.5
481.843	415.5
482.061	391.5
482.28	402.5
482.498	373.5
482.717	394.5
482.935	410.5
483.153	390.5
483.372	403.5
483.59	386.5
483.808	397.5
484.027	397.5
484.245	400.5
484.463	404.5
484.681	398.5
484.9	406.5
485.118	420.5
485.336	392.5
485.554	414.5
485.772	419.5
485.99	421.5
486.209	393.5
486.427	397.5
486.645	390.5
486.863	399.5
487.081	381.5
487.299	410.5
487.517	396.5
487.735	413.5
487.953	422.5
488.171	407.5
488.389	416.5
488.607	400.5
488.825	405.5
489.043	422.5
489.261	421.5
489.479	421.5
489.696	401.5
489.914	406.5
490.132	391.5
490.35	397.5
490.568	408.5
490.786	420.5
491.003	401.5
491.221	406.5
491.439	407.5
491.657	424.5
491.874	438.5
492.092	393.5
492.31	413.5
492.527	430.5
492.745	394.5
492.963	423.5
493.18	438.5
493.398	429.5
493.615	436.5
493.833	430.5
494.05	438.5
494.268	438.5
494.485	419.5
494.703	446.5
494.92	424.5
495.138	425.5
495.355	420.5
495.573	438.5
495.79	448.5
496.008	432.5
496.225	429.5
496.442	458.5
496.66	454.5
496.877	446.5
497.094	461.5
497.312	473.5
497.529	498.5
497.746	491.5
497.963	513.5
498.181	522.5
498.398	537.5
498.615	578.5
498.832	594.5
499.049	640.5
499.267	668.5
499.484	738.5
499.701	770.5
499.918	835.5
500.135	954.5
500.352	1012.5
500.569	1036.5
500.786	1024.5
501.003	980.5
501.22	864.5
501.437	786.5
501.654	748.5
501.871	700.5
502.088	640.5
502.305	603.5
502.522	576.5
502.739	554.5
502.956	552.5
503.172	524.5
503.389	513.5
503.606	506.5
503.823	510.5
504.04	495.5
504.256	502.5
504.473	496.5
504.69	499.5
504.907	488.5
505.123	451.5
505.34	452.5
505.557	432.5
505.773	421.5
505.99	410.5
506.207	418.5
506.423	404.5
506.64	412.5
506.856	397.5
507.073	374.5
507.289	390.5
507.506	392.5
507.722	385.5
507.939	375.5
508.155	404.5
508.372	373.5
508.588	371.5
508.805	359.5
509.021	384.5
509.238	382.5
509.454	366.5
509.67	363.5
509.887	377.5
510.103	380.5
510.319	382.5
510.536	383.5
510.752	353.5
510.968	370.5
511.184	376.5
511.401	358.5
511.617	370.5
511.833	380.5
512.049	355.5
512.265	374.5
512.481	362.5
512.698	366.5
512.914	365.5
513.13	353.5
513.346	380.5
513.562	360.5
513.778	382.5
513.994	388.5
514.21	357.5
514.426	372.5
514.642	374.5
514.858	388.5
515.074	375.5
515.29	375.5
515.506	365.5
515.721	376.5
515.937	395.5
516.153	369.5
516.369	389.5
516.585	425.5
516.801	408.5
517.016	421.5
517.232	461.5
517.448	457.5
517.664	482.5
517.879	489.5
518.095	453.5
518.311	429.5
518.527	430.5
518.742	420.5
518.958	412.5
519.173	422.5
519.389	406.5
519.605	409.5
519.82	395.5
520.036	392.5
