Data from Fe(NO3)3@0.025M.TitratingCurve.Agarose3%dH2O.NegLispCup.LampEnergy10.LIBS07252019_HRD10591_16-55-03-335.txt Node
Date: Thu Jul 25 16:55:03 EDT 2019
User: cochatt
Spectrometer: HR+D1059
Trigger mode: 1
Integration Time (sec): 1.000000E-1
Scans to average: 1
Electric dark correction enabled: true
Nonlinearity correction enabled: false
Boxcar width: 0
XAxis mode: Wavelengths
Number of Pixels in Spectrum: 2048
>>>>>Begin Spectral Data<<<<<
223.165	-14.38
223.4	-14.38
223.635	-14.38
223.869	-25.38
224.104	-20.38
224.338	-22.38
224.573	-16.38
224.808	-6.38
225.042	-8.38
225.277	-9.38
225.511	2.62
225.746	-3.38
225.98	-0.38
226.215	16.62
226.449	29.62
226.683	22.62
226.918	28.62
227.152	26.62
227.387	27.62
227.621	42.62
227.856	44.62
228.09	38.62
228.324	58.62
228.559	56.62
228.793	56.62
229.027	76.62
229.262	84.62
229.496	77.62
229.73	82.62
229.964	79.62
230.199	81.62
230.433	71.62
230.667	82.62
230.901	90.62
231.136	87.62
231.37	96.62
231.604	85.62
231.838	90.62
232.072	83.62
232.306	78.62
232.541	89.62
232.775	101.62
233.009	90.62
233.243	105.62
233.477	90.62
233.711	100.62
233.945	88.62
234.179	96.62
234.413	83.62
234.647	93.62
234.881	97.62
235.115	94.62
235.349	86.62
235.583	96.62
235.817	109.62
236.051	90.62
236.285	96.62
236.519	89.62
236.753	91.62
236.987	89.62
237.221	89.62
237.455	96.62
237.689	103.62
237.922	81.62
238.156	95.62
238.39	97.62
238.624	77.62
238.858	84.62
239.091	82.62
239.325	114.62
239.559	94.62
239.793	114.62
240.027	96.62
240.26	84.62
240.494	94.62
240.728	81.62
240.961	88.62
241.195	93.62
241.429	92.62
241.662	73.62
241.896	95.62
242.13	89.62
242.363	93.62
242.597	103.62
242.83	84.62
243.064	96.62
243.298	92.62
243.531	93.62
243.765	110.62
243.998	100.62
244.232	94.62
244.465	110.62
244.699	110.62
244.932	93.62
245.166	90.62
245.399	101.62
245.633	102.62
245.866	113.62
246.099	114.62
246.333	112.62
246.566	115.62
246.8	107.62
247.033	103.62
247.266	106.62
247.5	102.62
247.733	96.62
247.966	119.62
248.2	116.62
248.433	113.62
248.666	115.62
248.899	102.62
249.133	120.62
249.366	100.62
249.599	112.62
249.832	102.62
250.066	111.62
250.299	110.62
250.532	114.62
250.765	116.62
250.998	109.62
251.231	108.62
251.465	107.62
251.698	103.62
251.931	108.62
252.164	113.62
252.397	142.62
252.63	136.62
252.863	110.62
253.096	114.62
253.329	124.62
253.562	100.62
253.795	122.62
254.028	136.62
254.261	121.62
254.494	110.62
254.727	124.62
254.96	117.62
255.193	113.62
255.426	109.62
255.659	118.62
255.892	119.62
256.124	114.62
256.357	126.62
256.59	105.62
256.823	118.62
257.056	118.62
257.289	116.62
257.521	127.62
257.754	124.62
257.987	120.62
258.22	120.62
258.452	131.62
258.685	123.62
258.918	136.62
259.151	148.62
259.383	122.62
259.616	129.62
259.849	133.62
260.081	126.62
260.314	123.62
260.547	120.62
260.779	130.62
261.012	141.62
261.244	120.62
261.477	125.62
261.71	122.62
261.942	127.62
262.175	137.62
262.407	135.62
262.64	119.62
262.872	124.62
263.105	131.62
263.337	147.62
263.57	131.62
263.802	146.62
264.035	142.62
264.267	137.62
264.499	141.62
264.732	140.62
264.964	138.62
265.197	130.62
265.429	135.62
265.661	133.62
265.894	134.62
266.126	127.62
266.358	136.62
266.591	147.62
266.823	138.62
267.055	123.62
267.287	139.62
267.52	123.62
267.752	141.62
267.984	138.62
268.216	126.62
268.448	140.62
268.681	151.62
268.913	144.62
269.145	138.62
269.377	141.62
269.609	147.62
269.841	155.62
270.073	136.62
270.306	134.62
270.538	138.62
270.77	148.62
271.002	133.62
271.234	145.62
271.466	130.62
271.698	137.62
271.93	149.62
272.162	130.62
272.394	143.62
272.626	143.62
272.858	138.62
273.09	146.62
273.322	145.62
273.553	142.62
273.785	157.62
274.017	159.62
274.249	155.62
274.481	161.62
274.713	155.62
274.945	159.62
275.176	149.62
275.408	138.62
275.64	135.62
275.872	160.62
276.104	159.62
276.335	145.62
276.567	150.62
276.799	154.62
277.031	161.62
277.262	164.62
277.494	161.62
277.726	154.62
277.957	151.62
278.189	155.62
278.421	156.62
278.652	181.62
278.884	159.62
279.115	148.62
279.347	166.62
279.579	151.62
279.81	147.62
280.042	172.62
280.273	166.62
280.505	180.62
280.736	178.62
280.968	144.62
281.199	162.62
281.431	163.62
281.662	166.62
281.894	176.62
282.125	160.62
282.356	167.62
282.588	174.62
282.819	179.62
283.051	172.62
283.282	170.62
283.513	172.62
283.745	155.62
283.976	176.62
284.207	176.62
284.439	167.62
284.67	190.62
284.901	183.62
285.132	161.62
285.364	170.62
285.595	196.62
285.826	180.62
286.057	179.62
286.288	176.62
286.52	168.62
286.751	166.62
286.982	179.62
287.213	184.62
287.444	166.62
287.675	167.62
287.906	169.62
288.138	168.62
288.369	179.62
288.6	188.62
288.831	177.62
289.062	175.62
289.293	186.62
289.524	186.62
289.755	185.62
289.986	174.62
290.217	189.62
290.448	186.62
290.679	169.62
290.91	180.62
291.141	186.62
291.371	186.62
291.602	179.62
291.833	186.62
292.064	188.62
292.295	196.62
292.526	206.62
292.757	187.62
292.987	190.62
293.218	182.62
293.449	181.62
293.68	171.62
293.91	180.62
294.141	176.62
294.372	181.62
294.603	179.62
294.833	189.62
295.064	190.62
295.295	196.62
295.525	200.62
295.756	187.62
295.987	187.62
296.217	186.62
296.448	181.62
296.679	195.62
296.909	206.62
297.14	204.62
297.37	201.62
297.601	201.62
297.831	179.62
298.062	210.62
298.292	184.62
298.523	183.62
298.753	191.62
298.984	205.62
299.214	209.62
299.445	207.62
299.675	190.62
299.905	200.62
300.136	218.62
300.366	202.62
300.597	192.62
300.827	214.62
301.057	201.62
301.288	194.62
301.518	214.62
301.748	194.62
301.979	194.62
302.209	200.62
302.439	206.62
302.669	205.62
302.9	211.62
303.13	214.62
303.36	200.62
303.59	204.62
303.82	205.62
304.051	215.62
304.281	208.62
304.511	205.62
304.741	211.62
304.971	216.62
305.201	213.62
305.431	185.62
305.661	206.62
305.891	208.62
306.121	207.62
306.352	204.62
306.582	203.62
306.812	201.62
307.042	187.62
307.272	189.62
307.502	212.62
307.731	203.62
307.961	197.62
308.191	209.62
308.421	229.62
308.651	204.62
308.881	217.62
309.111	210.62
309.341	213.62
309.571	208.62
309.8	194.62
310.03	200.62
310.26	210.62
310.49	215.62
310.72	228.62
310.949	213.62
311.179	224.62
311.409	213.62
311.639	228.62
311.868	226.62
312.098	204.62
312.328	214.62
312.557	228.62
312.787	231.62
313.017	231.62
313.246	234.62
313.476	231.62
313.706	228.62
313.935	222.62
314.165	233.62
314.394	222.62
314.624	232.62
314.853	236.62
315.083	238.62
315.312	216.62
315.542	224.62
315.771	223.62
316.001	210.62
316.23	237.62
316.46	217.62
316.689	219.62
316.919	202.62
317.148	241.62
317.377	232.62
317.607	212.62
317.836	206.62
318.065	230.62
318.295	219.62
318.524	223.62
318.753	227.62
318.983	233.62
319.212	242.62
319.441	237.62
319.67	230.62
319.9	225.62
320.129	234.62
320.358	227.62
320.587	232.62
320.816	232.62
321.046	229.62
321.275	233.62
321.504	223.62
321.733	245.62
321.962	245.62
322.191	222.62
322.42	224.62
322.649	244.62
322.878	229.62
323.108	238.62
323.337	239.62
323.566	240.62
323.795	228.62
324.024	239.62
324.253	215.62
324.482	251.62
324.71	249.62
324.939	259.62
325.168	247.62
325.397	241.62
325.626	245.62
325.855	258.62
326.084	245.62
326.313	248.62
326.542	246.62
326.77	237.62
326.999	241.62
327.228	244.62
327.457	244.62
327.686	245.62
327.914	252.62
328.143	240.62
328.372	243.62
328.6	260.62
328.829	241.62
329.058	262.62
329.287	248.62
329.515	241.62
329.744	257.62
329.972	244.62
330.201	260.62
330.43	264.62
330.658	242.62
330.887	268.62
331.115	261.62
331.344	270.62
331.572	265.62
331.801	256.62
332.03	252.62
332.258	251.62
332.486	293.62
332.715	258.62
332.943	294.62
333.172	312.62
333.4	298.62
333.629	315.62
333.857	314.62
334.085	297.62
334.314	306.62
334.542	304.62
334.771	298.62
334.999	290.62
335.227	283.62
335.455	302.62
335.684	297.62
335.912	302.62
336.14	290.62
336.369	286.62
336.597	294.62
336.825	282.62
337.053	276.62
337.281	278.62
337.51	291.62
337.738	282.62
337.966	284.62
338.194	262.62
338.422	281.62
338.65	293.62
338.878	276.62
339.106	274.62
339.334	265.62
339.562	270.62
339.79	264.62
340.018	276.62
340.246	255.62
340.474	268.62
340.702	276.62
340.93	254.62
341.158	268.62
341.386	277.62
341.614	273.62
341.842	262.62
342.07	266.62
342.298	260.62
342.526	270.62
342.754	287.62
342.981	272.62
343.209	273.62
343.437	294.62
343.665	286.62
343.893	288.62
344.12	310.62
344.348	297.62
344.576	284.62
344.804	282.62
345.031	276.62
345.259	265.62
345.487	282.62
345.714	284.62
345.942	267.62
346.17	275.62
346.397	255.62
346.625	259.62
346.853	272.62
347.08	258.62
347.308	260.62
347.535	261.62
347.763	261.62
347.99	264.62
348.218	243.62
348.445	270.62
348.673	278.62
348.9	281.62
349.128	263.62
349.355	266.62
349.583	262.62
349.81	248.62
350.037	265.62
350.265	251.62
350.492	259.62
350.72	253.62
350.947	257.62
351.174	267.62
351.402	241.62
351.629	259.62
351.856	260.62
352.083	223.62
352.311	256.62
352.538	254.62
352.765	265.62
352.992	265.62
353.22	263.62
353.447	231.62
353.674	260.62
353.901	259.62
354.128	267.62
354.355	260.62
354.583	259.62
354.81	252.62
355.037	256.62
355.264	264.62
355.491	268.62
355.718	241.62
355.945	285.62
356.172	249.62
356.399	269.62
356.626	254.62
356.853	272.62
357.08	246.62
357.307	241.62
357.534	264.62
357.761	254.62
357.988	267.62
358.215	238.62
358.441	241.62
358.668	281.62
358.895	262.62
359.122	249.62
359.349	247.62
359.576	274.62
359.802	257.62
360.029	238.62
360.256	281.62
360.483	259.62
360.709	264.62
360.936	253.62
361.163	277.62
361.39	265.62
361.616	266.62
361.843	261.62
362.07	263.62
362.296	263.62
362.523	265.62
362.749	277.62
362.976	262.62
363.203	264.62
363.429	255.62
363.656	282.62
363.882	271.62
364.109	268.62
364.335	244.62
364.562	283.62
364.788	263.62
365.015	261.62
365.241	283.62
365.468	277.62
365.694	257.62
365.92	250.62
366.147	255.62
366.373	254.62
366.599	272.62
366.826	279.62
367.052	259.62
367.278	256.62
367.505	275.62
367.731	291.62
367.957	267.62
368.184	267.62
368.41	266.62
368.636	265.62
368.862	285.62
369.089	273.62
369.315	266.62
369.541	264.62
369.767	278.62
369.993	251.62
370.219	266.62
370.445	286.62
370.672	274.62
370.898	280.62
371.124	279.62
371.35	294.62
371.576	278.62
371.802	282.62
372.028	293.62
372.254	271.62
372.48	286.62
372.706	304.62
372.932	313.62
373.158	273.62
373.384	302.62
373.61	296.62
373.835	286.62
374.061	272.62
374.287	279.62
374.513	294.62
374.739	281.62
374.965	304.62
375.191	313.62
375.416	285.62
375.642	288.62
375.868	294.62
376.094	293.62
376.319	277.62
376.545	281.62
376.771	283.62
376.997	284.62
377.222	279.62
377.448	315.62
377.674	268.62
377.899	290.62
378.125	268.62
378.35	296.62
378.576	284.62
378.802	280.62
379.027	282.62
379.253	294.62
379.478	284.62
379.704	282.62
379.929	303.62
380.155	272.62
380.38	292.62
380.606	255.62
380.831	283.62
381.057	287.62
381.282	278.62
381.507	286.62
381.733	292.62
381.958	295.62
382.184	283.62
382.409	288.62
382.634	306.62
382.86	298.62
383.085	297.62
383.31	305.62
383.535	311.62
383.761	298.62
383.986	298.62
384.211	306.62
384.436	313.62
384.662	316.62
384.887	313.62
385.112	337.62
385.337	348.62
385.562	334.62
385.787	328.62
386.013	342.62
386.238	312.62
386.463	325.62
386.688	353.62
386.913	315.62
387.138	339.62
387.363	332.62
387.588	318.62
387.813	327.62
388.038	321.62
388.263	324.62
388.488	326.62
388.713	345.62
388.938	340.62
389.163	336.62
389.387	332.62
389.612	323.62
389.837	310.62
390.062	328.62
390.287	322.62
390.512	331.62
390.736	337.62
390.961	346.62
391.186	336.62
391.411	346.62
391.636	342.62
391.86	338.62
392.085	351.62
392.31	352.62
392.534	331.62
392.759	363.62
392.984	339.62
393.208	346.62
393.433	341.62
393.658	350.62
393.882	360.62
394.107	341.62
394.331	341.62
394.556	354.62
394.78	369.62
395.005	369.62
395.229	354.62
395.454	342.62
395.678	357.62
395.903	357.62
396.127	353.62
396.352	331.62
396.576	349.62
396.801	374.62
397.025	368.62
397.249	367.62
397.474	368.62
397.698	351.62
397.922	408.62
398.147	387.62
398.371	370.62
398.595	399.62
398.82	408.62
399.044	411.62
399.268	451.62
399.492	481.62
399.717	487.62
399.941	512.62
400.165	454.62
400.389	462.62
400.613	423.62
400.837	405.62
401.062	417.62
401.286	412.62
401.51	415.62
401.734	381.62
401.958	399.62
402.182	399.62
402.406	404.62
402.63	408.62
402.854	407.62
403.078	402.62
403.302	426.62
403.526	410.62
403.75	402.62
403.974	434.62
404.198	412.62
404.422	431.62
404.645	414.62
404.869	406.62
405.093	426.62
405.317	418.62
405.541	412.62
405.765	439.62
405.988	409.62
406.212	420.62
406.436	414.62
406.66	423.62
406.883	435.62
407.107	445.62
407.331	449.62
407.555	454.62
407.778	453.62
408.002	449.62
408.226	458.62
408.449	441.62
408.673	421.62
408.896	458.62
409.12	422.62
409.344	431.62
409.567	410.62
409.791	416.62
410.014	425.62
410.238	411.62
410.461	435.62
410.685	414.62
410.908	412.62
411.132	411.62
411.355	385.62
411.578	394.62
411.802	395.62
412.025	401.62
412.249	423.62
412.472	423.62
412.695	379.62
412.919	391.62
413.142	387.62
413.365	404.62
413.589	383.62
413.812	408.62
414.035	402.62
414.258	413.62
414.482	392.62
414.705	400.62
414.928	395.62
415.151	400.62
415.374	398.62
415.597	405.62
415.821	396.62
416.044	377.62
416.267	378.62
416.49	392.62
416.713	390.62
416.936	373.62
417.159	386.62
417.382	370.62
417.605	372.62
417.828	402.62
418.051	374.62
418.274	374.62
418.497	389.62
418.72	386.62
418.943	371.62
419.166	388.62
419.389	426.62
419.611	413.62
419.834	377.62
420.057	388.62
420.28	379.62
420.503	394.62
420.726	390.62
420.948	384.62
421.171	383.62
421.394	388.62
421.617	374.62
421.839	376.62
422.062	382.62
422.285	389.62
422.507	371.62
422.73	372.62
422.953	380.62
423.175	391.62
423.398	390.62
423.621	379.62
423.843	387.62
424.066	376.62
424.288	381.62
424.511	407.62
424.733	389.62
424.956	384.62
425.178	385.62
425.401	372.62
425.623	367.62
425.846	375.62
426.068	382.62
426.291	371.62
426.513	371.62
426.735	377.62
426.958	355.62
427.18	342.62
427.402	360.62
427.625	372.62
427.847	362.62
428.069	350.62
428.292	356.62
428.514	367.62
428.736	356.62
428.958	351.62
429.181	352.62
429.403	353.62
429.625	350.62
429.847	360.62
430.069	359.62
430.292	370.62
430.514	346.62
430.736	337.62
430.958	358.62
431.18	346.62
431.402	361.62
431.624	363.62
431.846	350.62
432.068	354.62
432.29	359.62
432.512	346.62
432.734	367.62
432.956	354.62
433.178	362.62
433.4	342.62
433.622	359.62
433.844	356.62
434.066	363.62
434.287	366.62
434.509	376.62
434.731	366.62
434.953	378.62
435.175	378.62
435.397	370.62
435.618	366.62
435.84	361.62
436.062	371.62
436.284	358.62
436.505	352.62
436.727	368.62
436.949	350.62
437.17	362.62
437.392	370.62
437.614	346.62
437.835	358.62
438.057	351.62
438.278	330.62
438.5	339.62
438.721	351.62
438.943	329.62
439.165	335.62
439.386	331.62
439.608	339.62
439.829	339.62
440.05	358.62
440.272	363.62
440.493	359.62
440.715	362.62
440.936	368.62
441.158	354.62
441.379	372.62
441.6	363.62
441.822	361.62
442.043	376.62
442.264	386.62
442.486	374.62
442.707	355.62
442.928	370.62
443.149	372.62
443.371	385.62
443.592	376.62
443.813	380.62
444.034	376.62
444.255	388.62
444.476	365.62
444.698	401.62
444.919	408.62
445.14	483.62
445.361	426.62
445.582	417.62
445.803	360.62
446.024	356.62
446.245	353.62
446.466	352.62
446.687	341.62
446.908	361.62
447.129	343.62
447.35	342.62
447.571	353.62
447.792	332.62
448.013	343.62
448.234	338.62
448.455	319.62
448.675	323.62
448.896	340.62
449.117	327.62
449.338	326.62
449.559	344.62
449.779	317.62
450	336.62
450.221	318.62
450.442	311.62
450.662	342.62
450.883	344.62
451.104	343.62
451.324	322.62
451.545	330.62
451.766	327.62
451.986	324.62
452.207	314.62
452.428	319.62
452.648	303.62
452.869	326.62
453.089	292.62
453.31	318.62
453.53	311.62
453.751	315.62
453.971	308.62
454.192	313.62
454.412	325.62
454.633	309.62
454.853	323.62
455.073	322.62
455.294	316.62
455.514	305.62
455.734	326.62
455.955	311.62
456.175	311.62
456.395	302.62
456.616	304.62
456.836	316.62
457.056	303.62
457.276	318.62
457.497	331.62
457.717	321.62
457.937	330.62
458.157	310.62
458.377	324.62
458.598	321.62
458.818	332.62
459.038	334.62
459.258	355.62
459.478	367.62
459.698	386.62
459.918	353.62
460.138	387.62
460.358	396.62
460.578	399.62
460.798	384.62
461.018	379.62
461.238	372.62
461.458	370.62
461.678	375.62
461.898	389.62
462.118	403.62
462.338	434.62
462.558	434.62
462.777	449.62
462.997	465.62
463.217	483.62
463.437	474.62
463.657	452.62
463.876	445.62
464.096	443.62
464.316	427.62
464.536	438.62
464.755	424.62
464.975	415.62
465.195	394.62
465.414	386.62
465.634	369.62
465.854	358.62
466.073	352.62
466.293	374.62
466.512	334.62
466.732	340.62
466.951	342.62
467.171	343.62
467.391	333.62
467.61	340.62
467.829	341.62
468.049	338.62
468.268	319.62
468.488	359.62
468.707	332.62
468.927	337.62
469.146	347.62
469.365	349.62
469.585	351.62
469.804	354.62
470.023	318.62
470.243	329.62
470.462	331.62
470.681	343.62
470.901	343.62
471.12	363.62
471.339	342.62
471.558	335.62
471.777	329.62
471.997	331.62
472.216	336.62
472.435	362.62
472.654	336.62
472.873	341.62
473.092	342.62
473.311	341.62
473.53	342.62
473.749	343.62
473.968	351.62
474.187	343.62
474.406	333.62
474.625	319.62
474.844	335.62
475.063	332.62
475.282	325.62
475.501	313.62
475.72	344.62
475.939	332.62
476.158	347.62
476.377	370.62
476.596	356.62
476.814	336.62
477.033	331.62
477.252	335.62
477.471	355.62
477.69	380.62
477.908	386.62
478.127	390.62
478.346	390.62
478.564	390.62
478.783	393.62
479.002	389.62
479.22	412.62
479.439	408.62
479.658	397.62
479.876	389.62
480.095	400.62
480.313	406.62
480.532	436.62
480.751	409.62
480.969	400.62
481.188	411.62
481.406	402.62
481.624	394.62
481.843	400.62
482.061	372.62
482.28	392.62
482.498	377.62
482.717	385.62
482.935	395.62
483.153	355.62
483.372	376.62
483.59	380.62
483.808	381.62
484.027	374.62
484.245	387.62
484.463	384.62
484.681	406.62
484.9	392.62
485.118	399.62
485.336	397.62
485.554	396.62
485.772	388.62
485.99	402.62
486.209	380.62
486.427	392.62
486.645	397.62
486.863	402.62
487.081	392.62
487.299	384.62
487.517	379.62
487.735	420.62
487.953	390.62
488.171	386.62
488.389	420.62
488.607	386.62
488.825	399.62
489.043	391.62
489.261	383.62
489.479	384.62
489.696	401.62
489.914	393.62
490.132	386.62
490.35	407.62
490.568	402.62
490.786	406.62
491.003	395.62
491.221	400.62
491.439	396.62
491.657	396.62
491.874	401.62
492.092	393.62
492.31	405.62
492.527	398.62
492.745	420.62
492.963	394.62
493.18	385.62
493.398	414.62
493.615	407.62
493.833	409.62
494.05	414.62
494.268	444.62
494.485	433.62
494.703	406.62
494.92	443.62
495.138	430.62
495.355	411.62
495.573	420.62
495.79	417.62
496.008	425.62
496.225	421.62
496.442	437.62
496.66	451.62
496.877	438.62
497.094	442.62
497.312	460.62
497.529	463.62
497.746	475.62
497.963	507.62
498.181	495.62
498.398	514.62
498.615	571.62
498.832	582.62
499.049	594.62
499.267	620.62
499.484	664.62
499.701	712.62
499.918	746.62
500.135	764.62
500.352	853.62
500.569	884.62
500.786	865.62
501.003	811.62
501.22	786.62
501.437	719.62
501.654	674.62
501.871	640.62
502.088	613.62
502.305	587.62
